Data from hue_260_FLMS001491_00040.txt Node
Date: Tue Feb 07 15:58:56 GMT 2017
User: dcchb
Spectrometer: FLMS00149
Trigger mode: 0
Integration Time (sec): 2.000000E-2
Scans to average: 10
Electric dark correction enabled: true
Nonlinearity correction enabled: false
Boxcar width: 0
XAxis mode: Wavelengths
Number of Pixels in Spectrum: 2048
>>>>>Begin Spectral Data<<<<<
341.393	9.91
341.776	9.91
342.16	9.91
342.543	-66.47
342.927	-58.33
343.31	-60.82
343.693	-51.1
344.077	-72.34
344.46	-69.18
344.843	-45
345.226	-60.14
345.61	-29.63
345.993	-30.08
346.376	16.02
346.759	-5
347.142	29.12
347.525	27.09
347.908	66.41
348.291	78.39
348.674	114.09
349.057	92.17
349.44	160.65
349.823	128.33
350.206	166.75
350.588	162.91
350.971	195.45
351.354	215.33
351.737	245.16
352.119	247.87
352.502	242
352.884	273.41
353.267	266.63
353.65	278.61
354.032	289.23
354.414	297.59
354.797	309.12
355.179	309.57
355.562	313.41
355.944	305.5
356.326	326.06
356.709	346.86
357.091	320.42
357.473	338.27
357.855	335.1
358.238	337.59
358.62	336.01
359.002	334.65
359.384	314.09
359.766	333.52
360.148	309.79
360.53	326.97
360.912	337.36
361.294	338.95
361.676	324.48
362.057	343.69
362.439	322.9
362.821	314.54
363.203	319.96
363.584	324.71
363.966	307.08
364.348	315.22
364.729	306.86
365.111	305.27
365.493	313.86
365.874	281.32
366.256	308.89
366.637	295.33
367.019	300.75
367.4	323.81
367.781	316.12
368.163	311.83
368.544	291.72
368.925	315.44
369.306	282.45
369.688	301.43
370.069	314.54
370.45	311.15
370.831	312.73
371.212	298.95
371.593	296.91
371.974	298.49
372.355	303.69
372.736	321.77
373.117	314.99
373.498	288.55
373.879	311.15
374.26	325.84
374.641	331.04
375.021	284.48
375.402	323.35
375.783	320.19
376.163	318.38
376.544	312.28
376.925	320.19
377.305	325.39
377.686	303.92
378.066	338.49
378.447	331.94
378.827	315.44
379.208	311.15
379.588	333.52
379.968	334.88
380.349	335.78
380.729	321.77
381.109	330.58
381.489	334.88
381.87	335.33
382.25	333.07
382.63	325.16
383.01	317.48
383.39	355.44
383.77	341.21
384.15	336.46
384.53	336.91
384.91	352.05
385.29	336.46
385.67	328.1
386.049	329.45
386.429	323.13
386.809	324.93
387.189	342.56
387.568	353.86
387.948	352.96
388.328	354.54
388.707	372.39
389.087	361.77
389.466	346.18
389.846	347.31
390.225	349.57
390.605	352.5
390.984	362
391.363	359.28
391.743	355.22
392.122	368.78
392.501	361.32
392.881	360.87
393.26	378.49
393.639	383.92
394.018	387.76
394.397	387.08
394.776	386.4
395.155	380.3
395.534	393.86
395.913	396.57
396.292	380.3
396.671	369.23
397.05	359.96
397.429	398.15
397.808	371.94
398.186	385.05
398.565	383.01
398.944	410.13
399.323	399.96
399.701	391.37
400.08	422.79
400.458	415.1
400.837	409
401.215	414.42
401.594	409.9
401.972	416.01
402.351	426.63
402.729	429.11
403.107	437.02
403.486	425.72
403.864	420.98
404.242	446.51
404.62	418.72
404.999	414.42
405.377	445.38
405.755	462.78
406.133	432.73
406.511	453.75
406.889	448.32
407.267	463.24
407.645	480.64
408.023	462.78
408.401	478.83
408.779	471.82
409.156	475.67
409.534	492.16
409.912	479.51
410.29	491.26
410.667	479.73
411.045	500.75
411.422	507.08
411.8	526.29
412.178	525.38
412.555	534.42
412.933	551.37
413.31	554.08
413.687	575.32
414.065	541.88
414.442	564.48
414.819	574.42
415.197	572.39
415.574	584.82
415.951	584.36
416.328	602.22
416.705	592.05
417.082	635.44
417.46	632.72
417.837	626.4
418.214	627.07
418.591	658.49
418.967	645.83
419.344	651.93
419.721	661.42
420.098	678.15
420.475	676.56
420.852	677.92
421.228	702.33
421.605	711.37
421.982	694.19
422.358	705.26
422.735	723.34
423.111	768.99
423.488	762.44
423.864	740.07
424.241	772.61
424.617	783
424.994	771.25
425.37	799.72
425.746	789.1
426.123	823.68
426.499	843.34
426.875	813.28
427.251	840.4
427.627	872.49
428.003	854.19
428.379	885.37
428.756	887.18
429.132	886.28
429.507	892.6
429.883	908.65
430.259	937.57
430.635	918.37
431.011	926.5
431.387	970.79
431.763	978.48
432.138	1008.98
432.514	1011.7
432.89	1014.18
433.265	1028.87
433.641	1071.36
434.016	1043.56
434.392	1080.4
434.767	1105.48
435.143	1109.1
435.518	1123.78
435.894	1142.54
436.269	1157
436.644	1169.21
437.02	1198.58
437.395	1224.57
437.77	1224.12
438.145	1251.92
438.52	1239.26
438.895	1239.04
439.271	1283.1
439.646	1277.23
440.021	1328.52
440.395	1329.65
440.77	1326.94
441.145	1332.14
441.52	1382.31
441.895	1368.3
442.27	1389.99
442.645	1387.28
443.019	1406.49
443.394	1418.47
443.769	1444.23
444.143	1443.32
444.518	1453.72
444.892	1479.71
445.267	1497.56
445.641	1494.17
446.016	1512.7
446.39	1518.8
446.764	1554.28
447.139	1515.19
447.513	1563.55
447.887	1561.29
448.262	1546.82
448.636	1596.09
449.01	1596.09
449.384	1618.69
449.758	1620.27
450.132	1602.19
450.506	1616.88
450.88	1639.93
451.254	1651.45
451.628	1642.64
452.002	1709.08
452.376	1693.94
452.75	1668.85
453.123	1730.55
453.497	1760.15
453.871	1742.75
454.244	1768.29
454.618	1785.91
454.992	1808.51
455.365	1825.46
455.739	1854.61
456.112	1883.76
456.486	1867.27
456.859	1912.92
457.232	1903.42
457.606	1921.05
457.979	1955.63
458.352	2000.82
458.725	2004.66
459.099	1988.62
459.472	2041.27
459.845	2064.78
460.218	2067.49
460.591	2113.14
460.964	2130.76
461.337	2155.85
461.71	2201.5
462.083	2171.67
462.456	2197.43
462.829	2210.76
463.201	2230.87
463.574	2249.4
463.947	2268.61
464.32	2320.81
464.692	2364.2
465.065	2377.54
465.438	2405.33
465.81	2384.32
466.183	2466.35
466.555	2480.36
466.928	2495.95
467.3	2514.48
467.672	2548.15
468.045	2579.56
468.417	2582.95
468.789	2591.32
469.161	2669.51
469.534	2687.36
469.906	2755.15
470.278	2743.85
470.65	2765.77
471.022	2772.33
471.394	2825.43
471.766	2865.21
472.138	2885.55
472.51	2994.47
472.882	2964.64
473.253	2993.11
473.625	3061.36
473.997	3109.04
474.369	3147.91
474.74	3166.22
475.112	3209.6
475.484	3212.99
475.855	3340.22
476.227	3285.54
476.598	3385.19
476.97	3417.73
477.341	3484.85
477.713	3573.89
478.084	3552.87
478.455	3631.51
478.827	3679.42
479.198	3765.52
479.569	3690.72
479.94	3784.51
480.311	3870.6
480.682	3929.13
481.053	4002.8
481.424	4028.11
481.795	4060.2
482.166	4089.81
482.537	4180.65
482.908	4242.35
483.279	4245.74
483.65	4335.9
484.021	4406.86
484.391	4398.73
484.762	4444.83
485.133	4523.69
485.503	4563.24
485.874	4651.6
486.244	4686.18
486.615	4753.75
486.985	4758.26
487.356	4884.82
487.726	4912.61
488.097	5005.04
488.467	4972.5
488.837	5051.59
489.207	5125.03
489.578	5161.42
489.948	5180.63
490.318	5294.3
490.688	5291.13
491.058	5384.91
491.428	5359.15
491.798	5469.21
492.168	5549.43
492.538	5549.2
492.908	5638.02
493.278	5649.99
493.648	5661.97
494.017	5739.03
494.387	5784.68
494.757	5782.42
495.126	5879.82
495.496	5819.48
495.866	5898.12
496.235	5949.42
496.605	5978.35
496.974	6026.93
497.344	6033.71
497.713	6080.04
498.082	6092.92
498.452	6119.13
498.821	6126.59
499.19	6175.85
499.559	6242.97
499.928	6269.86
500.298	6288.85
500.667	6308.96
501.036	6264.21
501.405	6397.54
501.774	6349.64
502.143	6338.79
502.512	6411.33
502.88	6407.49
503.249	6453.59
503.618	6493.13
503.987	6478.22
504.356	6536.98
504.724	6548.95
505.093	6571.78
505.462	6600.02
505.83	6627.37
506.199	6645.9
506.567	6684.77
506.936	6646.35
507.304	6722.05
507.672	6775.61
508.041	6759.34
508.409	6780.58
508.777	6848.38
509.145	6900.58
509.514	6877.98
509.882	6876.85
510.25	6855.61
510.618	6929.06
510.986	6901.26
511.354	6938.32
511.722	6961.82
512.09	7051.99
512.458	6971.54
512.826	7051.99
513.193	7029.62
513.561	7045.21
513.929	7044.31
514.297	7147.58
514.664	7165.89
515.032	7080.69
515.4	7183.51
515.767	7165.21
516.135	7119.11
516.502	7164.98
516.869	7250.18
517.237	7267.58
517.604	7195.71
517.972	7255.6
518.339	7236.39
518.706	7262.38
519.073	7254.24
519.44	7240.69
519.808	7415.37
520.175	7341.25
520.542	7405.43
520.909	7385.99
521.276	7395.48
521.643	7467.12
522.009	7426.44
522.376	7488.36
522.743	7461.24
523.11	7563.16
523.477	7586.66
523.843	7555.93
524.21	7600.45
524.577	7575.59
524.943	7631.64
525.31	7624.18
525.676	7684.97
526.043	7722.48
526.409	7722.48
526.776	7734.91
527.142	7669.6
527.508	7703.27
527.874	7801.8
528.241	7771.07
528.607	7733.55
528.973	7808.81
529.339	7827.79
529.705	7848.8
530.071	7867.34
530.437	7868.69
530.803	7851.29
531.169	7883.61
531.535	7776.94
531.901	7833.89
532.267	7842.48
532.632	7936.94
532.998	7908.01
533.364	7930.16
533.73	7888.8
534.095	7940.33
534.461	7969.48
534.826	7936.03
535.192	7948.46
535.557	7909.37
535.923	7890.16
536.288	7936.94
536.653	7914.11
537.019	7881.8
537.384	7897.17
537.749	7859.43
538.114	7928.8
538.479	7941.01
538.845	7846.09
539.21	7864.4
539.575	7895.13
539.94	7953.21
540.305	7898.3
540.67	7862.14
541.034	7918.18
541.399	7893.78
541.764	7902.14
542.129	7847.9
542.494	7883.83
542.858	7869.6
543.223	7868.92
543.587	7885.64
543.952	7856.49
544.316	7882.7
544.681	7843.83
545.045	7881.8
545.41	7810.16
545.774	7850.84
546.138	7823.72
546.503	7826.43
546.867	7785.98
547.231	7824.4
547.595	7806.32
547.959	7863.04
548.324	7830.05
548.688	7837.28
549.052	7837.51
549.416	7828.24
549.779	7802.25
550.143	7805.42
550.507	7798.86
550.871	7819.65
551.235	7745.76
551.599	7823.72
551.962	7774.91
552.326	7728.13
552.689	7764.74
553.053	7786.66
553.417	7794.57
553.78	7833.44
554.143	7738.53
554.507	7759.99
554.87	7737.62
555.234	7842.03
555.597	7776.04
555.96	7813.1
556.323	7769.71
556.686	7805.42
557.05	7869.14
557.413	7830.5
557.776	7818.98
558.139	7882.02
558.502	7910.5
558.865	7821.24
559.228	7860.33
559.59	7850.39
559.953	7868.92
560.316	7904.17
560.679	7944.62
561.041	7946.2
561.404	7947.56
561.767	7999.99
562.129	7963.6
562.492	7983.49
562.854	8002.7
563.217	7972.42
563.579	7966.32
563.941	8014.9
564.304	8018.52
564.666	8126.09
565.028	8114.79
565.39	8142.13
565.753	8078.18
566.115	8152.98
566.477	8169.47
566.839	8214.67
567.201	8248.12
567.563	8188.46
567.925	8280.88
568.287	8214.67
568.648	8225.29
569.01	8277.95
569.372	8334.89
569.734	8272.75
570.095	8378.06
570.457	8406.08
570.819	8394.1
571.18	8406.98
571.542	8469.58
571.903	8506.64
572.265	8546.41
572.626	8442.69
572.987	8458.28
573.349	8553.42
573.71	8530.14
574.071	8547.54
574.432	8600.88
574.794	8655.34
575.155	8643.81
575.516	8585.28
575.877	8661.44
576.238	8674.32
576.599	8733.3
576.96	8693.08
577.32	8708.67
577.681	8793.64
578.042	8797.93
578.403	8788.44
578.763	8773.07
579.124	8788.22
579.485	8849
579.845	8878.16
580.206	8865.28
580.566	8874.77
580.927	8936.46
581.287	8966.52
581.648	8941.21
582.008	8970.13
582.368	8973.97
582.728	9027.31
583.089	9009.23
583.449	9045.61
583.809	9051.03
584.169	9026.18
584.529	9038.83
584.889	9160.63
585.249	9063.01
585.609	9083.57
585.969	9084.7
586.329	9159.5
586.688	9112.5
587.048	9117.02
587.408	9149.34
587.768	9119.28
588.127	9123.8
588.487	9163.8
588.846	9178.71
589.206	9142.1
589.565	9156.12
589.925	9262.55
590.284	9187.53
590.643	9259.39
591.003	9326.28
591.362	9333.06
591.721	9322.66
592.08	9321.76
592.44	9339.61
592.799	9286.51
593.158	9321.76
593.517	9270.46
593.876	9323.79
594.235	9364.25
594.593	9326.51
594.952	9344.81
595.311	9337.58
595.67	9393.4
596.029	9459.84
596.387	9389.33
596.746	9401.76
597.104	9395.43
597.463	9368.99
597.822	9516.56
598.18	9416.22
598.538	9451.93
598.897	9437.24
599.255	9385.71
599.613	9532.6
599.972	9430.91
600.33	9479.04
600.688	9468.42
601.046	9465.71
601.404	9483.79
601.762	9467.75
602.12	9517.24
602.478	9588.65
602.836	9558.14
603.194	9538.03
603.552	9543.9
603.91	9497.12
604.268	9531.47
604.625	9505.26
604.983	9579.83
605.341	9505.48
605.698	9535.31
606.056	9546.61
606.413	9532.38
606.771	9593.84
607.128	9561.3
607.485	9594.3
607.843	9591.81
608.2	9584.35
608.557	9590
608.914	9648.76
609.272	9628.19
609.629	9711.81
609.986	9684.91
610.343	9668.19
610.7	9706.16
611.057	9699.83
611.414	9708.87
611.771	9686.72
612.127	9793.61
612.484	9777.34
612.841	9823.67
613.198	9752.48
613.554	9788.64
613.911	9757.91
614.267	9727.17
614.624	9781.86
614.98	9746.61
615.337	9844.01
615.693	9801.3
616.05	9799.71
616.406	9836.1
616.762	9779.38
617.118	9730.56
617.475	9807.62
617.831	9813.27
618.187	9849.66
618.543	9913.84
618.899	9903.67
619.255	9919.48
619.611	9915.42
619.967	9899.37
620.323	9935.53
620.678	9870.22
621.034	9877
621.39	9853.5
621.746	9940.95
622.101	9944.8
622.457	9891.92
622.812	9940.73
623.168	9990.22
623.523	9979.6
623.879	9966.72
624.234	9892.59
624.589	9860.96
624.945	9924.91
625.3	9915.87
625.655	9957.9
626.01	9941.86
626.365	9930.33
626.72	9898.69
627.075	9868.19
627.43	9923.33
627.785	9862.31
628.14	9884.91
628.495	9860.73
628.85	9897.56
629.205	9861.41
629.559	9818.47
629.914	9844.91
630.269	9869.77
630.623	9807.17
630.978	9796.32
631.332	9781.18
631.687	9858.7
632.041	9847.62
632.396	9766.04
632.75	9757.46
633.104	9785.03
633.459	9710.9
633.813	9699.6
634.167	9711.58
634.521	9699.38
634.875	9778.92
635.229	9724.91
635.583	9656.22
635.937	9665.03
636.291	9678.81
636.645	9701.64
636.999	9585.03
637.352	9642.66
637.706	9628.19
638.06	9583.45
638.413	9623.45
638.767	9633.16
639.121	9548.87
639.474	9505.94
639.828	9490.8
640.181	9587.97
640.534	9565.6
640.888	9518.82
641.241	9430.01
641.594	9442.21
641.947	9499.83
642.301	9506.16
642.654	9486.73
643.007	9502.09
643.36	9405.37
643.713	9469.78
644.066	9439.05
644.419	9456.9
644.771	9382.55
645.124	9292.16
645.477	9239.5
645.83	9202.44
646.182	9225.49
646.535	9147.08
646.888	9109.79
647.24	9125.38
647.593	9158.83
647.945	9120.64
648.298	9134.87
648.65	9129.9
649.002	9081.31
649.355	9124.93
649.707	9055.33
650.059	9127.87
650.411	9203.8
650.763	9244.7
651.115	9325.15
651.467	9230.92
651.819	9302.33
652.171	9297.58
652.523	9285.38
652.875	9284.47
653.227	9227.07
653.578	9319.95
653.93	9292.38
654.282	9238.15
654.633	9213.97
654.985	9278.37
655.337	9260.52
655.688	9253.29
656.039	9285.38
656.391	9217.58
656.742	9235.66
657.094	9222.55
657.445	9306.62
657.796	9256.45
658.147	9266.62
658.498	9282.21
658.849	9281.99
659.2	9253.29
659.551	9281.08
659.902	9285.83
660.253	9244.02
660.604	9315.43
660.955	9262.78
661.306	9277.02
661.656	9199.73
662.007	9345.26
662.358	9252.16
662.708	9260.52
663.059	9255.77
663.409	9213.97
663.76	9262.55
664.11	9240.63
664.461	9291.25
664.811	9237.47
665.161	9238.82
665.511	9264.13
665.862	9261.65
666.212	9298.03
666.562	9230.46
666.912	9299.61
667.262	9280.63
667.612	9260.29
667.962	9283.34
668.312	9199.96
668.662	9274.08
669.011	9292.61
669.361	9259.62
669.711	9256.68
670.06	9254.64
670.41	9187.53
670.76	9224.81
671.109	9249.45
671.459	9261.65
671.808	9216.45
672.157	9197.24
672.507	9120.18
672.856	9227.53
673.205	9136.23
673.554	9234.08
673.904	9131.26
674.253	9135.1
674.602	9180.97
674.951	9067.3
675.3	8987.08
675.649	9140.3
675.998	9092.16
676.346	9168.09
676.695	9176.68
677.044	9115.44
677.393	9114.31
677.741	9161.99
678.09	9033.86
678.438	9072.28
678.787	9054.65
679.135	9058.49
679.484	9077.25
679.832	9003.12
680.181	8965.84
680.529	9033.86
680.877	8907.53
681.225	8946.4
681.573	9011.49
681.922	8939.85
682.27	8852.17
682.618	8844.48
682.966	8828.67
683.314	8842
683.661	8805.39
684.009	8796.58
684.357	8822.34
684.705	8854.88
685.053	8754.32
685.4	8759.97
685.748	8733.75
686.095	8682.91
686.443	8691.27
686.79	8638.84
687.138	8673.42
687.485	8648.56
687.832	8617.37
688.18	8602.01
688.527	8531.72
688.874	8603.36
689.221	8513.19
689.568	8491.05
689.915	8497.38
690.262	8489.69
690.609	8444.27
690.956	8457.6
691.303	8405.17
691.65	8319.08
691.997	8296.7
692.344	8287.66
692.69	8329.7
693.037	8252.64
693.383	8225.97
693.73	8257.16
694.077	8180.77
694.423	8209.7
694.769	8132.41
695.116	8153.43
695.462	8113.66
695.808	8050.16
696.155	8091.51
696.501	8043.83
696.847	8000.67
697.193	7923.15
697.539	7939.2
697.885	7861.69
698.231	7870.05
698.577	7843.16
698.923	7824.62
699.269	7828.24
699.614	7711.18
699.96	7748.69
700.306	7710.96
700.651	7676.15
700.997	7651.75
701.342	7682.03
701.688	7612.65
702.033	7650.62
702.379	7624.86
702.724	7541.02
703.069	7534.24
703.415	7466.22
703.76	7423.73
704.105	7493.11
704.45	7498.53
704.795	7443.39
705.14	7385.54
705.485	7353.9
705.83	7440.23
706.175	7328.14
706.52	7314.81
706.865	7273.9
707.209	7303.51
707.554	7273.23
707.899	7202.04
708.243	7166.79
708.588	7244.98
708.932	7157.52
709.277	7172.21
709.621	7163.17
709.966	7039.79
710.31	7099.9
710.654	7089.5
710.998	6993.01
711.342	6998.66
711.687	7020.13
712.031	6964.76
712.375	6935.38
712.719	6973.57
713.063	6922.05
713.407	6933.8
713.75	6938.77
714.094	6884.76
714.438	6915.72
714.782	6836.4
715.125	6817.65
715.469	6816.74
715.812	6844.99
716.156	6828.72
716.499	6764.99
716.843	6758.44
717.186	6754.82
717.53	6750.53
717.873	6767.48
718.216	6757.99
718.559	6755.05
718.902	6686.12
719.246	6698.1
719.589	6698.55
719.932	6628.27
720.275	6672.56
720.617	6673.24
720.96	6685.9
721.303	6696.97
721.646	6719.34
721.989	6666.24
722.331	6657.88
722.674	6615.39
723.016	6661.72
723.359	6673.92
723.701	6649.29
724.044	6591.44
724.386	6594.15
724.729	6602.74
725.071	6585.79
725.413	6546.92
725.755	6527.03
726.097	6532.46
726.439	6499.01
726.782	6521.38
727.124	6536.98
727.465	6562.74
727.807	6540.36
728.149	6519.35
728.491	6489.74
728.833	6507.15
729.175	6496.3
729.516	6524.55
729.858	6567.48
730.199	6499.01
730.541	6475.06
730.882	6486.13
731.224	6504.43
731.565	6445.45
731.906	6467.15
732.248	6522.51
732.589	6456.75
732.93	6428.28
733.271	6412.91
733.612	6490.42
733.953	6537.88
734.294	6430.54
734.635	6497.2
734.976	6414.94
735.317	6417.66
735.658	6459.69
735.999	6455.85
736.339	6498.33
736.68	6494.94
737.021	6431.22
737.361	6393.93
737.702	6425.79
738.042	6460.37
738.383	6507.6
738.723	6406.81
739.063	6432.8
739.404	6458.78
739.744	6523.87
740.084	6475.96
740.424	6475.51
740.764	6503.76
741.104	6532.68
741.444	6468.95
741.784	6499.01
742.124	6582.62
742.464	6571.78
742.804	6539.91
743.143	6533.36
743.483	6474.38
743.823	6529.52
744.162	6569.52
744.502	6580.59
744.841	6625.56
745.181	6665.79
745.52	6650.64
745.86	6706.69
746.199	6646.35
746.538	6715.95
746.877	6758.44
747.216	6828.94
747.556	6794.37
747.895	6847.02
748.234	6898.32
748.573	6898.32
748.911	6949.39
749.25	7003.63
749.589	7014.02
749.928	7076.4
750.267	7168.6
750.605	7201.82
750.944	7238.2
751.283	7255.6
751.621	7317.52
751.96	7396.16
752.298	7478.65
752.636	7503.73
752.975	7502.37
753.313	7611.52
753.651	7718.86
753.989	7785.08
754.327	7842.03
754.666	7872.53
755.004	8050.83
755.342	8132.87
755.679	8174.67
756.017	8233.65
756.355	8351.84
756.693	8430.71
757.031	8535.11
757.368	8616.47
757.706	8756.13
758.044	8830.47
758.381	8987.08
758.719	9112.95
759.056	9118.15
759.394	9358.37
759.731	9391.82
760.068	9527.18
760.405	9608.98
760.743	9702.54
761.08	9870.22
761.417	9889.43
761.754	10021.63
762.091	10190.21
762.428	10266.14
762.765	10383.88
763.102	10573.71
763.438	10688.05
763.775	10671.33
764.112	10911.32
764.449	11134.82
764.785	11026.12
765.122	11120.36
765.458	11292.78
765.795	11399.67
766.131	11526.45
766.467	11684.64
766.804	11811.19
767.14	11844.41
767.476	12013.89
767.812	11954.01
768.148	12158.75
768.485	12183.38
768.821	12289.82
769.157	12325.75
769.492	12471.28
