Data from hue_220_FLMS001491_00046.txt Node
Date: Tue Feb 07 16:39:31 GMT 2017
User: dcchb
Spectrometer: FLMS00149
Trigger mode: 0
Integration Time (sec): 2.000000E-2
Scans to average: 10
Electric dark correction enabled: true
Nonlinearity correction enabled: false
Boxcar width: 0
XAxis mode: Wavelengths
Number of Pixels in Spectrum: 2048
>>>>>Begin Spectral Data<<<<<
341.393	-12.19
341.776	-12.19
342.16	-12.19
342.543	-61.68
342.927	-54.67
343.31	-64.16
343.693	-77.72
344.077	-80.44
344.46	-70.49
344.843	-56.48
345.226	-23.49
345.61	-45.86
345.993	-26.65
346.376	-20.78
346.759	7.25
347.142	21.26
347.525	58.77
347.908	68.94
348.291	83.85
348.674	97.41
349.057	128.6
349.44	134.02
349.823	171.99
350.206	145.55
350.588	195.72
350.971	191.2
351.354	213.12
351.737	234.36
352.119	249.5
352.502	263.28
352.884	262.38
353.267	287.69
353.65	284.98
354.032	294.24
354.414	305.32
354.797	298.99
355.179	329.5
355.562	317.52
355.944	334.69
356.326	329.05
356.709	334.02
357.091	344.86
357.473	356.39
357.855	335.6
358.238	342.83
358.62	323.17
359.002	339.89
359.384	319.1
359.766	349.38
360.148	330.4
360.53	348.25
360.912	336.95
361.294	313.45
361.676	305.99
362.057	321.14
362.439	355.26
362.821	330.17
363.203	324.75
363.584	317.52
363.966	321.14
364.348	319.33
364.729	312.55
365.111	317.75
365.493	324.07
365.874	317.29
366.256	287.01
366.637	311.87
367.019	296.5
367.4	320.46
367.781	310.51
368.163	295.83
368.544	324.3
368.925	309.61
369.306	341.25
369.688	310.51
370.069	304.19
370.45	322.04
370.831	334.92
371.212	311.42
371.593	309.38
371.974	314.58
372.355	316.62
372.736	350.51
373.117	306.67
373.498	329.05
373.879	320.91
374.26	353.9
374.641	290.4
375.021	332.89
375.402	322.04
375.783	303.96
376.163	331.98
376.544	314.13
376.925	320.91
377.305	324.3
377.686	331.3
378.066	329.5
378.447	338.76
378.827	332.66
379.208	332.89
379.588	317.07
379.968	317.97
380.349	332.43
380.729	306.45
381.109	320.68
381.489	327.69
381.87	355.71
382.25	323.17
382.63	335.82
383.01	338.08
383.39	347.12
383.77	334.92
384.15	350.06
384.53	356.39
384.91	343.96
385.29	364.75
385.67	354.13
386.049	365.43
386.429	355.49
386.809	366.33
387.189	367.24
387.568	354.36
387.948	358.65
388.328	353
388.707	361.36
389.087	346.22
389.466	359.55
389.846	366.11
390.225	345.09
390.605	376.05
390.984	363.62
391.363	374.02
391.743	358.2
392.122	374.02
392.501	348.93
392.881	377.86
393.26	393.9
393.639	367.46
394.018	385.31
394.397	394.13
394.776	401.81
395.155	402.49
395.534	401.13
395.913	390.96
396.292	376.73
396.671	377.41
397.05	394.13
397.429	404.07
397.808	377.41
398.186	381.92
398.565	409.49
398.944	396.84
399.323	422.15
399.701	402.49
400.08	423.51
400.458	416.05
400.837	434.35
401.215	439.32
401.594	430.06
401.972	416.5
402.351	447.91
402.729	443.84
403.107	443.62
403.486	446.33
403.864	433.9
404.242	433.68
404.62	465.31
404.999	455.14
405.377	461.24
405.755	470.96
406.133	462.15
406.511	464.41
406.889	477.97
407.267	454.47
407.645	482.49
408.023	499.89
408.401	497.4
408.779	517.51
409.156	530.62
409.534	538.98
409.912	531.75
410.29	513.9
410.667	534.92
411.045	538.76
411.422	534.01
411.8	562.71
412.178	571.98
412.555	585.99
412.933	585.54
413.31	599.09
413.687	597.74
414.065	597.06
414.442	622.37
414.819	638.87
415.197	635.48
415.574	648.36
415.951	641.13
416.328	678.41
416.705	660.11
417.082	665.31
417.46	668.7
417.837	697.62
418.214	699.2
418.591	707.57
418.967	719.32
419.344	740.33
419.721	734.46
420.098	754.34
420.475	753.44
420.852	757.28
421.228	781.91
421.605	784.4
421.982	800.67
422.358	821.69
422.735	826.66
423.111	845.42
423.488	858.52
423.864	866.43
424.241	890.61
424.617	881.57
424.994	900.56
425.37	917.05
425.746	920.22
426.123	942.59
426.499	957.05
426.875	976.94
427.251	975.58
427.627	998.18
428.003	997.05
428.379	1038.18
428.756	1035.24
429.132	1044.05
429.507	1066.43
429.883	1080.21
430.259	1078.18
430.635	1092.64
431.011	1141.23
431.387	1131.96
431.763	1144.84
432.138	1171.28
432.514	1159.08
432.89	1203.82
433.265	1221.68
433.641	1218.06
434.016	1251.96
434.392	1275.69
434.767	1304.39
435.143	1301.22
435.518	1360.2
435.894	1378.73
436.269	1380.77
436.644	1422.8
437.02	1447.43
437.395	1460.54
437.77	1470.26
438.145	1497.38
438.52	1516.81
438.895	1548.67
439.271	1568.56
439.646	1564.04
440.021	1630.71
440.395	1644.72
440.77	1621.89
441.145	1634.32
441.52	1688.56
441.895	1679.07
442.27	1691.27
442.645	1711.61
443.019	1713.64
443.394	1782.79
443.769	1787.31
444.143	1792.96
444.518	1822.11
444.892	1818.72
445.267	1818.5
445.641	1877.48
446.016	1883.13
446.39	1877.48
446.764	1892.39
447.139	1879.74
447.513	1924.94
447.887	1941.21
448.262	1960.19
448.636	1966.06
449.01	1987.08
449.384	1964.48
449.758	2025.05
450.132	2055.55
450.506	2014.65
450.88	2039.51
451.254	2106.17
451.628	2115.21
452.002	2122.44
452.376	2154.99
452.75	2138.49
453.123	2150.01
453.497	2200.18
453.871	2213.74
454.244	2243.12
454.618	2254.87
454.992	2298.48
455.365	2288.77
455.739	2348.2
456.112	2349.56
456.486	2397.47
456.859	2391.59
457.232	2430.68
457.606	2455.54
457.979	2474.53
458.352	2476.79
458.725	2547.97
459.099	2575.54
459.472	2600.85
459.845	2617.35
460.218	2677.91
460.591	2679.94
460.964	2680.62
461.337	2747.29
461.71	2753.16
462.083	2816.66
462.456	2792.03
462.829	2833.16
463.201	2893.95
463.574	2896.44
463.947	2912.93
464.32	2996.77
464.692	3012.36
465.065	3038.8
465.438	3032.25
465.81	3080.16
466.183	3124.9
466.555	3145.92
466.928	3202.19
467.3	3250.1
467.672	3243.32
468.045	3318.8
468.417	3342.3
468.789	3339.81
469.161	3353.37
469.534	3456.19
469.906	3522.86
470.278	3511.11
470.65	3540.94
471.022	3674.72
471.394	3690.99
471.766	3720.82
472.138	3756.3
472.51	3826.81
472.882	3837.65
473.253	3874.71
473.625	3951.1
473.997	4010.53
474.369	3999.46
474.74	4088.04
475.112	4157.87
475.484	4188.6
475.855	4286.91
476.227	4273.57
476.598	4401.48
476.97	4416.62
477.341	4482.61
477.713	4561.02
478.084	4550.63
478.455	4697.07
478.827	4737.06
479.198	4850.28
479.569	4807.8
479.94	4994.91
480.311	4996.49
480.682	5100.44
481.053	5246.88
481.424	5238.97
481.795	5314.45
482.166	5397.39
482.537	5454.56
482.908	5537.72
483.279	5575.69
483.65	5640.54
484.021	5755.12
484.391	5816.58
484.762	5886.64
485.133	5916.47
485.503	5972.29
485.874	6097.71
486.244	6104.71
486.615	6207.76
486.985	6269.23
487.356	6330.92
487.726	6379.73
488.097	6513.29
488.467	6543.12
488.837	6628.09
489.207	6748.31
489.578	6807.07
489.948	6850.91
490.318	6958.25
490.688	6918.02
491.058	7012.49
491.428	7110.79
491.798	7152.37
492.168	7278.69
492.538	7327.51
492.908	7390.1
493.278	7452.25
493.648	7490.44
494.017	7551.23
494.387	7515.75
494.757	7659.25
495.126	7730.43
495.496	7755.74
495.866	7715.52
496.235	7795.29
496.605	7879.13
496.974	7908.51
497.344	7975.62
497.713	7968.84
498.082	8090.87
498.452	8104.21
498.821	8141.27
499.19	8100.59
499.559	8156.64
499.928	8269.63
500.298	8253.58
500.667	8345.11
501.036	8409.06
501.405	8395.05
501.774	8330.64
502.143	8443.63
502.512	8444.99
502.88	8508.26
503.249	8526.8
503.618	8531.99
503.987	8509.17
504.356	8571.09
504.724	8624.19
505.093	8622.84
505.462	8616.51
505.83	8708.03
506.199	8770.4
506.567	8832.78
506.936	8754.13
507.304	8908.71
507.672	8849.72
508.041	8882.27
508.409	8938.99
508.777	8984.86
509.145	9051.98
509.514	8982.6
509.882	9046.78
510.25	9069.61
510.618	9047.91
510.986	9106.89
511.354	9101.47
511.722	9135.59
512.09	9190.51
512.458	9184.63
512.826	9260.56
513.193	9267.57
513.561	9266.21
513.929	9344.4
514.297	9334.91
514.664	9383.72
515.032	9363.61
515.4	9438.64
515.767	9403.61
516.135	9447
516.502	9373.1
516.869	9503.72
517.237	9465.08
517.604	9398.64
517.972	9447.68
518.339	9434.12
518.706	9407.68
519.073	9478.41
519.44	9507.11
519.808	9509.59
520.175	9512.76
520.542	9636.14
520.909	9670.72
521.276	9612.42
521.643	9614.68
522.009	9585.75
522.376	9692.64
522.743	9663.26
523.11	9705.52
523.477	9737.16
523.843	9754.56
524.21	9878.17
524.577	9809.7
524.943	9818.96
525.31	9871.17
525.676	9855.57
526.043	9949.81
526.409	9926.53
526.776	9958.4
527.142	9939.41
527.508	9995.23
527.874	9939.19
528.241	9984.16
528.607	9910.71
528.973	10061.22
529.339	9941.45
529.705	9989.36
530.071	9976.93
530.437	10062.12
530.803	10041.78
531.169	10108
531.535	10035.46
531.901	9968.34
532.267	9958.85
532.632	10008.79
532.998	10005.63
533.364	10050.82
533.73	9998.85
534.095	10051.73
534.461	10006.53
534.826	10005.63
535.192	9962.46
535.557	10049.69
535.923	9972.18
536.288	9969.24
536.653	9939.87
537.019	9843.15
537.384	9957.72
537.749	9863.94
538.114	9941.9
538.479	9836.37
538.845	9832.3
539.21	9856.25
539.575	9802.02
539.94	9828.91
540.305	9815.58
540.67	9806.99
541.034	9765.18
541.399	9823.94
541.764	9764.5
542.129	9773.09
542.494	9782.13
542.858	9702.58
543.223	9673.43
543.587	9732.64
543.952	9688.57
544.316	9631.17
544.681	9642.02
545.045	9727.67
545.41	9621.46
545.774	9584.17
546.138	9624.62
546.503	9493.55
546.867	9476.6
547.231	9558.63
547.595	9540.33
547.959	9506.2
548.324	9438.18
548.688	9509.14
549.052	9451.29
549.416	9415.81
549.779	9360.9
550.143	9391.41
550.507	9429.37
550.871	9376.26
551.235	9400.9
551.599	9357.51
551.962	9356.83
552.326	9301.01
552.689	9358.41
553.053	9241.35
553.417	9287.91
553.78	9383.04
554.143	9267.79
554.507	9268.25
554.87	9234.8
555.234	9250.62
555.597	9275.25
555.96	9286.55
556.323	9177.17
556.686	9151.64
557.05	9223.73
557.413	9216.95
557.776	9207.68
558.139	9242.71
558.502	9200.9
558.865	9136.27
559.228	9209.04
559.59	9269.6
559.953	9228.92
560.316	9265.99
560.679	9281.8
561.041	9252.65
561.404	9251.97
561.767	9281.58
562.129	9193.44
562.492	9310.5
562.854	9237.96
563.217	9334.23
563.579	9307.79
563.941	9305.53
564.304	9271.18
564.666	9266.21
565.028	9365.42
565.39	9341.46
565.753	9360.9
566.115	9401.57
566.477	9392.31
566.839	9405.64
567.201	9343.95
567.563	9418.3
567.925	9433.21
568.287	9453.1
568.648	9420.56
569.01	9502.14
569.372	9526.32
569.734	9437.51
570.095	9584.62
570.457	9561.8
570.819	9572.64
571.18	9556.37
571.542	9599.99
571.903	9582.14
572.265	9583.04
572.626	9643.38
572.987	9624.62
573.349	9707.33
573.71	9691.51
574.071	9711.17
574.432	9754.79
574.794	9766.31
575.155	9769.25
575.516	9769.7
575.877	9773.09
576.238	9738.52
576.599	9868
576.96	9880.88
577.32	9864.39
577.681	9942.35
578.042	9893.09
578.403	9913.43
578.763	9938.06
579.124	9985.29
579.485	9954.1
579.845	9994.55
580.206	10001.79
580.566	10050.15
580.927	10059.64
581.287	10046.53
581.648	10049.92
582.008	10139.41
582.368	10076.81
582.728	10109.13
583.089	10095.12
583.449	10164.49
583.809	10178.05
584.169	10146.41
584.529	10153.42
584.889	10251.5
585.249	10213.53
585.609	10163.36
585.969	10300.53
586.329	10260.99
586.688	10279.52
587.048	10251.72
587.408	10215.11
587.768	10299.18
588.127	10313.42
588.487	10346.41
588.846	10407.65
589.206	10325.84
589.565	10354.54
589.925	10317.93
590.284	10392.74
590.643	10386.86
591.003	10396.35
591.362	10448.78
591.721	10368.1
592.08	10454.43
592.44	10435.9
592.799	10508.21
593.158	10474.77
593.517	10432.51
593.876	10552.51
594.235	10528.78
594.593	10471.38
594.952	10537.36
595.311	10532.62
595.67	10597.7
596.029	10583.24
596.387	10566.97
596.746	10586.18
597.104	10503.24
597.463	10589.79
597.822	10567.42
598.18	10519.74
598.538	10601.77
598.897	10670.02
599.255	10546.4
599.613	10706.63
599.972	10662.33
600.33	10622.56
600.688	10658.04
601.046	10689.68
601.404	10735.55
601.762	10707.3
602.12	10707.98
602.478	10738.94
602.836	10770.8
603.194	10708.43
603.552	10791.14
603.91	10684.93
604.268	10687.42
604.625	10663.69
604.983	10725.83
605.341	10706.17
605.698	10728.32
606.056	10799.73
606.413	10769.9
606.771	10819.84
607.128	10892.61
607.485	10709.56
607.843	10744.82
608.2	10851.25
608.557	10842.67
608.914	10824.59
609.272	10830.24
609.629	10816.68
609.986	10933.06
610.343	10800.18
610.7	10951.14
611.057	10893.96
611.414	10872.95
611.771	10933.74
612.127	10988.2
612.484	10919.73
612.841	10949.78
613.198	10865.27
613.554	10981.65
613.911	11072.72
614.267	11078.82
614.624	11006.28
614.98	10933.06
615.337	11083.56
615.693	11071.14
616.05	11054.64
616.406	11103
616.762	11032.49
617.118	11041.53
617.475	11077.69
617.831	11152.49
618.187	11073.17
618.543	11141.42
618.899	11144.13
619.255	11136.22
619.611	11148.65
619.967	11135.99
620.323	11184.35
620.678	11140.06
621.034	11158.36
621.39	11141.19
621.746	11099.16
622.101	11270.23
622.457	11161.75
622.812	11140.74
623.168	11206.95
623.523	11148.65
623.879	11229.78
624.234	11095.09
624.589	11154.07
624.945	11078.82
625.3	11170.12
625.655	11157.23
626.01	11143
626.365	11087.41
626.72	11196.56
627.075	11135.09
627.43	11123.56
627.785	11164.24
628.14	11168.99
628.495	11084.24
628.85	11093.96
629.205	11150
629.559	11167.18
629.914	11103.9
630.269	11108.42
630.623	11070.68
630.978	11059.38
631.332	11083.79
631.687	11194.97
632.041	11023.45
632.396	11090.57
632.75	11048.54
633.104	11088.31
633.459	10967.18
633.813	10927.41
634.167	11043.57
634.521	11016.9
634.875	10927.18
635.229	10927.86
635.583	10893.74
635.937	10897.58
636.291	10857.81
636.645	10942.1
636.999	10811.26
637.352	10898.26
637.706	10848.77
638.06	10839.73
638.413	10943
638.767	10846.73
639.121	10823.23
639.474	10750.24
639.828	10733.74
640.181	10809.45
640.534	10793.18
640.888	10740.52
641.241	10712.27
641.594	10668.89
641.947	10729.9
642.301	10746.62
642.654	10672.28
643.007	10735.78
643.36	10728.32
643.713	10699.85
644.066	10716.79
644.419	10692.84
644.771	10575.78
645.124	10483.35
645.477	10525.39
645.83	10484.94
646.182	10447.42
646.535	10323.81
646.888	10377.59
647.24	10307.09
647.593	10278.39
647.945	10357.71
648.298	10309.57
648.65	10201.1
649.002	10230.03
649.355	10393.19
649.707	10324.26
650.059	10357.93
650.411	10507.76
650.763	10512.51
651.115	10588.21
651.467	10539.17
651.819	10538.72
652.171	10566.97
652.523	10486.07
652.875	10493.75
653.227	10520.87
653.578	10537.82
653.93	10557.48
654.282	10488.55
654.633	10495.56
654.985	10457.14
655.337	10467.99
655.688	10480.87
656.039	10584.14
656.391	10515.67
656.742	10542.56
657.094	10509.34
657.445	10527.65
657.796	10546.4
658.147	10537.59
658.498	10493.75
658.849	10519.96
659.2	10500.98
659.551	10527.42
659.902	10506.63
660.253	10525.39
660.604	10594.09
660.955	10540.53
661.306	10611.71
661.656	10580.75
662.007	10538.04
662.358	10524.48
662.708	10587.53
663.059	10539.4
663.409	10514.09
663.76	10590.24
664.11	10571.49
664.461	10582.33
664.811	10631.15
665.161	10551.15
665.511	10490.13
665.862	10559.74
666.212	10527.42
666.562	10630.24
666.912	10583.92
667.262	10553.86
667.612	10574.2
667.962	10527.42
668.312	10562.9
668.662	10569.45
669.011	10417.14
669.361	10529.91
669.711	10484.26
670.06	10558.15
670.41	10513.86
670.76	10502.11
671.109	10466.86
671.459	10464.6
671.808	10512.96
672.157	10505.27
672.507	10364.04
672.856	10494.43
673.205	10421.21
673.554	10459.17
673.904	10459.4
674.253	10518.38
674.602	10424.15
674.951	10326.97
675.3	10244.04
675.649	10398.16
675.998	10418.5
676.346	10363.58
676.695	10391.38
677.044	10279.74
677.393	10358.16
677.741	10327.65
678.09	10307.54
678.438	10240.2
678.787	10366.97
679.135	10302.34
679.484	10262.57
679.832	10259.41
680.181	10237.49
680.529	10255.79
680.877	10187.54
681.225	10191.84
681.573	10255.56
681.922	10146.41
682.27	10151.61
682.618	10068.22
682.966	10115.68
683.314	10132.63
683.661	10094.66
684.009	9983.48
684.357	10023.93
684.705	10031.61
685.053	10041.11
685.4	10024.38
685.748	9957.72
686.095	9913.65
686.443	9911.39
686.79	9919.75
687.138	9925.63
687.485	9844.95
687.832	9790.04
688.18	9829.13
688.527	9718.85
688.874	9736.93
689.221	9686.09
689.568	9712.53
689.915	9687.22
690.262	9667.1
690.609	9656.94
690.956	9561.12
691.303	9562.7
691.65	9528.35
691.997	9498.97
692.344	9419.88
692.69	9453.78
693.037	9415.13
693.383	9320.9
693.73	9377.17
694.077	9280
694.423	9300.33
694.769	9242.26
695.116	9222.14
695.462	9229.83
695.808	9179.89
696.155	9151.64
696.501	9070.06
696.847	9062.83
697.193	9012.88
697.539	9016.05
697.885	9009.27
698.231	8940.12
698.577	8950.51
698.923	8943.73
699.269	8812.89
699.614	8754.59
699.96	8822.61
700.306	8808.14
700.651	8748.26
700.997	8715.04
701.342	8667.81
701.688	8688.37
702.033	8625.32
702.379	8533.58
702.724	8536.96
703.069	8560.47
703.415	8429.85
703.76	8491.32
704.105	8482.95
704.45	8437.98
704.795	8459.23
705.14	8338.33
705.485	8368.16
705.83	8367.48
706.175	8252.68
706.52	8298.78
706.865	8284.99
707.209	8243.87
707.554	8176.3
707.899	8167.03
708.243	8156.41
708.588	8165.45
708.932	8049.07
709.277	8001.61
709.621	8089.74
709.966	8003.65
710.31	8042.97
710.654	7971.33
710.998	7959.58
711.342	7995.06
711.687	7981.73
712.031	7863.99
712.375	7839.13
712.719	7920.48
713.063	7854.27
713.407	7877.55
713.75	7795.97
714.094	7787.38
714.438	7760.71
714.782	7828.06
715.125	7751.9
715.469	7789.87
715.812	7709.64
716.156	7650.66
716.499	7731.56
716.843	7708.29
717.186	7672.58
717.53	7682.07
717.873	7674.39
718.216	7626.71
718.559	7709.64
718.902	7582.87
719.246	7626.25
719.589	7594.39
719.932	7511.46
720.275	7536.54
720.617	7575.86
720.96	7513.71
721.303	7544.22
721.646	7535.41
721.989	7491.34
722.331	7589.65
722.674	7516.65
723.016	7478.69
723.359	7537.67
723.701	7505.13
724.044	7460.83
724.386	7415.19
724.729	7494.51
725.071	7487.27
725.413	7435.07
725.755	7421.74
726.097	7401.18
726.439	7376.54
726.782	7419.25
727.124	7362.76
727.465	7374.51
727.807	7415.86
728.149	7332.48
728.491	7348.3
728.833	7379.48
729.175	7309.65
729.516	7344.45
729.858	7297
730.199	7361.63
730.541	7307.62
730.882	7335.19
731.224	7355.75
731.565	7302.42
731.906	7333.83
732.248	7383.77
732.589	7282.08
732.93	7316.66
733.271	7313.49
733.612	7307.39
733.953	7376.54
734.294	7341.74
734.635	7342.42
734.976	7313.27
735.317	7246.83
735.658	7286.38
735.999	7328.41
736.339	7301.07
736.68	7339.93
737.021	7295.64
737.361	7306.49
737.702	7332.02
738.042	7289.77
738.383	7375.64
738.723	7385.81
739.063	7367.5
739.404	7431.01
739.744	7431.01
740.084	7412.47
740.424	7433.72
740.764	7400.05
741.104	7456.32
741.444	7426.26
741.784	7420.38
742.124	7462.42
742.464	7472.13
742.804	7505.13
743.143	7502.42
743.483	7530.66
743.823	7498.35
744.162	7575.41
744.502	7600.27
744.841	7577.89
745.181	7689.3
745.52	7614.05
745.86	7709.42
746.199	7713.94
746.538	7776.31
746.877	7828.96
747.216	7850.88
747.556	7904.89
747.895	7923.65
748.234	7969.07
748.573	8002.74
748.911	8051.33
749.25	8184.43
749.589	8204.09
749.928	8231.21
750.267	8361.83
750.605	8392.56
750.944	8447.25
751.283	8495.84
751.621	8639.33
751.96	8673.91
752.298	8702.38
752.636	8875.04
752.975	8934.02
753.313	9016.95
753.651	9156.84
753.989	9221.24
754.327	9306.89
754.666	9425.53
755.004	9560.44
755.342	9675.24
755.679	9756.59
756.017	9840.21
756.355	10086.53
756.693	10140.31
757.031	10326.07
757.368	10392.28
757.706	10564.71
758.044	10654.88
758.381	10925.15
758.719	11051.02
759.056	11212.15
759.394	11295.08
759.731	11350.45
760.068	11614.62
760.405	11723.1
760.743	11925.35
761.08	12133.03
761.417	12243.76
761.754	12401.04
762.091	12731.88
762.428	12848.94
