Data from hue_280_FLMS001491_00001.txt Node
Date: Tue Feb 07 15:54:43 GMT 2017
User: dcchb
Spectrometer: FLMS00149
Trigger mode: 0
Integration Time (sec): 2.000000E-2
Scans to average: 10
Electric dark correction enabled: true
Nonlinearity correction enabled: false
Boxcar width: 0
XAxis mode: Wavelengths
Number of Pixels in Spectrum: 2048
>>>>>Begin Spectral Data<<<<<
341.393	-13.45
341.776	-13.45
342.16	-13.45
342.543	-69.94
342.927	-60.22
343.31	-51.86
343.693	-62.71
344.077	-71.3
344.46	-55.48
344.843	-62.03
345.226	-33.78
345.61	-22.94
345.993	-24.75
346.376	-22.26
346.759	24.52
347.142	14.35
347.525	34.24
347.908	68.13
348.291	65.42
348.674	92.54
349.057	107.91
349.44	107
349.823	128.25
350.206	160.56
350.588	194.46
350.971	212.99
351.354	223.61
351.737	214.34
352.119	229.26
352.502	261.12
352.884	264.51
353.267	261.58
353.65	292.99
354.032	287.11
354.414	309.03
354.797	320.78
355.179	300.22
355.562	318.97
355.944	316.04
356.326	340.67
356.709	311.07
357.091	325.98
357.473	361.23
357.855	325.98
358.238	329.6
358.62	355.13
359.002	332.99
359.384	341.57
359.766	359.65
360.148	332.76
360.53	348.58
360.912	350.39
361.294	312.42
361.676	328.92
362.057	347.9
362.439	319.2
362.821	332.31
363.203	323.95
363.584	322.82
363.966	329.6
364.348	323.95
364.729	312.65
365.111	308.13
365.493	313.78
365.874	323.49
366.256	323.27
366.637	334.57
367.019	301.8
367.4	326.21
367.781	304.51
368.163	311.52
368.544	288.24
368.925	315.36
369.306	294.12
369.688	301.12
370.069	321.23
370.45	295.92
370.831	308.35
371.212	319.88
371.593	301.57
371.974	302.93
372.355	293.44
372.736	330.05
373.117	304.06
373.498	307.68
373.879	319.88
374.26	328.69
374.641	299.09
375.021	318.75
375.402	315.13
375.783	329.37
376.163	330.73
376.544	312.2
376.925	321.91
377.305	333.66
377.686	319.43
378.066	337.96
378.447	349.93
378.827	350.84
379.208	339.09
379.588	311.07
379.968	318.97
380.349	347.22
380.729	314.91
381.109	332.31
381.489	335.7
381.87	347
382.25	348.8
382.63	328.01
383.01	340.44
383.39	324.85
383.77	352.65
384.15	359.43
384.53	362.82
384.91	349.71
385.29	359.2
385.67	360.1
386.049	359.43
386.429	347.45
386.809	340.89
387.189	360.1
387.568	356.49
387.948	345.87
388.328	356.04
388.707	382.02
389.087	355.58
389.466	354.68
389.846	373.66
390.225	373.44
390.605	375.92
390.984	347.67
391.363	368.24
391.743	386.54
392.122	391.29
392.501	363.95
392.881	388.35
393.26	388.58
393.639	370.5
394.018	390.16
394.397	392.19
394.776	394.23
395.155	387.67
395.534	386.77
395.913	387
396.292	407.79
396.671	421.8
397.05	408.92
397.429	408.01
397.808	397.39
398.186	400.33
398.565	405.75
398.944	421.8
399.323	406.2
399.701	429.25
400.08	416.6
400.458	431.51
400.837	441.46
401.215	415.02
401.594	421.8
401.972	444.17
402.351	432.19
402.729	471.51
403.107	436.49
403.486	453.21
403.864	450.72
404.242	456.6
404.62	452.76
404.999	459.08
405.377	465.41
405.755	465.86
406.133	457.05
406.511	482.36
406.889	472.42
407.267	474.68
407.645	497.73
408.023	486.88
408.401	506.54
408.779	496.82
409.156	509.93
409.534	516.48
409.912	496.15
410.29	533.88
410.667	518.52
411.045	532.08
411.422	546.09
411.8	564.84
412.178	584.05
412.555	578.85
412.933	576.82
413.31	595.13
413.687	592.87
414.065	614.79
414.442	619.53
414.819	606.42
415.197	647.55
415.574	626.54
415.951	610.72
416.328	634.67
416.705	640.32
417.082	649.14
417.46	664.95
417.837	670.83
418.214	664.73
418.591	688.46
418.967	669.7
419.344	699.98
419.721	706.99
420.098	714.9
420.475	722.81
420.852	732.98
421.228	746.99
421.605	757.83
421.982	773.88
422.358	767.1
422.735	752.64
423.111	770.71
423.488	787.66
423.864	796.7
424.241	811.17
424.617	826.08
424.994	808.91
425.37	840.77
425.746	839.86
426.123	844.61
426.499	854.55
426.875	864.72
427.251	899.75
427.627	894.1
428.003	922.57
428.379	925.74
428.756	940.88
429.132	936.36
429.507	940.65
429.883	971.16
430.259	992.86
430.635	991.5
431.011	1012.29
431.387	1015.68
431.763	1044.83
432.138	1032.63
432.514	1043.48
432.89	1053.19
433.265	1067.66
433.641	1105.39
434.016	1085.06
434.392	1112.4
434.767	1147.43
435.143	1134.55
435.518	1164.83
435.894	1166.41
436.269	1224.49
436.644	1215.22
437.02	1228.78
437.395	1231.49
437.77	1271.04
438.145	1283.24
438.52	1288.21
438.895	1299.74
439.271	1315.78
439.646	1351.26
440.021	1359.17
440.395	1324.37
440.77	1338.61
441.145	1344.94
441.52	1373.41
441.895	1407.99
442.27	1422.67
442.645	1399.85
443.019	1457.25
443.394	1443.01
443.769	1440.53
444.143	1442.33
444.518	1445.05
444.892	1446.18
445.267	1462.22
445.641	1483.69
446.016	1461.54
446.39	1529.79
446.764	1524.82
447.139	1530.69
447.513	1528.21
447.887	1528.43
448.262	1538.83
448.636	1547.64
449.01	1591.03
449.384	1608.43
449.758	1567.76
450.132	1562.78
450.506	1577.47
450.88	1591.26
451.254	1586.06
451.628	1620.86
452.002	1645.72
452.376	1657.92
452.75	1666.74
453.123	1675.32
453.497	1727.53
453.871	1714.19
454.244	1716.23
454.618	1740.86
454.992	1746.06
455.365	1744.25
455.739	1776.11
456.112	1823.79
456.486	1814.75
456.859	1837.35
457.232	1852.04
457.606	1854.98
457.979	1856.11
458.352	1921.64
458.725	1899.05
459.099	1930.01
459.472	1943.79
459.845	1952.15
460.218	1998.48
460.591	2005.03
460.964	1998.03
461.337	2033.28
461.71	2064.24
462.083	2051.13
462.456	2081.64
462.829	2063.56
463.201	2122.32
463.574	2127.97
463.947	2142.43
464.32	2179.04
464.692	2210.68
465.065	2231.69
465.438	2192.37
465.81	2257.68
466.183	2261.97
466.555	2309.2
466.928	2320.73
467.3	2327.96
467.672	2372.93
468.045	2415.64
468.417	2422.42
468.789	2409.32
469.161	2426.94
469.534	2468.75
469.906	2518.01
470.278	2525.92
470.65	2519.37
471.022	2565.7
471.394	2613.15
471.766	2625.81
472.138	2688.63
472.51	2732.92
472.882	2748.97
473.253	2762.3
473.625	2824.22
473.997	2831.68
474.369	2809.53
474.74	2891.11
475.112	2923.65
475.484	2936.98
475.855	2993.03
476.227	2981.73
476.598	3045.46
476.97	3058.79
477.341	3145.34
477.713	3150.99
478.084	3146.92
478.455	3260.59
478.827	3237.09
479.198	3351.21
479.569	3300.82
479.94	3399.57
480.311	3449.06
480.682	3476.63
481.053	3584.43
481.424	3582.39
481.795	3608.61
482.166	3646.12
482.537	3701.94
482.908	3714.37
483.279	3761.6
483.65	3788.04
484.021	3860.58
484.391	3916.62
484.762	3903.29
485.133	3948.71
485.503	4039.78
485.874	4089.72
486.244	4130.63
486.615	4133.34
486.985	4217.18
487.356	4259.44
487.726	4276.16
488.097	4366.78
488.467	4315.71
488.837	4426.66
489.207	4458.3
489.578	4509.82
489.948	4541.91
490.318	4575.59
490.688	4601.35
491.058	4621.46
491.428	4726.09
491.798	4742.36
492.168	4862.13
492.538	4831.62
492.908	4867.78
493.278	4926.09
493.648	4896.48
494.017	4913.2
494.387	4992.75
494.757	5024.61
495.126	5120.88
495.496	5086.08
495.866	5112.75
496.235	5192.74
496.605	5201.11
496.974	5176.02
497.344	5217.83
497.713	5259.86
498.082	5221.67
498.452	5288.79
498.821	5319.97
499.19	5373.53
499.559	5385.73
499.928	5382.12
500.298	5491.72
500.667	5426.19
501.036	5442
501.405	5510.7
501.774	5536.46
502.143	5538.72
502.512	5556.35
502.88	5610.59
503.249	5557.71
503.618	5647.65
503.987	5648.33
504.356	5673.18
504.724	5672.05
505.093	5726.97
505.462	5714.99
505.83	5696.69
506.199	5738.27
506.567	5878.38
506.936	5853.97
507.304	5878.83
507.672	5877.7
508.041	5928.77
508.409	5902.1
508.777	5940.52
509.145	6001.99
509.514	5993.63
509.882	5999.05
510.25	6012.16
510.618	6055.55
510.986	5997.7
511.354	6077.24
511.722	6078.6
512.09	6120.86
512.458	6096.45
512.826	6198.37
513.193	6145.94
513.561	6228.42
513.929	6196.33
514.297	6271.13
514.664	6286.28
515.032	6250.34
515.4	6285.6
515.767	6294.41
516.135	6373.05
516.502	6300.29
516.869	6352.04
517.237	6417.57
517.604	6336.44
517.972	6443.11
518.339	6436.33
518.706	6472.26
519.073	6505.25
519.44	6523.33
519.808	6459.6
520.175	6523.56
520.542	6546.61
520.909	6582.99
521.276	6562.43
521.643	6578.02
522.009	6618.47
522.376	6710.9
522.743	6703.67
523.11	6717.9
523.477	6767.39
523.843	6797.22
524.21	6838.13
524.577	6855.75
524.943	6866.6
525.31	6900.5
525.676	6947.73
526.043	6917.67
526.409	6932.59
526.776	6994.51
527.142	7070.89
527.508	7079.47
527.874	7101.85
528.241	7170.77
528.607	7098.91
528.973	7258.23
529.339	7128.06
529.705	7255.29
530.071	7233.6
530.437	7236.31
530.803	7330.54
531.169	7404.66
531.535	7348.17
531.901	7345.91
532.267	7403.31
532.632	7427.04
532.998	7397.66
533.364	7439.92
533.73	7443.31
534.095	7561.04
534.461	7517.2
534.826	7589.74
535.192	7573.25
535.557	7622.06
535.923	7613.25
536.288	7593.59
536.653	7650.53
537.019	7672.23
537.384	7676.97
537.749	7734.6
538.114	7714.03
538.479	7755.16
538.845	7783.19
539.21	7743.86
539.575	7708.16
539.94	7817.76
540.305	7858.44
540.67	7845.1
541.034	7780.02
541.399	7879.68
541.764	7853.92
542.129	7843.75
542.494	7910.41
542.858	7919
543.223	7954.25
543.587	8000.35
543.952	7901.37
544.316	7983.63
544.681	8001.71
545.045	8071.99
545.41	8035.38
545.774	8095.27
546.138	8056.17
546.503	8136.4
546.867	8122.16
547.231	8132.33
547.595	8097.98
547.959	8181.37
548.324	8129.84
548.688	8177.07
549.052	8181.37
549.416	8244.42
549.779	8161.03
550.143	8251.2
550.507	8248.94
550.871	8298.65
551.235	8246.45
551.599	8372.77
551.962	8307.24
552.326	8309.05
552.689	8374.58
553.053	8259.1
553.417	8316.96
553.78	8382.27
554.143	8419.78
554.507	8365.32
554.87	8403.28
555.234	8481.92
555.597	8459.1
555.96	8478.08
556.323	8504.07
556.686	8512.88
557.05	8597.4
557.413	8574.58
557.776	8625.65
558.139	8613.9
558.502	8625.42
558.865	8632.88
559.228	8674.91
559.59	8741.58
559.953	8732.09
560.316	8798.75
560.679	8749.26
561.041	8835.81
561.404	8827.68
561.767	8880.33
562.129	8949.26
562.492	8980.22
562.854	8991.29
563.217	8995.81
563.579	9007.11
563.941	9058.18
564.304	9090.5
564.666	9117.16
565.028	9106.77
565.39	9160.55
565.753	9155.35
566.115	9145.86
566.477	9263.37
566.839	9209.36
567.201	9280.77
567.563	9288.46
567.925	9361.9
568.287	9417.27
568.648	9470.6
569.01	9475.8
569.372	9506.76
569.734	9401
570.095	9579.07
570.457	9597.37
570.819	9540.43
571.18	9600.76
571.542	9652.06
571.903	9687.99
572.265	9739.74
572.626	9761.89
572.987	9804.83
573.349	9795.11
573.71	9894.32
574.071	9842.34
574.432	9932.28
574.794	10027.65
575.155	10012.28
575.516	9986.52
575.877	10075.55
576.238	10120.98
576.599	10113.29
576.96	10252.95
577.32	10203.23
577.681	10235.78
578.042	10277.58
578.403	10314.19
578.763	10348.54
579.124	10459.5
579.485	10407.52
579.845	10506.73
580.206	10527.97
580.566	10602.32
580.927	10590.79
581.287	10704.24
581.648	10680.06
582.008	10778.59
582.368	10831.24
582.728	10851.81
583.089	10856.78
583.449	10976.55
583.809	11030.78
584.169	11106.49
584.529	11111.01
584.889	11313.49
585.249	11219.7
585.609	11270.78
585.969	11347.84
586.329	11414.73
586.688	11433.26
587.048	11547.15
587.408	11595.51
587.768	11669.41
588.127	11651.56
588.487	11743.08
588.846	11874.15
589.206	11874.6
589.565	12012.9
589.925	12102.17
590.284	12131.32
590.643	12182.39
591.003	12257.42
591.362	12325.89
591.721	12396.17
592.08	12353.01
592.44	12531.08
592.799	12599.33
593.158	12597.07
593.517	12682.94
593.876	12764.98
594.235	12810.4
594.593	12920.23
594.952	12985.99
595.311	12908.25
595.67	13111.86
596.029	13104.85
596.387	13264.17
596.746	13318.18
597.104	13338.75
597.463	13419.87
597.822	13470.72
598.18	13462.81
598.538	13499.87
598.897	13584.61
599.255	13585.52
599.613	13783.71
599.972	13828.68
600.33	13764.27
600.688	13894.66
601.046	13908.45
601.404	14080.65
601.762	14102.57
602.12	14171.04
602.478	14200.87
602.836	14214.88
603.194	14201.55
603.552	14269.57
603.91	14206.29
604.268	14351.15
604.625	14375.55
604.983	14457.81
605.341	14412.16
605.698	14504.82
606.056	14559.05
606.413	14524.93
606.771	14658.26
607.128	14661.65
607.485	14657.35
607.843	14680.86
608.2	14770.57
608.557	14850.57
608.914	14820.74
609.272	14926.27
609.629	14894.64
609.986	15071.36
610.343	15040.62
610.7	15037.23
611.057	15049.43
611.414	15075.42
611.771	15160.84
612.127	15173.5
612.484	15224.35
612.841	15278.13
613.198	15261.18
613.554	15296.43
613.911	15379.14
614.267	15401.97
614.624	15390.22
614.98	15480.84
615.337	15507.5
615.693	15508.41
616.05	15539.59
616.406	15590.89
616.762	15552.02
617.118	15550.21
617.475	15673.6
617.831	15625.24
618.187	15672.47
618.543	15674.5
618.899	15757.66
619.255	15712.24
619.611	15762.18
619.967	15816.42
620.323	15864.78
620.678	15796.99
621.034	15717.67
621.39	15811.45
621.746	15778.91
622.101	15960.6
622.457	15808.74
622.812	15895.29
623.168	15944.33
623.523	15877.89
623.879	15914.72
624.234	15897.32
624.589	16014.38
624.945	15973.25
625.3	15999.69
625.655	15925.57
626.01	16070.42
626.365	15991.1
626.72	15939.58
627.075	16065.23
627.43	15897.55
627.785	15927.83
628.14	15987.26
628.495	16020.93
628.85	15996.75
629.205	15978.45
629.559	16080.59
629.914	16013.48
630.269	16033.14
630.623	15894.16
630.978	15887.6
631.332	15982.07
631.687	15955.85
632.041	15873.14
632.396	15929.19
632.75	15879.7
633.104	15933.03
633.459	15884.67
633.813	15863.2
634.167	15814.39
634.521	15848.74
634.875	15942.52
635.229	15747.5
635.583	15742.52
635.937	15750.43
636.291	15752.02
636.645	15841.28
636.999	15696.65
637.352	15820.26
637.706	15605.13
638.06	15730.77
638.413	15664.56
638.767	15652.81
639.121	15679.7
639.474	15516.32
639.828	15570.78
640.181	15642.19
640.534	15606.26
640.888	15538.91
641.241	15515.86
641.594	15458.92
641.947	15636.54
642.301	15495.07
642.654	15508.18
643.007	15573.04
643.36	15568.52
643.713	15466.82
644.066	15498.91
644.419	15453.94
644.771	15330.78
645.124	15191.58
645.477	15239.71
645.83	15117.23
646.182	15080.17
646.535	14994.3
646.888	15018.02
647.24	14879.27
647.593	14972.15
647.945	15000.4
648.298	14960.17
648.65	14896.67
649.002	14870.91
649.355	14936.67
649.707	14859.84
650.059	15113.84
650.411	15260.28
650.763	15259.15
651.115	15462.98
651.467	15425.47
651.819	15343.89
652.171	15258.69
652.523	15290.56
652.875	15330.33
653.227	15296.89
653.578	15411.46
653.93	15409.2
654.282	15255.76
654.633	15250.11
654.985	15288.98
655.337	15308.19
655.688	15377.79
656.039	15426.15
656.391	15270.67
656.742	15336.43
657.094	15314.96
657.445	15328.75
657.796	15307.96
658.147	15385.02
658.498	15265.02
658.849	15377.11
659.2	15333.27
659.551	15295.76
659.902	15458.69
660.253	15303.89
660.604	15376.88
660.955	15301.18
661.306	15415.98
661.656	15375.3
662.007	15408.52
662.358	15399.48
662.708	15434.28
663.059	15484.45
663.409	15319.71
663.76	15454.85
664.11	15461.85
664.461	15479.25
664.811	15427.5
665.161	15425.02
665.511	15402.65
665.862	15424.79
666.212	15451.01
666.562	15469.54
666.912	15491.91
667.262	15501.17
667.612	15409.2
667.962	15492.14
668.312	15415.07
668.662	15448.07
669.011	15376.43
669.361	15411.01
669.711	15321.07
670.06	15374.85
670.41	15367.17
670.76	15357.9
671.109	15367.17
671.459	15293.04
671.808	15305.47
672.157	15356.55
672.507	15257.79
672.856	15309.77
673.205	15280.84
673.554	15318.58
673.904	15263.67
674.253	15425.24
674.602	15272.71
674.951	15107.96
675.3	14969.89
675.649	15128.08
675.998	15188.64
676.346	15227.28
676.695	15150
677.044	15130.56
677.393	15151.8
677.741	15191.35
678.09	15098.47
678.438	15107.74
678.787	15217.79
679.135	15135.99
679.484	14985.48
679.832	15126.72
680.181	14935.31
680.529	14995.2
680.877	14931.02
681.225	14971.24
681.573	15008.08
681.922	14893.96
682.27	14819.38
682.618	14937.8
682.966	14797.69
683.314	14787.07
683.661	14781.42
684.009	14724.47
684.357	14695.09
684.705	14691.93
685.053	14663.23
685.4	14648.99
685.748	14568.77
686.095	14536.45
686.443	14418.94
686.79	14388.89
687.138	14469.11
687.485	14385.95
687.832	14333.3
688.18	14347.08
688.527	14343.24
688.874	14269.79
689.221	14189.34
689.568	14225.28
689.915	14162.45
690.262	14091.72
690.609	14053.08
690.956	14021.67
691.303	14036.35
691.65	13946.86
691.997	13988.67
692.344	13755.23
692.69	13773.54
693.037	13824.38
693.383	13667.78
693.73	13708.91
694.077	13634.1
694.423	13586.2
694.769	13523.37
695.116	13599.76
695.462	13498.06
695.808	13463.26
696.155	13492.41
696.501	13393.89
696.847	13387.33
697.193	13233.21
697.539	13298.52
697.885	13162.25
698.231	13112.08
698.577	13137.17
698.923	13111.86
699.269	12952.99
699.614	12854.46
699.96	12878.87
700.306	12842.49
700.651	12871.86
700.997	12888.59
701.342	12813.79
701.688	12714.35
702.033	12704.64
702.379	12630.97
702.724	12669.61
703.069	12629.39
703.415	12474.81
703.76	12456.96
704.105	12457.86
704.45	12448.15
704.795	12291.54
705.14	12297.64
705.485	12251.99
705.83	12091.55
706.175	12193.24
706.52	12170.87
706.865	12120.92
707.209	12092.22
707.554	11988.72
707.899	12103.07
708.243	11977.88
708.588	11942.17
708.932	11837.32
709.277	11959.8
709.621	11796.86
709.966	11807.03
710.31	11742.18
710.654	11789.86
710.998	11748.28
711.342	11630.32
711.687	11619.02
712.031	11661.28
712.375	11518
712.719	11538.57
713.063	11554.16
713.407	11538.57
713.75	11462.41
714.094	11528.17
714.438	11472.81
714.782	11402.98
715.125	11395.07
715.469	11368.63
715.812	11339.93
716.156	11282.98
716.499	11270.33
716.843	11266.26
717.186	11247.5
717.53	11369.76
717.873	11318.46
718.216	11256.99
718.559	11197.11
718.902	11090.22
719.246	11176.77
719.589	11098.8
719.932	11073.04
720.275	11066.04
720.617	11100.39
720.96	11087.51
721.303	11084.79
721.646	11139.93
721.989	10990.78
722.331	11120.05
722.674	10971.8
723.016	11024.23
723.359	10952.37
723.701	10963.44
724.044	10965.47
724.386	10878.02
724.729	10927.06
725.071	10920.5
725.413	10900.39
725.755	10942.2
726.097	10881.18
726.439	10812.03
726.782	10824.46
727.124	10907.17
727.465	10786.72
727.807	10876.21
728.149	10801.86
728.491	10806.16
728.833	10838.92
729.175	10752.6
729.516	10828.75
729.858	10775.87
730.199	10794.41
730.541	10825.59
730.882	10771.36
731.224	10784.24
731.565	10729.32
731.906	10748.53
732.248	10773.39
732.589	10759.83
732.93	10752.6
733.271	10725.93
733.612	10793.05
733.953	10786.95
734.294	10755.76
734.635	10620.62
734.976	10766.38
735.317	10750.34
735.658	10753.73
735.999	10766.84
736.339	10702.43
736.68	10781.3
737.021	10629.44
737.361	10677.57
737.702	10758.47
738.042	10772.26
738.383	10688.19
738.723	10701.07
739.063	10741.07
739.404	10793.28
739.744	10801.18
740.084	10835.76
740.424	10776.78
740.764	10821.07
741.104	10848.42
741.444	10798.02
741.784	10773.16
742.124	10857.91
742.464	10832.6
742.804	10845.48
743.143	10900.84
743.483	10939.94
743.823	10859.94
744.162	10977
744.502	10939.49
744.841	10930.9
745.181	11007.51
745.52	11048.86
745.86	11142.19
746.199	11141.06
746.538	11151.46
746.877	11283.66
747.216	11275.97
747.556	11299.02
747.895	11399.36
748.234	11361.62
748.573	11428.06
748.911	11480.94
749.25	11513.03
749.589	11632.8
749.928	11685.46
750.267	11748.5
750.605	11799.58
750.944	11939.01
751.283	11992.57
751.621	12118.44
751.96	12203.18
752.298	12201.37
752.636	12366.12
752.975	12405.66
753.313	12444.31
753.651	12668.93
753.989	12743.73
754.327	12872.09
754.666	12882.26
755.004	13012.88
755.342	13164.51
755.679	13375.81
756.017	13352.76
756.355	13595.01
756.693	13731.73
757.031	13852.4
757.368	13971.95
757.706	14111.83
758.044	14188.67
758.381	14457.59
758.719	14512.27
