Data from hue_100_FLMS001491_00059.txt Node
Date: Tue Feb 07 17:03:23 GMT 2017
User: dcchb
Spectrometer: FLMS00149
Trigger mode: 0
Integration Time (sec): 2.000000E-2
Scans to average: 10
Electric dark correction enabled: true
Nonlinearity correction enabled: false
Boxcar width: 0
XAxis mode: Wavelengths
Number of Pixels in Spectrum: 2048
>>>>>Begin Spectral Data<<<<<
341.393	-14.25
341.776	-14.25
342.16	-14.25
342.543	-68.94
342.927	-63.52
343.31	-75.27
343.693	-74.81
344.077	-55.15
344.46	-66.23
344.843	-42.95
345.226	-56.51
345.61	-27.36
345.993	1.12
346.376	-4.99
346.759	-10.41
347.142	44.28
347.525	35.01
347.908	65.75
348.291	67.78
348.674	95.8
349.057	103.94
349.44	132.64
349.823	146.2
350.206	147.55
350.588	185.07
350.971	215.57
351.354	227.78
351.737	239.08
352.119	243.6
352.502	266.87
352.884	276.14
353.267	272.75
353.65	272.52
354.032	304.16
354.414	286.31
354.797	315.91
355.179	319.75
355.562	311.62
355.944	330.15
356.326	328.79
356.709	337.6
357.091	333.31
357.473	345.51
357.855	336.93
358.238	350.49
358.62	343.71
359.002	336.25
359.384	354.55
359.766	337.83
360.148	336.02
360.53	331.28
360.912	360.43
361.294	342.12
361.676	326.98
362.057	326.98
362.439	318.17
362.821	331.73
363.203	326.76
363.584	326.98
363.966	342.58
364.348	350.03
364.729	336.25
365.111	321.56
365.493	325.4
365.874	318.62
366.256	327.43
366.637	301.9
367.019	313.65
367.4	326.53
367.781	328.56
368.163	317.27
368.544	308.45
368.925	282.69
369.306	317.27
369.688	305.74
370.069	320.66
370.45	319.07
370.831	327.21
371.212	288.11
371.593	306.64
371.974	317.04
372.355	314.55
372.736	310.26
373.117	327.43
373.498	334.21
373.879	307.1
374.26	315.46
374.641	321.79
375.021	320.88
375.402	330.37
375.783	341.67
376.163	313.65
376.544	315.91
376.925	332.63
377.305	325.18
377.686	318.17
378.066	329.47
378.447	327.66
378.827	337.6
379.208	351.84
379.588	332.63
379.968	331.05
380.349	329.69
380.729	311.16
381.109	348
381.489	330.82
381.87	352.29
382.25	342.58
382.63	336.02
383.01	338.28
383.39	379.86
383.77	348
384.15	342.58
384.53	349.36
384.91	353.42
385.29	353.42
385.67	351.84
386.049	374.21
386.429	363.37
386.809	359.07
387.189	359.75
387.568	348.23
387.948	363.82
388.328	358.17
388.707	377.83
389.087	379.41
389.466	368.56
389.846	364.5
390.225	377.83
390.605	377.38
390.984	375.8
391.363	362.91
391.743	372.63
392.122	366.76
392.501	367.21
392.881	379.86
393.26	371.05
393.639	360.65
394.018	384.83
394.397	384.61
394.776	399.98
395.155	366.08
395.534	378.73
395.913	375.8
396.292	367.66
396.671	387.09
397.05	404.72
397.429	411.5
397.808	414.44
398.186	401.56
398.565	384.83
398.944	394.33
399.323	396.81
399.701	380.09
400.08	402.01
400.458	382.8
400.837	419.64
401.215	420.77
401.594	426.87
401.972	419.18
402.351	411.27
402.729	419.41
403.107	435.68
403.486	420.54
403.864	409.92
404.242	417.38
404.62	419.18
404.999	440.43
405.377	428.9
405.755	430.26
406.133	424.61
406.511	444.72
406.889	445.62
407.267	442.23
407.645	447.66
408.023	447.66
408.401	464.15
408.779	464.61
409.156	452.18
409.534	440.43
409.912	483.36
410.29	460.54
410.667	468.22
411.045	460.31
411.422	470.71
411.8	445.85
412.178	473.19
412.555	492.4
412.933	479.07
413.31	510.03
413.687	500.54
414.065	510.48
414.442	489.01
414.819	504.83
415.197	504.83
415.574	520.65
415.951	510.48
416.328	515.45
416.705	510.93
417.082	499.63
417.46	522.01
417.837	542.57
418.214	537.6
418.591	556.58
418.967	526.3
419.344	519.29
419.721	550.71
420.098	536.24
420.475	568.78
420.852	539.63
421.228	557.49
421.605	562.46
421.982	549.58
422.358	560.65
422.735	550.71
423.111	564.26
423.488	581.44
423.864	577.6
424.241	593.64
424.617	590.03
424.994	588.67
425.37	604.26
425.746	586.41
426.123	592.51
426.499	614.21
426.875	621.21
427.251	614.21
427.627	623.02
428.003	632.74
428.379	638.16
428.756	630.7
429.132	633.87
429.507	642.23
429.883	627.31
430.259	655.34
430.635	667.09
431.011	649.46
431.387	697.59
431.763	659.4
432.138	692.62
432.514	697.82
432.89	699.18
433.265	709.8
433.641	712.06
434.016	730.36
434.392	716.13
434.767	706.86
435.143	719.51
435.518	750.7
435.894	747.31
436.269	764.49
436.644	757.03
437.02	778.27
437.395	767.65
437.77	803.13
438.145	778.95
438.52	772.62
438.895	792.73
439.271	804.03
439.646	814.2
440.021	815.33
440.395	825.5
440.77	834.99
441.145	818.95
441.52	842.45
441.895	811.94
442.27	850.13
442.645	837.03
443.019	870.25
443.394	831.6
443.769	848.55
444.143	844.94
444.518	879.74
444.892	879.51
445.267	888.78
445.641	877.7
446.016	873.64
446.39	877.02
446.764	924.71
447.139	922.45
447.513	922.67
447.887	883.58
448.262	938.27
448.636	902.79
449.01	941.88
449.384	959.96
449.758	927.65
450.132	966.74
450.506	928.78
450.88	984.37
451.254	966.74
451.628	989.34
452.002	992.73
452.376	1036.34
452.75	1014.87
453.123	1027.53
453.497	1031.82
453.871	1032.5
454.244	1059.39
454.618	1063.46
454.992	1074.31
455.365	1093.74
455.739	1119.05
456.112	1113.63
456.486	1112.27
456.859	1110.92
457.232	1157.02
457.606	1138.49
457.979	1167.41
458.352	1182.78
458.725	1199.5
459.099	1191.14
459.472	1222.1
459.845	1240.63
460.218	1267.07
460.591	1253.74
460.964	1280.63
461.337	1283.57
461.71	1310.23
462.083	1331.02
462.456	1352.49
462.829	1351.36
463.201	1349.33
463.574	1365.83
463.947	1385.26
464.32	1404.24
464.692	1431.81
465.065	1435.88
465.438	1491.02
465.81	1473.39
466.183	1516.33
466.555	1528.99
466.928	1584.58
467.3	1565.82
467.672	1579.15
468.045	1647.85
468.417	1634.75
468.789	1676.78
469.161	1670.22
469.534	1717.68
469.906	1775.76
470.278	1785.02
470.65	1797.23
471.022	1875.19
471.394	1867.73
471.766	1931.01
472.138	1954.28
472.51	1976.21
472.882	2043.77
473.253	2061.4
473.625	2084.9
473.997	2143.66
474.369	2193.37
474.74	2229.98
475.112	2279.7
475.484	2341.39
475.855	2401.73
476.227	2451.9
476.598	2526.7
476.97	2528.28
477.341	2640.59
477.713	2632.01
478.084	2735.28
478.455	2818.89
478.827	2876.29
479.198	2973.02
479.569	3007.36
479.94	3128.04
480.311	3194.03
480.682	3280.35
481.053	3387.24
481.424	3487.35
481.795	3531.42
482.166	3593.11
482.537	3717.85
482.908	3829.04
483.279	3929.83
483.65	4007.34
484.021	4119.2
484.391	4218.63
484.762	4322.13
485.133	4425.18
485.503	4522.13
485.874	4671.05
486.244	4779.07
486.615	4898.16
486.985	5033.3
487.356	5147.87
487.726	5273.07
488.097	5368.43
488.467	5516.68
488.837	5699.27
489.207	5886.16
489.578	5965.03
489.948	6133.84
490.318	6225.13
490.688	6366.82
491.058	6473.71
491.428	6606.82
491.798	6747.61
492.168	6907.37
492.538	7067.82
492.908	7165.22
493.278	7344.88
493.648	7388.04
494.017	7594.36
494.387	7750.74
494.757	7861.93
495.126	8019.89
495.496	8102.82
495.866	8192.54
496.235	8396.38
496.605	8486.99
496.974	8562.02
497.344	8710.49
497.713	8832.3
498.082	8901.22
498.452	9069.58
498.821	9166.3
499.19	9247.65
499.559	9413.3
499.928	9575.1
500.298	9606.74
500.667	9747.07
501.036	9818.48
501.405	9961.31
501.774	9916.79
502.143	10131.92
502.512	10198.14
502.88	10300.51
503.249	10364.23
503.618	10406.04
503.987	10537.34
504.356	10669.54
504.724	10780.27
505.093	10747.05
505.462	10940.72
505.83	10962.86
506.199	11066.59
506.567	11250.09
506.936	11231.78
507.304	11410.53
507.672	11430.87
508.041	11552
508.409	11615.27
508.777	11747.7
509.145	11742.73
509.514	11780.24
509.882	11932.1
510.25	11901.37
510.618	11991.53
510.986	12074.7
511.354	12156.95
511.722	12240.57
512.09	12336.84
512.458	12267.91
512.826	12378.87
513.193	12462.03
513.561	12524.85
513.929	12608.47
514.297	12636.04
514.664	12716.26
515.032	12835.35
515.4	12745.87
515.767	12870.61
516.135	12925.97
516.502	12949.7
516.869	13055.46
517.237	13060.89
517.604	12928.91
517.972	13167.1
518.339	13214.1
518.706	13146.98
519.073	13215.23
519.44	13313.76
519.808	13389.92
520.175	13304.95
520.542	13393.76
520.909	13456.36
521.276	13394.89
521.643	13524.38
522.009	13631.72
522.376	13717.59
522.743	13723.24
523.11	13793.07
523.477	13851.83
523.843	13879.17
524.21	13950.58
524.577	13972.95
524.943	13980.64
525.31	14133.63
525.676	14117.13
526.043	14117.58
526.409	14125.72
526.776	14161.2
527.142	14196.9
527.508	14176.56
527.874	14274.19
528.241	14333.85
528.607	14188.54
528.973	14312.38
529.339	14253.17
529.705	14319.61
530.071	14436.67
530.437	14366.16
530.803	14534.29
531.169	14415.43
531.535	14370.68
531.901	14409.1
532.267	14398.93
532.632	14443.45
532.998	14444.13
533.364	14495.88
533.73	14429.89
534.095	14457.01
534.461	14423.79
534.826	14457.23
535.192	14390.34
535.557	14501.53
535.923	14417.23
536.288	14385.6
536.653	14444.58
537.019	14317.12
537.384	14377.23
537.749	14411.36
538.114	14381.08
538.479	14369.33
538.845	14296.56
539.21	14146.05
539.575	14230.12
539.94	14126.17
540.305	14227.18
540.67	14186.73
541.034	14208.65
541.399	14101.08
541.764	14150.57
542.129	14134.08
542.494	14111.03
542.858	14070.8
543.223	14070.35
543.587	14039.84
543.952	14073.06
544.316	14024.7
544.681	13916.91
545.045	13938.83
545.41	13883.24
545.774	13913.07
546.138	13885.04
546.503	13728.21
546.867	13806.18
547.231	13817.02
547.595	13769.57
547.959	13785.84
548.324	13607.54
548.688	13704.48
549.052	13626.52
549.416	13726.63
549.779	13564.83
550.143	13636.24
550.507	13667.42
550.871	13629.23
551.235	13520.53
551.599	13529.8
551.962	13525.96
552.326	13516.01
552.689	13441.89
553.053	13327.09
553.417	13392.63
553.78	13474.66
554.143	13393.53
554.507	13455
554.87	13366.64
555.234	13387.43
555.597	13353.08
555.96	13359.63
556.323	13380.2
556.686	13303.59
557.05	13345.4
557.413	13331.84
557.776	13295
558.139	13370.26
558.502	13301.33
558.865	13331.39
559.228	13371.39
559.59	13346.3
559.953	13326.42
560.316	13436.47
560.679	13325.06
561.041	13432.4
561.404	13389.92
561.767	13501.33
562.129	13379.52
562.492	13493.87
562.854	13422.01
563.217	13412.74
563.579	13383.36
563.941	13395.11
564.304	13453.64
564.666	13512.17
565.028	13435.79
565.39	13563.02
565.753	13500.2
566.115	13548.56
566.477	13514.88
566.839	13571.83
567.201	13643.69
567.563	13587.2
567.925	13645.73
568.287	13652.06
568.648	13671.94
569.01	13662.68
569.372	13704.48
569.734	13681.89
570.095	13725.27
570.457	13780.87
570.819	13739.51
571.18	13763.01
571.542	13824.93
571.903	13756.69
572.265	13832.62
572.626	13830.13
572.987	13833.75
573.349	13887.98
573.71	13863.8
574.071	13936.12
574.432	13945.16
574.794	14008.43
575.155	13971.37
575.516	13848.21
575.877	13944.25
576.238	13919.85
576.599	13945.16
576.96	13943.35
577.32	13916.91
577.681	13977.92
578.042	13992.16
578.403	14057.47
578.763	13983.57
579.124	13938.83
579.485	13993.52
579.845	14071.03
580.206	13983.35
580.566	14034.65
580.927	14085.27
581.287	14082.1
581.648	13967.75
582.008	14057.7
582.368	13937.92
582.728	13963.91
583.089	14020.86
583.449	13980.86
583.809	13966.62
584.169	13964.82
584.529	13918.04
584.889	14097.69
585.249	13977.7
585.609	13854.76
585.969	13987.41
586.329	13962.56
586.688	13922.11
587.048	13921.43
587.408	13850.24
587.768	13933.4
588.127	13851.6
588.487	13773.64
588.846	13923.01
589.206	13809.57
589.565	13814.31
589.925	13859.06
590.284	13862.22
590.643	13860.19
591.003	13850.24
591.362	13826.06
591.721	13918.26
592.08	13809.34
592.44	13786.29
592.799	13855.44
593.158	13852.05
593.517	13836.46
593.876	13804.82
594.235	13715.11
594.593	13743.35
594.952	13814.76
595.311	13766.18
595.67	13755.1
596.029	13822.67
596.387	13777.93
596.746	13814.31
597.104	13759.62
597.463	13707.2
597.822	13773.41
598.18	13712.39
598.538	13713.3
598.897	13733.18
599.255	13673.3
599.613	13809.57
599.972	13699.29
600.33	13652.96
600.688	13660.64
601.046	13710.59
601.404	13800.75
601.762	13780.41
602.12	13769.12
602.478	13784.03
602.836	13738.38
603.194	13733.41
603.552	13750.13
603.91	13706.52
604.268	13785.39
604.625	13711.72
604.983	13751.71
605.341	13637.82
605.698	13739.96
606.056	13764.37
606.413	13729.12
606.771	13767.31
607.128	13840.3
607.485	13777.25
607.843	13729.34
608.2	13815.22
608.557	13826.29
608.914	13735.22
609.272	13852.28
609.629	13850.47
609.986	14008.43
610.343	13859.96
610.7	13996.91
611.057	13882.56
611.414	13972.95
611.771	13891.37
612.127	14037.13
612.484	14060.63
612.841	13990.13
613.198	13968.66
613.554	14008.43
613.911	14027.64
614.267	14018.15
614.624	14010.69
614.98	14002.33
615.337	14079.84
615.693	14104.02
616.05	14074.42
616.406	14085.72
616.762	13988.32
617.118	14094.53
617.475	14025.61
617.831	14075.77
618.187	14114.42
618.543	14051.14
618.899	14219.05
619.255	14200.29
619.611	14172.95
619.967	14236
620.323	14254.07
620.678	14132.27
621.034	14186.05
621.39	14142.21
621.746	14086.85
622.101	14210.91
622.457	14146.05
622.812	14157.81
623.168	14305.37
623.523	14132.27
623.879	14285.49
624.234	14144.7
624.589	14241.42
624.945	14181.99
625.3	14170.46
625.655	14243.45
626.01	14179.95
626.365	14159.39
626.72	14184.02
627.075	14128.88
627.43	14180.63
627.785	14148.09
628.14	14137.92
628.495	14197.58
628.85	14120.52
629.205	14085.27
629.559	14154.42
629.914	14154.64
630.269	14063.12
630.623	14021.76
630.978	14063.34
631.332	14064.47
631.687	14091.59
632.041	14001.65
632.396	14099.28
632.75	14036.68
633.104	14041.65
633.459	13987.19
633.813	14111.48
634.167	14003.91
634.521	13982.22
634.875	13977.02
635.229	13978.38
635.583	13857.93
635.937	13805.27
636.291	13804.14
636.645	13840.07
636.999	13845.72
637.352	13852.95
637.706	13781.09
638.06	13816.57
638.413	13734.09
638.767	13736.57
639.121	13690.47
639.474	13668.55
639.828	13639.63
640.181	13723.92
640.534	13771.6
640.888	13697.03
641.241	13614.09
641.594	13611.61
641.947	13663.58
642.301	13601.89
642.654	13565.05
643.007	13606.63
643.36	13647.99
643.713	13560.31
644.066	13678.04
644.419	13572.28
644.771	13386.07
645.124	13361.44
645.477	13291.16
645.83	13234.67
646.182	13169.81
646.535	13168.68
646.888	13187.89
647.24	13104.73
647.593	13237.38
647.945	13166.65
648.298	13131.39
648.65	13109.25
649.002	13045.97
649.355	13125.97
649.707	13139.98
650.059	13219.98
650.411	13413.87
650.763	13345.17
651.115	13519.63
651.467	13482.8
651.819	13407.54
652.171	13338.17
652.523	13403.7
652.875	13423.59
653.227	13310.37
653.578	13496.13
653.93	13384.04
654.282	13375.45
654.633	13363.93
654.985	13376.36
655.337	13373.65
655.688	13370.03
656.039	13513.3
656.391	13357.6
656.742	13342.91
657.094	13367.32
657.445	13386.75
657.796	13384.94
658.147	13402.12
658.498	13337.49
658.849	13406.19
659.2	13339.97
659.551	13301.78
659.902	13313.31
660.253	13373.19
660.604	13427.2
660.955	13351.27
661.306	13365.28
661.656	13386.53
662.007	13401.67
662.358	13452.06
662.708	13439.63
663.059	13391.27
663.409	13337.26
663.76	13426.07
664.11	13515.34
664.461	13408.45
664.811	13495.22
665.161	13490.48
665.511	13377.71
665.862	13456.36
666.212	13437.82
666.562	13496.58
666.912	13414.1
667.262	13424.72
667.612	13385.62
667.962	13357.6
668.312	13443.47
668.662	13487.99
669.011	13393.76
669.361	13344.27
669.711	13403.7
670.06	13318.51
670.41	13294.78
670.76	13289.13
671.109	13420.2
671.459	13372.29
671.808	13269.02
672.157	13275.79
672.507	13262.46
672.856	13206.87
673.205	13367.77
673.554	13383.14
673.904	13274.44
674.253	13359.63
674.602	13255
674.951	13094.78
675.3	13103.14
675.649	13246.19
675.998	13245.51
676.346	13242.35
676.695	13238.96
677.044	13210.26
677.393	13159.19
677.741	13283.03
678.09	13170.94
678.438	13089.59
678.787	13160.77
679.135	13134.33
679.484	13099.53
679.832	13067.44
680.181	13044.16
680.529	13088.23
680.877	13022.24
681.225	13013.88
681.573	13081.9
681.922	12932.98
682.27	12869.48
682.618	12980.66
682.966	12856.82
683.314	12908.35
683.661	12835.58
684.009	12749.93
684.357	12749.93
684.705	12796.49
685.053	12738.18
685.4	12714.45
685.748	12678.07
686.095	12604.85
686.443	12569.82
686.79	12631.07
687.138	12605.3
687.485	12520.56
687.832	12464.06
688.18	12499.09
688.527	12473.78
688.874	12463.39
689.221	12393.33
689.568	12411.18
689.915	12309.49
690.262	12369.38
690.609	12288.7
690.956	12180
691.303	12161.93
691.65	12163.51
691.997	12156.73
692.344	12099.33
692.69	12022.27
693.037	12053.23
693.383	11894.81
693.73	11902.05
694.077	11883.97
694.423	11936.4
694.769	11915.15
695.116	11793.57
695.462	11836.74
695.808	11656.63
696.155	11722.84
696.501	11595.39
696.847	11586.57
697.193	11544.32
697.539	11495.5
697.885	11446.92
698.231	11455.05
698.577	11410.53
698.923	11410.76
699.269	11359.24
699.614	11211.22
699.96	11189.07
700.306	11285.34
700.651	11155.85
700.997	11060.71
701.342	11029.3
701.688	11043.09
702.033	11027.49
702.379	11037.89
702.724	11028.85
703.069	10960.83
703.415	10757.22
703.76	10790.89
704.105	10820.04
704.45	10778.01
704.795	10748.63
705.14	10679.48
705.485	10742.3
705.83	10606.49
706.175	10679.93
706.52	10595.87
706.865	10522.2
707.209	10536.21
707.554	10472.7
707.899	10513.83
708.243	10408.53
708.588	10423.67
708.932	10310
709.277	10388.64
709.621	10387.28
709.966	10281.3
710.31	10286.5
710.654	10228.19
710.998	10178.7
711.342	10224.12
711.687	10184.8
712.031	10156.55
712.375	10059.61
712.719	10046.73
713.063	10113.17
713.407	10080.85
713.75	9991.59
714.094	10035.43
714.438	9993.62
714.782	9959.95
715.125	9933.96
715.469	9921.31
715.812	9888.77
716.156	9876.11
716.499	9874.98
716.843	9912.49
717.186	9768.99
717.53	9821.42
717.873	9856
718.216	9863.23
718.559	9783.68
718.902	9702.33
719.246	9761.09
719.589	9655.33
719.932	9705.95
720.275	9674.53
720.617	9627.3
720.96	9583.91
721.303	9626.85
721.646	9679.28
721.989	9647.64
722.331	9656.68
722.674	9615.33
723.016	9564.03
723.359	9557.02
723.701	9539.17
724.044	9542.11
724.386	9471.6
724.729	9554.08
725.071	9555.67
725.413	9508.89
725.755	9495.1
726.097	9437.25
726.439	9411.72
726.782	9434.31
727.124	9489.91
727.465	9493.97
727.807	9433.64
728.149	9416.24
728.491	9427.99
728.833	9406.97
729.175	9382.34
729.516	9484.03
729.858	9392.73
730.199	9396.57
730.541	9360.19
730.882	9400.19
731.224	9403.35
731.565	9391.6
731.906	9420.3
732.248	9308.22
732.589	9299.63
732.93	9322
733.271	9313.41
733.612	9362.45
733.953	9414.88
734.294	9278.61
734.635	9287.2
734.976	9340.31
735.317	9292.17
735.658	9340.31
735.999	9330.81
736.339	9305.05
736.68	9401.77
737.021	9304.15
737.361	9308.89
737.702	9375.78
738.042	9368.33
738.383	9354.54
738.723	9367.88
739.063	9325.16
739.404	9366.29
739.744	9406.52
740.084	9344.6
740.424	9420.53
740.764	9432.73
741.104	9483.13
741.444	9467.08
741.784	9446.07
742.124	9459.4
742.464	9414.43
742.804	9526.97
743.143	9502.79
743.483	9487.65
743.823	9519.06
744.162	9524.26
744.502	9616.91
744.841	9582.33
745.181	9631.6
745.52	9669.79
745.86	9724.48
746.199	9753.63
746.538	9772.61
746.877	9910.23
747.216	9900.06
747.556	9983.45
747.895	9900.74
748.234	9983.9
748.573	10098.93
748.911	10031.36
749.25	10189.77
749.589	10134.18
749.928	10269.32
750.267	10361.75
750.605	10420.05
750.944	10463.89
751.283	10511.57
751.621	10677.9
751.96	10668.18
752.298	10833.6
752.636	10932.35
752.975	10977.32
753.313	11039.02
753.651	11185.68
753.989	11265.45
754.327	11323.98
754.666	11408.05
755.004	11533.92
755.342	11689.62
755.679	11799.68
756.017	11868.83
756.355	12083.74
756.693	12240.79
757.031	12390.17
757.368	12422.48
757.706	12588.36
758.044	12737.5
758.381	12875.81
