Data from hue_260_FLMS001491_00015.txt Node
Date: Tue Feb 07 15:58:39 GMT 2017
User: dcchb
Spectrometer: FLMS00149
Trigger mode: 0
Integration Time (sec): 2.000000E-2
Scans to average: 10
Electric dark correction enabled: true
Nonlinearity correction enabled: false
Boxcar width: 0
XAxis mode: Wavelengths
Number of Pixels in Spectrum: 2048
>>>>>Begin Spectral Data<<<<<
341.393	-11.67
341.776	-11.67
342.16	-11.67
342.543	-36.98
342.927	-74.94
343.31	-66.13
343.693	-80.59
344.077	-65.9
344.46	-65.22
344.843	-55.28
345.226	-40.14
345.61	-16.64
345.993	-34.94
346.376	-10.31
346.759	3.7
347.142	30.82
347.525	36.47
347.908	50.03
348.291	90.25
348.674	108.33
349.057	115.56
349.44	103.58
349.823	154.66
350.206	154.88
350.588	196.92
350.971	193.53
351.354	227.88
351.737	224.26
352.119	215.9
352.502	241.89
352.884	268.1
353.267	260.42
353.65	283.92
354.032	266.07
354.414	280.76
354.797	305.16
355.179	317.82
355.562	303.58
355.944	315.33
356.326	294.54
356.709	337.48
357.091	296.12
357.473	312.39
357.855	317.14
358.238	330.7
358.62	327.31
359.002	310.36
359.384	335.44
359.766	321.21
360.148	340.19
360.53	307.65
360.912	323.24
361.294	316.46
361.676	332.96
362.057	313.75
362.439	318.49
362.821	302.9
363.203	315.56
363.584	312.62
363.966	328.44
364.348	304.94
364.729	302.22
365.111	298.83
365.493	317.59
365.874	310.36
366.256	292.96
366.637	291.83
367.019	306.97
367.4	315.1
367.781	299.96
368.163	313.52
368.544	291.6
368.925	299.96
369.306	305.84
369.688	304.03
370.069	293.86
370.45	319.17
370.831	309
371.212	301.77
371.593	283.02
371.974	325.05
372.355	310.81
372.736	306.29
373.117	308.78
373.498	308.55
373.879	306.07
374.26	297.48
374.641	300.64
375.021	311.94
375.402	295.44
375.783	311.49
376.163	322.34
376.544	323.47
376.925	319.17
377.305	288.89
377.686	302.9
378.066	309.91
378.447	328.44
378.827	298.16
379.208	321.88
379.588	343.35
379.968	317.82
380.349	329.34
380.729	326.86
381.109	322.11
381.489	330.47
381.87	328.66
382.25	315.33
382.63	339.51
383.01	345.61
383.39	306.97
383.77	346.06
384.15	367.98
384.53	338.15
384.91	354.88
385.29	339.96
385.67	342.67
386.049	357.82
386.429	346.97
386.809	351.94
387.189	316.23
387.568	359.17
387.948	347.19
388.328	340.19
388.707	342.9
389.087	372.28
389.466	360.53
389.846	338.38
390.225	364.37
390.605	353.52
390.984	351.26
391.363	362.79
391.743	358.72
392.122	376.35
392.501	375.89
392.881	358.49
393.26	368.66
393.639	355.78
394.018	386.97
394.397	365.5
394.776	365.05
395.155	379.06
395.534	373.41
395.913	365.27
396.292	385.39
396.671	405.05
397.05	409.57
397.429	374.99
397.808	402.33
398.186	398.72
398.565	402.11
398.944	393.97
399.323	402.11
399.701	398.04
400.08	409.79
400.458	413.86
400.837	388.32
401.215	412.5
401.594	419.96
401.972	405.27
402.351	411.37
402.729	429.45
403.107	412.96
403.486	420.19
403.864	435.55
404.242	421.09
404.62	415.44
404.999	447.08
405.377	446.63
405.755	441.66
406.133	451.6
406.511	433.97
406.889	457.02
407.267	468.55
407.645	469.45
408.023	470.13
408.401	474.65
408.779	482.33
409.156	481.65
409.534	473.74
409.912	496.12
410.29	499.73
410.667	500.64
411.045	501.31
411.422	520.75
411.8	513.74
412.178	561.65
412.555	545.61
412.933	537.7
413.31	550.8
413.687	572.05
414.065	568.21
414.442	574.08
414.819	602.55
415.197	600.29
415.574	610.01
415.951	573.85
416.328	602.1
416.705	641.2
417.082	616.79
417.46	616.34
417.837	656.34
418.214	659.73
418.591	660.41
418.967	644.36
419.344	662.89
419.721	656.56
420.098	668.99
420.475	688.65
420.852	685.72
421.228	687.98
421.605	711.48
421.982	732.49
422.358	733.85
422.735	760.52
423.111	747.86
423.488	757.13
423.864	774.08
424.241	787.63
424.617	782.89
424.994	794.19
425.37	821.31
425.746	833.74
426.123	835.09
426.499	858.82
426.875	848.65
427.251	868.54
427.627	859.27
428.003	876.67
428.379	895.2
428.756	906.28
429.132	925.48
429.507	904.02
429.883	935.88
430.259	926.39
430.635	963.9
431.011	949.44
431.387	1011.58
431.763	990.12
432.138	1018.82
432.514	1021.53
432.89	1017.46
433.265	1057.01
433.641	1066.5
434.016	1080.96
434.392	1110.34
434.767	1124.12
435.143	1111.92
435.518	1132.26
435.894	1153.95
436.269	1173.39
436.644	1200.05
437.02	1178.81
437.395	1212.71
437.77	1258.58
438.145	1277.11
438.52	1295.42
438.895	1290.22
439.271	1307.62
439.646	1340.39
440.021	1377.68
440.395	1353.95
440.77	1352.37
441.145	1378.81
441.52	1423.55
441.895	1416.77
442.27	1430.78
442.645	1452.25
443.019	1457
443.394	1470.55
443.769	1483.66
444.143	1481.63
444.518	1489.76
444.892	1476.2
445.267	1507.39
445.641	1536.77
446.016	1536.54
446.39	1540.61
446.764	1563.89
447.139	1586.48
447.513	1560.5
447.887	1590.78
448.262	1616.09
448.636	1592.59
449.01	1643.21
449.384	1662.64
449.758	1647.5
450.132	1659.02
450.506	1661.51
450.88	1693.83
451.254	1660.61
451.628	1708.97
452.002	1744.45
452.376	1745.35
452.75	1758
453.123	1771.11
453.497	1793.48
453.871	1805.24
454.244	1847.49
454.618	1854.27
454.992	1900.15
455.365	1885.01
455.739	1896.53
456.112	1918.9
456.486	1932.92
456.859	1958
457.232	2012.24
457.606	1976.53
457.979	2015.62
458.352	2041.16
458.725	2063.08
459.099	2102.4
459.472	2109.63
459.845	2105.34
460.218	2162.74
460.591	2163.42
460.964	2143.53
461.337	2223.3
461.71	2230.76
462.083	2294.04
462.456	2321.38
462.829	2275.51
463.201	2344.43
463.574	2335.39
463.947	2405.22
464.32	2388.5
464.692	2451.55
465.065	2435.27
465.438	2501.04
465.81	2519.11
466.183	2545.33
466.555	2574.93
466.928	2626.23
467.3	2570.86
467.672	2645.66
468.045	2686.79
468.417	2710.75
468.789	2709.17
469.161	2733.8
469.534	2763.85
469.906	2809.5
470.278	2831.65
470.65	2895.83
471.022	2926.11
471.394	2985.99
471.766	2990.29
472.138	3048.59
472.51	3067.35
472.882	3126.33
473.253	3143.73
473.625	3141.7
473.997	3216.5
474.369	3226.89
474.74	3321.35
475.112	3312.09
475.484	3385.98
475.855	3415.81
476.227	3436.83
476.598	3528.35
476.97	3542.82
477.341	3669.59
477.713	3695.58
478.084	3703.94
478.455	3781.91
478.827	3764.96
479.198	3913.2
479.569	3875.92
479.94	3972.41
480.311	4007.66
480.682	4094.89
481.053	4152.74
481.424	4213.53
481.795	4265.51
482.166	4312.97
482.537	4350.25
482.908	4434.54
483.279	4473.87
483.65	4477.71
484.021	4603.81
484.391	4633.18
484.762	4709.11
485.133	4708.21
485.503	4723.58
485.874	4823.01
486.244	4940.75
486.615	5011.25
486.985	5040.18
487.356	5138.48
487.726	5148.88
488.097	5171.93
488.467	5224.35
488.837	5322.66
489.207	5340.51
489.578	5394.52
489.948	5495.76
490.318	5516.55
490.688	5547.28
491.058	5651.01
491.428	5696.21
491.798	5706.15
492.168	5865.92
492.538	5839.71
492.908	5916.77
493.278	5947.5
493.648	5943.88
494.017	6036.08
494.387	6045.35
494.757	6096.42
495.126	6185.01
495.496	6205.8
495.866	6186.36
496.235	6231.11
496.605	6320.82
496.974	6316.53
497.344	6382.74
497.713	6418.67
498.082	6427.03
498.452	6488.28
498.821	6498.9
499.19	6501.83
499.559	6597.65
499.928	6536.64
500.298	6702.06
500.667	6697.99
501.036	6605.56
501.405	6691.21
501.774	6714.26
502.143	6810.75
502.512	6780.7
502.88	6786.12
503.249	6789.28
503.618	6851.43
503.987	6836.06
504.356	6849.17
504.724	6916.29
505.093	6952.22
505.462	6931.2
505.83	7030.18
506.199	6994.93
506.567	7118.77
506.936	7057.3
507.304	7152.21
507.672	7171.87
508.041	7158.54
508.409	7265.88
508.777	7273.11
509.145	7229.95
509.514	7233.34
509.882	7290.74
510.25	7330.06
510.618	7373
510.986	7377.52
511.354	7375.03
511.722	7446.44
512.09	7433.34
512.458	7443.28
512.826	7496.61
513.193	7535.25
513.561	7535.03
513.929	7591.3
514.297	7605.53
514.664	7601.69
515.032	7595.37
515.4	7634.69
515.767	7591.07
516.135	7635.59
516.502	7610.96
516.869	7734.57
517.237	7695.7
517.604	7655.93
517.972	7740.45
518.339	7782.7
518.706	7812.31
519.073	7754.01
519.44	7850.95
519.808	7922.36
520.175	7798.52
520.542	7905.87
520.909	7895.47
521.276	7898.86
521.643	7919.42
522.009	8005.52
522.376	7981.57
522.743	8000.55
523.11	8049.59
523.477	8103.6
523.843	8007.78
524.21	8115.13
524.577	8135.24
524.943	8137.05
525.31	8211.39
525.676	8240.55
526.043	8228.12
526.409	8245.07
526.776	8299.98
527.142	8291.39
527.508	8299.53
527.874	8342.69
528.241	8368.9
528.607	8297.04
528.973	8361.67
529.339	8391.73
529.705	8395.34
530.071	8392.41
530.437	8441.44
530.803	8429.02
531.169	8448
531.535	8436.02
531.901	8418.85
532.267	8436.47
532.632	8453.2
532.998	8468.56
533.364	8451.39
533.73	8438.28
534.095	8503.59
534.461	8487.32
534.826	8483.7
535.192	8527.32
535.557	8537.04
535.923	8493.19
536.288	8569.58
536.653	8492.74
537.019	8453.2
537.384	8491.39
537.749	8549.24
538.114	8496.13
538.479	8492.52
538.845	8534.78
539.21	8460.43
539.575	8479.41
539.94	8516.25
540.305	8562.8
540.67	8530.93
541.034	8468.56
541.399	8532.29
541.764	8475.34
542.129	8493.19
542.494	8443.48
542.858	8442.57
543.223	8480.09
543.587	8539.07
543.952	8470.82
544.316	8471.5
544.681	8452.29
545.045	8446.19
545.41	8514.21
545.774	8475.79
546.138	8428.79
546.503	8455.23
546.867	8431.05
547.231	8535.91
547.595	8448.22
547.959	8477.6
548.324	8366.64
548.688	8357.38
549.052	8422.24
549.416	8447.55
549.779	8414.33
550.143	8447.09
550.507	8394.67
550.871	8448.9
551.235	8378.17
551.599	8437.15
551.962	8433.08
552.326	8300.88
552.689	8428.79
553.053	8335.01
553.417	8322.8
553.78	8424.27
554.143	8405.97
554.507	8405.51
554.87	8394.44
555.234	8429.69
555.597	8374.78
555.96	8496.13
556.323	8368.9
556.686	8467.21
557.05	8436.7
557.413	8418.85
557.776	8452.29
558.139	8490.71
558.502	8471.27
558.865	8504.95
559.228	8548.33
559.59	8491.16
559.953	8473.53
560.316	8510.6
560.679	8560.09
561.041	8605.96
561.404	8555.11
561.767	8627.2
562.129	8634.43
562.492	8690.93
562.854	8649.35
563.217	8628.33
563.579	8674.66
563.941	8719.4
564.304	8706.97
564.666	8762.11
565.028	8716.47
565.39	8814.09
565.753	8725.73
566.115	8796.01
566.477	8826.07
566.839	8850.25
567.201	8943.35
567.563	8874.88
567.925	8881.43
568.287	8932.51
568.648	8881.43
569.01	9002.33
569.372	8963.69
569.734	8988.55
570.095	9014.09
570.457	9032.39
570.819	9070.58
571.18	9042.78
571.542	9064.25
571.903	9135.66
572.265	9144.7
572.626	9147.64
572.987	9156.23
573.349	9198.49
573.71	9249.33
574.071	9263.57
574.432	9233.51
574.794	9307.64
575.155	9236.9
575.516	9328.65
575.877	9382.44
576.238	9407.3
576.599	9443.68
576.96	9380.86
577.32	9348.09
577.681	9424.47
578.042	9417.24
578.403	9480.97
578.763	9497.91
579.124	9502.43
579.485	9597.35
579.845	9570
580.206	9563
580.566	9534.07
580.927	9593.28
581.287	9647.74
581.648	9681.19
582.008	9661.07
582.368	9611.81
582.728	9693.39
583.089	9735.42
583.449	9700.85
583.809	9790.34
584.169	9754.4
584.529	9710.79
584.889	9817.45
585.249	9796.89
585.609	9752.82
585.969	9846.38
586.329	9781.52
586.688	9881.18
587.048	9799.83
587.408	9828.3
587.768	9834.18
588.127	9872.82
588.487	9839.83
588.846	9982.42
589.206	9895.64
589.565	9934.96
589.925	9948.75
590.284	9867.62
590.643	9976.32
591.003	9951.69
591.362	9993.49
591.721	10022.19
592.08	10042.31
592.44	10108.75
592.799	10094.28
593.158	10095.64
593.517	10059.93
593.876	10070.33
594.235	10044.11
594.593	10097.45
594.952	10062.19
595.311	10080.05
595.67	10092.93
596.029	10135.19
596.387	10173.6
596.746	10176.99
597.104	10144.22
597.463	10104
597.822	10234.17
598.18	10206.37
598.538	10168.18
598.897	10274.39
599.255	10154.17
599.613	10337.21
599.972	10201.17
600.33	10294.5
600.688	10214.28
601.046	10329.76
601.404	10293.15
601.762	10279.59
602.12	10275.52
602.478	10280.04
602.836	10255.18
603.194	10269.87
603.552	10339.7
603.91	10207.95
604.268	10285.01
604.625	10326.59
604.983	10334.73
605.341	10312.58
605.698	10330.89
606.056	10371.11
606.413	10346.48
606.771	10305.35
607.128	10371.56
607.485	10296.76
607.843	10322.07
608.2	10322.75
608.557	10430.09
608.914	10400.04
609.272	10462.63
609.629	10432.58
609.986	10461.73
610.343	10438.23
610.7	10459.47
611.057	10473.71
611.414	10539.47
611.771	10449.75
612.127	10536.08
612.484	10534.95
612.841	10538.34
613.198	10549.86
613.554	10537.43
613.911	10597.55
614.267	10586.47
614.624	10522.97
614.98	10550.32
615.337	10637.09
615.693	10593.7
616.05	10576.98
616.406	10705.79
616.762	10624.66
617.118	10605.23
617.475	10621.05
617.831	10699.24
618.187	10698.11
618.543	10692.91
618.899	10734.49
619.255	10709.41
619.611	10711.44
619.967	10752.34
620.323	10794.38
620.678	10676.41
621.034	10610.2
621.39	10701.5
621.746	10656.53
622.101	10836.41
622.457	10701.27
622.812	10720.48
623.168	10743.31
623.523	10779.24
623.879	10775.39
624.234	10707.15
624.589	10670.31
624.945	10703.31
625.3	10710.09
625.655	10800.25
626.01	10678.9
626.365	10742.4
626.72	10701.27
627.075	10702.18
627.43	10657.88
627.785	10591.67
628.14	10699.46
628.495	10797.31
628.85	10715.51
629.205	10618.79
629.559	10666.02
629.914	10608.39
630.269	10640.03
630.623	10670.31
630.978	10553.48
631.332	10630.99
631.687	10675.74
632.041	10597.32
632.396	10630.31
632.75	10586.25
633.104	10549.19
633.459	10522.97
633.813	10476.65
634.167	10415.4
634.521	10502.41
634.875	10533.82
635.229	10451.34
635.583	10404.56
635.937	10416.99
636.291	10416.31
636.645	10370.43
636.999	10392.35
637.352	10428.51
637.706	10331.11
638.06	10382.18
638.413	10273.94
638.767	10358.91
639.121	10376.31
639.474	10313.49
639.828	10376.76
640.181	10273.94
640.534	10211.34
640.888	10252.24
641.241	10210.21
641.594	10186.26
641.947	10324.79
642.301	10211.57
642.654	10259.48
643.007	10274.39
643.36	10183.09
643.713	10191.23
644.066	10237.33
644.419	10130.21
644.771	10141.06
645.124	10067.62
645.477	10028.3
645.83	9971.12
646.182	9937.45
646.535	9903.78
646.888	9828.98
647.24	9823.78
647.593	9914.17
647.945	9895.64
648.298	9893.16
648.65	9766.38
649.002	9778.36
649.355	9803.89
649.707	9847.28
650.059	9897.23
650.411	10021.97
650.763	10034.4
651.115	10088.86
651.467	10127.73
651.819	10087.96
652.171	10036.88
652.523	10021.06
652.875	9985.58
653.227	10025.81
653.578	10067.16
653.93	10026.04
654.282	10000.05
654.633	10030.78
654.985	10016.77
655.337	10004.79
655.688	9969.77
656.039	10051.57
656.391	9920.28
656.742	9978.81
657.094	9958.92
657.445	10038.24
657.796	10054.96
658.147	10001.86
658.498	10023.32
658.849	10004.34
659.2	10014.28
659.551	9931.8
659.902	9965.47
660.253	9998.47
660.604	10040.72
660.955	9961.63
661.306	9998.01
661.656	10028.97
662.007	10033.27
662.358	9995.98
662.708	9975.19
663.059	9983.78
663.409	9960.5
663.76	10051.8
664.11	10067.62
664.461	10067.16
664.811	10042.76
665.161	10042.31
665.511	10028.52
665.862	9999.82
666.212	10037.33
666.562	10012.93
666.912	10011.8
667.262	10077.79
667.612	10047.73
667.962	10055.87
668.312	9991.23
668.662	10013.61
669.011	9977.68
669.361	9966.38
669.711	9948.98
670.06	9979.71
670.41	9932.03
670.76	10021.74
671.109	9966.6
671.459	10042.08
671.808	9960.73
672.157	10031.46
672.507	9951.01
672.856	9917.11
673.205	9905.14
673.554	9964.12
673.904	9899.03
674.253	9864.46
674.602	9896.55
674.951	9725.7
675.3	9758.02
675.649	9869.88
675.998	9851.8
676.346	9917.79
676.695	9857
677.044	9830.33
677.393	9862.42
677.741	9767.74
678.09	9810.45
678.438	9868.3
678.787	9757.12
679.135	9738.36
679.484	9695.2
679.832	9763.67
680.181	9699.49
680.529	9755.99
680.877	9662.43
681.225	9697
681.573	9749.43
681.922	9693.84
682.27	9664.24
682.618	9650.68
682.966	9602.32
683.314	9570.45
683.661	9588.53
684.009	9533.17
684.357	9450.46
684.705	9489.78
685.053	9482.1
685.4	9494.3
685.748	9392.83
686.095	9424.92
686.443	9375.88
686.79	9344.7
687.138	9404.13
687.485	9334.75
687.832	9342.21
688.18	9342.89
688.527	9267.19
688.874	9265.15
689.221	9202.78
689.568	9177.02
689.915	9194.65
690.262	9218.15
690.609	9226.73
690.956	9087.08
691.303	9107.42
691.65	9044.82
691.997	9017.93
692.344	8962.79
692.69	8973.41
693.037	8925.05
693.383	8879.63
693.73	8866.52
694.077	8837.82
694.423	8825.39
694.769	8782.68
695.116	8752.85
695.462	8727.31
695.808	8770.7
696.155	8710.14
696.501	8654.09
696.847	8653.87
697.193	8556.02
697.539	8622.68
697.885	8531.84
698.231	8469.92
698.577	8469.01
698.923	8506.08
699.269	8421.33
699.614	8376.81
699.96	8352.41
700.306	8415.23
700.651	8299.75
700.997	8295.46
701.342	8304.27
701.688	8237.61
702.033	8244.84
702.379	8208.91
702.724	8137.27
703.069	8113.77
703.415	8144.73
703.76	8111.74
704.105	8055.01
704.45	8038.97
704.795	8029.7
705.14	8034
705.485	7999.87
705.83	7866.77
706.175	8009.37
706.52	7905.87
706.865	7869.93
707.209	7898.63
707.554	7800.56
707.899	7863.15
708.243	7771.86
708.588	7748.58
708.932	7668.36
709.277	7665.19
709.621	7729.15
709.966	7653.22
710.31	7619.32
710.654	7622.03
710.998	7594.01
711.342	7572.09
711.687	7608.02
712.031	7511.75
712.375	7559.43
712.719	7569.38
713.063	7488.48
713.407	7487.12
713.75	7442.83
714.094	7437.63
714.438	7482.37
714.782	7413.68
715.125	7377.07
715.469	7429.04
715.812	7409.38
716.156	7430.4
716.499	7389.27
716.843	7389.72
717.186	7335.94
717.53	7382.26
717.873	7290.06
718.216	7320.12
718.559	7330.97
718.902	7257.07
719.246	7231.53
719.589	7245.09
719.932	7216.62
720.275	7285.99
720.617	7264.75
720.96	7199.44
721.303	7218.43
721.646	7186.11
721.989	7152.21
722.331	7251.19
722.674	7174.13
723.016	7120.8
723.359	7148.6
723.701	7135.26
724.044	7096.85
724.386	7131.87
724.729	7142.5
725.071	7083.06
725.413	7129.61
725.755	7094.14
726.097	7008.94
726.439	7018.21
726.782	7003.29
727.124	7097.75
727.465	7015.27
727.807	7086.23
728.149	7076.28
728.491	7024.98
728.833	7078.09
729.175	6982.5
729.516	7009.39
729.858	7001.71
730.199	7057.75
730.541	7041.03
730.882	6998.32
731.224	6997.87
731.565	7085.55
731.906	6946.79
732.248	6944.53
732.589	6988.6
732.93	6950.86
733.271	6962.16
733.612	7000.13
733.953	7003.52
734.294	6989.28
734.635	6956.96
734.976	6957.42
735.317	7002.61
735.658	7024.31
735.999	6990.41
736.339	6931.43
736.68	6913.58
737.021	6964.2
737.361	6950.86
737.702	6984.08
738.042	6971.2
738.383	6924.87
738.723	6999.45
739.063	6982.27
739.404	7044.87
739.744	7048.94
740.084	6966.46
740.424	6971.2
740.764	6970.3
741.104	7047.36
741.444	7020.24
741.784	7030.41
742.124	7025.66
742.464	7015.49
742.804	7035.15
743.143	6974.36
743.483	7078.77
743.823	7058.2
744.162	7085.1
744.502	7084.64
744.841	7075.6
745.181	7172.33
745.52	7187.92
745.86	7217.75
746.199	7165.09
746.538	7213.23
746.877	7314.92
747.216	7359.67
747.556	7354.02
747.895	7402.83
748.234	7455.26
748.573	7469.72
748.911	7417.52
749.25	7489.15
749.589	7556.5
749.928	7588.81
750.267	7683.27
750.605	7815.25
750.944	7795.59
751.283	7866.54
751.621	7905.87
751.96	7910.84
752.298	8037.16
752.636	8061.79
752.975	8178.63
753.313	8241.9
753.651	8333.42
753.989	8314.89
754.327	8469.47
754.666	8497.26
755.004	8605.73
755.342	8750.82
755.679	8837.59
756.017	8904.26
756.355	9003.92
756.693	9106.74
757.031	9296.11
757.368	9257.24
757.706	9445.49
758.044	9531.36
758.381	9599.15
758.719	9779.49
759.056	9872.59
759.394	9987.62
759.731	10069.2
760.068	10141.29
760.405	10317.78
760.743	10406.14
761.08	10574.27
761.417	10650.88
761.754	10774.26
762.091	10938.78
762.428	11032.34
762.765	11158.89
763.102	11254.03
763.438	11475.72
763.775	11467.81
764.112	11647.46
764.449	11746.67
764.785	11951.63
765.122	11941.24
765.458	12104.85
