Data from hue_24_FLMS001491_00055.txt Node
Date: Tue Feb 07 17:12:27 GMT 2017
User: dcchb
Spectrometer: FLMS00149
Trigger mode: 0
Integration Time (sec): 2.000000E-2
Scans to average: 10
Electric dark correction enabled: true
Nonlinearity correction enabled: false
Boxcar width: 0
XAxis mode: Wavelengths
Number of Pixels in Spectrum: 2048
>>>>>Begin Spectral Data<<<<<
341.393	-5.8
341.776	-5.8
342.16	-5.8
342.543	-60.27
342.927	-72.92
343.31	-40.15
343.693	-64.56
344.077	-76.54
344.46	-45.58
344.843	-41.96
345.226	-30.89
345.61	-38.35
345.993	-16.65
346.376	3.23
346.759	-0.61
347.142	12.95
347.525	17.92
347.908	58.6
348.291	74.87
348.674	85.04
349.057	102.67
349.44	127.3
349.823	162.1
350.206	177.24
350.588	216.79
350.971	195.09
351.354	223.79
351.737	228.09
352.119	269.67
352.502	272.61
352.884	274.41
353.267	278.03
353.65	293.85
354.032	303.79
354.414	306.05
354.797	306.73
355.179	333.85
355.562	329.33
355.944	340.63
356.326	357.58
356.709	333.62
357.091	333.85
357.473	358.71
357.855	357.58
358.238	332.04
358.62	336.78
359.002	344.47
359.384	355.32
359.766	332.27
360.148	327.29
360.53	331.81
360.912	323.23
361.294	321.64
361.676	323
362.057	334.07
362.439	329.55
362.821	323.23
363.203	315.77
363.584	329.33
363.966	305.83
364.348	308.76
364.729	334.3
365.111	329.78
365.493	329.55
365.874	326.62
366.256	312.38
366.637	326.84
367.019	323
367.4	318.71
367.781	311.7
368.163	313.28
368.544	297.01
368.925	310.12
369.306	316.9
369.688	312.6
370.069	327.97
370.45	293.85
370.831	309.89
371.212	310.34
371.593	310.34
371.974	302.21
372.355	323.45
372.736	308.54
373.117	314.19
373.498	315.99
373.879	321.87
374.26	340.4
374.641	315.77
375.021	300.63
375.402	325.49
375.783	334.07
376.163	345.6
376.544	336.56
376.925	313.73
377.305	332.04
377.686	309.67
378.066	329.78
378.447	318.48
378.827	326.84
379.208	336.33
379.588	334.98
379.968	332.04
380.349	331.81
380.729	317.8
381.109	353.96
381.489	337.01
381.87	332.49
382.25	357.8
382.63	344.47
383.01	337.46
383.39	339.95
383.77	315.99
384.15	352.38
384.53	333.85
384.91	351.93
385.29	329.1
385.67	336.33
386.049	354.19
386.429	345.15
386.809	364.35
387.189	370.68
387.568	353.73
387.948	355.99
388.328	355.54
388.707	363
389.087	360.29
389.466	359.16
389.846	358.71
390.225	355.09
390.605	379.5
390.984	360.51
391.363	360.74
391.743	365.03
392.122	367.52
392.501	353.96
392.881	379.5
393.26	367.29
393.639	374.07
394.018	372.72
394.397	364.81
394.776	352.38
395.155	367.97
395.534	390.34
395.913	382.89
396.292	366.39
396.671	398.48
397.05	392.15
397.429	373.17
397.808	390.12
398.186	388.99
398.565	378.59
398.944	377.46
399.323	380.17
399.701	362.32
400.08	398.25
400.458	387.18
400.837	405.94
401.215	391.02
401.594	379.5
401.972	408.42
402.351	388.31
402.729	411.59
403.107	405.48
403.486	401.64
403.864	421.08
404.242	395.77
404.62	417.46
404.999	417.69
405.377	428.31
405.755	415.43
406.133	431.02
406.511	425.37
406.889	421.75
407.267	422.66
407.645	426.05
408.023	438.48
408.401	402.32
408.779	440.06
409.156	462.66
409.534	444.8
409.912	438.48
410.29	449.1
410.667	443.45
411.045	447.52
411.422	474.86
411.8	452.26
412.178	441.64
412.555	454.97
412.933	451.58
413.31	438.25
413.687	461.98
414.065	481.19
414.442	462.66
414.819	467.18
415.197	472.37
415.574	487.06
415.951	452.71
416.328	469.21
416.705	483.67
417.082	490.45
417.46	493.84
417.837	489.1
418.214	492.49
418.591	479.15
418.967	504.46
419.344	508.08
419.721	490
420.098	515.09
420.475	504.92
420.852	502.66
421.228	501.98
421.605	500.62
421.982	523.67
422.358	507.4
422.735	538.36
423.111	544.46
423.488	524.12
423.864	528.42
424.241	541.98
424.617	550.11
424.994	547.17
425.37	542.2
425.746	542.66
426.123	537.46
426.499	542.66
426.875	561.19
427.251	537.91
427.627	562.54
428.003	588.53
428.379	569.77
428.756	578.59
429.132	563.67
429.507	583.11
429.883	554.41
430.259	591.92
430.635	623.78
431.011	596.89
431.387	608.87
431.763	631.01
432.138	616.55
432.514	626.72
432.89	603.67
433.265	619.49
433.641	638.92
434.016	637.57
434.392	640.73
434.767	644.12
435.143	634.63
435.518	637.34
435.894	667.17
436.269	646.16
436.644	660.62
437.02	676.89
437.395	672.6
437.77	675.99
438.145	687.28
438.52	657.45
438.895	680.73
439.271	693.84
439.646	703.1
440.021	698.81
440.395	697.68
440.77	719.37
441.145	717.57
441.52	710.79
441.895	704.68
442.27	733.61
442.645	733.61
443.019	743.78
443.394	736.1
443.769	749.66
444.143	720.96
444.518	740.62
444.892	740.16
445.267	744.23
445.641	734.74
446.016	752.14
446.39	754.85
446.764	763.67
447.139	755.98
447.513	769.99
447.887	777
448.262	778.36
448.636	801.63
449.01	805.47
449.384	804.34
449.758	818.13
450.132	812.03
450.506	794.4
450.88	843.21
451.254	788.52
451.628	838.24
452.002	843.66
452.376	853.16
452.75	837.56
453.123	820.84
453.497	862.19
453.871	856.55
454.244	867.62
454.618	873.95
454.992	880.05
455.365	885.7
455.739	901.52
456.112	937.22
456.486	920.05
456.859	952.81
457.232	924.79
457.606	949.88
457.979	948.97
458.352	974.73
458.725	956.88
459.099	986.03
459.472	984
459.845	983.55
460.218	994.85
460.591	1001.63
460.964	1033.49
461.337	1046.14
461.71	1040.04
462.083	1071.23
462.456	1042.08
462.829	1066.26
463.201	1083.88
463.574	1096.54
463.947	1081.62
464.32	1128.85
464.692	1121.4
465.065	1152.36
465.438	1136.54
465.81	1167.95
466.183	1175.86
466.555	1176.76
466.928	1184.9
467.3	1200.04
467.672	1224.67
468.045	1271.9
468.417	1255.86
468.789	1262.41
469.161	1283.88
469.534	1286.59
469.906	1312.13
470.278	1342.18
470.65	1341.5
471.022	1363.2
471.394	1376.31
471.766	1419.92
472.138	1421.05
472.51	1444.78
472.882	1445.46
473.253	1457.89
473.625	1510.54
473.997	1525
474.369	1546.7
474.74	1569.29
475.112	1598.45
475.484	1603.87
475.855	1618.56
476.227	1692
476.598	1709.63
476.97	1710.53
477.341	1769.29
477.713	1757.76
478.084	1792.11
478.455	1875.73
478.827	1837.54
479.198	1897.42
479.569	1941.94
479.94	1978.55
480.311	1995.95
480.682	2058.55
481.053	2092.9
481.424	2102.39
481.795	2190.52
482.166	2196.62
482.537	2237.07
482.908	2293.34
483.279	2322.5
483.65	2355.94
484.021	2401.36
484.391	2426.22
484.762	2493.56
485.133	2507.35
485.503	2559.1
485.874	2604.97
486.244	2647.91
486.615	2722.03
486.985	2721.13
487.356	2767
487.726	2864.4
488.097	2891.29
488.467	2898.07
488.837	2991.18
489.207	2998.41
489.578	3075.02
489.948	3098.29
490.318	3166.77
490.688	3171.51
491.058	3260.32
491.428	3288.35
491.798	3328.8
492.168	3441.79
492.538	3456.02
492.908	3466.87
493.278	3547.77
493.648	3562.46
494.017	3589.35
494.387	3590.48
494.757	3654.89
495.126	3707.09
495.496	3695.11
495.866	3776.24
496.235	3819.86
496.605	3862.12
496.974	3885.39
497.344	3933.53
497.713	3972.62
498.082	3938.95
498.452	3994.77
498.821	4034.99
499.19	4103.69
499.559	4086.74
499.928	4138.27
500.298	4129.45
500.667	4199.73
501.036	4186.85
501.405	4226.17
501.774	4238.83
502.143	4309.56
502.512	4335.55
502.88	4352.72
503.249	4350.92
503.618	4390.24
503.987	4437.24
504.356	4412.84
504.724	4484.7
505.093	4513.62
505.462	4492.83
505.83	4536.22
506.199	4547.52
506.567	4655.54
506.936	4605.15
507.304	4649.21
507.672	4688.08
508.041	4703.45
508.409	4692.38
508.777	4775.54
509.145	4751.36
509.514	4833.84
509.882	4808.76
510.25	4822.77
510.618	4832.94
510.986	4870.45
511.354	4921.75
511.722	4992.03
512.09	4964.91
512.458	5000.62
512.826	5038.13
513.193	5048.07
513.561	5067.96
513.929	5099.6
514.297	5135.75
514.664	5150.67
515.032	5140.95
515.4	5165.58
515.767	5249.2
516.135	5231.35
516.502	5224.57
516.869	5315.41
517.237	5266.82
517.604	5321.06
517.972	5324
518.339	5396.09
518.706	5377.1
519.073	5351.57
519.44	5364
519.808	5463.43
520.175	5452.13
520.542	5506.14
520.909	5469.76
521.276	5503.65
521.643	5594.5
522.009	5553.82
522.376	5579.58
522.743	5608.06
523.11	5682.86
523.477	5738.22
523.843	5795.17
524.21	5810.09
524.577	5859.13
524.943	5883.08
525.31	5872.23
525.676	5884.44
526.043	5948.84
526.409	5994.04
526.776	5997.65
527.142	6039.69
527.508	5993.13
527.874	6082.62
528.241	6096.41
528.607	6121.27
528.973	6188.83
529.339	6184.31
529.705	6282.17
530.071	6286.46
530.437	6264.31
530.803	6366
531.169	6360.36
531.535	6407.59
531.901	6384.08
532.267	6453.46
532.632	6454.82
532.998	6431.77
533.364	6550.18
533.73	6514.25
534.095	6606.68
534.461	6636.96
534.826	6642.38
535.192	6677.86
535.557	6715.83
535.923	6746.56
536.288	6795.6
536.653	6794.24
537.019	6735.71
537.384	6820.91
537.749	6849.16
538.114	6815.26
538.479	6921.02
538.845	6890.06
539.21	6946.1
539.575	6956.27
539.94	6946.33
540.305	7041.24
540.67	7007.57
541.034	7064.52
541.399	7066.1
541.764	7083.95
542.129	7143.84
542.494	7202.14
542.858	7224.06
543.223	7198.75
543.587	7275.59
543.952	7288.24
544.316	7302.25
544.681	7302.7
545.045	7412.31
545.41	7458.86
545.774	7423.83
546.138	7465.19
546.503	7500.21
546.867	7478.52
547.231	7529.14
547.595	7594
547.959	7558.06
548.324	7574.79
548.688	7632.19
549.052	7657.04
549.416	7695.69
549.779	7722.81
550.143	7792.63
550.507	7781.56
550.871	7800.09
551.235	7847.32
551.599	7884.38
551.962	7904.95
552.326	7895.46
552.689	7943.36
553.053	7948.11
553.417	7978.84
553.78	8019.29
554.143	7975
554.507	8028.56
554.87	8098.39
555.234	8132.51
555.597	8177.26
555.96	8211.38
556.323	8184.71
556.686	8223.36
557.05	8310.81
557.413	8268.55
557.776	8329.57
558.139	8315.78
558.502	8352.85
558.865	8415.22
559.228	8459.06
559.59	8508.1
559.953	8454.54
560.316	8567.3
560.679	8499.96
561.041	8601.65
561.404	8611.6
561.767	8679.16
562.129	8607.98
562.492	8692.27
562.854	8684.14
563.217	8730.46
563.579	8728.43
563.941	8863.11
564.304	8855.66
564.666	8949.89
565.028	8897.01
565.39	8926.62
565.753	8977.91
566.115	9027.18
566.477	9087.06
566.839	9067.63
567.201	9139.72
567.563	9159.83
567.925	9189.89
568.287	9136.33
568.648	9231.01
569.01	9295.87
569.372	9278.92
569.734	9328.41
570.095	9388.75
570.457	9447.28
570.819	9416.77
571.18	9476.88
571.542	9564.11
571.903	9597.56
572.265	9663.09
572.626	9747.61
572.987	9670.78
573.349	9727.72
573.71	9809.98
574.071	9900.38
574.432	9891.34
574.794	10012.69
575.155	10017.43
575.516	10073.03
575.877	10142.85
576.238	10192.12
576.599	10298.33
576.96	10356.63
577.32	10414.03
577.681	10471.43
578.042	10579.45
578.403	10664.87
578.763	10762.95
579.124	10828.26
579.485	10961.82
579.845	11086.78
580.206	11159.55
580.566	11217.85
580.927	11303.28
581.287	11466.89
581.648	11596.6
582.008	11704.17
582.368	11847.44
582.728	11963.82
583.089	12086.08
583.449	12349.58
583.809	12410.59
584.169	12656.69
584.529	12704.6
584.889	12924.93
585.249	13112.49
585.609	13289.66
585.969	13595.19
586.329	13720.84
586.688	13895.3
587.048	14121.06
587.408	14373.93
587.768	14568.95
588.127	14761.26
588.487	14992.44
588.846	15314.47
589.206	15473.11
589.565	15753.33
589.925	16019.99
590.284	16252.3
590.643	16564.38
591.003	16869.68
591.362	17123.69
591.721	17412.72
592.08	17612.94
592.44	17923.44
592.799	18220.61
593.158	18521.39
593.517	18788.96
593.876	19210.41
594.235	19419.67
594.593	19714.35
594.952	20107.34
595.311	20352.98
595.67	20580.55
596.029	21078.61
596.387	21279.29
596.746	21685.6
597.104	21865.71
597.463	22178.24
597.822	22591.57
598.18	22816.65
598.538	23149.52
598.897	23511.77
599.255	23635.16
599.613	24292.31
599.972	24307
600.33	24697.05
600.688	24973.65
601.046	25398.72
601.404	25659.06
601.762	25947.86
602.12	26386.95
602.478	26673.95
602.836	26919.81
603.194	27099.47
603.552	27451.33
603.91	27658.1
604.268	28032.1
604.625	28353.68
604.983	28551.41
605.341	28762.7
605.698	29036.37
606.056	29494.44
606.413	29620.99
606.771	29953.18
607.128	30254.19
607.485	30142.33
607.843	30467.74
608.2	30974.85
608.557	31189.98
608.914	31344.56
609.272	31852.11
609.629	32078.55
609.986	32276.06
610.343	32405.32
610.7	32756.95
611.057	32968.47
611.414	33147.22
611.771	33360.32
612.127	33534.33
612.484	33719.18
612.841	34042.34
613.198	34018.84
613.554	34286.4
613.911	34721.19
614.267	34944.69
614.624	34917.8
614.98	35120.5
615.337	35519.81
615.693	35578.57
616.05	35682.52
616.406	36081.38
616.762	36042.06
617.118	36194.83
617.475	36391.88
617.831	36540.58
618.187	36781.02
618.543	36939.21
618.899	37317.96
619.255	37309.15
619.611	37275.47
619.967	37572.42
620.323	37780.09
620.678	37828.23
621.034	37999.07
621.39	37829.58
621.746	38089.01
622.101	38603.12
622.457	38164.49
622.812	38418.27
623.168	38653.74
623.523	38713.63
623.879	38901.87
624.234	38778.94
624.589	38981.42
624.945	39174.86
625.3	39347.74
625.655	39246.5
626.01	39458.47
626.365	39522.2
626.72	39448.07
627.075	39490.33
627.43	39595.41
627.785	39591.35
628.14	39735.07
628.495	39798.8
628.85	40006.7
629.205	39824.33
629.559	40075.4
629.914	39988.85
630.269	40018.91
630.623	39966.25
630.978	39916.31
631.332	40193.36
631.687	40239.46
632.041	40177.55
632.396	40216.64
632.75	40194.27
633.104	40377.09
633.459	40072.92
633.813	40093.71
634.167	40129.64
634.521	40264.77
634.875	40325.11
635.229	40374.15
635.583	40124.67
635.937	40255.06
636.291	40289.63
636.645	40191.1
636.999	40144.33
637.352	40259.35
637.706	40234.72
638.06	40267.71
638.413	40222.97
638.767	40139.81
639.121	40327.15
639.474	40112.24
639.828	40135.06
640.181	40253.7
640.534	40316.3
640.888	40057.55
641.241	40093.93
641.594	40195.85
641.947	40348.61
642.301	40234.72
642.654	40240.82
643.007	40072.69
643.36	40145
643.713	40159.92
644.066	40286.92
644.419	40110.2
644.771	39811
645.124	39411.92
645.477	39428.86
645.83	39121.75
646.182	39052.83
646.535	38991.59
646.888	39061.42
647.24	38968.99
647.593	39210.57
647.945	38994.98
648.298	38936.67
648.65	38819.61
649.002	38698.49
649.355	38984.13
649.707	38848.77
650.059	39038.82
650.411	39498.47
650.763	39670.21
651.115	39954.95
651.467	39859.81
651.819	39849.87
652.171	39707.05
652.523	39646.49
652.875	39770.78
653.227	39588.41
653.578	39782.08
653.93	39768.74
654.282	39513.38
654.633	39354.29
654.985	39549.09
655.337	39629.09
655.688	39670.44
656.039	39643.1
656.391	39427.73
656.742	39398.36
657.094	39461.63
657.445	39571.69
657.796	39543.89
658.147	39514.06
658.498	39500.27
658.849	39512.7
659.2	39516.55
659.551	39329.43
659.902	39640.38
660.253	39397.45
660.604	39372.59
660.955	39371.46
661.306	39523.1
661.656	39441.97
662.007	39417.34
662.358	39357.91
662.708	39459.37
663.059	39417.34
663.409	39177.57
663.76	39406.49
664.11	39379.15
664.461	39475.64
664.811	39413.95
665.161	39445.59
665.511	39271.35
665.862	39403.78
666.212	39392.48
666.562	39360.39
666.912	39438.81
667.262	39237.91
667.612	39370.56
667.962	39290.56
668.312	39247.17
668.662	39525.81
669.011	39403.78
669.361	39210.11
669.711	39200.17
670.06	39296.89
670.41	39054.64
670.76	39188.64
671.109	39317
671.459	39157.91
671.808	39123.34
672.157	39233.16
672.507	38927.18
672.856	39013.73
673.205	39195.88
673.554	39198.36
673.904	38977.8
674.253	39072.49
674.602	38869.33
674.951	38434.31
675.3	38400.19
675.649	38974.87
675.998	38879.73
676.346	38888.31
676.695	38949.33
677.044	38685.61
677.393	38824.59
677.741	38803.8
678.09	38838.37
678.438	38672.73
678.787	38771.25
679.135	38792.04
679.484	38465.27
679.832	38751.37
680.181	38387.99
680.529	38656
680.877	38626.17
681.225	38337.59
681.573	38581.43
681.922	38364.26
682.27	38182.12
682.618	38342.34
682.966	38133.98
683.314	38330.59
683.661	38056.7
684.009	38043.82
684.357	37838.4
684.705	37971.73
685.053	37960.65
685.4	37848.11
685.748	37723.82
686.095	37595.47
686.443	37617.16
686.79	37595.24
687.138	37523.15
687.485	37627.56
687.832	37459.42
688.18	37475.24
688.527	37299.88
688.874	37253.1
689.221	37166.1
689.568	37003.17
689.915	37008.82
690.262	36941.02
690.609	36907.8
690.956	36722.95
691.303	36714.13
691.65	36666.9
691.997	36569.05
692.344	36425.33
692.69	36351.66
693.037	36455.84
693.383	36142.62
693.73	36143.3
694.077	35997.77
694.423	36145.79
694.769	35919.13
695.116	35869.41
695.462	35758.9
695.808	35602.75
696.155	35624.44
696.501	35439.82
696.847	35437.33
697.193	35229.2
697.539	35340.84
697.885	35024.69
698.231	34996.66
698.577	35032.14
698.923	34899.94
699.269	34838.02
699.614	34519.61
699.96	34523.91
700.306	34560.29
700.651	34330.69
700.997	34380.41
701.342	34329.11
701.688	34220.41
702.033	34229.23
702.379	34119.85
702.724	34014.54
703.069	34181.77
703.415	33710.82
703.76	33725.29
704.105	33732.97
704.45	33567.55
704.795	33458.85
705.14	33227.22
705.485	33224.96
705.83	33086.43
706.175	33164.85
706.52	33189.71
706.865	33110.61
707.209	33012.08
707.554	32842.14
707.899	32842.37
708.243	32687.12
708.588	32761.02
708.932	32415.26
709.277	32368.49
709.621	32409.84
709.966	32162.39
710.31	32347.47
710.654	32170.52
710.998	32150.19
711.342	32100.92
711.687	31938.21
712.031	32013.69
712.375	31818.22
712.719	31866.8
713.063	31748.84
713.407	31815.73
713.75	31598.79
714.094	31737.09
714.438	31490.09
714.782	31592.01
715.125	31345.69
715.469	31401.96
715.812	31292.81
716.156	31060.72
716.499	31250.32
716.843	31193.83
717.186	31041.97
717.53	31089.65
717.873	31242.86
718.216	30946.38
718.559	30881.97
718.902	30668.87
719.246	30794.29
719.589	30630.68
719.932	30529.66
720.275	30469.78
720.617	30515.43
720.96	30413.96
721.303	30404.69
721.646	30513.17
721.989	30197.47
722.331	30449.44
722.674	30232.95
723.016	30190.01
723.359	30220.29
723.701	30145.94
724.044	29831.38
724.386	29780.98
724.729	30072.27
725.071	29942.11
725.413	29849
725.755	29941.2
726.097	29784.37
726.439	29587.99
726.782	29656.92
727.124	29755.67
727.465	29472.74
727.807	29484.49
728.149	29554.55
728.491	29298.74
728.833	29373.76
729.175	29343.03
729.516	29330.37
729.858	29251.28
730.199	29246.76
730.541	29036.37
730.882	29168.57
731.224	29109.59
731.565	28891.29
731.906	29011.74
732.248	29005.41
732.589	28904.17
732.93	28762.03
733.271	28798.86
733.612	28850.39
733.953	28846.54
734.294	28668.7
734.635	28550.51
734.976	28776.72
735.317	28591.64
735.658	28445.42
735.999	28589.15
736.339	28470.73
736.68	28534.01
737.021	28379.44
737.361	28228.93
737.702	28438.19
738.042	28343.51
738.383	28350.51
738.723	28240.91
739.063	28112.78
739.404	28249.27
739.744	28157.75
740.084	28031.65
740.424	28104.87
740.764	28023.29
741.104	28210.85
741.444	27939.22
741.784	27936.96
742.124	27931.77
742.464	27938.55
742.804	27780.36
743.143	27736.52
743.483	27847.47
743.823	27588.27
744.162	27598.89
744.502	27711.43
744.841	27581.72
745.181	27560.02
745.52	27603.64
745.86	27553.24
746.199	27465.34
746.538	27325.68
746.877	27416.75
747.216	27597.99
747.556	27437.32
747.895	27380.82
748.234	27247.94
748.573	27373.59
748.911	27166.14
749.25	27171.79
749.589	27108.74
749.928	27014.28
750.267	27193.25
750.605	27092.24
750.944	27002.52
751.283	26903.32
751.621	27059.47
751.96	26852.25
752.298	26764.79
752.636	26877.1
752.975	26623.78
753.313	26637.56
753.651	26656.77
753.989	26674.17
754.327	26548.07
754.666	26395.08
755.004	26504.23
755.342	26495.42
755.679	26367.51
756.017	26238.48
756.355	26356.44
756.693	26217.91
757.031	26285.03
757.368	26098.37
757.706	26075.54
758.044	25812.5
758.381	25973.62
758.719	25885.27
759.056	25866.74
759.394	25817.92
759.731	25717.59
760.068	25586.97
760.405	25579.29
760.743	25432.85
