Data from hue_200_FLMS001491_00065.txt Node
Date: Tue Feb 07 16:43:46 GMT 2017
User: dcchb
Spectrometer: FLMS00149
Trigger mode: 0
Integration Time (sec): 2.000000E-2
Scans to average: 10
Electric dark correction enabled: true
Nonlinearity correction enabled: false
Boxcar width: 0
XAxis mode: Wavelengths
Number of Pixels in Spectrum: 2048
>>>>>Begin Spectral Data<<<<<
341.393	-9
341.776	-9
342.16	-9
342.543	-61.42
342.927	-70.24
343.31	-72.5
343.693	-61.42
344.077	-81.09
344.46	-61.2
344.843	-30.69
345.226	-21.65
345.61	-12.84
345.993	-18.49
346.376	-23.23
346.759	2.53
347.142	27.16
347.525	31.45
347.908	57.22
348.291	83.2
348.674	87.05
349.057	94.5
349.44	117.78
349.823	149.42
350.206	162.75
350.588	207.04
350.971	202.07
351.354	216.99
351.737	229.41
352.119	252.24
352.502	266.7
352.884	260.83
353.267	259.47
353.65	305.8
354.032	308.28
354.414	303.31
354.797	308.06
355.179	322.75
355.562	322.29
355.944	348.06
356.326	354.38
356.709	325.46
357.091	333.59
357.473	325.68
357.855	339.69
358.238	347.6
358.62	329.53
359.002	343.76
359.384	343.76
359.766	327.27
360.148	328.4
360.53	353.03
360.912	331.33
361.294	355.51
361.676	339.92
362.057	313.03
362.439	321.84
362.821	329.07
363.203	318.23
363.584	313.71
363.966	319.58
364.348	322.97
364.729	328.17
365.111	304.22
365.493	338.56
365.874	339.24
366.256	319.81
366.637	319.58
367.019	293.59
367.4	342.18
367.781	308.96
368.163	320.03
368.544	315.06
368.925	333.37
369.306	312.35
369.688	302.41
370.069	336.3
370.45	294.05
370.831	298.11
371.212	314.61
371.593	337.43
371.974	348.96
372.355	320.03
372.736	344.67
373.117	329.07
373.498	339.92
373.879	324.78
374.26	303.54
374.641	309.41
375.021	322.75
375.402	343.99
375.783	332.01
376.163	332.91
376.544	345.57
376.925	321.39
377.305	330.88
377.686	340.37
378.066	339.02
378.447	327.49
378.827	327.04
379.208	348.28
379.588	347.15
379.968	354.84
380.349	324.78
380.729	331.33
381.109	356.19
381.489	340.37
381.87	367.49
382.25	333.14
382.63	338.79
383.01	351.9
383.39	326.59
383.77	348.73
384.15	340.82
384.53	356.42
384.91	349.64
385.29	332.01
385.67	356.87
386.049	363.2
386.429	354.38
386.809	369.98
387.189	362.29
387.568	363.2
387.948	356.87
388.328	374.95
388.707	359.81
389.087	377.43
389.466	390.99
389.846	388.51
390.225	373.37
390.605	381.5
390.984	393.48
391.363	382.18
391.743	368.17
392.122	381.95
392.501	385.34
392.881	400.03
393.26	419.92
393.639	405.68
394.018	414.95
394.397	414.95
394.776	391.22
395.155	400.03
395.534	390.09
395.913	396.64
396.292	427.6
396.671	414.95
397.05	424.66
397.429	428.28
397.808	429.18
398.186	442.74
398.565	422.63
398.944	417.21
399.323	437.54
399.701	444.1
400.08	438.67
400.458	448.17
400.837	452.46
401.215	457.66
401.594	423.53
401.972	464.66
402.351	455.17
402.729	457.43
403.107	463.76
403.486	459.69
403.864	459.69
404.242	487.71
404.62	475.96
404.999	475.51
405.377	478.22
405.755	476.19
406.133	490.2
406.511	499.46
406.889	506.47
407.267	515.06
407.645	510.09
408.023	537.66
408.401	548.5
408.779	550.76
409.156	571.1
409.534	543.3
409.912	560.71
410.29	592.57
410.667	595.96
411.045	612
411.422	589.41
411.8	617.88
412.178	636.41
412.555	648.61
412.933	651.78
413.31	652.68
413.687	659.01
414.065	672.79
414.442	669.18
414.819	708.72
415.197	693.81
415.574	710.98
415.951	730.19
416.328	739.01
416.705	719.57
417.082	757.08
417.46	727.25
417.837	756.41
418.214	787.82
418.591	800.7
418.967	807.93
419.344	807.48
419.721	843.86
420.098	856.74
420.475	835.73
420.852	869.62
421.228	860.13
421.605	901.26
421.982	909.85
422.358	929.51
422.735	951.66
423.111	954.59
423.488	974.71
423.864	1004.54
424.241	1027.13
424.617	1027.36
424.994	1028.72
425.37	1067.36
425.746	1095.61
426.123	1090.41
426.499	1070.3
426.875	1130.63
427.251	1130.86
427.627	1165.89
428.003	1127.47
428.379	1169.28
428.756	1192.1
429.132	1231.2
429.507	1245.89
429.883	1247.47
430.259	1254.25
430.635	1285.21
431.011	1279.78
431.387	1307.58
431.763	1326.56
432.138	1343.74
432.514	1368.82
432.89	1357.97
433.265	1415.37
433.641	1437.74
434.016	1467.12
434.392	1496.27
434.767	1535.14
435.143	1527.91
435.518	1559.1
435.894	1618.3
436.269	1639.77
436.644	1643.39
437.02	1649.26
437.395	1663.5
437.77	1740.79
438.145	1748.02
438.52	1784.4
438.895	1818.75
439.271	1863.72
439.646	1905.98
440.021	1911.18
440.395	1942.36
440.77	1950.5
441.145	1969.48
441.52	2005.64
441.895	1993.89
442.27	2024.62
442.645	2053.32
443.019	2115.92
443.394	2086.09
443.769	2123.38
444.143	2142.36
444.518	2199.08
444.892	2185.52
445.267	2218.06
445.641	2242.02
446.016	2236.14
446.39	2307.55
446.764	2322.92
447.139	2297.61
447.513	2338.06
447.887	2321.79
448.262	2362.69
448.636	2375.12
449.01	2401.56
449.384	2452.41
449.758	2468.23
450.132	2465.97
450.506	2492.63
450.88	2506.42
451.254	2503.03
451.628	2576.7
452.002	2605.17
452.376	2632.06
452.75	2630.48
453.123	2650.59
453.497	2696.69
453.871	2711.38
454.244	2776.92
454.618	2803.13
454.992	2861.89
455.365	2816.69
455.739	2905.05
456.112	2950.7
456.486	2952.73
456.859	3014.2
457.232	3026.63
457.606	3047.87
457.979	3058.04
458.352	3152.73
458.725	3211.71
459.099	3204.7
459.472	3244.25
459.845	3334.64
460.218	3304.59
460.591	3328.99
460.964	3368.99
461.337	3421.65
461.71	3467.97
462.083	3512.72
462.456	3579.38
462.829	3599.72
463.201	3628.42
463.574	3606.28
463.947	3714.07
464.32	3745.71
464.692	3783.9
465.065	3856.44
465.438	3854.86
465.81	3964.91
466.183	3986.83
466.555	4092.59
466.928	4109.09
467.3	4086.04
467.672	4175.53
468.045	4288.74
468.417	4247.16
468.789	4302.98
469.161	4399.47
469.534	4485.8
469.906	4511.34
470.278	4557.66
470.65	4567.15
471.022	4660.03
471.394	4764.21
471.766	4775.28
472.138	4823.42
472.51	4930.31
472.882	5021.83
473.253	5044.43
473.625	5128.27
473.997	5272.9
474.369	5274.71
474.74	5294.82
475.112	5440.35
475.484	5548.6
475.855	5604.64
476.227	5623.17
476.598	5766.9
476.97	5816.39
477.341	5965.54
477.713	6009.38
478.084	6028.36
478.455	6175.7
478.827	6235.36
479.198	6417.05
479.569	6428.8
479.94	6606.65
480.311	6687.55
480.682	6778.85
481.053	6915.79
481.424	7023.13
481.795	7120.76
482.166	7137.71
482.537	7261.09
482.908	7388.55
483.279	7484.37
483.65	7584.48
484.021	7761.87
484.391	7767.75
484.762	7877.8
485.133	7930
485.503	8008.65
485.874	8233.27
486.244	8265.14
486.615	8338.81
486.985	8499.25
487.356	8579.7
487.726	8602.75
488.097	8825.35
488.467	8865.12
488.837	9054.95
489.207	9132.91
489.578	9225.34
489.948	9305.33
490.318	9409.96
490.688	9470.3
491.058	9538.1
491.428	9731.31
491.798	9740.58
492.168	9905.77
492.538	9938.76
492.908	10108.7
493.278	10134.01
493.648	10162.49
494.017	10273.44
494.387	10385.98
494.757	10428.47
495.126	10498.52
495.496	10603.15
495.866	10630.27
496.235	10729.48
496.605	10754.34
496.974	10842.92
497.344	10924.27
497.713	10884.73
498.082	10972.41
498.452	11037.49
498.821	11119.3
499.19	11108.9
499.559	11129.24
499.928	11215.11
500.298	11218.96
500.667	11425.28
501.036	11345.51
501.405	11509.8
501.774	11380.08
502.143	11560.19
502.512	11574.2
502.88	11625.27
503.249	11592.96
503.618	11668.66
503.987	11682.67
504.356	11780.52
504.724	11780.75
505.093	11815.55
505.462	11801.77
505.83	11937.58
506.199	12030.69
506.567	12096.67
506.936	12105.94
507.304	12070.23
507.672	12206.73
508.041	12190.46
508.409	12168.99
508.777	12323.33
509.145	12447.4
509.514	12339.83
509.882	12429.55
510.25	12409.21
510.618	12404.91
510.986	12462.77
511.354	12533.27
511.722	12566.49
512.09	12662.31
512.458	12598.58
512.826	12670.9
513.193	12754.51
513.561	12647.85
513.929	12708.41
514.297	12899.59
514.664	12824.34
515.032	12864.56
515.4	12890.78
515.767	12921.51
516.135	12886.03
516.502	12811.23
516.869	12933.94
517.237	12954.5
517.604	12909.53
517.972	13026.14
518.339	13072.92
518.706	12981.85
519.073	13012.36
519.44	13166.93
519.808	13151.11
520.175	13133.03
520.542	13174.61
520.909	13275.63
521.276	13277.89
521.643	13187.94
522.009	13255.29
522.376	13369.63
522.743	13383.87
523.11	13374.83
523.477	13466.13
523.843	13432.01
524.21	13501.38
524.577	13525.11
524.943	13599.46
525.31	13590.87
525.676	13592.68
526.043	13628.16
526.409	13681.04
526.776	13676.52
527.142	13732.34
527.508	13641.27
527.874	13697.08
528.241	13716.74
528.607	13661.6
528.973	13699.8
529.339	13641.04
529.705	13727.37
530.071	13808.04
530.437	13689.17
530.803	13700.25
531.169	13784.76
531.535	13670.87
531.901	13648.72
532.267	13646.69
532.632	13556.07
532.998	13599.01
533.364	13701.38
533.73	13607.14
534.095	13708.83
534.461	13650.98
534.826	13585
535.192	13574.15
535.557	13621.83
535.923	13594.94
536.288	13479.69
536.653	13510.65
537.019	13375.51
537.384	13366.24
537.749	13376.64
538.114	13378.45
538.479	13220.71
538.845	13355.17
539.21	13215.74
539.575	13173.71
539.94	13172.58
540.305	13197.66
540.67	13146.82
541.034	13105.23
541.399	13064.56
541.764	12999.47
542.129	13034.28
542.494	12956.31
542.858	12920.38
543.223	12872.02
543.587	12818.46
543.952	12777.11
544.316	12780.27
544.681	12696.66
545.045	12707.73
545.41	12663.21
545.774	12695.53
546.138	12651.24
546.503	12640.16
546.867	12490.34
547.231	12484.69
547.595	12530.33
547.959	12488.3
548.324	12367.63
548.688	12244.01
549.052	12311.58
549.416	12275.2
549.779	12330.11
550.143	12198.14
550.507	12200.17
550.871	12140.29
551.235	12059.39
551.599	12198.14
551.962	12087.86
552.326	12082.44
552.689	12001.31
553.053	11899.16
553.417	11891.71
553.78	11928.09
554.143	11837.92
554.507	11888.54
554.87	11928.77
555.234	11902.78
555.597	11770.13
555.96	11770.81
556.323	11733.07
556.686	11766.74
557.05	11802.67
557.413	11707.98
557.776	11727.42
558.139	11773.74
558.502	11746.17
558.865	11687.87
559.228	11708.66
559.59	11686.29
559.953	11686.97
560.316	11708.21
560.679	11649.23
561.041	11679.51
561.404	11648.1
561.767	11750.24
562.129	11618.04
562.492	11678.83
562.854	11673.18
563.217	11595.9
563.579	11658.94
563.941	11665.05
564.304	11651.49
564.666	11721.09
565.028	11704.37
565.39	11644.71
565.753	11747.53
566.115	11733.07
566.477	11682.22
566.839	11787.98
567.201	11786.4
567.563	11731.49
567.925	11858.26
568.287	11751.15
568.648	11731.71
569.01	11715.67
569.372	11893.51
569.734	11792.95
570.095	11818.94
570.457	11862.78
570.819	11824.14
571.18	11772.39
571.542	11901.65
571.903	11867.3
572.265	11855.55
572.626	11854.87
572.987	11864.59
573.349	11870.46
573.71	11959.28
574.071	11893.74
574.432	11946.39
574.794	11976
575.155	11917.02
575.516	11929.22
575.877	11918.15
576.238	12010.12
576.599	12002.66
576.96	12055.09
577.32	12006.51
577.681	11952.04
578.042	12023
578.403	12032.27
578.763	11962.21
579.124	12025.04
579.485	12029.1
579.845	12023
580.206	12048.09
580.566	12004.92
580.927	12062.1
581.287	12062.1
581.648	12023.23
582.008	12035.66
582.368	11949.56
582.728	12069.33
583.089	12027.07
583.449	11992.5
583.809	11987.52
584.169	12005.15
584.529	11968.77
584.889	12101.42
585.249	12059.84
585.609	11925.6
585.969	11998.37
586.329	11954.08
586.688	11944.36
587.048	11908.2
587.408	11914.31
587.768	11920.41
588.127	12026.84
588.487	11864.36
588.846	11957.02
589.206	11865.04
589.565	11927.64
589.925	11920.41
590.284	11836.57
590.643	11979.84
591.003	11802.67
591.362	11936.45
591.721	11856.45
592.08	11897.81
592.44	11875.66
592.799	11823.46
593.158	11867.75
593.517	11885.15
593.876	11878.15
594.235	11874.08
594.593	11826.4
594.952	11854.42
595.311	11770.58
595.67	11862.78
596.029	12007.18
596.387	11829.56
596.746	11862.33
597.104	11810.81
597.463	11760.64
597.822	11767.87
598.18	11738.49
598.538	11750.02
598.897	11821.43
599.255	11745.72
599.613	11864.59
599.972	11780.3
600.33	11874.76
600.688	11833.86
601.046	11783.91
601.404	11813.97
601.762	11768.32
602.12	11843.35
602.478	11866.85
602.836	11853.97
603.194	11769.22
603.552	11794.31
603.91	11714.99
604.268	11827.75
604.625	11797.25
604.983	11775.33
605.341	11726.97
605.698	11794.53
606.056	11831.14
606.413	11865.72
606.771	11881.99
607.128	11847.41
607.485	11858.94
607.843	11783.69
608.2	11771.26
608.557	11824.82
608.914	11862.78
609.272	11839.96
609.629	11863.23
609.986	11941.2
610.343	11881.31
610.7	11898.71
611.057	11928.32
611.414	11871.14
611.771	11946.62
612.127	11909.56
612.484	11941.2
612.841	11963.34
613.198	11910.69
613.554	11927.86
613.911	12058.71
614.267	11961.76
614.624	11952.95
614.98	11915.21
615.337	12024.58
615.693	11985.04
616.05	11957.92
616.406	12105.26
616.762	11973.06
617.118	12021.42
617.475	11945.94
617.831	12062.78
618.187	12021.65
618.543	12133.73
618.899	12055.54
619.255	12107.97
619.611	12070.69
619.967	12087.63
620.323	12124.02
620.678	12023.68
621.034	12134.64
621.39	12120.18
621.746	12072.49
622.101	12115.88
622.457	12050.12
622.812	12070.46
623.168	12089.67
623.523	12102.77
623.879	12161.3
624.234	12046.51
624.589	12135.09
624.945	12073.62
625.3	12116.56
625.655	12148.2
626.01	12078.59
626.365	12059.61
626.72	12096
627.075	12022.33
627.43	11999.5
627.785	11965.38
628.14	12025.71
628.495	12062.1
628.85	12031.82
629.205	11959.73
629.559	12023.68
629.914	11878.83
630.269	11942.78
630.623	11993.17
630.978	11940.97
631.332	11988.2
631.687	11965.38
632.041	11880.63
632.396	11960.63
632.75	11870.46
633.104	11870.92
633.459	11819.84
633.813	11860.97
634.167	11739.85
634.521	11750.02
634.875	11834.53
635.229	11746.17
635.583	11706.85
635.937	11733.75
636.291	11733.75
636.645	11676.12
636.999	11698.27
637.352	11673.41
637.706	11626.63
638.06	11666.85
638.413	11673.18
638.767	11637.02
639.121	11598.61
639.474	11562
639.828	11577.82
640.181	11608.78
640.534	11592.96
640.888	11501.43
641.241	11462.11
641.594	11490.36
641.947	11599.74
642.301	11558.38
642.654	11514.54
643.007	11433.87
643.36	11524.03
643.713	11568.1
644.066	11518.61
644.419	11413.08
644.771	11298.5
645.124	11275
645.477	11271.38
645.83	11143.03
646.182	11101.45
646.535	11103.03
646.888	11137.83
647.24	10991.84
647.593	11056.02
647.945	11104.61
648.298	11076.59
648.65	11035.68
649.002	11003.37
649.355	11027.55
649.707	11022.8
650.059	11130.15
650.411	11265.06
650.763	11211.5
651.115	11355.68
651.467	11294.43
651.819	11333.76
652.171	11290.37
652.523	11226.19
652.875	11306.41
653.227	11207.66
653.578	11268.45
653.93	11317.26
654.282	11216.24
654.633	11226.64
654.985	11240.65
655.337	11240.88
655.688	11307.09
656.039	11303.02
656.391	11220.99
656.742	11306.41
657.094	11283.59
657.445	11297.6
657.796	11277.71
658.147	11310.25
658.498	11317.03
658.849	11333.08
659.2	11274.77
659.551	11158.39
659.902	11246.07
660.253	11331.27
660.604	11380.31
660.955	11240.88
661.306	11314.77
661.656	11232.29
662.007	11370.59
662.358	11253.31
662.708	11342.34
663.059	11397.03
663.409	11203.36
663.76	11363.36
664.11	11310.93
664.461	11316.58
664.811	11312.29
665.161	11402
665.511	11300.31
665.862	11295.11
666.212	11309.58
666.562	11319.74
666.912	11303.47
667.262	11311.38
667.612	11304.38
667.962	11273.87
668.312	11249.01
668.662	11354.55
669.011	11306.19
669.361	11251.95
669.711	11245.4
670.06	11280.2
670.41	11193.19
670.76	11301.67
671.109	11233.87
671.459	11270.03
671.808	11201.33
672.157	11262.8
672.507	11171.73
672.856	11136.7
673.205	11159.07
673.554	11277.94
673.904	11195.91
674.253	11209.69
674.602	11133.53
674.951	11001.79
675.3	10954.33
675.649	11190.93
675.998	11121.11
676.346	11112.97
676.695	11141.67
677.044	11041.79
677.393	11112.29
677.741	11030.03
678.09	11058.73
678.438	10991.17
678.787	11071.62
679.135	10976.48
679.484	10958.4
679.832	10979.64
680.181	10946.42
680.529	10935.35
680.877	10899.42
681.225	10890.6
681.573	10944.84
681.922	10864.39
682.27	10861
682.618	10836.59
682.966	10861.23
683.314	10836.37
683.661	10786.2
684.009	10801.57
684.357	10723.83
684.705	10740.32
685.053	10706.88
685.4	10681.8
685.748	10603.38
686.095	10625.75
686.443	10534.91
686.79	10565.19
687.138	10512.99
687.485	10450.16
687.832	10476.83
688.18	10520.9
688.527	10441.12
688.874	10425.3
689.221	10352.76
689.568	10383.27
689.915	10296.95
690.262	10326.78
690.609	10269.6
690.956	10187.57
691.303	10206.1
691.65	10153
691.997	10116.39
692.344	10171.3
692.69	10028.03
693.037	10053.56
693.383	10008.37
693.73	10080
694.077	9869.16
694.423	9915.04
694.769	9872.55
695.116	9885.66
695.462	9800.69
695.808	9788.94
696.155	9761.14
696.501	9704.19
696.847	9677.98
697.193	9624.65
697.539	9639.11
697.885	9575.61
698.231	9570.64
698.577	9582.16
698.923	9532.45
699.269	9425.78
699.614	9361.38
699.96	9320.93
700.306	9369.97
700.651	9287.48
700.997	9295.39
701.342	9327.71
701.688	9223.75
702.033	9186.47
702.379	9201.61
702.724	9164.77
703.069	9145.56
703.415	9019.92
703.76	9037.32
704.105	9017.43
704.45	9024.66
704.795	8920.49
705.14	8865.8
705.485	8860.6
705.83	8833.93
706.175	8890.2
706.52	8861.96
706.865	8809.08
707.209	8786.48
707.554	8701.28
707.899	8744.9
708.243	8685.24
708.588	8638.23
708.932	8642.75
709.277	8625.8
709.621	8606.82
709.966	8509.65
710.31	8582.19
710.654	8484.57
710.998	8517.33
711.342	8492.93
711.687	8435.3
712.031	8427.62
712.375	8406.38
712.719	8426.71
713.063	8402.99
713.407	8372.03
713.75	8324.34
714.094	8360.5
714.438	8309.43
714.782	8304.68
715.125	8363.89
715.469	8289.54
715.812	8206.83
716.156	8163.22
716.499	8176.55
716.843	8198.02
717.186	8194.86
717.53	8130.22
717.873	8107.63
718.216	8187.17
718.559	8143.11
718.902	8134.29
719.246	8087.06
719.589	8032.15
719.932	8035.76
720.275	8079.38
720.617	8013.62
720.96	8002.09
721.303	8124.35
721.646	8078.93
721.989	7988.31
722.331	8001.87
722.674	7995.54
723.016	8021.98
723.359	8014.97
723.701	8046.38
724.044	8008.42
724.386	7930
724.729	7937.91
725.071	7961.64
725.413	7932.49
725.755	7896.78
726.097	7868.99
726.439	7867.86
726.782	7915.09
727.124	7916.44
727.465	7844.81
727.807	7871.93
728.149	7864.69
728.491	7899.72
728.833	7873.96
729.175	7804.36
729.516	7891.59
729.858	7825.83
730.199	7842.77
730.541	7850.01
730.882	7800.06
731.224	7842.32
731.565	7792.38
731.906	7837.58
732.248	7838.48
732.589	7753.28
732.93	7793.06
733.271	7762.55
733.612	7751.7
733.953	7843.9
734.294	7788.99
734.635	7804.13
734.976	7799.61
735.317	7803.45
735.658	7768.2
735.999	7774.53
736.339	7779.05
736.68	7804.81
737.021	7863.34
737.361	7757.35
737.702	7910.34
738.042	7837.12
738.383	7854.3
738.723	7845.26
739.063	7879.38
739.404	7861.08
739.744	7886.16
740.084	7863.11
740.424	7874.86
740.764	7868.76
741.104	7938.14
741.444	7877.58
741.784	7878.03
742.124	7922.09
742.464	7935.2
742.804	7936.1
743.143	7972.04
743.483	7993.28
743.823	8000.74
744.162	8010.68
744.502	8048.87
744.841	8024.24
745.181	8153.27
745.52	8130
745.86	8165.93
746.199	8252.48
746.538	8247.74
746.877	8302.65
747.216	8325.02
747.556	8361.4
747.895	8423.55
748.234	8426.71
748.573	8466.26
748.911	8563.43
749.25	8610.66
749.589	8670.32
749.928	8755.29
750.267	8865.12
750.605	8854.72
750.944	8925.23
751.283	9015.85
751.621	9110.54
751.96	9137.88
752.298	9292.45
752.636	9331.55
752.975	9435.5
753.313	9501.04
753.651	9723.4
753.989	9783.51
754.327	9899.22
754.666	10027.12
755.004	10081.36
755.342	10257.63
755.679	10321.13
756.017	10443.61
756.355	10672.98
756.693	10844.05
757.031	10996.14
757.368	10973.99
757.706	11214.21
758.044	11395.45
758.381	11513.41
