Data from hue_200_FLMS001491_00041.txt Node
Date: Tue Feb 07 16:43:19 GMT 2017
User: dcchb
Spectrometer: FLMS00149
Trigger mode: 0
Integration Time (sec): 2.000000E-2
Scans to average: 10
Electric dark correction enabled: true
Nonlinearity correction enabled: false
Boxcar width: 0
XAxis mode: Wavelengths
Number of Pixels in Spectrum: 2048
>>>>>Begin Spectral Data<<<<<
341.393	-11.48
341.776	-11.48
342.16	-11.48
342.543	-91.71
342.927	-64.14
343.31	-82.67
343.693	-84.7
344.077	-96
344.46	-43.12
344.843	-40.41
345.226	-48.09
345.61	-6.51
345.993	-32.27
346.376	-8.32
346.759	13.38
347.142	35.07
347.525	40.95
347.908	74.16
348.291	89.08
348.674	78.91
349.057	110.55
349.44	124.11
349.823	143.09
350.206	182.64
350.588	198.23
350.971	215.63
351.354	216.99
351.737	240.26
352.119	240.94
352.502	265.35
352.884	292.46
353.267	267.38
353.65	280.94
354.032	298.11
354.414	293.59
354.797	322.97
355.179	311.67
355.562	332.91
355.944	313.48
356.326	318.68
356.709	340.82
357.091	322.97
357.473	342.18
357.855	340.37
358.238	343.31
358.62	335.85
359.002	341.05
359.384	355.74
359.766	346.47
360.148	322.07
360.53	331.11
360.912	325.68
361.294	342.63
361.676	343.99
362.057	345.8
362.439	321.84
362.821	336.98
363.203	341.05
363.584	337.43
363.966	313.48
364.348	318.9
364.729	325.01
365.111	320.94
365.493	316.19
365.874	346.93
366.256	323.88
366.637	316.19
367.019	308.51
367.4	319.58
367.781	314.61
368.163	288.4
368.544	299.47
368.925	316.42
369.306	328.85
369.688	304.67
370.069	309.19
370.45	338.56
370.831	339.24
371.212	344.89
371.593	292.46
371.974	313.25
372.355	302.63
372.736	318
373.117	320.94
373.498	316.87
373.879	320.71
374.26	328.17
374.641	314.16
375.021	326.14
375.402	328.4
375.783	341.73
376.163	330.43
376.544	336.3
376.925	346.7
377.305	319.81
377.686	326.81
378.066	316.87
378.447	333.82
378.827	307.38
379.208	330.43
379.588	346.47
379.968	322.52
380.349	318.23
380.729	328.62
381.109	311.9
381.489	308.06
381.87	341.28
382.25	363.65
382.63	319.81
383.01	355.06
383.39	331.11
383.77	346.7
384.15	347.83
384.53	355.29
384.91	331.79
385.29	360.48
385.67	374.72
386.049	354.16
386.429	352.8
386.809	347.38
387.189	359.13
387.568	365.91
387.948	345.57
388.328	353.03
388.707	380.37
389.087	356.64
389.466	372.01
389.846	362.07
390.225	360.48
390.605	379.24
390.984	370.43
391.363	346.7
391.743	390.77
392.122	377.43
392.501	387.15
392.881	373.37
393.26	373.14
393.639	373.14
394.018	374.95
394.397	385.12
394.776	379.47
395.155	394.61
395.534	382.63
395.913	405.68
396.292	383.99
396.671	396.87
397.05	394.83
397.429	395.06
397.808	414.27
398.186	392.35
398.565	399.13
398.944	420.14
399.323	417.66
399.701	404.1
400.08	419.01
400.458	398.68
400.837	406.36
401.215	424.44
401.594	433.93
401.972	432.35
402.351	428.96
402.729	428.51
403.107	450.88
403.486	428.51
403.864	447.04
404.242	427.83
404.62	464.66
404.999	456.98
405.377	459.47
405.755	475.06
406.133	458.34
406.511	456.98
406.889	476.19
407.267	484.32
407.645	505.11
408.023	509.63
408.401	482.74
408.779	502.4
409.156	521.84
409.534	522.29
409.912	515.51
410.29	529.29
410.667	563.42
411.045	551.21
411.422	561.61
411.8	579.24
412.178	594.6
412.555	596.86
412.933	599.12
413.31	589.63
413.687	599.12
414.065	629.86
414.442	638.9
414.819	631.44
415.197	656.75
415.574	688.39
415.951	674.37
416.328	685.45
416.705	667.14
417.082	693.58
417.46	719.35
417.837	734.49
418.214	742.85
418.591	729.51
418.967	736.97
419.344	746.46
419.721	762.96
420.098	769.06
420.475	796.63
420.852	820.59
421.228	817.87
421.605	831.88
421.982	842.73
422.358	849.51
422.735	901.49
423.111	900.81
423.488	913.92
423.864	933.35
424.241	935.84
424.617	964.08
424.994	956.18
425.37	965.89
425.746	978.32
426.123	1031.65
426.499	1034.37
426.875	1024.2
427.251	1081.6
427.627	1081.37
428.003	1079.56
428.379	1100.8
428.756	1129.73
429.132	1125.44
429.507	1157.75
429.883	1179.9
430.259	1167.7
430.635	1221.93
431.011	1206.11
431.387	1221.25
431.763	1248.37
432.138	1258.31
432.514	1278.65
432.89	1311.42
433.265	1349.16
433.641	1374.92
434.016	1373.11
434.392	1407.69
434.767	1452.66
435.143	1445.43
435.518	1476.61
435.894	1506.22
436.269	1534.01
436.644	1557.06
437.02	1585.76
437.395	1589.61
437.77	1631.41
438.145	1644.07
438.52	1681.81
438.895	1706.44
439.271	1739.88
439.646	1764.97
440.021	1801.58
440.395	1836.83
440.77	1796.38
441.145	1868.47
441.52	1884.96
441.895	1922.93
442.27	1946.66
442.645	1900.56
443.019	1975.36
443.394	1993.44
443.769	2004.51
444.143	2013.55
444.518	2036.82
444.892	2031.85
445.267	2078.86
445.641	2091.06
446.016	2135.13
446.39	2172.87
446.764	2187.33
447.139	2163.38
447.513	2199.98
447.887	2209.48
448.262	2205.63
448.636	2232.3
449.01	2300.09
449.384	2317.04
449.758	2317.27
450.132	2354.1
450.506	2364.5
450.88	2373.31
451.254	2379.87
451.628	2454.67
452.002	2437.72
452.376	2483.59
452.75	2503.25
453.123	2522.01
453.497	2557.26
453.871	2593.19
454.244	2592.52
454.618	2619.41
454.992	2674.1
455.365	2651.27
455.739	2754.09
456.112	2792.06
456.486	2784.6
456.859	2814.43
457.232	2855.56
457.606	2892.62
457.979	2883.81
458.352	2969.46
458.725	2996.8
459.099	3005.39
459.472	3042
459.845	3113.18
460.218	3145.72
460.591	3174.2
460.964	3165.16
461.337	3252.84
461.71	3297.81
462.083	3310.92
462.456	3352.95
462.829	3361.76
463.201	3390.46
463.574	3427.07
463.947	3478.14
464.32	3565.82
464.692	3605.15
465.065	3650.12
465.438	3660.06
465.81	3732.15
466.183	3731.92
466.555	3816.21
466.928	3821.41
467.3	3839.72
467.672	3940.28
468.045	3996.77
468.417	4022.54
468.789	4010.33
469.161	4095.98
469.534	4156.54
469.906	4261.17
470.278	4246.71
470.65	4308.18
471.022	4366.48
471.394	4464.33
471.766	4513.6
472.138	4574.39
472.51	4668.62
472.882	4714.72
473.253	4720.37
473.625	4780.93
473.997	4892.8
474.369	4931.66
474.74	4978.89
475.112	5099.57
475.484	5177.31
475.855	5197.19
476.227	5260.7
476.598	5432.67
476.97	5454.14
477.341	5544.3
477.713	5588.6
478.084	5641.25
478.455	5799.21
478.827	5817.29
479.198	5959.89
479.569	5969.15
479.94	6203.27
480.311	6204.4
480.682	6364.85
481.053	6438.07
481.424	6481
481.795	6583.82
482.166	6690.26
482.537	6766.87
482.908	6903.14
483.279	6971.16
483.65	7031.27
484.021	7151.27
484.391	7270.81
484.762	7252.06
485.133	7316.91
485.503	7431.71
485.874	7667.86
486.244	7664.7
486.615	7781.31
486.985	7874.86
487.356	7984.24
487.726	8007.29
488.097	8203.89
488.467	8235.53
488.837	8361.86
489.207	8449.99
489.578	8523.43
489.948	8625.8
490.318	8721.39
490.688	8770.89
491.058	8846.36
491.428	8973.82
491.798	9023.31
492.168	9219.91
492.538	9189.18
492.908	9297.43
493.278	9428.5
493.648	9387.14
494.017	9509.17
494.387	9568.6
494.757	9697.41
495.126	9736.51
495.496	9738.77
495.866	9766.34
496.235	9882.95
496.605	10005.43
496.974	9966.79
497.344	9988.48
497.713	10065.99
498.082	10188.93
498.452	10234.35
498.821	10235.71
499.19	10280.68
499.559	10242.48
499.928	10357.28
500.298	10396.61
500.667	10510.5
501.036	10395.7
501.405	10560.22
501.774	10500.33
502.143	10571.06
502.512	10570.84
502.88	10707.56
503.249	10661.68
503.618	10719.76
503.987	10822.36
504.356	10797.27
504.724	10901.22
505.093	10873.88
505.462	10830.49
505.83	10931.96
506.199	10955.69
506.567	11046.76
506.936	11009.02
507.304	11081.56
507.672	11097.38
508.041	11143.93
508.409	11167.21
508.777	11270.48
509.145	11271.84
509.514	11248.79
509.882	11304.15
510.25	11305.73
510.618	11298.28
510.986	11318.16
511.354	11348.9
511.722	11480.42
512.09	11496.01
512.458	11406.07
512.826	11513.41
513.193	11533.07
513.561	11500.76
513.929	11559.29
514.297	11704.37
514.664	11634.54
515.032	11657.14
515.4	11725.38
515.767	11703.92
516.135	11660.75
516.502	11657.59
516.869	11826.4
517.237	11749.11
517.604	11642.22
517.972	11803.12
518.339	11846.28
518.706	11790.47
519.073	11738.72
519.44	11725.84
519.808	11820.97
520.175	11781.88
520.542	11845.61
520.909	11859.84
521.276	11802.9
521.643	11947.75
522.009	11930.12
522.376	11908.2
522.743	11951.14
523.11	11955.43
523.477	11998.82
523.843	11972.16
524.21	12176.67
524.577	12090.35
524.943	12005.38
525.31	12150.23
525.676	12081.31
526.043	12230.23
526.409	12164.92
526.776	12208.76
527.142	12186.84
527.508	12172.38
527.874	12231.13
528.241	12166.5
528.607	12107.07
528.973	12192.04
529.339	12153.4
529.705	12239.95
530.071	12140.29
530.437	12126.96
530.803	12181.42
531.169	12245.82
531.535	12089.67
531.901	12088.31
532.267	12085.15
532.632	12090.57
532.998	11984.81
533.364	12039.5
533.73	11967.86
534.095	11994.76
534.461	11950.46
534.826	11995.43
535.192	11871.59
535.557	11911.59
535.923	11909.79
536.288	11888.32
536.653	11815.78
537.019	11787.3
537.384	11686.74
537.749	11725.61
538.114	11663.46
538.479	11637.25
538.845	11635.89
539.21	11508.89
539.575	11561.77
539.94	11477.93
540.305	11566.29
540.67	11390.7
541.034	11468.44
541.399	11383.47
541.764	11350.7
542.129	11312.06
542.494	11242.01
542.858	11217.6
543.223	11130.15
543.587	11109.58
543.952	11082.69
544.316	11045.4
544.681	10963.14
545.045	10930.15
545.41	10963.14
545.774	10848.57
546.138	10858.74
546.503	10788.46
546.867	10658.75
547.231	10743.94
547.595	10639.08
547.959	10732.42
548.324	10580.33
548.688	10550.27
549.052	10527.9
549.416	10475.7
549.779	10415.59
550.143	10351.63
550.507	10347.11
550.871	10363.16
551.235	10326.1
551.599	10364.74
551.962	10293.11
552.326	10258.76
552.689	10187.12
553.053	10116.39
553.417	10045.2
553.78	10197.74
554.143	10023.06
554.507	10037.74
554.87	10017.63
555.234	10067.8
555.597	9927.92
555.96	9941.25
556.323	9905.09
556.686	9912.55
557.05	9884.08
557.413	9825.32
557.776	9835.49
558.139	9830.97
558.502	9781.93
558.865	9776.28
559.228	9762.95
559.59	9713.46
559.953	9755.04
560.316	9725.66
560.679	9721.59
561.041	9674.14
561.404	9662.61
561.767	9663.97
562.129	9589.39
562.492	9708.71
562.854	9626.91
563.217	9632.11
563.579	9639.34
563.941	9652.9
564.304	9673.69
564.666	9691.31
565.028	9636.4
565.39	9609.28
565.753	9616.96
566.115	9609.28
566.477	9595.04
566.839	9655.16
567.201	9651.31
567.563	9601.6
567.925	9608.15
568.287	9640.47
568.648	9658.77
569.01	9734.7
569.372	9620.58
569.734	9639.11
570.095	9662.61
570.457	9666.45
570.819	9683.18
571.18	9644.53
571.542	9648.6
571.903	9655.83
572.265	9678.66
572.626	9679.56
572.987	9705.55
573.349	9676.17
573.71	9777.41
574.071	9717.98
574.432	9676.62
574.794	9735.38
575.155	9750.07
575.516	9683.86
575.877	9663.29
576.238	9669.62
576.599	9727.24
576.96	9735.15
577.32	9691.31
577.681	9778.32
578.042	9701.93
578.403	9718.2
578.763	9724.08
579.124	9756.4
579.485	9718.66
579.845	9774.25
580.206	9671.65
580.566	9723.18
580.927	9748.26
581.287	9715.95
581.648	9739.9
582.008	9746.68
582.368	9722.95
582.728	9711.65
583.089	9708.94
583.449	9717.98
583.809	9662.16
584.169	9687.7
584.529	9606.34
584.889	9700.8
585.249	9633.01
585.609	9621.26
585.969	9673.91
586.329	9628.72
586.688	9630.3
587.048	9616.06
587.408	9606.34
587.768	9660.58
588.127	9619.68
588.487	9602.28
588.846	9649.51
589.206	9581.94
589.565	9614.03
589.925	9600.69
590.284	9611.99
590.643	9595.27
591.003	9567.25
591.362	9576.06
591.721	9497.19
592.08	9644.76
592.44	9571.09
592.799	9605.21
593.158	9490.19
593.517	9551.66
593.876	9532.45
594.235	9478.21
594.593	9531.77
594.952	9548.04
595.311	9503.97
595.67	9556.63
596.029	9528.15
596.387	9521.83
596.746	9524.76
597.104	9452.9
597.463	9460.81
597.822	9461.26
598.18	9456.06
598.538	9450.64
598.897	9522.28
599.255	9398.67
599.613	9571.54
599.972	9480.02
600.33	9400.25
600.688	9471.21
601.046	9487.93
601.404	9429.17
601.762	9462.62
602.12	9496.29
602.478	9379.46
602.836	9436.18
603.194	9414.26
603.552	9473.47
603.91	9415.61
604.268	9447.48
604.625	9449.29
604.983	9435.27
605.341	9370.42
605.698	9472.34
606.056	9438.21
606.413	9419.46
606.771	9432.79
607.128	9433.69
607.485	9372.45
607.843	9397.76
608.2	9496.29
608.557	9487.48
608.914	9443.41
609.272	9501.04
609.629	9428.72
609.986	9461.49
610.343	9441.38
610.7	9555.95
611.057	9476.4
611.414	9416.52
611.771	9541.94
612.127	9500.81
612.484	9556.4
612.841	9536.51
613.198	9503.52
613.554	9497.42
613.911	9562.28
614.267	9555.95
614.624	9556.85
614.98	9519.11
615.337	9587.81
615.693	9574.03
616.05	9585.33
616.406	9533.35
616.762	9569.73
617.118	9583.97
617.475	9569.73
617.831	9554.37
618.187	9604.99
618.543	9573.58
618.899	9601.37
619.255	9637.98
619.611	9660.13
619.967	9575.61
620.323	9637.76
620.678	9606.34
621.034	9641.6
621.39	9631.88
621.746	9598.66
622.101	9723.4
622.457	9573.12
622.812	9597.98
623.168	9605.67
623.523	9648.83
623.879	9665.78
624.234	9592.11
624.589	9629.62
624.945	9638.88
625.3	9597.08
625.655	9613.57
626.01	9631.88
626.365	9629.17
626.72	9560.69
627.075	9565.21
627.43	9558.66
627.785	9467.14
628.14	9619.68
628.495	9561.6
628.85	9553.92
629.205	9561.6
629.559	9598.21
629.914	9504.2
630.269	9568.38
630.623	9532
630.978	9456.06
631.332	9491.32
631.687	9570.19
632.041	9484.31
632.396	9483.18
632.75	9441.15
633.104	9457.19
633.459	9363.86
633.813	9413.13
634.167	9422.39
634.521	9457.65
634.875	9431.21
635.229	9380.81
635.583	9391.66
635.937	9334.03
636.291	9332.23
636.645	9337.88
636.999	9310.53
637.352	9305.79
637.706	9296.75
638.06	9288.61
638.413	9310.53
638.767	9256.3
639.121	9218.78
639.474	9177.65
639.828	9207.03
640.181	9243.42
640.534	9235.96
640.888	9195.51
641.241	9168.84
641.594	9169.29
641.947	9247.93
642.301	9142.85
642.654	9195.51
643.007	9110.99
643.36	9134.04
643.713	9108.73
644.066	9137.88
644.419	9131.78
644.771	9134.04
645.124	9002.29
645.477	8975.85
645.83	8923.65
646.182	8957.09
646.535	8820.15
646.888	8885.68
647.24	8840.26
647.593	8829.41
647.945	8882.07
648.298	8876.87
648.65	8886.59
649.002	8787.38
649.355	8907.83
649.707	8868.28
650.059	8874.84
650.411	8991.22
650.763	9008.85
651.115	9062.85
651.467	9062.18
651.819	9030.31
652.171	9043.65
652.523	9024.21
652.875	9068.5
653.227	8988.51
653.578	9041.16
653.93	8994.83
654.282	9019.92
654.633	9016.53
654.985	9032.12
655.337	8979.69
655.688	9047.26
656.039	9113.7
656.391	9044.78
656.742	9053.82
657.094	9015.4
657.445	9078.67
657.796	9077.77
658.147	9044.78
658.498	9134.94
658.849	9074.83
659.2	9103.31
659.551	9029.41
659.902	9093.59
660.253	9101.95
660.604	9091.78
660.955	9059.47
661.306	9134.72
661.656	9059.92
662.007	9078.67
662.358	9126.58
662.708	9137.88
663.059	9069.41
663.409	9050.88
663.76	9111.22
664.11	9123.64
664.461	9095.4
664.811	9132.91
665.161	9092.46
665.511	9105.57
665.862	9139.92
666.212	9165.45
666.562	9069.18
666.912	9126.13
667.262	9132.46
667.612	9092.68
667.962	9120.03
668.312	9166.58
668.662	9169.07
669.011	9076.41
669.361	9137.88
669.711	9105.34
670.06	9074.83
670.41	9052.46
670.76	9047.49
671.109	9188.5
671.459	9100.59
671.808	9031.9
672.157	9136.07
672.507	9040.03
672.856	9032.8
673.205	9073.25
673.554	9102.63
673.904	9074.15
674.253	9047.04
674.602	9059.69
674.951	8923.42
675.3	8844.78
675.649	9126.58
675.998	8928.17
676.346	9025.12
676.695	9014.49
677.044	8883.42
677.393	8979.47
677.741	8960.26
678.09	8940.15
678.438	8894.05
678.787	8899.24
679.135	8945.8
679.484	8803.88
679.832	8878.23
680.181	8888.17
680.529	8846.59
680.877	8754.39
681.225	8807.49
681.573	8803.88
681.922	8762.07
682.27	8772.92
682.618	8690.44
682.966	8685.92
683.314	8710.1
683.661	8691.79
684.009	8598.01
684.357	8646.37
684.705	8594.39
685.053	8666.71
685.4	8640.49
685.748	8551.23
686.095	8540.16
686.443	8531.12
686.79	8491.57
687.138	8461.29
687.485	8531.8
687.832	8446.37
688.18	8484.79
688.527	8412.25
688.874	8376.32
689.221	8360.95
689.568	8381.06
689.915	8339.71
690.262	8300.62
690.609	8268.3
690.956	8227.85
691.303	8259.49
691.65	8142.2
691.997	8181.75
692.344	8106.95
692.69	8126.61
693.037	8132.94
693.383	8130.45
693.73	8045.25
694.077	8046.61
694.423	8038.48
694.769	7985.82
695.116	7916.22
695.462	7968.87
695.808	7844.58
696.155	7940.17
696.501	7810.68
696.847	7809.33
697.193	7743.79
697.539	7756.9
697.885	7700.63
698.231	7680.29
698.577	7690.24
698.923	7628.09
699.269	7520.52
699.614	7513.74
699.96	7482.78
700.306	7501.77
700.651	7492.95
700.997	7367.76
701.342	7445.04
701.688	7340.64
702.033	7347.19
702.379	7316.46
702.724	7269
703.069	7308.1
703.415	7216.12
703.76	7204.15
704.105	7196.92
704.45	7225.39
704.795	7149.23
705.14	7126.86
705.485	7111.27
705.83	7106.3
706.175	7071.04
706.52	7034.43
706.865	7043.92
707.209	7063.36
707.554	6931.84
707.899	7005.96
708.243	6956.02
708.588	6935
708.932	6845.06
709.277	6895.45
709.621	6866.3
709.966	6870.37
710.31	6866.75
710.654	6791.28
710.998	6744.5
711.342	6780.88
711.687	6840.31
712.031	6732.07
712.375	6664.73
712.719	6718.74
713.063	6703.14
713.407	6730.03
713.75	6629.92
714.094	6712.41
714.438	6630.15
714.782	6636.93
715.125	6627.44
715.469	6620.21
715.812	6518.74
716.156	6599.42
716.499	6500.89
716.843	6548.8
717.186	6487.33
717.53	6579.53
717.873	6483.94
718.216	6579.98
718.559	6542.7
718.902	6413.21
719.246	6490.27
719.589	6490.27
719.932	6479.65
720.275	6451.17
720.617	6415.47
720.96	6409.37
721.303	6412.08
721.646	6363.26
721.989	6401
722.331	6408.91
722.674	6405.07
723.016	6391.51
723.359	6396.26
723.701	6386.99
724.044	6390.16
724.386	6361.91
724.729	6366.2
725.071	6381.57
725.413	6363.72
725.755	6319.2
726.097	6329.37
726.439	6275.58
726.782	6297.73
727.124	6382.02
727.465	6302.93
727.807	6322.59
728.149	6293.66
728.491	6268.35
728.833	6304.96
729.175	6288.24
729.516	6259.76
729.858	6277.17
730.199	6298.63
730.541	6324.17
730.882	6279.43
731.224	6312.87
731.565	6296.6
731.906	6268.58
732.248	6310.61
732.589	6261.35
732.93	6264.51
733.271	6260.44
733.612	6307.67
733.953	6342.7
734.294	6291.85
734.635	6300.44
734.976	6351.51
735.317	6280.78
735.658	6323.04
735.999	6327.11
736.339	6357.62
736.68	6280.33
737.021	6290.27
737.361	6282.36
737.702	6339.08
738.042	6310.84
738.383	6265.87
738.723	6336.15
739.063	6352.19
739.404	6375.69
739.744	6409.14
740.084	6413.21
740.424	6382.93
740.764	6384.28
741.104	6453.66
741.444	6456.14
741.784	6423.83
742.124	6455.69
742.464	6473.54
742.804	6488.91
743.143	6498.18
743.483	6533.88
743.823	6570.04
744.162	6552.64
744.502	6626.76
744.841	6574.33
745.181	6661.34
745.52	6629.02
745.86	6748.34
746.199	6718.96
746.538	6784.95
746.877	6805.97
747.216	6899.3
747.556	6948.33
747.895	6988.56
748.234	6979.52
748.573	6965.28
748.911	7050.93
749.25	7170.48
749.589	7187.65
749.928	7306.06
750.267	7379.51
750.605	7457.7
750.944	7493.63
751.283	7550.13
751.621	7673.06
751.96	7699.73
752.298	7819.05
752.636	7896.33
752.975	7985.6
753.313	8098.13
753.651	8245.25
753.989	8289.32
754.327	8394.4
754.666	8525.24
755.004	8705.35
755.342	8791
755.679	8907.83
756.017	8968.85
756.355	9247.48
756.693	9278.44
757.031	9495.61
757.368	9511.2
757.706	9769.73
758.044	9823.96
758.381	9954.36
758.719	10056.73
759.056	10358.19
759.394	10448.81
759.731	10647.67
760.068	10792.75
760.405	10965.18
760.743	11180.77
761.08	11284.04
761.417	11420.53
761.754	11605.61
762.091	11884.48
762.428	11932.38
762.765	12070.23
763.102	12397
763.438	12508.87
763.775	12555.42
764.112	12888.52
764.449	13053.26
764.785	13195.18
765.122	13215.74
765.458	13426.13
