Data from hue_90_FLMS001491_86.txt Node
Date: Mon Feb 06 15:25:48 GMT 2017
User: dcchb
Spectrometer: FLMS00149
Trigger mode: 0
Integration Time (sec): 2.000000E-2
Scans to average: 10
Electric dark correction enabled: true
Nonlinearity correction enabled: false
Boxcar width: 0
XAxis mode: Wavelengths
Number of Pixels in Spectrum: 2048
>>>>>Begin Spectral Data<<<<<
341.393	-31.54
341.776	-31.54
342.16	-31.54
342.543	-70.18
342.927	-49.17
343.31	-57.07
343.693	-80.58
344.077	-61.82
344.46	-54.14
344.843	-53.69
345.226	-54.36
345.61	-50.52
345.993	-4.42
346.376	7.1
346.759	3.94
347.142	34.45
347.525	47.1
347.908	59.31
348.291	92.07
348.674	76.48
349.057	96.14
349.44	134.78
349.823	147.67
350.206	163.71
350.588	195.35
350.971	189.47
351.354	237.38
351.737	242.8
352.119	252.52
352.502	255.69
352.884	278.06
353.267	265.85
353.65	276.7
354.032	296.36
354.414	308.11
354.797	317.15
355.179	295.23
355.562	323.03
355.944	320.09
356.326	364.84
356.709	338.62
357.091	339.75
357.473	342.69
357.855	340.43
358.238	346.3
358.62	326.87
359.002	331.62
359.384	351.73
359.766	340.65
360.148	355.57
360.53	346.76
360.912	368
361.294	352.41
361.676	330.49
362.057	339.07
362.439	339.52
362.821	336.36
363.203	316.93
363.584	327.32
363.966	317.15
364.348	337.27
364.729	338.4
365.111	324.16
365.493	317.38
365.874	327.1
366.256	332.52
366.637	315.57
367.019	307.21
367.4	300.2
367.781	323.03
368.163	314.21
368.544	322.12
368.925	304.95
369.306	326.42
369.688	323.93
370.069	326.19
370.45	315.34
370.831	325.06
371.212	296.81
371.593	306.31
371.974	303.59
372.355	314.67
372.736	337.94
373.117	311.96
373.498	328.23
373.879	324.84
374.26	323.03
374.641	332.29
375.021	321.22
375.402	310.83
375.783	305.18
376.163	331.39
376.544	322.8
376.925	336.81
377.305	332.07
377.686	338.4
378.066	322.58
378.447	329.36
378.827	316.02
379.208	330.94
379.588	333.42
379.968	335.23
380.349	347.66
380.729	352.18
381.109	346.53
381.489	326.42
381.87	354.67
382.25	313.08
382.63	334.55
383.01	366.87
383.39	361.9
383.77	347.89
384.15	362.35
384.53	361.22
384.91	338.62
385.29	359.19
385.67	344.95
386.049	355.8
386.429	368.9
386.809	356.93
387.189	371.61
387.568	365.29
387.948	369.58
388.328	350.37
388.707	377.72
389.087	349.02
389.466	341.11
389.846	360.09
390.225	362.12
390.605	373.2
390.984	352.86
391.363	368.22
391.743	389.92
392.122	386.53
392.501	375.91
392.881	393.31
393.26	382.01
393.639	405.74
394.018	389.02
394.397	389.92
394.776	407.77
395.155	377.49
395.534	377.26
395.913	373.2
396.292	388.56
396.671	400.77
397.05	379.75
397.429	410.48
397.808	420.43
398.186	407.09
398.565	395.34
398.944	400.31
399.323	399.86
399.701	410.48
400.08	409.35
400.458	421.33
400.837	430.6
401.215	405.96
401.594	429.69
401.972	389.92
402.351	424.49
402.729	399.64
403.107	419.97
403.486	422.23
403.864	411.16
404.242	440.31
404.62	443.93
404.999	452.29
405.377	432.63
405.755	461.1
406.133	449.8
406.511	436.7
406.889	451.61
407.267	453.87
407.645	443.25
408.023	474.21
408.401	446.41
408.779	442.12
409.156	457.49
409.534	495.91
409.912	458.84
410.29	443.7
410.667	483.48
411.045	489.58
411.422	492.29
411.8	476.24
412.178	471.95
412.555	490.26
412.933	473.53
413.31	493.87
413.687	505.17
414.065	505.17
414.442	506.3
414.819	516.92
415.197	507.88
415.574	507.88
415.951	537.94
416.328	516.02
416.705	532.97
417.082	525.28
417.46	526.86
417.837	524.38
418.214	535.9
418.591	545.17
418.967	544.72
419.344	542.23
419.721	560.54
420.098	537.26
420.475	552.17
420.852	563.7
421.228	577.48
421.605	593.98
421.982	554.43
422.358	573.42
422.735	561.89
423.111	584.26
423.488	568.45
423.864	586.3
424.241	614.77
424.617	588.78
424.994	601.66
425.37	591.04
425.746	616.35
426.123	587.43
426.499	620.65
426.875	616.13
427.251	640.76
427.627	628.1
428.003	635.79
428.379	633.3
428.756	656.13
429.132	632.62
429.507	662
429.883	653.64
430.259	671.27
430.635	666.07
431.011	679.18
431.387	694.09
431.763	693.19
432.138	714.88
432.514	692.06
432.89	702.23
433.265	732.96
433.641	715.56
434.016	727.54
434.392	730.48
434.767	731.83
435.143	769.8
435.518	749.23
435.894	749.46
436.269	777.03
436.644	776.12
437.02	789
437.395	832.39
437.77	794.2
438.145	817.25
438.52	790.13
438.895	819.29
439.271	823.58
439.646	856.12
440.021	876.23
440.395	850.92
440.77	843.01
441.145	833.3
441.52	861.77
441.895	877.59
442.27	860.87
442.645	860.19
443.019	902
443.394	853.86
443.769	872.84
444.143	884.37
444.518	908.32
444.892	879.17
445.267	895.44
445.641	913.97
446.016	928.66
446.39	931.6
446.764	896.35
447.139	931.6
447.513	941.32
447.887	949.9
448.262	953.97
448.636	950.58
449.01	997.36
449.384	978.38
449.758	991.49
450.132	965.5
450.506	980.19
450.88	993.97
451.254	978.83
451.628	1012.95
452.002	1039.85
452.376	1024.93
452.75	1059.96
453.123	1052.95
453.497	1045.04
453.871	1047.3
454.244	1060.86
454.618	1090.01
454.992	1094.53
455.365	1141.76
455.739	1139.5
456.112	1131.37
456.486	1161.2
456.859	1170.69
457.232	1183.57
457.606	1199.39
457.979	1180.18
458.352	1219.5
458.725	1218.37
459.099	1230.8
459.472	1265.15
459.845	1275.09
460.218	1283.68
460.591	1293.4
460.964	1289.33
461.337	1331.36
461.71	1342.89
462.083	1374.3
462.456	1363.68
462.829	1372.72
463.201	1403
463.574	1412.72
463.947	1452.72
464.32	1440.06
464.692	1478.7
465.065	1524.8
465.438	1516.9
465.81	1553.5
466.183	1556.89
466.555	1621.3
466.928	1625.14
467.3	1607.51
467.672	1645.48
468.045	1731.58
468.417	1686.61
468.789	1730.67
469.161	1750.11
469.534	1804.8
469.906	1804.35
470.278	1828.53
470.65	1869.43
471.022	1891.35
471.394	1942.65
471.766	1978.35
472.138	1982.19
472.51	2012.02
472.882	2087.5
473.253	2111.23
473.625	2167.5
473.997	2214.28
474.369	2250.66
474.74	2294.5
475.112	2325.01
475.484	2416.53
475.855	2440.71
476.227	2501.28
476.598	2539.02
476.97	2596.64
477.341	2679.58
477.713	2712.34
478.084	2788.5
478.455	2868.27
478.827	2927.25
479.198	3038.21
479.569	3094.25
479.94	3180.81
480.311	3234.14
480.682	3320.69
481.053	3409.73
481.424	3505.09
481.795	3597.52
482.166	3637.07
482.537	3738.76
482.908	3831.18
483.279	3950.96
483.65	4063.95
484.021	4151.4
484.391	4285.86
484.762	4357.72
485.133	4440.43
485.503	4562.24
485.874	4701.44
486.244	4787.77
486.615	4923.81
486.985	5037.25
487.356	5142.11
487.726	5236.8
488.097	5419.39
488.467	5477.47
488.837	5662.1
489.207	5790.68
489.578	5868.87
489.948	5952.94
490.318	6126.72
490.688	6249.2
491.058	6392.93
491.428	6473.15
491.798	6600.6
492.168	6831.11
492.538	6956.98
492.908	7050.08
493.278	7221.15
493.648	7264.09
494.017	7415.5
494.387	7580.92
494.757	7590.18
495.126	7780.01
495.496	7893.9
495.866	8036.95
496.235	8170.28
496.605	8278.53
496.974	8360.78
497.344	8534.56
497.713	8619.31
498.082	8712.64
498.452	8845.06
498.821	8935.46
499.19	8973.87
499.559	9151.95
499.928	9239.63
500.298	9328.22
500.667	9540.19
501.036	9504.93
501.405	9666.96
501.774	9737.7
502.143	9800.52
502.512	9881.65
502.88	9990.34
503.249	10046.84
503.618	10155.31
503.987	10317.57
504.356	10336.1
504.724	10419.03
505.093	10516.43
505.462	10577.22
505.83	10643.66
506.199	10713.49
506.567	10919.81
506.936	10869.42
507.304	11049.53
507.672	11058.57
508.041	11125.91
508.409	11275.51
508.777	11284.1
509.145	11415.17
509.514	11438.89
509.882	11473.47
510.25	11524.54
510.618	11651.09
510.986	11687.7
511.354	11733.8
511.722	11907.58
512.09	11946.23
512.458	11947.58
512.826	12056.28
513.193	12008.6
513.561	12095.15
513.929	12230.06
514.297	12339.44
514.664	12350.28
515.032	12307.12
515.4	12450.84
515.767	12451.97
516.135	12530.39
516.502	12503.95
516.869	12667.56
517.237	12710.5
517.604	12642.03
517.972	12777.84
518.339	12768.8
518.706	12772.64
519.073	12816.71
519.44	12936.93
519.808	12976.48
520.175	13008.8
520.542	13082.47
520.909	13154.78
521.276	13143.48
521.643	13310.48
522.009	13240.43
522.376	13359.07
522.743	13343.93
523.11	13389.13
523.477	13557.71
523.843	13540.76
524.21	13625.28
524.577	13665.28
524.943	13723.81
525.31	13716.8
525.676	13785.05
526.043	13840.86
526.409	13810.58
526.776	13926.29
527.142	13929.9
527.508	13944.36
527.874	14012.16
528.241	14063.23
528.607	14055.1
528.973	14165.6
529.339	14256.22
529.705	14159.27
530.071	14305.26
530.437	14222.32
530.803	14251.25
531.169	14249.89
531.535	14277.24
531.901	14208.09
532.267	14234.3
532.632	14210.57
532.998	14410.79
533.364	14291.7
533.73	14234.07
534.095	14297.8
534.461	14332.83
534.826	14440.85
535.192	14321.76
535.557	14361.53
535.923	14342.55
536.288	14334.41
536.653	14333.06
537.019	14358.59
537.384	14291.93
537.749	14328.31
538.114	14246.28
538.479	14301.42
538.845	14353.62
539.21	14212.61
539.575	14242.44
539.94	14265.94
540.305	14292.15
540.67	14214.87
541.034	14203.57
541.399	14226.84
541.764	14115.66
542.129	14191.14
542.494	14196.56
542.858	14217.58
543.223	14132.38
543.587	14127.64
543.952	14059.39
544.316	14023.46
544.681	13989.56
545.045	14018.26
545.41	13976.45
545.774	13996.57
546.138	13859.62
546.503	13966.51
546.867	13863.92
547.231	14005.15
547.595	13945.49
547.959	13934.87
548.324	13942.56
548.688	13852.16
549.052	13849.45
549.416	13767.87
549.779	13803.58
550.143	13779.17
550.507	13774.43
550.871	13755.67
551.235	13723.35
551.599	13711.83
551.962	13709.34
552.326	13736.01
552.689	13734.43
553.053	13648.78
553.417	13585.05
553.78	13735.33
554.143	13619.85
554.507	13653.75
554.87	13603.36
555.234	13703.92
555.597	13635.45
555.96	13601.78
556.323	13691.04
556.686	13649.01
557.05	13698.04
557.413	13587.09
557.776	13627.31
558.139	13704.15
558.502	13625.96
558.865	13630.7
559.228	13619.63
559.59	13682.9
559.953	13716.35
560.316	13800.64
560.679	13728.33
561.041	13762.67
561.404	13738.72
561.767	13758.16
562.129	13681.32
562.492	13780.75
562.854	13809.23
563.217	13737.82
563.579	13789.11
563.941	13830.7
564.304	13873.18
564.666	13793.86
565.028	13881.99
565.39	13896.91
565.753	13889.68
566.115	13989.79
566.477	13952.5
566.839	13984.82
567.201	14004.48
567.563	13977.36
567.925	14157.01
568.287	14035.44
568.648	14013.74
569.01	14078.82
569.372	14205.15
569.734	14145.04
570.095	14159.95
570.457	14217.35
570.819	14191.14
571.18	14141.87
571.542	14240.18
571.903	14258.26
572.265	14315.65
572.626	14319.72
572.987	14320.17
573.349	14282.21
573.71	14419.38
574.071	14383.45
574.432	14365.6
574.794	14502.77
575.155	14449.89
575.516	14379.16
575.877	14426.61
576.238	14435.88
576.599	14497.34
576.96	14514.29
577.32	14458.93
577.681	14499.15
578.042	14516.78
578.403	14535.99
578.763	14489.44
579.124	14457.35
579.485	14567.4
579.845	14543.45
580.206	14500.96
580.566	14493.05
580.927	14502.09
581.287	14541.86
581.648	14520.4
582.008	14584.8
582.368	14558.36
582.728	14575.08
583.089	14593.39
583.449	14587.96
583.809	14627.96
584.169	14583.9
584.529	14498.7
584.889	14685.59
585.249	14518.81
585.609	14479.49
585.969	14532.6
586.329	14487.85
586.688	14473.84
587.048	14424.13
587.408	14504.58
587.768	14431.81
588.127	14478.81
588.487	14406.5
588.846	14533.05
589.206	14338.7
589.565	14402.43
589.925	14451.92
590.284	14449.44
590.643	14415.31
591.003	14523.78
591.362	14433.62
591.721	14459.15
592.08	14369.21
592.44	14472.49
592.799	14473.39
593.158	14422.54
593.517	14311.14
593.876	14403.79
594.235	14361.76
594.593	14324.69
594.952	14407.63
595.311	14319.04
595.67	14376.44
596.029	14445.59
596.387	14377.8
596.746	14438.36
597.104	14366.05
597.463	14300.51
597.822	14375.77
598.18	14324.92
598.538	14305.26
598.897	14338.03
599.255	14279.72
599.613	14378.7
599.972	14326.28
600.33	14380.51
600.688	14310.68
601.046	14360.17
601.404	14329.44
601.762	14353.85
602.12	14359.04
602.478	14433.39
602.836	14462.54
603.194	14266.84
603.552	14295.77
603.91	14221.87
604.268	14391.36
604.625	14293.73
604.983	14383.68
605.341	14325.37
605.698	14391.58
606.056	14404.01
606.413	14407.86
606.771	14385.26
607.128	14420.74
607.485	14287.63
607.843	14365.14
608.2	14357.01
608.557	14496.44
608.914	14394.07
609.272	14441.98
609.629	14462.54
609.986	14524.46
610.343	14441.53
610.7	14555.2
611.057	14504.35
611.414	14532.15
611.771	14601.75
612.127	14582.77
612.484	14580.96
612.841	14618.25
613.198	14552.71
613.554	14561.07
613.911	14621.41
614.267	14630.67
614.624	14637.23
614.98	14695.53
615.337	14672.03
615.693	14691.24
616.05	14674.74
616.406	14681.07
616.762	14649.88
617.118	14716.32
617.475	14731.69
617.831	14710.22
618.187	14697.79
618.543	14739.37
618.899	14812.82
619.255	14855.3
619.611	14805.36
619.967	14801.07
620.323	14826.6
620.678	14697.57
621.034	14834.06
621.39	14766.04
621.746	14756.55
622.101	14954.73
622.457	14783.44
622.812	14785.02
623.168	14791.57
623.523	14896.43
623.879	14808.52
624.234	14789.09
624.589	14787.05
624.945	14815.3
625.3	14818.92
625.655	14819.6
626.01	14822.08
626.365	14858.69
626.72	14795.87
627.075	14789.31
627.43	14768.75
627.785	14726.72
628.14	14794.74
628.495	14779.37
628.85	14772.82
629.205	14678.36
629.559	14839.93
629.914	14660.28
630.269	14681.29
630.623	14709.09
630.978	14685.59
631.332	14692.82
631.687	14723.1
632.041	14713.84
632.396	14701.86
632.75	14679.71
633.104	14617.79
633.459	14600.17
633.813	14569.43
634.167	14548.19
634.521	14591.81
634.875	14593.61
635.229	14526.95
635.583	14462.77
635.937	14474.52
636.291	14500.96
636.645	14432.49
636.999	14456.22
637.352	14470.9
637.706	14311.36
638.06	14405.6
638.413	14326.5
638.767	14321.3
639.121	14333.28
639.474	14288.31
639.828	14226.17
640.181	14249.44
640.534	14296.45
640.888	14286.73
641.241	14239.05
641.594	14304.13
641.947	14258.93
642.301	14244.7
642.654	14184.58
643.007	14230.46
643.36	14177.81
643.713	14124.47
644.066	14167.41
644.419	14161.31
644.771	13964.93
645.124	13937.81
645.477	13921.77
645.83	13826.85
646.182	13768.32
646.535	13660.98
646.888	13715.67
647.24	13572.62
647.593	13726.29
647.945	13650.81
648.298	13729.68
648.65	13607.65
649.002	13607.2
649.355	13620.31
649.707	13589.8
650.059	13659.85
650.411	13835.67
650.763	13829.11
651.115	14004.02
651.467	13932.61
651.819	13979.84
652.171	13935.55
652.523	13948.88
652.875	13933.97
653.227	13867.53
653.578	13915.67
653.93	13942.56
654.282	13855.33
654.633	13815.1
654.985	13914.99
655.337	13883.58
655.688	13933.74
656.039	13942.33
656.391	13816.68
656.742	13868.21
657.094	13852.16
657.445	13928.77
657.796	13857.81
658.147	13884.48
658.498	13956.34
658.849	13909.34
659.2	13858.72
659.551	13810.81
659.902	13899.39
660.253	13914.54
660.604	14058.94
660.955	13903.91
661.306	13945.49
661.656	13907.3
662.007	13935.33
662.358	13957.25
662.708	13919.51
663.059	13994.31
663.409	13898.04
663.76	13987.08
664.11	13949.34
664.461	13924.93
664.811	14016.91
665.161	13940.3
665.511	13891.49
665.862	13937.81
666.212	13943.91
666.562	13996.79
666.912	14037.92
667.262	14018.49
667.612	13952.5
667.962	14021.43
668.312	13936.68
668.662	14025.27
669.011	13967.64
669.361	13908.43
669.711	13919.28
670.06	13994.08
670.41	13831.37
670.76	13840.64
671.109	13861.2
671.459	13836.57
671.808	13786.86
672.157	13836.12
672.507	13696.24
672.856	13830.02
673.205	13836.8
673.554	13831.83
673.904	13738.72
674.253	13886.97
674.602	13733.98
674.951	13571.95
675.3	13474.32
675.649	13706.41
675.998	13682.22
676.346	13749.12
676.695	13784.37
677.044	13658.95
677.393	13657.14
677.741	13693.3
678.09	13646.75
678.438	13614.88
678.787	13594.09
679.135	13717.7
679.484	13480.2
679.832	13658.04
680.181	13483.13
680.529	13601.55
680.877	13491.27
681.225	13492.4
681.573	13539.4
681.922	13481.55
682.27	13393.65
682.618	13480.65
682.966	13423.25
683.314	13445.85
683.661	13361.33
684.009	13301.67
684.357	13228.68
684.705	13251.28
685.053	13211.5
685.4	13179.41
685.748	13187.77
686.095	13189.81
686.443	13078.63
686.79	13039.53
687.138	13062.58
687.485	13048.8
687.832	12981.23
688.18	13038.4
688.527	12952.3
688.874	12915.01
689.221	12828.69
689.568	12825.98
689.915	12845.86
690.262	12804.51
690.609	12696.49
690.956	12651.97
691.303	12669.82
691.65	12590.28
691.997	12634.79
692.344	12519.54
692.69	12495.14
693.037	12455.14
693.383	12300.79
693.73	12451.97
694.077	12363.39
694.423	12329.49
694.769	12293.11
695.116	12294.69
695.462	12199.78
695.808	12089.27
696.155	12135.37
696.501	12071.65
696.847	12125.66
697.193	11969.95
697.539	12018.54
697.885	11927.92
698.231	11930.18
698.577	11897.87
698.923	11812.44
699.269	11727.02
699.614	11720.24
699.96	11660.81
700.306	11579
700.651	11581.26
700.997	11529.51
701.342	11493.58
701.688	11514.6
702.033	11457.88
702.379	11423.98
702.724	11369.52
703.069	11380.36
703.415	11301.72
703.76	11320.03
704.105	11260.37
704.45	11257.2
704.795	11150.77
705.14	11114.38
705.485	11084.55
705.83	11086.59
706.175	11072.58
706.52	10957.1
706.865	10979.7
707.209	10978.57
707.554	10896.08
707.899	10930.43
708.243	10870.77
708.588	10867.61
708.932	10682.98
709.277	10766.37
709.621	10755.97
709.966	10664.45
710.31	10685.69
710.654	10600.95
710.998	10543.1
711.342	10572.93
711.687	10595.53
712.031	10533.16
712.375	10481.63
712.719	10530.67
713.063	10445.7
713.407	10376.1
713.75	10443.21
714.094	10443.89
714.438	10371.35
714.782	10340.84
715.125	10299.72
715.469	10343.56
715.812	10319.38
716.156	10193.05
716.499	10232.6
716.843	10312.37
717.186	10195.76
717.53	10261.75
717.873	10193.73
718.216	10179.94
718.559	10190.57
718.902	10092.94
719.246	10165.03
719.589	10087.74
719.932	10090.46
720.275	10028.76
720.617	10074.41
720.96	10016.56
721.303	10068.08
721.646	10067.4
721.989	10056.33
722.331	10003.9
722.674	9939.05
723.016	9988.54
723.359	9955.54
723.701	9967.07
724.044	9862.89
724.386	9770.69
724.729	9881.19
725.071	9834.87
725.413	9828.09
725.755	9903.79
726.097	9826.28
726.439	9822.89
726.782	9737.92
727.124	9842.55
727.465	9724.14
727.807	9757.58
728.149	9766.17
728.491	9788.32
728.833	9776.34
729.175	9770.69
729.516	9726.17
729.858	9704.02
730.199	9780.86
730.541	9770.46
730.882	9735.66
731.224	9768.2
731.565	9704.93
731.906	9752.84
732.248	9782.67
732.589	9674.65
732.93	9651.14
733.271	9662.44
733.612	9645.27
733.953	9714.19
734.294	9691.37
734.635	9653.86
734.976	9682.1
735.317	9711.03
735.658	9607.76
735.999	9686.4
736.339	9673.97
736.68	9662.44
737.021	9645.04
737.361	9633.52
737.702	9679.39
738.042	9675.55
738.383	9692.27
738.723	9639.39
739.063	9596.46
739.404	9686.85
739.744	9659.28
740.084	9751.48
740.424	9665.61
740.764	9723.46
741.104	9801.2
741.444	9663.57
741.784	9703.12
742.124	9711.26
742.464	9725.72
742.804	9715.1
743.143	9698.15
743.483	9738.15
743.823	9748.32
744.162	9846.85
744.502	9880.52
744.841	9851.59
745.181	9889.1
745.52	9946.5
745.86	9981.08
746.199	9958.26
746.538	9961.19
746.877	10059.72
747.216	10122.09
747.556	10125.26
747.895	10177.68
748.234	10185.37
748.573	10200.73
748.911	10273.28
749.25	10383.33
749.589	10333.16
749.928	10418.36
750.267	10469.43
750.605	10546.49
750.944	10569.76
751.283	10588.75
751.621	10785.13
751.96	10725.92
752.298	10790.78
752.636	10934.95
752.975	10950.55
753.313	10946.7
753.651	11124.55
753.989	11178.56
754.327	11315.73
754.666	11337.65
755.004	11463.98
755.342	11582.39
755.679	11780.81
756.017	11753.69
756.355	11965.89
756.693	11985.09
757.031	12142.38
757.368	12190.29
757.706	12341.92
758.044	12452.88
