Data from hue_20_FLMS001491_83.txt Node
Date: Mon Feb 06 15:34:47 GMT 2017
User: dcchb
Spectrometer: FLMS00149
Trigger mode: 0
Integration Time (sec): 2.000000E-2
Scans to average: 10
Electric dark correction enabled: true
Nonlinearity correction enabled: false
Boxcar width: 0
XAxis mode: Wavelengths
Number of Pixels in Spectrum: 2048
>>>>>Begin Spectral Data<<<<<
341.393	-8.56
341.776	-8.56
342.16	-8.56
342.543	-63.47
342.927	-70.7
343.31	-75.9
343.693	-57.15
344.077	-71.16
344.46	-49.46
344.843	-57.37
345.226	-49.46
345.61	-25.96
345.993	-3.36
346.376	-1.55
346.759	12.46
347.142	35.28
347.525	28.28
347.908	53.59
348.291	67.6
348.674	74.15
349.057	120.03
349.44	113.25
349.823	116.18
350.206	166.13
350.588	176.97
350.971	203.86
351.354	212.68
351.737	232.34
352.119	243.86
352.502	251.55
352.884	275.28
353.267	289.74
353.65	287.7
354.032	310.75
354.414	305.1
354.797	317.99
355.179	339.23
355.562	321.83
355.944	330.64
356.326	340.58
356.709	335.84
357.091	353.47
357.473	341.04
357.855	322.05
358.238	349.17
358.62	355.95
359.002	352.34
359.384	352.34
359.766	320.25
360.148	344.88
360.53	349.4
360.912	366.35
361.294	346.91
361.676	316.86
362.057	337.42
362.439	334.03
362.821	314.37
363.203	319.79
363.584	316.63
363.966	308.49
364.348	315.73
364.729	306.69
365.111	302.62
365.493	329.51
365.874	313.01
366.256	318.21
366.637	304.65
367.019	332
367.4	345.1
367.781	318.44
368.163	310.75
368.544	311.88
368.925	310.08
369.306	303.07
369.688	287.93
370.069	322.05
370.45	308.04
370.831	313.69
371.212	300.59
371.593	330.19
371.974	300.59
372.355	311.21
372.736	336.97
373.117	300.36
373.498	317.08
373.879	302.39
374.26	308.04
374.641	334.48
375.021	344.2
375.402	321.15
375.783	325.44
376.163	332.67
376.544	332.45
376.925	336.29
377.305	308.27
377.686	339.23
378.066	321.6
378.447	342.17
378.827	342.84
379.208	322.96
379.588	347.14
379.968	315.73
380.349	358.66
380.729	318.66
381.109	359.57
381.489	334.03
381.87	348.72
382.25	353.01
382.63	316.18
383.01	349.4
383.39	337.19
383.77	335.16
384.15	358.21
384.53	363.86
384.91	354.14
385.29	357.31
385.67	350.98
386.049	379.45
386.429	356.63
386.809	355.95
387.189	346.01
387.568	361.37
387.948	354.14
388.328	364.99
388.707	373.13
389.087	395.27
389.466	350.08
389.846	343.52
390.225	370.19
390.605	372
390.984	352.11
391.363	361.6
391.743	369.51
392.122	374.93
392.501	361.6
392.881	368.61
393.26	387.14
393.639	389.4
394.018	383.3
394.397	384.42
394.776	364.31
395.155	360.92
395.534	392.56
395.913	375.16
396.292	378.1
396.671	396.63
397.05	394.82
397.429	404.76
397.808	399.34
398.186	401.37
398.565	383.3
398.944	387.81
399.323	392.56
399.701	388.04
400.08	376.06
400.458	414.93
400.837	399.79
401.215	400.7
401.594	411.54
401.972	401.37
402.351	373.35
402.729	430.07
403.107	428.49
403.486	433.92
403.864	409.73
404.242	412.9
404.62	424.65
404.999	401.15
405.377	407.25
405.755	436.4
406.133	426.46
406.511	415.38
406.889	407.7
407.267	418.55
407.645	419
408.023	435.27
408.401	441.37
408.779	440.24
409.156	422.84
409.534	455.16
409.912	448.38
410.29	452.9
410.667	451.09
411.045	455.84
411.422	459.45
411.8	446.34
412.178	468.49
412.555	460.13
412.933	479.11
413.31	475.27
413.687	460.13
414.065	462.61
414.442	455.38
414.819	480.24
415.197	480.47
415.574	483.18
415.951	495.61
416.328	488.83
416.705	482.28
417.082	512.78
417.46	484.99
417.837	504.42
418.214	488.38
418.591	485.44
418.967	508.72
419.344	517.53
419.721	510.75
420.098	522.05
420.475	495.16
420.852	532.44
421.228	511.65
421.605	539.9
421.982	511.43
422.358	527.02
422.735	514.59
423.111	538.77
423.488	555.04
423.864	546.45
424.241	533.12
424.617	569.05
424.994	556.17
425.37	557.53
425.746	576.28
426.123	571.09
426.499	554.36
426.875	559.34
427.251	579.9
427.627	565.44
428.003	581.93
428.379	598.43
428.756	589.39
429.132	608.15
429.507	590.07
429.883	605.44
430.259	626.9
430.635	595.04
431.011	639.79
431.387	626.9
431.763	611.76
432.138	633.68
432.514	619.67
432.89	630.29
433.265	630.97
433.641	652.89
434.016	659.67
434.392	670.97
434.767	647.02
435.143	649.95
435.518	679.78
435.894	701.93
436.269	685.43
436.644	681.37
437.02	712.1
437.395	713.46
437.77	726.34
438.145	700.12
438.52	693.8
438.895	699.9
439.271	724.75
439.646	735.6
440.021	744.19
440.395	746.68
440.77	745.55
441.145	751.87
441.52	760.91
441.895	745.32
442.27	754.58
442.645	742.61
443.019	744.19
443.394	742.61
443.769	772.44
444.143	772.89
444.518	779.22
444.892	817.63
445.267	779.67
445.641	776.73
446.016	777.86
446.39	818.99
446.764	832.1
447.139	792.78
447.513	818.54
447.887	836.62
448.262	821.02
448.636	840.23
449.01	835.03
449.384	819.22
449.758	862.83
450.132	852.44
450.506	827.35
450.88	859.67
451.254	865.99
451.628	856.05
452.002	873.9
452.376	858.31
452.75	881.14
453.123	877.52
453.497	885.65
453.871	898.08
454.244	927.69
454.618	941.25
454.992	906.22
455.365	915.03
455.739	945.77
456.112	968.82
456.486	957.74
456.859	970.17
457.232	1002.49
457.606	982.83
457.979	994.58
458.352	1025.99
458.725	1009.95
459.099	1044.75
459.472	1055.59
459.845	1046.78
460.218	1046.78
460.591	1101.69
460.964	1080.23
461.337	1088.59
461.71	1109.15
462.083	1119.55
462.456	1108.47
462.829	1126.55
463.201	1140.11
463.574	1140.56
463.947	1156.83
464.32	1178.3
464.692	1199.54
465.065	1180.34
465.438	1233.89
465.81	1245.19
466.183	1245.87
466.555	1245.42
466.928	1287
467.3	1268.47
467.672	1313.44
468.045	1353.21
468.417	1339.65
468.789	1334.91
469.161	1344.85
469.534	1377.17
469.906	1391.18
470.278	1404.96
470.65	1418.52
471.022	1463.49
471.394	1457.17
471.766	1471.4
472.138	1503.04
472.51	1530.84
472.882	1556.15
473.253	1585.3
473.625	1602.47
473.997	1636.37
474.369	1629.59
474.74	1647.89
475.112	1703.49
475.484	1731.73
475.855	1727.44
476.227	1788.46
476.598	1783.48
476.97	1808.79
477.341	1882.46
477.713	1930.15
478.084	1925.4
478.455	1994.78
478.827	2006.76
479.198	2026.42
479.569	2079.07
479.94	2129.46
480.311	2145.06
480.682	2180.99
481.053	2209.69
481.424	2285.39
481.795	2316.35
482.166	2325.84
482.537	2364.49
482.908	2415.78
483.279	2451.94
483.65	2516.35
484.021	2574.2
484.391	2627.53
484.762	2626.4
485.133	2672.73
485.503	2696.68
485.874	2743.46
486.244	2809.22
486.615	2848.31
486.985	2888.99
487.356	2944.13
487.726	2988.42
488.097	3056.67
488.467	3102.77
488.837	3166.95
489.207	3183.67
489.578	3229.77
489.948	3248.3
490.318	3280.17
490.688	3324.91
491.058	3424.8
491.428	3457.79
491.798	3500.28
492.168	3551.12
492.538	3610.78
492.908	3649.65
493.278	3667.95
493.648	3723.09
494.017	3778.69
494.387	3807.61
494.757	3852.13
495.126	3881.28
495.496	3915.41
495.866	3927.38
496.235	3982.52
496.605	4008.74
496.974	4077.89
497.344	4053.93
497.713	4086.47
498.082	4161.5
498.452	4169.41
498.821	4222.74
499.19	4240.82
499.559	4292.57
499.928	4325.11
500.298	4352
500.667	4409.4
501.036	4435.17
501.405	4432
501.774	4428.39
502.143	4453.7
502.512	4479.68
502.88	4526.46
503.249	4557.42
503.618	4580.7
503.987	4596.07
504.356	4649.17
504.724	4648.95
505.093	4671.32
505.462	4683.07
505.83	4746.34
506.199	4780.69
506.567	4840.13
506.936	4775.5
507.304	4833.8
507.672	4864.99
508.041	4848.26
508.409	4916.74
508.777	4907.92
509.145	4994.25
509.514	4949.28
509.882	5022.95
510.25	4967.81
510.618	5061.14
510.986	5053.23
511.354	5135.71
511.722	5142.04
512.09	5218.65
512.458	5160.8
512.826	5218.65
513.193	5214.81
513.561	5192.43
513.929	5286.67
514.297	5345.2
514.664	5317.4
515.032	5324.18
515.4	5352.2
515.767	5378.19
516.135	5421.58
516.502	5379.32
516.869	5498.87
517.237	5485.31
517.604	5425.65
517.972	5466.55
518.339	5537.06
518.706	5523.95
519.073	5572.99
519.44	5591.75
519.808	5587.9
520.175	5643.5
520.542	5707
520.909	5713.32
521.276	5718.3
521.643	5719.43
522.009	5811.85
522.376	5810.5
522.743	5835.81
523.11	5920.55
523.477	5906.31
523.843	5897.73
524.21	5957.39
524.577	5978.4
524.943	6064.28
525.31	6062.47
525.676	6094.78
526.043	6109.25
526.409	6156.25
526.776	6129.58
527.142	6198.74
527.508	6281.22
527.874	6308.11
528.241	6295.68
528.607	6324.61
528.973	6360.99
529.339	6363.7
529.705	6456.81
530.071	6471.95
530.437	6534.77
530.803	6563.47
531.169	6647.09
531.535	6561.44
531.901	6575.9
532.267	6624.94
532.632	6658.84
532.998	6704.48
533.364	6732.96
533.73	6770.92
534.095	6772.73
534.461	6863.12
534.826	6894.08
535.192	6885.95
535.557	6952.16
535.923	6920.75
536.288	6876.23
536.653	7013.86
537.019	6931.15
537.384	7028.54
537.749	7060.63
538.114	7127.07
538.479	7107.64
538.845	7205.04
539.21	7137.92
539.575	7202.78
539.94	7213.85
540.305	7256.56
540.67	7282.55
541.034	7346.73
541.399	7321.19
541.764	7353.73
542.129	7373.17
542.494	7396.67
542.858	7501.75
543.223	7412.71
543.587	7457.69
543.952	7533.62
544.316	7568.19
544.681	7554.18
545.045	7601.41
545.41	7644.8
545.774	7683.89
546.138	7709.2
546.503	7724.34
546.867	7750.78
547.231	7803.44
547.595	7828.52
547.959	7865.58
548.324	7841.63
548.688	7904.91
549.052	7934.51
549.416	7956.66
549.779	7986.26
550.143	7958.24
550.507	8083.66
550.871	8115.97
551.235	8043.21
551.599	8088.18
551.962	8104.22
552.326	8169.53
552.689	8265.57
553.053	8205.24
553.417	8254.73
553.78	8335.4
554.143	8290.43
554.507	8296.99
554.87	8340.83
555.234	8441.39
555.597	8416.08
555.96	8435.74
556.323	8496.98
556.686	8466.92
557.05	8532.23
557.413	8512.35
557.776	8635.06
558.139	8640.71
558.502	8591.67
558.865	8724.54
559.228	8692
559.59	8708.73
559.953	8741.72
560.316	8830.53
560.679	8830.53
561.041	8845.9
561.404	8883.41
561.767	8860.36
562.129	8880.25
562.492	9033.46
562.854	8943.75
563.217	8981.26
563.579	8987.36
563.941	9043.18
564.304	9073.01
564.666	9219.67
565.028	9150.97
565.39	9207.7
565.753	9275.94
566.115	9348.26
566.477	9408.59
566.839	9397.97
567.201	9422.15
567.563	9473.45
567.925	9498.31
568.287	9474.58
568.648	9514.35
569.01	9540.57
569.372	9586.89
569.734	9624.86
570.095	9694.01
570.457	9778.53
570.819	9769.26
571.18	9789.6
571.542	9889.26
571.903	9936.26
572.265	9961.57
572.626	9912.76
572.987	10069.37
573.349	10074.11
573.71	10139.87
574.071	10176.03
574.432	10286.76
574.794	10342.13
575.155	10345.97
575.516	10297.16
575.877	10467.32
576.238	10505.74
576.599	10592.29
576.96	10668.67
577.32	10721.55
577.681	10863.02
578.042	10919.52
578.403	10966.29
578.763	11032.05
579.124	11077.25
579.485	11239.73
579.845	11374.64
580.206	11415.32
580.566	11580.97
580.927	11684.24
581.287	11892.37
581.648	11934.18
582.008	12141.4
582.368	12251.91
582.728	12438.57
583.089	12541.85
583.449	12715.4
583.809	12868.16
584.169	13145.45
584.529	13193.13
584.889	13578.88
585.249	13638.99
585.609	13767.12
585.969	14041.01
586.329	14254.57
586.688	14570.27
587.048	14742.92
587.408	15018.16
587.768	15140.65
588.127	15476.91
588.487	15651.37
588.846	16031.47
589.206	16178.59
589.565	16362.08
589.925	16715.52
590.284	17096.98
590.643	17409.97
591.003	17628.72
591.362	17946.22
591.721	18287.91
592.08	18495.36
592.44	18925.86
592.799	19252.4
593.158	19466.86
593.517	19789.56
593.876	20100.74
594.235	20507.74
594.593	20799.26
594.952	21153.14
595.311	21482.85
595.67	21823.86
596.029	22246
596.387	22561.47
596.746	22873.78
597.104	23160.1
597.463	23460.65
597.822	23974.99
598.18	24108.55
598.538	24472.61
598.897	24889.77
599.255	25082.53
599.613	25752.12
599.972	25753.48
600.33	26361.37
600.688	26497.18
601.046	26916.38
601.404	27365.41
601.762	27594.56
602.12	28046.97
602.478	28277.02
602.836	28665.94
603.194	28663.23
603.552	29211.24
603.91	29397.45
604.268	29736.65
604.625	30001.27
604.983	30387.93
605.341	30596.29
605.698	31123.73
606.056	31445.08
606.413	31565.98
606.771	31999.86
607.128	32252.97
607.485	32391.27
607.843	32732.5
608.2	33205.48
608.557	33448.64
608.914	33650.89
609.272	34023.99
609.629	34265.12
609.986	34586.69
610.343	34648.38
610.7	35092.44
611.057	35301.7
611.414	35564.52
611.771	35680.45
612.127	36041.79
612.484	36138.97
612.841	36522.46
613.198	36682.23
613.554	36837.48
613.911	37200.63
614.267	37345.49
614.624	37583.67
614.98	37793.84
615.337	37928.75
615.693	38197.22
616.05	38332.58
616.406	38649.41
616.762	38639.24
617.118	38837.65
617.475	38952.22
617.831	39269.5
618.187	39526.22
618.543	39612.09
618.899	39980.22
619.255	40043.04
619.611	40120.33
619.967	40314.45
620.323	40565.52
620.678	40585.85
621.034	40499.08
621.39	40697.72
621.746	40852.74
622.101	41359.84
622.457	41113.3
622.812	41475.55
623.168	41519.39
623.523	41733.62
623.879	41833.28
624.234	41623.79
624.589	41915.54
624.945	42033.27
625.3	42164.57
625.655	42169.77
626.01	42266.94
626.365	42389.2
626.72	42408.86
627.075	42466.71
627.43	42451.34
627.785	42512.36
628.14	42709.19
628.495	42792.8
628.85	42767.72
629.205	42677.32
629.559	43085.45
629.914	42918.67
630.269	42888.84
630.623	42879.13
630.978	42858.79
631.332	43165.45
631.687	43268.95
632.041	43175.16
632.396	43338.1
632.75	43145.11
633.104	43180.36
633.459	43052
633.813	43213.13
634.167	43270.98
634.521	43273.24
634.875	43429.17
635.229	43325.44
635.583	43138.55
635.937	43221.94
636.291	43169.51
636.645	43257.42
636.999	43085.45
637.352	43265.78
637.706	42985.34
638.06	43302.17
638.413	43340.36
638.767	43221.04
639.121	43430.52
639.474	42996.86
639.828	43231.66
640.181	43211.32
640.534	43275.5
640.888	43201.15
641.241	43064.88
641.594	43139.23
641.947	43223.3
642.301	43168.61
642.654	43145.33
643.007	43047.03
643.36	43294.94
643.713	43122.96
644.066	43232.56
644.419	42914.38
644.771	42761.16
645.124	42398.69
645.477	42264.45
645.83	42153.04
646.182	41966.61
646.535	41927.97
646.888	42058.81
647.24	41770.91
647.593	42084.35
647.945	41827.85
648.298	41803.67
648.65	41839.83
649.002	41672.38
649.355	41818.14
649.707	41775.88
650.059	41851.58
650.411	42357.33
650.763	42438.01
651.115	42807.04
651.467	42626.7
651.819	42742.86
652.171	42530.21
652.523	42549.87
652.875	42473.71
653.227	42416.77
653.578	42781.28
653.93	42527.5
654.282	42511.9
654.633	42226.26
654.985	42480.95
655.337	42436.2
655.688	42389.2
656.039	42586.48
656.391	42280.72
656.742	42362.08
657.094	42414.96
657.445	42474.84
657.796	42393.04
658.147	42249.99
658.498	42357.11
658.849	42451.12
659.2	42264.91
659.551	42200.95
659.902	42409.76
660.253	42302.87
660.604	42343.77
660.955	42171.35
661.306	42268.52
661.656	42258.13
662.007	42283.66
662.358	42229.65
662.708	42158.24
663.059	42226.26
663.409	41998.92
663.76	42198.24
664.11	42125.25
664.461	42256.32
664.811	42259.26
665.161	42203.21
665.511	41998.02
665.862	42217.45
666.212	42280.5
666.562	42315.75
666.912	42281.18
667.262	42204.57
667.612	42122.31
667.962	42240.05
668.312	42103.55
668.662	42291.8
669.011	41978.81
669.361	42111.92
669.711	41988.53
670.06	42087.28
670.41	41947.63
670.76	42014.52
671.109	42024.23
671.459	42074.4
671.808	42008.87
672.157	41973.61
672.507	41789.44
672.856	41920.73
673.205	41859.72
673.554	41993.05
673.904	41860.4
674.253	42087.74
674.602	41958.92
674.951	41230.36
675.3	41254.31
675.649	41788.53
675.998	41722.32
676.346	41804.35
676.695	41752.38
677.044	41467.86
677.393	41638.93
677.741	41582.89
678.09	41657.24
678.438	41554.64
678.787	41443.91
679.135	41501.31
679.484	41329.56
679.832	41487.98
680.181	41156.46
680.529	41243.01
680.877	41237.14
681.225	41149.23
681.573	41383.35
681.922	41127.99
682.27	41208.44
682.618	41138.16
682.966	40953.3
683.314	41112.85
683.661	41012.28
684.009	40763.93
684.357	40667.21
684.705	40731.39
685.053	40621.56
685.4	40547.44
685.748	40463.82
686.095	40432.86
686.443	40398.51
686.79	40269.03
687.138	40357.16
687.485	40319.42
687.832	40121.23
688.18	40128.24
688.527	39919.2
688.874	39977.06
689.221	39932.54
689.568	39935.25
689.915	39771.86
690.262	39633.34
690.609	39516.28
690.956	39385.21
691.303	39401.93
691.65	39180.24
691.997	39156.29
692.344	39029.06
692.69	38975.95
693.037	38944.77
693.383	38677.2
693.73	38915.16
694.077	38770.99
694.423	38675.4
694.769	38630.88
695.116	38371.67
695.462	38374.39
695.808	38233.15
696.155	38424.78
696.501	38076.09
696.847	37991.12
697.193	37704.35
697.539	37919.26
697.885	37633.16
698.231	37545.93
698.577	37658.25
698.923	37400.85
699.269	37270.91
699.614	37098.26
699.96	37094.42
700.306	36997.7
700.651	36957.93
700.997	36823.92
701.342	36733.53
701.688	36599.29
702.033	36692.62
702.379	36491.05
702.724	36370.6
703.069	36461.22
703.415	36203.14
703.76	36198.4
704.105	36183.26
704.45	36016.26
704.795	35746.21
705.14	35847
705.485	35751.18
705.83	35679.09
706.175	35623.5
706.52	35628.24
706.865	35344.64
707.209	35438.87
707.554	35167.24
707.899	35258.76
708.243	35103.74
708.588	35111.42
708.932	34729.96
709.277	34931.99
709.621	34880.92
709.966	34711.88
710.31	34741.94
710.654	34463.98
710.998	34553.92
711.342	34495.62
711.687	34265.57
712.031	34317.32
712.375	34065.12
712.719	34227.15
713.063	34210.65
713.407	34168.62
713.75	34047.49
714.094	33984.45
714.438	33794.62
714.782	33907.84
715.125	33740.84
715.469	33749.88
715.812	33529.54
716.156	33441.41
716.499	33400.05
716.843	33323.67
717.186	33236.89
717.53	33466.49
717.873	33329.32
718.216	33210.45
718.559	33071.7
718.902	32898.37
719.246	32987.86
719.589	32836.23
719.932	32733.63
720.275	32772.27
720.617	32694.99
720.96	32586.06
721.303	32579.06
721.646	32603.46
721.989	32316.92
722.331	32498.83
722.674	32393.07
723.016	32381.32
723.359	32319.86
723.701	32407.76
724.044	32163.93
724.386	31971.62
724.729	32128
725.071	32146.75
725.413	31971.62
725.755	32036.25
726.097	31897.95
726.439	31719.42
726.782	31783.15
727.124	31974.55
727.465	31694.11
727.807	31715.58
728.149	31615.92
728.491	31628.12
728.833	31599.2
729.175	31453.66
729.516	31401.69
729.858	31307.68
730.199	31463.61
730.541	31317.62
730.882	31230.62
731.224	31353.78
731.565	31009.16
731.906	31032.43
732.248	31092.32
732.589	31053.9
732.93	30842.83
733.271	30875.83
733.612	30840.35
733.953	30893.91
734.294	30622.73
734.635	30592.67
734.976	30682.84
735.317	30488.27
735.658	30511.32
735.999	30598.32
736.339	30437.65
736.68	30552.22
737.021	30355.61
737.361	30310.87
737.702	30567.13
738.042	30291.89
738.383	30171.89
738.723	30401.71
739.063	30150.2
739.404	30265.9
739.744	30160.59
740.084	30006.7
740.424	29990.2
740.764	30059.12
741.104	30064.77
741.444	29876.08
741.784	29941.61
742.124	29832.69
742.464	29815.52
742.804	29754.27
743.143	29693.48
743.483	29690.32
743.823	29551.12
744.162	29614.62
744.502	29588.63
744.841	29433.83
745.181	29550.66
745.52	29245.13
745.86	29461.4
746.199	29354.51
746.538	29350.22
746.877	29310.22
747.216	29324.91
747.556	29102.99
747.895	29245.13
748.234	29037
748.573	28994.07
748.911	29064.57
749.25	29058.02
749.589	28763.11
749.928	28893.96
750.267	28942.09
750.605	28786.39
750.944	28795.88
751.283	28618.48
751.621	28762.21
751.96	28643.12
752.298	28665.04
752.636	28613.51
752.975	28436.12
753.313	28375.1
753.651	28492.16
753.989	28361.77
754.327	28353.18
754.666	28161.1
755.004	28116.58
755.342	28143.24
755.679	28001.78
756.017	28077.26
756.355	27978.95
756.693	28039.07
757.031	27906.87
757.368	27745.29
757.706	27755.68
758.044	27632.3
758.381	27734.67
758.719	27567.44
759.056	27674.33
759.394	27471.62
759.731	27207.22
760.068	27225.75
760.405	27209.48
