Data from hue_32_FLMS001491_00027.txt Node
Date: Tue Feb 07 17:23:07 GMT 2017
User: dcchb
Spectrometer: FLMS00149
Trigger mode: 0
Integration Time (sec): 2.000000E-2
Scans to average: 10
Electric dark correction enabled: true
Nonlinearity correction enabled: false
Boxcar width: 0
XAxis mode: Wavelengths
Number of Pixels in Spectrum: 2048
>>>>>Begin Spectral Data<<<<<
341.393	-7.26
341.776	-7.26
342.16	-7.26
342.543	-45.22
342.927	-51.78
343.31	-79.35
343.693	-69.4
344.077	-67.37
344.46	-58.33
344.843	-82.06
345.226	-21.27
345.61	-33.7
345.993	-15.62
346.376	-4.1
346.759	2.68
347.142	21.44
347.525	30.03
347.908	73.19
348.291	89.23
348.674	95.79
349.057	118.84
349.44	143.7
349.823	138.5
350.206	157.93
350.588	197.93
350.971	228.21
351.354	251.49
351.737	228.67
352.119	260.08
352.502	272.73
352.884	267.31
353.267	282.9
353.65	303.24
354.032	295.78
354.414	316.35
354.797	321.77
355.179	317.48
355.562	338.04
355.944	340.53
356.326	342.11
356.709	333.52
357.091	326.06
357.473	332.62
357.855	340.98
358.238	357.25
358.62	345.95
359.002	331.26
359.384	347.76
359.766	331.71
360.148	340.3
360.53	334.65
360.912	318.16
361.294	341.88
361.676	361.32
362.057	342.34
362.439	350.7
362.821	315.44
363.203	323.58
363.584	340.75
363.966	329.91
364.348	339.62
364.729	349.57
365.111	314.09
365.493	338.49
365.874	319.96
366.256	324.71
366.637	335.33
367.019	329.23
367.4	305.73
367.781	326.29
368.163	319.29
368.544	339.85
368.925	299.62
369.306	329.91
369.688	326.97
370.069	319.51
370.45	317.03
370.831	316.12
371.212	319.74
371.593	310.25
371.974	329
372.355	333.97
372.736	335.56
373.117	336.46
373.498	338.95
373.879	338.27
374.26	310.7
374.641	299.85
375.021	321.32
375.402	331.49
375.783	334.43
376.163	349.79
376.544	341.21
376.925	336.46
377.305	323.13
377.686	333.3
378.066	329.23
378.447	354.76
378.827	325.61
379.208	330.81
379.588	350.02
379.968	338.95
380.349	354.54
380.729	341.88
381.109	329.91
381.489	350.92
381.87	352.05
382.25	337.59
382.63	352.05
383.01	357.7
383.39	376.23
383.77	358.38
384.15	360.41
384.53	347.99
384.91	336.46
385.29	357.7
385.67	357.48
386.049	361.77
386.429	371.49
386.809	355.22
387.189	369.68
387.568	360.41
387.948	368.1
388.328	372.62
388.707	356.8
389.087	381.88
389.466	362.9
389.846	367.42
390.225	382.56
390.605	358.38
390.984	359.06
391.363	378.04
391.743	365.39
392.122	379.62
392.501	377.81
392.881	418.27
393.26	376.69
393.639	392.73
394.018	373.3
394.397	381.88
394.776	371.71
395.155	389.57
395.534	377.14
395.913	394.76
396.292	387.98
396.671	422.33
397.05	386.85
397.429	398.38
397.808	402.45
398.186	379.85
398.565	422.33
398.944	398.15
399.323	415.1
399.701	422.11
400.08	402.9
400.458	414.2
400.837	406.97
401.215	422.56
401.594	403.35
401.972	411.71
402.351	430.02
402.729	425.95
403.107	454.88
403.486	414.42
403.864	429.56
404.242	437.02
404.62	425.5
404.999	437.93
405.377	436.34
405.755	426.18
406.133	445.16
406.511	440.41
406.889	447.87
407.267	452.16
407.645	453.29
408.023	447.19
408.401	458.49
408.779	436.12
409.156	459.39
409.534	461.2
409.912	459.62
410.29	477.02
410.667	444.93
411.045	487.64
411.422	458.04
411.8	467.98
412.178	467.3
412.555	486.06
412.933	483.35
413.31	477.47
413.687	479.73
414.065	481.99
414.442	513.4
414.819	507.53
415.197	497.59
415.574	494.2
415.951	491.03
416.328	528.55
416.705	516.12
417.082	524.25
417.46	535.55
417.837	520.18
418.214	526.96
418.591	506.17
418.967	519.28
419.344	523.35
419.721	532.84
420.098	546.85
420.475	548.66
420.852	557.7
421.228	552.27
421.605	582.33
421.982	556.34
422.358	554.53
422.735	592.27
423.111	561.99
423.488	542.1
423.864	561.54
424.241	574.19
424.617	575.1
424.994	591.82
425.37	578.71
425.746	583.23
426.123	600.63
426.499	592.05
426.875	611.93
427.251	594.76
427.627	620.07
428.003	628.2
428.379	616.45
428.756	613.74
429.132	619.16
429.507	632.27
429.883	621.65
430.259	617.81
430.635	656.68
431.011	669.78
431.387	674.98
431.763	693.06
432.138	661.2
432.514	674.76
432.89	693.29
433.265	671.14
433.641	685.15
434.016	721.31
434.392	717.47
434.767	695.77
435.143	715.66
435.518	700.97
435.894	717.24
436.269	716.79
436.644	748.43
437.02	736.68
437.395	735.77
437.77	751.14
438.145	781.65
438.52	771.93
438.895	761.99
439.271	795.21
439.646	779.84
440.021	783
440.395	791.36
440.77	792.04
441.145	799.72
441.52	817.58
441.895	789.1
442.27	809.44
442.645	836.33
443.019	812.38
443.394	814.19
443.769	839.05
444.143	797.46
444.518	842.21
444.892	833.4
445.267	846.5
445.641	834.75
446.016	854.64
446.39	856.22
446.764	864.58
447.139	891.25
447.513	878.14
447.887	874.3
448.262	870.68
448.636	894.64
449.01	898.03
449.384	907.52
449.758	899.38
450.132	905.48
450.506	914.52
450.88	906.39
451.254	924.47
451.628	957.46
452.002	960.85
452.376	940.96
452.75	944.13
453.123	976.9
453.497	966.05
453.871	983.22
454.244	982.09
454.618	993.62
454.992	1019.61
455.365	1025.93
455.739	1044.69
456.112	1044.69
456.486	1023
456.859	1070
457.232	1093.95
457.606	1064.12
457.979	1098.47
458.352	1084.46
458.725	1102.99
459.099	1130.11
459.472	1136.21
459.845	1156.1
460.218	1171.24
460.591	1154.52
460.964	1152.71
461.337	1194.74
461.71	1188.42
462.083	1233.61
462.456	1210.11
462.829	1255.98
463.201	1252.59
463.574	1242.42
463.947	1268.64
464.32	1320.84
464.692	1338.92
465.065	1320.61
465.438	1367.62
465.81	1382.53
466.183	1364.46
466.555	1394.29
466.928	1429.54
467.3	1405.58
467.672	1431.12
468.045	1446.94
468.417	1505.02
468.789	1472.7
469.161	1514.73
469.534	1533.04
469.906	1585.01
470.278	1574.17
470.65	1610.78
471.022	1629.99
471.394	1639.25
471.766	1663.88
472.138	1698.46
472.51	1752.69
472.882	1790.43
473.253	1806.03
473.625	1820.71
473.997	1863.65
474.369	1889.19
474.74	1917.66
475.112	1968.28
475.484	2004.44
475.855	2044.89
476.227	2066.13
476.598	2136.41
476.97	2130.99
477.341	2205.11
477.713	2245.79
478.084	2256.86
478.455	2381.6
478.827	2384.99
479.198	2461.15
479.569	2481.71
479.94	2570.07
480.311	2627.02
480.682	2688.71
481.053	2752.89
481.424	2806.23
481.795	2867.92
482.166	2903.85
482.537	2969.39
482.908	3051.42
483.279	3096.16
483.65	3184.07
484.021	3266.1
484.391	3349.71
484.762	3372.99
485.133	3451.86
485.503	3525.08
485.874	3632.87
486.244	3681.91
486.615	3746.09
486.985	3833.09
487.356	3929.36
487.726	3984.27
488.097	4120.32
488.467	4133.2
488.837	4252.52
489.207	4327.77
489.578	4453.41
489.948	4588.1
490.318	4633.52
490.688	4682.33
491.058	4759.17
491.428	4825.38
491.798	4923.68
492.168	5067.41
492.538	5113.51
492.908	5184.02
493.278	5293.84
493.648	5332.26
494.017	5400.51
494.387	5509.43
494.757	5580.39
495.126	5658.13
495.496	5740.61
495.866	5838.91
496.235	5914.62
496.605	5978.12
496.974	6043.88
497.344	6154.84
497.713	6212.01
498.082	6219.24
498.452	6389.63
498.821	6364.32
499.19	6442.51
499.559	6474.15
499.928	6625.33
500.298	6696.74
500.667	6673.02
501.036	6718.89
501.405	6813.8
501.774	6867.59
502.143	6933.57
502.512	6957.53
502.88	7130.18
503.249	7131.99
503.618	7196.39
503.987	7266.67
504.356	7310.74
504.724	7357.29
505.093	7392.09
505.462	7468.02
505.83	7510.51
506.199	7548.25
506.567	7735.14
506.936	7701.92
507.304	7799.99
507.672	7826.21
508.041	7901.46
508.409	7936.26
508.777	8003.83
509.145	8061.68
509.514	8036.37
509.882	8131.96
510.25	8170.6
510.618	8235.24
510.986	8306.19
511.354	8342.8
511.722	8487.21
512.09	8542.57
512.458	8531.05
512.826	8550.71
513.193	8615.56
513.561	8722.91
513.929	8764.94
514.297	8776.01
514.664	8841.32
515.032	8955.44
515.4	8955.67
515.767	8975.33
516.135	9072.05
516.502	8975.33
516.869	9219.16
517.237	9167.41
517.604	9195.44
517.972	9314.3
518.339	9276.11
518.706	9280.18
519.073	9425.49
519.44	9403.57
519.808	9510.91
520.175	9548.65
520.542	9607.18
520.909	9648.31
521.276	9710.22
521.643	9737.34
522.009	9881.29
522.376	9885.81
522.743	9876.32
523.11	10035.19
523.477	10061.4
523.843	10133.26
524.21	10221.62
524.577	10272.47
524.943	10285.13
525.31	10401.05
525.676	10477.89
526.043	10529.19
526.409	10566.25
526.776	10658
527.142	10639.24
527.508	10698
527.874	10800.37
528.241	10889.85
528.607	10860.48
528.973	11063.18
529.339	11039.91
529.705	11105.22
530.071	11212.11
530.437	11227.93
530.803	11268.6
531.169	11349.96
531.535	11393.34
531.901	11462.95
532.267	11472.44
532.632	11507.01
532.998	11544.53
533.364	11624.07
533.73	11691.64
534.095	11788.14
534.461	11869.26
534.826	11918.53
535.192	11949.26
535.557	11976.38
535.923	11987.91
536.288	12068.58
536.653	12158.07
537.019	12173.89
537.384	12147
537.749	12272.87
538.114	12306.31
538.479	12329.59
538.845	12370.04
539.21	12279.42
539.575	12482.36
539.94	12471.06
540.305	12573.65
540.67	12584.73
541.034	12617.27
541.399	12732.07
541.764	12765.06
542.129	12734.55
542.494	12833.76
542.858	12852.97
543.223	12951.72
543.587	13012.06
543.952	12943.59
544.316	13121.89
544.681	13036.47
545.045	13203.01
545.41	13196.69
545.774	13244.82
546.138	13291.83
546.503	13350.58
546.867	13360.52
547.231	13537.47
547.595	13539.05
547.959	13540.63
548.324	13575.66
548.688	13678.48
549.052	13678.93
549.416	13628.77
549.779	13784.92
550.143	13798.7
550.507	13850
550.871	13950.11
551.235	13910.79
551.599	14110.56
551.962	14092.93
552.326	14090.67
552.689	14213.84
553.053	14152.37
553.417	14252.93
553.78	14422.19
554.143	14300.84
554.507	14422.42
554.87	14448.86
555.234	14595.97
555.597	14543.32
555.96	14562.53
556.323	14589.64
556.686	14661.06
557.05	14701.96
557.413	14797.1
557.776	14741.05
558.139	14839.36
558.502	14914.61
558.865	15007.26
559.228	15040.03
559.59	15093.59
559.953	15087.03
560.316	15252.9
560.679	15240.47
561.041	15380.58
561.404	15451.77
561.767	15456.74
562.129	15495.38
562.492	15606.34
562.854	15485.67
563.217	15590.97
563.579	15680.69
563.941	15727.24
564.304	15807.01
564.666	15861.93
565.028	15908.93
565.39	15978.76
565.753	16100.34
566.115	16145.99
566.477	16109.38
566.839	16292.42
567.201	16340.79
567.563	16355.25
567.925	16507.79
568.287	16515.24
568.648	16570.38
569.01	16638.86
569.372	16704.62
569.734	16673.66
570.095	16736.25
570.457	16846.99
570.819	16922.92
571.18	16905.06
571.542	17122.46
571.903	17155.45
572.265	17278.16
572.626	17270.03
572.987	17342.34
573.349	17413.75
573.71	17510.25
574.071	17599.28
574.432	17731.48
574.794	17870.69
575.155	17895.09
575.516	17892.38
575.877	17983.45
576.238	18017.58
576.599	18296.44
576.96	18405.36
577.32	18403.56
577.681	18669.99
578.042	18665.92
578.403	18829.76
578.763	18862.98
579.124	19157.66
579.485	19297.77
579.845	19443.75
580.206	19497.54
580.566	19633.13
580.927	19819.79
581.287	19993.12
581.648	20126.22
582.008	20418.64
582.368	20375.93
582.728	20681.69
583.089	20721.91
583.449	21030.83
583.809	21221.33
584.169	21427.66
584.529	21570.48
584.889	21865.39
585.249	21973.18
585.609	22127.07
585.969	22513.5
586.329	22633.05
586.688	22973.83
587.048	23135.63
587.408	23397.55
587.768	23499.92
588.127	23753.92
588.487	23841.6
588.846	24367.24
589.206	24416.73
589.565	24654.24
589.925	25103.94
590.284	25174
590.643	25582.58
591.003	25853.76
591.362	26191.83
591.721	26249.68
592.08	26672.49
592.44	26893.28
592.799	27127.39
593.158	27366.03
593.517	27622.07
593.876	27979.35
594.235	28126.24
594.593	28412.11
594.952	28837.41
595.311	28790.4
595.67	29252.99
596.029	29676.93
596.387	29829.92
596.746	30051.16
597.104	30117.82
597.463	30433.07
597.822	30836.68
598.18	31096.33
598.538	31271.47
598.897	31593.27
599.255	31647.05
599.613	32224.66
599.972	32229.86
600.33	32718.21
600.688	32739.45
601.046	33015.83
601.404	33294.24
601.762	33586.43
602.12	33989.13
602.478	33964.73
602.836	34337.37
603.194	34387.54
603.552	34581.89
603.91	34623.92
604.268	35012.84
604.625	35069.33
604.983	35379.15
605.341	35337.57
605.698	35699.37
606.056	36004
606.413	36074.5
606.771	36371.44
607.128	36610.76
607.485	36658.89
607.843	36820.92
608.2	37233.34
608.557	37337.3
608.914	37356.73
609.272	37785.87
609.629	37956.49
609.986	38136.14
610.343	38139.76
610.7	38580.43
611.057	38579.97
611.414	38741.33
611.771	38911.49
612.127	39078.49
612.484	39308.09
612.841	39533.4
613.198	39435.09
613.554	39570.91
613.911	39882.99
614.267	39888.87
614.624	39992.59
614.98	40113.95
615.337	40364.11
615.693	40458.79
616.05	40379.7
616.406	40849.97
616.762	40720.03
617.118	40936.52
617.475	41096.74
617.831	41191.43
618.187	41358.88
618.543	41346
618.899	41641.36
619.255	41645.43
619.611	41819.21
619.967	41990.28
620.323	42066.66
620.678	42149.82
621.034	42084.29
621.39	42123.38
621.746	42183.95
622.101	42727.44
622.457	42496.93
622.812	42633.88
623.168	42757.49
623.523	42726.76
623.879	42975.56
624.234	42637.49
624.589	42842.69
624.945	43040.2
625.3	43079.07
625.655	43140.53
626.01	43112.28
626.365	43165.62
626.72	43238.38
627.075	43155
627.43	43199.29
627.785	43240.42
628.14	43389.57
628.495	43458.04
628.85	43481.77
629.205	43259.17
629.559	43553.85
629.914	43456.91
630.269	43549.79
630.623	43468.89
630.978	43439.51
631.332	43614.42
631.687	43722.66
632.041	43512.27
632.396	43594.08
632.75	43512.05
633.104	43616.9
633.459	43441.09
633.813	43457.13
634.167	43492.39
634.521	43603.12
634.875	43559.73
635.229	43646.96
635.583	43518.6
635.937	43543.23
636.291	43468.89
636.645	43484.48
636.999	43477.92
637.352	43534.19
637.706	43405.84
638.06	43606.96
638.413	43424.82
638.767	43285.39
639.121	43457.36
639.474	43329.23
639.828	43283.81
640.181	43260.3
640.534	43313.64
640.888	43311.6
641.241	43061.21
641.594	43156.13
641.947	43327.87
642.301	43266.86
642.654	43291.49
643.007	43216.91
643.36	43143.7
643.713	43213.52
644.066	43324.03
644.419	43115.9
644.771	42835.68
645.124	42544.16
645.477	42460.32
645.83	42141.46
646.182	42072.54
646.535	41955.25
646.888	42025.08
647.24	41726.56
647.593	42071.86
647.945	41982.14
648.298	41850.85
648.65	41745.99
649.002	41752.32
649.355	41930.39
649.707	41820.34
650.059	41894.01
650.411	42557.72
650.763	42551.4
651.115	42903.48
651.467	42588.91
651.819	42720.2
652.171	42584.84
652.523	42612.64
652.875	42700.09
653.227	42411.29
653.578	42807.43
653.93	42601.11
654.282	42419.87
654.633	42394.56
654.985	42494.9
655.337	42525.41
655.688	42566.99
656.039	42648.79
656.391	42297.62
656.742	42376.48
657.094	42479.76
657.445	42583.03
657.796	42478.63
658.147	42439.99
658.498	42326.77
658.849	42522.02
659.2	42205.42
659.551	42357.05
659.902	42458.06
660.253	42317.73
660.604	42354.34
660.955	42186.43
661.306	42399.31
661.656	42226.66
662.007	42232.08
662.358	42223.72
662.708	42229.82
663.059	42281.12
663.409	41997.74
663.76	42201.12
664.11	42196.38
664.461	42252.65
664.811	42352.76
665.161	42193.89
665.511	42111.86
665.862	42229.37
666.212	42329.25
666.562	42191.4
666.912	42120.9
667.262	42137.62
667.612	42247.67
667.962	42178.07
668.312	42090.16
668.662	42394.79
669.011	42192.08
669.361	42066.44
669.711	42063.05
670.06	42016.72
670.41	41983.5
670.76	41937.63
671.109	42288.13
671.459	41962.48
671.808	41900.56
672.157	42125.42
672.507	41770.4
672.856	41760
673.205	41887.01
673.554	42004.29
673.904	41946.21
674.253	42111.41
674.602	41973.56
674.951	41258.1
675.3	41220.36
675.649	41832.32
675.998	41717.74
676.346	41812.88
676.695	41875.03
677.044	41491.54
677.393	41569.5
677.741	41780.12
678.09	41742.38
678.438	41583.74
678.787	41548.03
679.135	41709.84
679.484	41404.08
679.832	41517.52
680.181	41289.73
680.529	41560.01
680.877	41319.34
681.225	41240.24
681.573	41501.25
681.922	41204.99
682.27	41079.57
682.618	41127.7
682.966	40964.09
683.314	41070.3
683.661	40965.22
684.009	40927.26
684.357	40720.93
684.705	40722.74
685.053	40760.26
685.4	40606.81
685.748	40480.26
686.095	40606.59
686.443	40417.21
686.79	40298.12
687.138	40341.28
687.485	40498.12
687.832	40233.26
688.18	40160.72
688.527	39986.94
688.874	39995.98
689.221	39888.64
689.568	39824.01
689.915	39747.4
690.262	39888.87
690.609	39558.71
690.956	39329.79
691.303	39563
691.65	39266.51
691.997	39232.84
692.344	39051.37
692.69	39058.61
693.037	39096.12
693.383	38804.6
693.73	38969.34
694.077	38690.71
694.423	38689.58
694.769	38482.58
695.116	38447.32
695.462	38475.12
695.808	38288
696.155	38545.4
696.501	38187.44
696.847	38116.03
697.193	37775.48
697.539	37997.62
697.885	37620
698.231	37700.68
698.577	37753.56
698.923	37730.51
699.269	37434.24
699.614	37338.88
699.96	37275.83
700.306	37247.35
700.651	37122.84
700.997	36921.94
701.342	36811.43
701.688	36833.81
702.033	36748.16
702.379	36690.98
702.724	36545.68
703.069	36688.05
703.415	36305.68
703.76	36154.05
704.105	36243.76
704.45	36081.96
704.795	35965.35
705.14	35749.54
705.485	35926.94
705.83	35680.62
706.175	35775.3
706.52	35606.95
706.865	35384.58
707.209	35641.29
707.554	35287.18
707.899	35478.59
708.243	35355.88
708.588	35053.06
708.932	34974.19
709.277	35162.66
709.621	35078.6
709.966	34939.39
710.31	34824.59
710.654	34545.96
710.998	34573.75
711.342	34615.78
711.687	34605.16
712.031	34307.77
712.375	34244.72
712.719	34196.81
713.063	34093.99
713.407	34305.06
713.75	34053.31
714.094	34079.08
714.438	33970.15
714.782	33995.24
715.125	33785.52
715.469	33813.32
715.812	33748.46
716.156	33621.69
716.499	33557.96
716.843	33545.08
717.186	33349.83
717.53	33595.47
717.873	33613.1
718.216	33406.33
718.559	33350.06
718.902	33043.62
719.246	33136.28
719.589	32989.16
719.932	32983.51
720.275	32901.03
720.617	32812.67
720.96	32842.27
721.303	32983.29
721.646	32910.29
721.989	32613.8
722.331	32772.67
722.674	32598.66
723.016	32764.31
723.359	32652.67
723.701	32508.72
724.044	32311.44
724.386	32106.7
724.729	32341.49
725.071	32301.95
725.413	32180.14
725.755	32124.32
726.097	32103.99
726.439	31915.97
726.782	31952.35
727.124	31957.32
727.465	31766.37
727.807	31832.13
728.149	31764.33
728.491	31708.74
728.833	31865.35
729.175	31713.94
729.516	31552.81
729.858	31460.84
730.199	31569.54
730.541	31411.58
730.882	31351.24
731.224	31549.42
731.565	31290.9
731.906	31367.73
732.248	31243.9
732.589	31203.22
732.93	31043
733.271	31089.55
733.612	31161.64
733.953	31080.06
734.294	31031.25
734.635	30919.61
734.976	30981.3
735.317	30827.18
735.658	30719.62
735.999	30822.44
736.339	30725.27
736.68	30782.21
737.021	30798.26
737.361	30501.32
737.702	30643.91
738.042	30528.66
738.383	30426.97
738.723	30505.61
739.063	30364.37
739.404	30426.06
739.744	30480.98
740.084	30253.64
740.424	30218.16
740.764	30348.78
741.104	30422.22
741.444	30004.61
741.784	30040.76
742.124	30176.58
742.464	30000.76
742.804	29953.31
743.143	29907.21
743.483	29908.56
743.823	29789.24
744.162	29717.38
744.502	29746.31
744.841	29669.02
745.181	29808.91
745.52	29567.33
745.86	29660.43
746.199	29572.08
746.538	29608.46
746.877	29654.79
747.216	29558.29
747.556	29404.85
747.895	29538.18
748.234	29233.78
748.573	29305.42
748.911	29189.94
749.25	29224.29
749.589	29144.74
749.928	29087.79
750.267	29166.44
750.605	29013.9
750.944	29107.45
751.283	28981.81
751.621	28977.29
751.96	28827.24
752.298	28802.83
752.636	28679.22
752.975	28673.12
753.313	28465.21
753.651	28637.86
753.989	28577.3
754.327	28448.72
754.666	28378.66
755.004	28303.63
755.342	28374.82
755.679	28316.52
756.017	28236.52
756.355	28327.14
756.693	28152.9
757.031	28102.51
757.368	28004.66
757.706	27992.91
