Data from hue_310_FLMS001491_93.txt Node
Date: Mon Feb 06 15:50:28 GMT 2017
User: dcchb
Spectrometer: FLMS00149
Trigger mode: 0
Integration Time (sec): 2.000000E-2
Scans to average: 10
Electric dark correction enabled: true
Nonlinearity correction enabled: false
Boxcar width: 0
XAxis mode: Wavelengths
Number of Pixels in Spectrum: 2048
>>>>>Begin Spectral Data<<<<<
341.393	-18.42
341.776	-18.42
342.16	-18.42
342.543	-52.77
342.927	-69.72
343.31	-75.37
343.693	-61.58
344.077	-54.12
344.46	-56.16
344.843	-48.02
345.226	-53.44
345.61	-42.37
345.993	-38.53
346.376	-12.54
346.759	10.96
347.142	24.07
347.525	50.51
347.908	73.78
348.291	79.21
348.674	97.06
349.057	106.55
349.44	110.84
349.823	156.95
350.206	150.39
350.588	184.51
350.971	206.89
351.354	238.07
351.737	231.07
352.119	225.19
352.502	269.03
352.884	270.84
353.267	270.16
353.65	298.86
354.032	302.93
354.414	310.84
354.797	335.02
355.179	330.27
355.562	328.69
355.944	314.23
356.326	318.07
356.709	344.74
357.091	333.44
357.473	332.31
357.855	342.48
358.238	334.57
358.62	343.83
359.002	357.39
359.384	345.41
359.766	334.34
360.148	343.83
360.53	328.69
360.912	323.72
361.294	336.6
361.676	346.77
362.057	309.48
362.439	343.83
362.821	338.86
363.203	320.78
363.584	337.28
363.966	323.27
364.348	313.55
364.729	330.27
365.111	322.82
365.493	332.76
365.874	312.87
366.256	317.62
366.637	314.68
367.019	319.65
367.4	314
367.781	312.65
368.163	309.03
368.544	295.47
368.925	321.69
369.306	317.84
369.688	336.15
370.069	314.46
370.45	313.33
370.831	317.62
371.212	311.97
371.593	314.91
371.974	309.71
372.355	325.98
372.736	314.91
373.117	307.45
373.498	307.68
373.879	322.36
374.26	308.35
374.641	315.58
375.021	316.26
375.402	323.49
375.783	356.49
376.163	335.47
376.544	331.86
376.925	318.97
377.305	331.18
377.686	321.01
378.066	353.32
378.447	332.53
378.827	342.02
379.208	332.99
379.588	310.16
379.968	338.18
380.349	327.79
380.729	337.51
381.109	332.08
381.489	342.48
381.87	342.7
382.25	347.22
382.63	352.87
383.01	351.29
383.39	351.74
383.77	348.58
384.15	335.47
384.53	335.92
384.91	364.4
385.29	363.72
385.67	339.09
386.049	358.75
386.429	340.67
386.809	362.82
387.189	327.79
387.568	342.93
387.948	341.35
388.328	335.02
388.707	361.23
389.087	365.3
389.466	370.27
389.846	357.62
390.225	341.8
390.605	362.14
390.984	381.8
391.363	363.72
391.743	403.04
392.122	386.54
392.501	384.51
392.881	383.15
393.26	383.15
393.639	391.52
394.018	386.32
394.397	366.21
394.776	380.89
395.155	387.45
395.534	383.83
395.913	378.63
396.292	393.32
396.671	404.85
397.05	390.16
397.429	374.11
397.808	391.74
398.186	394.45
398.565	386.77
398.944	379.09
399.323	398.29
399.701	395.13
400.08	413.21
400.458	414.11
400.837	419.31
401.215	426.54
401.594	412.31
401.972	409.14
402.351	419.31
402.729	422.7
403.107	426.77
403.486	434.45
403.864	415.24
404.242	430.61
404.62	428.35
404.999	434.45
405.377	443.49
405.755	437.62
406.133	453.21
406.511	461.57
406.889	445.07
407.267	447.33
407.645	455.24
408.023	460.21
408.401	458.86
408.779	483.94
409.156	511.29
409.534	470.61
409.912	500.66
410.29	523.94
410.667	503.38
411.045	511.06
411.422	526.88
411.8	532.98
412.178	551.06
412.555	550.61
412.933	541.57
413.31	546.09
413.687	540.21
414.065	569.59
414.442	557.84
414.819	583.37
415.197	582.24
415.574	601.45
415.951	577.05
416.328	595.35
416.705	625.18
417.082	634.22
417.46	617.72
417.837	630.83
418.214	661.11
418.591	645.75
418.967	653.66
419.344	661.56
419.721	702.02
420.098	697.04
420.475	691.17
420.852	689.36
421.228	717.61
421.605	714.44
421.982	727.1
422.358	713.54
422.735	739.75
423.111	758.06
423.488	760.54
423.864	772.52
424.241	767.32
424.617	764.61
424.994	777.49
425.37	804.61
425.746	797.38
426.123	823.14
426.499	811.39
426.875	802.13
427.251	841.22
427.627	838.28
428.003	845.74
428.379	849.13
428.756	891.39
429.132	894.78
429.507	880.54
429.883	895.91
430.259	916.7
430.635	911.95
431.011	922.35
431.387	950.6
431.763	971.61
432.138	957.38
432.514	954.66
432.89	969.35
433.265	997.37
433.641	1021.56
434.016	995.79
434.392	1049.35
434.767	1087.77
435.143	1063.59
435.518	1085.96
435.894	1046.87
436.269	1083.02
436.644	1102
437.02	1111.5
437.395	1106.52
437.77	1120.08
438.145	1117.15
438.52	1153.98
438.895	1164.83
439.271	1171.61
439.646	1185.84
440.021	1189.46
440.395	1205.96
440.77	1184.04
441.145	1185.39
441.52	1223.13
441.895	1194.88
442.27	1259.74
442.645	1250.02
443.019	1264.71
443.394	1261.32
443.769	1238.72
444.143	1258.38
444.518	1258.61
444.892	1264.71
445.267	1282.11
445.641	1269.91
446.016	1272.17
446.39	1316.24
446.764	1340.42
447.139	1284.37
447.513	1313.07
447.887	1283.24
448.262	1295.45
448.636	1301.55
449.01	1316.91
449.384	1344.94
449.758	1358.04
450.132	1320.98
450.506	1337.03
450.88	1375.9
451.254	1336.58
451.628	1360.53
452.002	1389.68
452.376	1377.48
452.75	1374.77
453.123	1403.92
453.497	1425.16
453.871	1410.02
454.244	1426.06
454.618	1426.97
454.992	1448.89
455.365	1450.7
455.739	1476.46
456.112	1476.23
456.486	1506.06
456.859	1508.32
457.232	1530.47
457.606	1512.84
457.979	1511.26
458.352	1566.4
458.725	1552.16
459.099	1582.9
459.472	1638.94
459.845	1601.2
460.218	1605.49
460.591	1589.68
460.964	1620.41
461.337	1651.59
461.71	1651.14
462.083	1646.85
462.456	1678.03
462.829	1649.11
463.201	1692.5
463.574	1696.79
463.947	1715.77
464.32	1757.81
464.692	1742.44
465.065	1771.37
465.438	1772.5
465.81	1785.15
466.183	1804.81
466.555	1825.6
466.928	1818.6
467.3	1825.15
467.672	1866.28
468.045	1860.4
468.417	1893.62
468.789	1891.81
469.161	1908.31
469.534	1932.49
469.906	1985.82
470.278	1979.72
470.65	1998.25
471.022	2030.79
471.394	2026.95
471.766	2019.04
472.138	2066.95
472.51	2077.35
472.882	2126.38
473.253	2093.84
473.625	2130.68
473.997	2160.51
474.369	2154.41
474.74	2208.42
475.112	2227.17
475.484	2277.79
475.855	2268.75
476.227	2282.09
476.598	2363.44
476.97	2357.11
477.341	2380.84
477.713	2404.8
478.084	2379.49
478.455	2429.65
478.827	2475.98
479.198	2490.89
479.569	2516.21
479.94	2545.81
480.311	2571.12
480.682	2600.27
481.053	2658.12
481.424	2672.59
481.795	2659.7
482.166	2682.98
482.537	2736.99
482.908	2778.57
483.279	2774.28
483.65	2792.13
484.021	2896.76
484.391	2881.39
484.762	2889.53
485.133	2884.56
485.503	2936.08
485.874	3003.88
486.244	2996.19
486.615	3061.5
486.985	3052.24
487.356	3119.58
487.726	3149.86
488.097	3162.52
488.467	3228.05
488.837	3254.04
489.207	3279.57
489.578	3292.23
489.948	3317.09
490.318	3342.62
490.688	3369.97
491.058	3395.05
491.428	3423.53
491.798	3417.65
492.168	3497.87
492.538	3492.68
492.908	3559.79
493.278	3558.66
493.648	3579.45
494.017	3611.09
494.387	3604.31
494.757	3634.82
495.126	3658.1
495.496	3635.5
495.866	3689.06
496.235	3702.39
496.605	3726.79
496.974	3781.71
497.344	3790.97
497.713	3817.19
498.082	3809.28
498.452	3856.73
498.821	3866
499.19	3903.74
499.559	3857.86
499.928	3901.48
500.298	3927.69
500.667	3951.42
501.036	3937.18
501.405	4006.34
501.774	3931.08
502.143	3985.54
502.512	4035.49
502.88	4022.61
503.249	4034.13
503.618	4026.9
503.987	4058.09
504.356	4068.93
504.724	4124.07
505.093	4103.73
505.462	4084.75
505.83	4154.81
506.199	4155.26
506.567	4200.23
506.936	4176.05
507.304	4224.41
507.672	4232.32
508.041	4277.97
508.409	4249.72
508.777	4252.88
509.145	4338.3
509.514	4289.94
509.882	4330.17
510.25	4307.57
510.618	4370.17
510.986	4361.13
511.354	4352.99
511.722	4416.49
512.09	4432.09
512.458	4425.08
512.826	4435.48
513.193	4425.99
513.561	4407.45
513.929	4487
514.297	4476.61
514.664	4496.72
515.032	4515.47
515.4	4527.23
515.767	4543.04
516.135	4548.69
516.502	4485.64
516.869	4599.31
517.237	4599.31
517.604	4548.47
517.972	4577.85
518.339	4601.35
518.706	4630.05
519.073	4629.6
519.44	4630.05
519.808	4652.65
520.175	4663.72
520.542	4724.51
520.909	4717.96
521.276	4786.88
521.643	4751.85
522.009	4784.39
522.376	4736.03
522.743	4795.92
523.11	4819.2
523.477	4836.37
523.843	4853.32
524.21	4905.29
524.577	4933.99
524.943	4918.4
525.31	4974.67
525.676	4966.99
526.043	5059.87
526.409	5045.86
526.776	5105.06
527.142	5048.12
527.508	5129.92
527.874	5114.33
528.241	5157.94
528.607	5179.86
528.973	5184.16
529.339	5199.52
529.705	5281.78
530.071	5281.56
530.437	5279.07
530.803	5322.46
531.169	5319.52
531.535	5346.19
531.901	5366.07
532.267	5418.28
532.632	5405.85
532.998	5456.47
533.364	5458.95
533.73	5473.19
534.095	5515.22
534.461	5518.16
534.826	5601.77
535.192	5617.82
535.557	5591.6
535.923	5617.59
536.288	5652.17
536.653	5698.49
537.019	5633.41
537.384	5679.74
537.749	5690.36
538.114	5690.36
538.479	5743.92
538.845	5795.44
539.21	5726.29
539.575	5815.55
539.94	5878.38
540.305	5857.13
540.67	5837.47
541.034	5922.44
541.399	5975.32
541.764	6001.09
542.129	5933.74
542.494	5999.73
542.858	6049.22
543.223	6037.24
543.587	6154.53
543.952	6037.69
544.316	6077.47
544.681	6103.91
545.045	6166.05
545.41	6193.17
545.774	6191.81
546.138	6201.76
546.503	6246.05
546.867	6254.86
547.231	6282.89
547.595	6309.55
547.959	6382.32
548.324	6414.86
548.688	6325.82
549.052	6419.38
549.416	6445.14
549.779	6400.17
550.143	6494.63
550.507	6542.09
550.871	6520.17
551.235	6536.66
551.599	6602.43
551.962	6531.01
552.326	6604.91
552.689	6646.49
553.053	6640.16
553.417	6682.2
553.78	6726.26
554.143	6684.01
554.507	6679.03
554.87	6723.1
555.234	6796.32
555.597	6799.93
555.96	6795.19
556.323	6866.6
556.686	6849.42
557.05	6873.83
557.413	6867.05
557.776	6905.24
558.139	6962.19
558.502	6997.9
558.865	6926.03
559.228	7027.95
559.59	7060.27
559.953	7018.01
560.316	7127.84
560.679	7061.17
561.041	7160.6
561.404	7130.55
561.767	7162.41
562.129	7165.35
562.492	7202.86
562.854	7300.03
563.217	7204.9
563.579	7262.29
563.941	7303.42
564.304	7359.92
564.666	7386.59
565.028	7343.87
565.39	7313.14
565.753	7427.71
566.115	7433.14
566.477	7413.25
566.839	7442.4
567.201	7512.68
567.563	7550.42
567.925	7588.16
568.287	7591.1
568.648	7624.09
569.01	7586.81
569.372	7645.34
569.734	7684.2
570.095	7775.73
570.457	7784.09
570.819	7751.77
571.18	7768.5
571.542	7915.39
571.903	7928.04
572.265	7953.12
572.626	7993.8
572.987	8064.08
573.349	8109.73
573.71	8123.97
574.071	8168.03
574.432	8225.89
574.794	8382.27
575.155	8434.92
575.516	8342.04
575.877	8477.18
576.238	8539.55
576.599	8652.77
576.96	8599.43
577.32	8705.19
577.681	8808.24
578.042	8909.48
578.403	9013.44
578.763	9004.17
579.124	9085.75
579.485	9222.47
579.845	9380.88
580.206	9474.21
580.566	9490.48
580.927	9649.8
581.287	9784.71
581.648	9946.29
582.008	10074.65
582.368	10240.07
582.728	10432.83
583.089	10581.08
583.449	10696.55
583.809	10862.43
584.169	11078.24
584.529	11219.7
584.889	11495.4
585.249	11646.81
585.609	11884.32
585.969	12079.12
586.329	12249.96
586.688	12460.35
587.048	12729.95
587.408	12924.97
587.768	13168.13
588.127	13359.31
588.487	13609.92
588.846	13985.51
589.206	14216.46
589.565	14463.91
589.925	14756.56
590.284	15041.53
590.643	15289.65
591.003	15579.82
591.362	15989.07
591.721	16229.29
592.08	16454.14
592.44	16709.73
592.799	17082.6
593.158	17432.65
593.517	17717.16
593.876	18041.67
594.235	18212.97
594.593	18583.58
594.952	18984.7
595.311	19125.94
595.67	19531.12
596.029	19902.87
596.387	20289.3
596.746	20574.94
597.104	20734.94
597.463	21096.51
597.822	21447.91
598.18	21547.12
598.538	21957.28
598.897	22450.14
599.255	22526.07
599.613	23098.04
599.972	23238.37
600.33	23559.27
600.688	23872.71
601.046	24152.02
601.404	24620.26
601.762	24826.8
602.12	25236.51
602.478	25408.03
602.836	25707.01
603.194	25887.57
603.552	26240.78
603.91	26329.82
604.268	26837.6
604.625	27035.79
604.983	27271.94
605.341	27495.66
605.698	27927.06
606.056	28173.16
606.413	28321.18
606.771	28688.62
607.128	28995.73
607.485	29104.66
607.843	29355.95
608.2	29661.48
608.557	30041.13
608.914	30068.02
609.272	30430.5
609.629	30805.4
609.986	31102.12
610.343	31020.09
610.7	31424.82
611.057	31558.61
611.414	31805.83
611.771	31939.84
612.127	32219.6
612.484	32531.01
612.841	32610.78
613.198	32724.9
613.554	32846.48
613.911	33323.76
614.267	33359.24
614.624	33378.9
614.98	33693.92
615.337	34041.25
615.693	34071.99
616.05	34142.27
616.406	34446.44
616.762	34596.72
617.118	34554.23
617.475	34863.15
617.831	35013.66
618.187	35285.96
618.543	35288.68
618.899	35599.4
619.255	35671.49
619.611	35815.67
619.967	35980.64
620.323	36218.82
620.678	36217.47
621.034	36274.64
621.39	36279.16
621.746	36393.28
622.101	36988.97
622.457	36733.38
622.812	36826.04
623.168	37134.73
623.523	37183.77
623.879	37291.11
624.234	37093.83
624.589	37431.22
624.945	37507.38
625.3	37643.64
625.655	37746.01
626.01	37846.12
626.365	37985.55
626.72	37777.88
627.075	38064.42
627.43	38075.72
627.785	37972
628.14	38235.27
628.495	38091.54
628.85	38118.88
629.205	38043.41
629.559	38450.4
629.914	38307.81
630.269	38296.73
630.623	38397.75
630.978	38442.04
631.332	38545.54
631.687	38665.99
632.041	38484.52
632.396	38644.97
632.75	38500.34
633.104	38539.21
633.459	38504.86
633.813	38616.5
634.167	38616.95
634.521	38556.84
634.875	38614.01
635.229	38637.29
635.583	38406.79
635.937	38506.45
636.291	38524.52
636.645	38734.24
636.999	38580.34
637.352	38710.73
637.706	38461.7
638.06	38717.74
638.413	38583.96
638.767	38508.25
639.121	38695.59
639.474	38546.44
639.828	38530.4
640.181	38525.43
640.534	38719.09
640.888	38447.24
641.241	38420.12
641.594	38496.05
641.947	38642.49
642.301	38475.26
642.654	38563.17
643.007	38562.49
643.36	38476.16
643.713	38457.18
644.066	38724.07
644.419	38384.64
644.771	38149.17
645.124	37681.61
645.477	37845.22
645.83	37530.65
646.182	37455.85
646.535	37209.76
646.888	37345.8
647.24	37175.86
647.593	37567.26
647.945	37224.9
648.298	37265.8
648.65	37255.86
649.002	37091.34
649.355	37377.66
649.707	37191.68
650.059	37291.11
650.411	37816.97
650.763	37840.25
651.115	38124.53
651.467	38111.65
651.819	38041.6
652.171	38010.41
652.523	37993.24
652.875	37954.37
653.227	37927.25
653.578	38128.38
653.93	38091.77
654.282	37941.49
654.633	37852.9
654.985	37844.09
655.337	37937.42
655.688	37999.57
656.039	37965.89
656.391	37725.9
656.742	37728.84
657.094	37730.19
657.445	37920.7
657.796	37812.68
658.147	37717.31
658.498	37739.01
658.849	37865.56
659.2	37766.58
659.551	37617.65
659.902	37780.81
660.253	37685.22
660.604	37668.05
660.955	37635.06
661.306	37765.22
661.656	37656.3
662.007	37666.92
662.358	37726.58
662.708	37648.16
663.059	37792.34
663.409	37476.19
663.76	37750.98
664.11	37803.64
664.461	37777.88
664.811	37674.15
665.161	37702.85
665.511	37549.41
665.862	37631.67
666.212	37755.73
666.562	37685.68
666.912	37703.3
667.262	37590.09
667.612	37693.59
667.962	37640.48
668.312	37536.75
668.662	37796.63
669.011	37599.8
669.361	37497.21
669.711	37453.59
670.06	37448.62
670.41	37428.96
670.76	37367.27
671.109	37591.67
671.459	37507.83
671.808	37422.18
672.157	37514.15
672.507	37359.81
672.856	37292.47
673.205	37402.97
673.554	37489.07
673.904	37259.92
674.253	37562.52
674.602	37469.41
674.951	36850.67
675.3	36729.09
675.649	37198
675.998	37280.71
676.346	37258.57
676.695	37369.75
677.044	37024.68
677.393	37223.32
677.741	37325.23
678.09	37148.29
678.438	37041.17
678.787	37159.36
679.135	37160.72
679.484	36823.1
679.832	37009.31
680.181	36822.2
680.529	37088.63
680.877	36796.21
681.225	36792.14
681.573	36990.55
681.922	36811.57
682.27	36598.47
682.618	36654.52
682.966	36544.91
683.314	36589.43
683.661	36422.21
684.009	36340.85
684.357	36356.9
684.705	36312.38
685.053	36292.72
685.4	36275.77
685.748	36060.63
686.095	36073.97
686.443	36089.33
686.79	35839.62
687.138	35985.61
687.485	35997.58
687.832	35855.67
688.18	35913.74
688.527	35600.98
688.874	35558.5
689.221	35592.17
689.568	35480.54
689.915	35347.88
690.262	35403.93
690.609	35301.11
690.956	35273.99
691.303	35218.4
691.65	35103.37
691.997	35094.78
692.344	34803.49
692.69	34944.73
693.037	34770.72
693.383	34493.9
693.73	34690.95
694.077	34519.43
694.423	34487.57
694.769	34271.75
695.116	34247.12
695.462	34156.05
695.808	34130.52
696.155	34182.72
696.501	33697.76
696.847	33965.77
697.193	33729.4
697.539	33846.68
697.885	33513.36
698.231	33497.76
698.577	33425.67
698.923	33431.55
699.269	33337.09
699.614	33152.24
699.96	33095.06
700.306	33086.47
700.651	32913.82
700.997	32851.45
701.342	32835.86
701.688	32775.97
702.033	32721.29
702.379	32577.34
702.724	32527.17
703.069	32659.59
703.415	32233.84
703.76	32270.9
704.105	32385.48
704.45	32123.56
704.795	32000.4
705.14	31992.94
705.485	31934.87
705.83	31738.04
706.175	31823.46
706.52	31678.6
706.865	31597.93
707.209	31637.47
707.554	31388.67
707.899	31501.21
708.243	31308.22
708.588	31333.75
708.932	31136.02
709.277	31063.93
709.621	31250.14
709.966	30875.01
710.31	31029.35
710.654	30744.16
710.998	30837.04
711.342	30788.68
711.687	30677.72
712.031	30462.81
712.375	30471.63
712.719	30528.12
713.063	30568.8
713.407	30631.17
713.75	30370.61
714.094	30312.76
714.438	30186.66
714.782	30213.1
715.125	30085.2
715.469	30077.29
715.812	30086.1
716.156	29775.15
716.499	29777.18
716.843	29822.61
717.186	29746.9
717.53	29733.12
717.873	29872.77
718.216	29671.65
718.559	29590.52
718.902	29338.1
719.246	29490.64
719.589	29319.79
719.932	29177.65
720.275	29285.9
720.617	29243.64
720.96	29213.13
721.303	29088.61
721.646	29160.48
721.989	28932.69
722.331	29046.58
722.674	29005
723.016	29048.61
723.359	28981.27
723.701	28858.34
724.044	28676.65
724.386	28548.74
724.729	28735.63
725.071	28616.31
725.413	28681.17
725.755	28547.61
726.097	28437.33
726.439	28306.04
726.782	28363.66
727.124	28567.27
727.465	28397.78
727.807	28289.31
728.149	28238.92
728.491	28056.78
728.833	28156.21
729.175	28082.31
729.516	28073.5
729.858	28006.83
730.199	28010.45
730.541	27939.72
730.882	27947.85
731.224	27941.98
731.565	27854.97
731.906	27771.36
732.248	27748.99
732.589	27650.46
732.93	27487.07
733.271	27519.16
733.612	27570.69
733.953	27596
734.294	27469.9
734.635	27454.76
734.976	27519.62
735.317	27322.33
735.658	27436.23
735.999	27303.8
736.339	27307.42
736.68	27390.58
737.021	27229
737.361	27254.99
737.702	27205.5
738.042	27145.39
738.383	27020.87
738.723	27077.82
739.063	26902
739.404	27069.68
739.744	26847.99
740.084	26719.41
740.424	26899.07
740.764	26707.21
741.104	26772.74
741.444	26621.56
741.784	26580.43
742.124	26660.65
742.464	26572.3
742.804	26544.95
743.143	26519.42
743.483	26498.4
743.823	26374.33
744.162	26428.12
744.502	26237.62
744.841	26269.93
745.181	26326.65
745.52	26249.14
745.86	26124.85
746.199	26223.15
746.538	26083.04
746.877	26208.01
747.216	26033.78
747.556	26002.37
747.895	25961.01
748.234	25878.75
748.573	25811.64
748.911	25785.88
749.25	25791.53
749.589	25677.86
749.928	25639.44
750.267	25814.58
750.605	25606.22
750.944	25481.02
751.283	25523.51
751.621	25469.95
751.96	25231.31
752.298	25352.89
752.636	25287.58
752.975	25182.28
753.313	25139.56
753.651	25324.87
753.989	25042.17
754.327	24970.98
754.666	24954.26
755.004	24914.26
755.342	25005.11
755.679	24883.3
756.017	24795.17
756.355	24792.23
756.693	24581.39
757.031	24742.74
757.368	24645.57
757.706	24448.51
758.044	24396.31
758.381	24471.79
758.719	24346.82
759.056	24378.23
759.394	24266.14
