Data from hue_270_FLMS001491_00006.txt Node
Date: Tue Feb 07 15:56:42 GMT 2017
User: dcchb
Spectrometer: FLMS00149
Trigger mode: 0
Integration Time (sec): 2.000000E-2
Scans to average: 10
Electric dark correction enabled: true
Nonlinearity correction enabled: false
Boxcar width: 0
XAxis mode: Wavelengths
Number of Pixels in Spectrum: 2048
>>>>>Begin Spectral Data<<<<<
341.393	-14.29
341.776	-14.29
342.16	-14.29
342.543	-76.44
342.927	-59.94
343.31	-66.95
343.693	-51.13
344.077	-74.86
344.46	-52.94
344.843	-30.79
345.226	-53.84
345.61	-26.95
345.993	-19.49
346.376	-9.32
346.759	3.79
347.142	14.63
347.525	33.84
347.908	88.53
348.291	71.35
348.674	84.91
349.057	89.21
349.44	118.36
349.823	131.69
350.206	151.35
350.588	185.7
350.971	192.93
351.354	206.04
351.737	224.12
352.119	213.95
352.502	227.51
352.884	264.57
353.267	282.65
353.65	294.17
354.032	297.34
354.414	305.25
354.797	300.5
355.179	327.39
355.562	311.8
355.944	316.77
356.326	331.69
356.709	334.4
357.091	337.34
357.473	333.04
357.855	360.39
358.238	350.67
358.62	348.41
359.002	343.21
359.384	317.68
359.766	330.1
360.148	311.12
360.53	313.16
360.912	347.96
361.294	308.64
361.676	331.46
362.057	324.45
362.439	314.06
362.821	327.84
363.203	305.7
363.584	333.95
363.966	329.43
364.348	299.82
364.729	311.35
365.111	320.16
365.493	333.04
365.874	318.81
366.256	301.86
366.637	296.43
367.019	313.38
367.4	320.61
367.781	300.27
368.163	289.2
368.544	320.16
368.925	309.77
369.306	305.47
369.688	315.42
370.069	314.51
370.45	313.38
370.831	310.22
371.212	326.94
371.593	308.18
371.974	310.67
372.355	317.22
372.736	314.29
373.117	312.93
373.498	333.49
373.879	315.42
374.26	325.36
374.641	328.52
375.021	312.93
375.402	312.93
375.783	324
376.163	319.48
376.544	320.39
376.925	321.97
377.305	324.68
377.686	331.91
378.066	335.3
378.447	311.35
378.827	299.6
379.208	315.42
379.588	325.36
379.968	327.62
380.349	326.94
380.729	341.18
381.109	326.26
381.489	322.42
381.87	323.32
382.25	347.05
382.63	334.85
383.01	349.99
383.39	358.8
383.77	358.8
384.15	340.95
384.53	364.23
384.91	357
385.29	343.89
385.67	334.4
386.049	337.56
386.429	353.83
386.809	359.71
387.189	348.41
387.568	338.24
387.948	354.96
388.328	364.91
388.707	358.8
389.087	367.62
389.466	359.93
389.846	349.54
390.225	343.89
390.605	354.96
390.984	350.22
391.363	361.74
391.743	372.59
392.122	358.13
392.501	368.97
392.881	350.44
393.26	354.96
393.639	394.51
394.018	372.59
394.397	422.76
394.776	387.96
395.155	362.19
395.534	398.35
395.913	398.58
396.292	366.94
396.671	386.37
397.05	376.43
397.429	394.28
397.808	403.32
398.186	410.78
398.565	431.57
398.944	400.16
399.323	400.84
399.701	397.22
400.08	421.4
400.458	404.9
400.837	419.14
401.215	407.39
401.594	415.98
401.972	433.83
402.351	430.89
402.729	426.82
403.107	425.7
403.486	445.81
403.864	451.23
404.242	445.58
404.62	451.46
404.999	447.84
405.377	444.45
405.755	458.69
406.133	465.47
406.511	478.35
406.889	470.44
407.267	463.43
407.645	469.31
408.023	455.3
408.401	485.13
408.779	509.08
409.156	467.28
409.534	499.59
409.912	501.63
410.29	503.89
410.667	496.88
411.045	525.35
411.422	519.48
411.8	532.58
412.178	572.36
412.555	554.28
412.933	563.09
413.31	568.52
413.687	568.06
414.065	574.17
414.442	561.96
414.819	585.46
415.197	580.49
415.574	595.63
415.951	608.97
416.328	604.67
416.705	625.24
417.082	627.5
417.46	624.11
417.837	627.95
418.214	649.42
418.591	652.81
418.967	644.67
419.344	661.17
419.721	681.51
420.098	699.81
420.475	695.74
420.852	689.42
421.228	723.09
421.605	707.27
421.982	726.7
422.358	749.3
422.735	744.33
423.111	738.46
423.488	740.94
423.864	786.36
424.241	771.67
424.617	794.95
424.994	803.54
425.37	786.59
425.746	802.86
426.123	835.4
426.499	836.53
426.875	846.47
427.251	832.24
427.627	884.21
428.003	852.8
428.379	885.57
428.756	897.55
429.132	923.76
429.507	891.67
429.883	921.95
430.259	948.17
430.635	952.01
431.011	948.85
431.387	951.1
431.763	998.34
432.138	985.91
432.514	992.91
432.89	1031.78
433.265	1033.81
433.641	1031.1
434.016	1035.4
434.392	1074.27
434.767	1096.41
435.143	1089.18
435.518	1139.12
435.894	1128.05
436.269	1156.3
436.644	1170.31
437.02	1178.67
437.395	1184.77
437.77	1218.44
438.145	1227.26
438.52	1244.88
438.895	1277.2
439.271	1257.76
439.646	1314.71
440.021	1317.42
440.395	1335.73
440.77	1321.49
441.145	1374.6
441.52	1373.24
441.895	1374.82
442.27	1399
442.645	1386.57
443.019	1401.04
443.394	1408.49
443.769	1449.85
444.143	1430.19
444.518	1463.41
444.892	1459.11
445.267	1451.88
445.641	1475.84
446.016	1494.59
446.39	1496.4
446.764	1493.92
447.139	1511.09
447.513	1526.68
447.887	1543.41
448.262	1547.7
448.636	1585.89
449.01	1568.04
449.384	1596.29
449.758	1603.74
450.132	1601.03
450.506	1594.25
450.88	1641.93
451.254	1611.88
451.628	1623.18
452.002	1659.79
452.376	1653.23
452.75	1680.8
453.123	1664.08
453.497	1721.25
453.871	1737.3
454.244	1763.51
454.618	1748.15
454.992	1778.2
455.365	1792.89
455.739	1846.45
456.112	1810.97
456.486	1831.08
456.859	1910.18
457.232	1906.79
457.606	1896.84
457.979	1934.81
458.352	1958.08
458.725	1967.35
459.099	1978.65
459.472	1975.71
459.845	2014.58
460.218	2042.38
460.591	2088.93
460.964	2062.26
461.337	2079.89
461.71	2196.04
462.083	2151.53
462.456	2149.27
462.829	2171.64
463.201	2193.78
463.574	2216.61
463.947	2208.25
464.32	2270.17
464.692	2245.76
465.065	2311.07
465.438	2318.3
465.81	2342.93
466.183	2355.14
466.555	2415.25
466.928	2379.77
467.3	2429.94
467.672	2450.73
468.045	2514.23
468.417	2496.83
468.789	2490.27
469.161	2517.84
469.534	2590.84
469.906	2637.84
470.278	2673.32
470.65	2634
471.022	2703.83
471.394	2740.66
471.766	2759.42
472.138	2766.65
472.51	2853.43
472.882	2859.98
473.253	2923.26
473.625	2943.14
473.997	2974.55
474.369	2982.46
474.74	3026.76
475.112	3071.95
475.484	3113.08
475.855	3134.32
476.227	3212.06
476.598	3237.6
476.97	3236.47
477.341	3351.95
477.713	3360.99
478.084	3358.5
478.455	3471.26
478.827	3468.78
479.198	3574.76
479.569	3570.7
479.94	3618.83
480.311	3625.84
480.682	3734.08
481.053	3782.89
481.424	3808.66
481.795	3866.96
482.166	3893.63
482.537	3946.73
482.908	4022.21
483.279	4026.05
483.65	4071.93
484.021	4153.28
484.391	4207.97
484.762	4192.83
485.133	4246.39
485.503	4288.64
485.874	4397.79
486.244	4419.04
486.615	4481.86
486.985	4562.54
487.356	4560.73
487.726	4576.32
488.097	4667.17
488.467	4685.7
488.837	4755.52
489.207	4805.47
489.578	4842.75
489.948	4906.71
490.318	4952.36
490.688	4936.31
491.058	4995.97
491.428	5054.95
491.798	5102.86
492.168	5174.72
492.538	5259.47
492.908	5286.13
493.278	5306.7
493.648	5306.47
494.017	5336.75
494.387	5412.91
494.757	5478.22
495.126	5501.72
495.496	5485
495.866	5583.3
496.235	5579.46
496.605	5588.5
496.974	5597.54
497.344	5657.87
497.713	5682.96
498.082	5747.14
498.452	5780.36
498.821	5728.83
499.19	5801.37
499.559	5840.47
499.928	5875.5
500.298	5883.63
500.667	5960.01
501.036	5920.69
501.405	5956.62
501.774	6000.92
502.143	5998.66
502.512	6032.1
502.88	6056.06
503.249	6116.62
503.618	6082.95
503.987	6118.2
504.356	6167.69
504.724	6168.14
505.093	6170.63
505.462	6153.91
505.83	6207.46
506.199	6266.67
506.567	6325.43
506.936	6322.04
507.304	6336.27
507.672	6348.93
508.041	6345.99
508.409	6432.09
508.777	6444.97
509.145	6428.93
509.514	6459.89
509.882	6479.77
510.25	6501.47
510.618	6547.34
510.986	6541.01
511.354	6568.58
511.722	6599.09
512.09	6662.37
512.458	6622.37
512.826	6642.93
513.193	6684.29
513.561	6671.41
513.929	6723.16
514.297	6803.83
514.664	6770.84
515.032	6732.87
515.4	6815.36
515.767	6837.05
516.135	6851.06
516.502	6748.01
516.869	6891.06
517.237	6906.43
517.604	6879.76
517.972	6866.88
518.339	6896.94
518.706	6933.09
519.073	6926.77
519.44	6925.86
519.808	6996.82
520.175	6999.08
520.542	7030.49
520.909	7071.17
521.276	7042.92
521.643	7064.16
522.009	7078.63
522.376	7144.61
522.743	7133.54
523.11	7203.37
523.477	7271.16
523.843	7264.84
524.21	7240.43
524.577	7319.75
524.943	7248.11
525.31	7381.44
525.676	7442.91
526.043	7433.42
526.409	7425.06
526.776	7462.57
527.142	7535.11
527.508	7490.14
527.874	7566.98
528.241	7532.63
528.607	7629.12
528.973	7614.21
529.339	7598.16
529.705	7720.42
530.071	7709.12
530.437	7735.56
530.803	7688.33
531.169	7722.9
531.535	7657.82
531.901	7672.51
532.267	7776.69
532.632	7771.04
532.998	7804.71
533.364	7862.11
533.73	7817.14
534.095	7846.74
534.461	7905.27
534.826	7909.79
535.192	7948.89
535.557	7997.7
535.923	7943.92
536.288	7966.29
536.653	7973.07
537.019	7979.39
537.384	7922.67
537.749	7969.68
538.114	8016.23
538.479	7992.28
538.845	8041.99
539.21	8050.35
539.575	8030.24
539.94	8052.39
540.305	8014.87
540.67	8074.76
541.034	8049.45
541.399	8054.2
541.764	8098.49
542.129	8165.83
542.494	8125.38
542.858	8125.61
543.223	8126.96
543.587	8154.76
543.952	8163.8
544.316	8124.93
544.681	8166.06
545.045	8122.22
545.41	8241.08
545.774	8247.41
546.138	8171.48
546.503	8212.38
546.867	8254.87
547.231	8253.29
547.595	8327.63
547.959	8272.95
548.324	8304.36
548.688	8289.9
549.052	8286.73
549.416	8295.54
549.779	8257.81
550.143	8298.03
550.507	8332.38
550.871	8388.65
551.235	8379.61
551.599	8380.97
551.962	8428.2
552.326	8426.84
552.689	8464.13
553.053	8380.51
553.417	8378.71
553.78	8508.42
554.143	8463.68
554.507	8530.79
554.87	8509.55
555.234	8614.18
555.597	8508.87
555.96	8535.54
556.323	8579.83
556.686	8531.7
557.05	8585.03
557.413	8563.79
557.776	8602.43
558.139	8634.97
558.502	8709.77
558.865	8768.98
559.228	8730.56
559.59	8713.39
559.953	8768.98
560.316	8867.05
560.679	8861.86
561.041	8869.31
561.404	8863.89
561.767	8887.62
562.129	8911.57
562.492	8994.96
562.854	8970.1
563.217	8961.74
563.579	9044.23
563.941	9081.74
564.304	9067.5
564.666	9119.7
565.028	9142.75
565.39	9183.88
565.753	9183.43
566.115	9213.71
566.477	9264.11
566.839	9330.77
567.201	9350.66
567.563	9352.24
567.925	9359.92
568.287	9399.24
568.648	9374.16
569.01	9462.52
569.372	9479.24
569.734	9509.07
570.095	9527.38
570.457	9543.87
570.819	9652.12
571.18	9570.09
571.542	9653.25
571.903	9693.02
572.265	9721.04
572.626	9731.44
572.987	9745.9
573.349	9819.8
573.71	9874.71
574.071	9874.26
574.432	9960.36
574.794	9958.78
575.155	10047.36
575.516	9960.59
575.877	9981.6
576.238	10036.29
576.599	10068.38
576.96	10056.85
577.32	10115.61
577.681	10200.81
578.042	10164.65
578.403	10210.97
578.763	10295.27
579.124	10276.28
579.485	10279.22
579.845	10367.58
580.206	10309.5
580.566	10326.68
580.927	10381.82
581.287	10469.27
581.648	10522.38
582.008	10539.55
582.368	10569.84
582.728	10577.52
583.089	10519.67
583.449	10594.92
583.809	10621.59
584.169	10642.83
584.529	10611.19
584.889	10672.21
585.249	10753.56
585.609	10733.9
585.969	10788.81
586.329	10752.43
586.688	10791.75
587.048	10729.83
587.408	10761.47
587.768	10883.5
588.127	10826.78
588.487	10909.71
588.846	10951.52
589.206	10915.81
589.565	10960.79
589.925	11025.42
590.284	11018.86
590.643	11036.26
591.003	11089.6
591.362	11162.14
591.721	11064.06
592.08	11114.23
592.44	11151.51
592.799	11189.03
593.158	11162.81
593.517	11194.23
593.876	11287.1
594.235	11266.54
594.593	11252.3
594.952	11322.58
595.311	11225.19
595.67	11286.65
596.029	11370.94
596.387	11349.48
596.746	11339.76
597.104	11410.04
597.463	11411.39
597.822	11497.95
598.18	11462.47
598.538	11392.86
598.897	11428.57
599.255	11451.17
599.613	11540.43
599.972	11489.81
600.33	11510.15
600.688	11535.91
601.046	11523.26
601.404	11606.42
601.762	11560.54
602.12	11680.54
602.478	11592.41
602.836	11608.23
603.194	11598.28
603.552	11578.62
603.91	11606.19
604.268	11638.28
604.625	11570.71
604.983	11631.73
605.341	11518.06
605.698	11701.56
606.056	11740.88
606.413	11750.82
606.771	11701.78
607.128	11781.1
607.485	11723.03
607.843	11772.29
608.2	11799.86
608.557	11841.67
608.914	11826.3
609.272	11887.77
609.629	11916.47
609.986	11930.7
610.343	11863.81
610.7	11900.65
611.057	11914.43
611.414	11899.74
611.771	11960.76
612.127	11981.55
612.484	12010.48
612.841	12036.69
613.198	11983.58
613.554	11959.86
613.911	12038.5
614.267	11985.39
614.624	12085.5
614.98	12051.38
615.337	12045.28
615.693	12017.93
616.05	12057.48
616.406	12119.85
616.762	12124.37
617.118	12108.1
617.475	12178.61
617.831	12129.12
618.187	12203.69
618.543	12141.77
618.899	12245.72
619.255	12205.72
619.611	12187.42
619.967	12196.23
620.323	12229
620.678	12213.63
621.034	12117.14
621.39	12195.1
621.746	12088.89
622.101	12287.3
622.457	12165.27
622.812	12230.13
623.168	12295.67
623.523	12242.79
623.879	12205.27
624.234	12185.16
624.589	12168.66
624.945	12199.62
625.3	12242.11
625.655	12266.29
626.01	12259.51
626.365	12195.78
626.72	12186.06
627.075	12239.62
627.43	12226.74
627.785	12254.54
628.14	12163.69
628.495	12143.13
628.85	12135.9
629.205	12112.85
629.559	12148.55
629.914	12153.75
630.269	12120.53
630.623	12078.72
630.978	12135.22
631.332	12083.69
631.687	12139.51
632.041	12010.48
632.396	12110.59
632.75	12021.32
633.104	12028.33
633.459	12007.09
633.813	11938.16
634.167	11986.07
634.521	12016.35
634.875	12076.69
635.229	12029.46
635.583	11936.35
635.937	11983.58
636.291	11924.38
636.645	11960.76
636.999	11887.99
637.352	11909.46
637.706	11855.45
638.06	11897.26
638.413	11883.92
638.767	11863.36
639.121	11893.87
639.474	11720.31
639.828	11725.96
640.181	11790.82
640.534	11829.24
640.888	11726.64
641.241	11679.86
641.594	11667.21
641.947	11716.25
642.301	11724.83
642.654	11762.8
643.007	11712.86
643.36	11668.11
643.713	11644.61
644.066	11709.92
644.419	11622.91
644.771	11569.81
645.124	11469.25
645.477	11465.63
645.83	11339.76
646.182	11374.11
646.535	11294.11
646.888	11354.67
647.24	11184.51
647.593	11309.25
647.945	11192.19
648.298	11219.31
648.65	11197.39
649.002	11214.56
649.355	11273.77
649.707	11227.9
650.059	11317.16
650.411	11413.88
650.763	11437.38
651.115	11562.13
651.467	11532.3
651.819	11521
652.171	11539.3
652.523	11383.15
652.875	11455.46
653.227	11374.33
653.578	11493.65
653.93	11434.22
654.282	11480.32
654.633	11396.03
654.985	11354.22
655.337	11502.92
655.688	11462.24
656.039	11537.95
656.391	11468.57
656.742	11356.48
657.094	11377.72
657.445	11387.67
657.796	11464.27
658.147	11386.54
658.498	11398.06
658.849	11401.45
659.2	11390.6
659.551	11403.26
659.902	11417.95
660.253	11419.98
660.604	11421.34
660.955	11361.68
661.306	11481.22
661.656	11457.5
662.007	11408.01
662.358	11443.48
662.708	11410.49
663.059	11440.77
663.409	11340.66
663.76	11435.58
664.11	11432.19
664.461	11426.76
664.811	11476.25
665.161	11426.31
665.511	11388.57
665.862	11411.17
666.212	11445.29
666.562	11459.3
666.912	11462.47
667.262	11436.48
667.612	11459.08
667.962	11488.23
668.312	11401.45
668.662	11478.51
669.011	11327.1
669.361	11382.47
669.711	11361.9
670.06	11327.56
670.41	11337.72
670.76	11353.32
671.109	11414.78
671.459	11343.83
671.808	11365.75
672.157	11388.12
672.507	11342.7
672.856	11368.46
673.205	11317.61
673.554	11299.31
673.904	11375.24
674.253	11354.67
674.602	11276.48
674.951	11093.44
675.3	11152.19
675.649	11206.65
675.998	11239.87
676.346	11162.81
676.695	11278.29
677.044	11238.29
677.393	11236.03
677.741	11188.12
678.09	11186.77
678.438	11172.76
678.787	11161.01
679.135	11135.92
679.484	11085.3
679.832	11124.85
680.181	11054.12
680.529	11040.78
680.877	11077.39
681.225	10989.71
681.573	11029.48
681.922	10936.83
682.27	10937.51
682.618	10955.14
682.966	10872.2
683.314	10909.49
683.661	10932.31
684.009	10874.23
684.357	10839.43
684.705	10764.86
685.053	10833.33
685.4	10835.82
685.748	10778.64
686.095	10805.76
686.443	10678.31
686.79	10686.67
687.138	10692.09
687.485	10762.82
687.832	10671.53
688.18	10623.39
688.527	10538.2
688.874	10538.42
689.221	10476.73
689.568	10416.17
689.915	10444.41
690.262	10445.77
690.609	10409.39
690.956	10398.09
691.303	10355.83
691.65	10305.21
691.997	10320.35
692.344	10218.88
692.69	10235.61
693.037	10220.92
693.383	10149.73
693.73	10135.5
694.077	10083.29
694.423	10070.19
694.769	10049.4
695.116	10000.81
695.462	10024.54
695.808	9966.46
696.155	9993.13
696.501	9934.15
696.847	9799.01
697.193	9837.2
697.539	9834.94
697.885	9753.81
698.231	9746.81
698.577	9753.36
698.923	9733.7
699.269	9684.21
699.614	9535.29
699.96	9515.85
700.306	9559.69
700.651	9520.82
700.997	9462.07
701.342	9449.19
701.688	9435.18
702.033	9440.83
702.379	9425.68
702.724	9310.89
703.069	9355.86
703.415	9258.46
703.76	9238.8
704.105	9207.61
704.45	9225.01
704.795	9142.98
705.14	9178.01
705.485	9043.1
705.83	9044
706.175	9130.1
706.52	9050.55
706.865	8985.92
707.209	9001.74
707.554	8945.47
707.899	9002.64
708.243	8987.5
708.588	8904.34
708.932	8822.31
709.277	8881.97
709.621	8807.62
709.966	8739.83
710.31	8775.08
710.654	8688.3
710.998	8732.6
711.342	8742.76
711.687	8642.2
712.031	8663.9
712.375	8644.46
712.719	8556.55
713.063	8631.58
713.407	8656.21
713.75	8595.2
714.094	8586.84
714.438	8556.55
714.782	8549.55
715.125	8487.4
715.469	8561.3
715.812	8461.64
716.156	8467.29
716.499	8484.92
716.843	8453.96
717.186	8364.7
717.53	8431.36
717.873	8468.42
718.216	8375.54
718.559	8371.02
718.902	8299.84
719.246	8366.05
719.589	8326.28
719.932	8291.7
720.275	8304.81
720.617	8258.26
720.96	8253.51
721.303	8230.69
721.646	8291.48
721.989	8282.66
722.331	8314.53
722.674	8218.26
723.016	8238.37
723.359	8219.84
723.701	8234.76
724.044	8165.38
724.386	8145.49
724.729	8186.17
725.071	8139.84
725.413	8161.76
725.755	8136
726.097	8114.98
726.439	8087.19
726.782	8064.14
727.124	8111.59
727.465	8039.73
727.807	8111.37
728.149	8063.46
728.491	8118.6
728.833	8046.06
729.175	7989.34
729.516	8015.55
729.858	8044.03
730.199	7979.17
730.541	8028.88
730.882	8006.06
731.224	8015.1
731.565	7982.56
731.906	8002.9
732.248	8016.91
732.589	7983.01
732.93	7973.75
733.271	7997.25
733.612	7994.99
733.953	8039.28
734.294	7898.72
734.635	8014.65
734.976	7977.36
735.317	7915.67
735.658	7967.64
735.999	7990.69
736.339	7991.15
736.68	7967.87
737.021	7945.27
737.361	7936.91
737.702	7950.92
738.042	7988.89
738.383	7928.1
738.723	7976.23
739.063	7933.75
739.404	8017.59
739.744	7956.12
740.084	7951.6
740.424	7996.12
740.764	8001.54
741.104	7960.86
741.444	7998.15
741.784	7945.72
742.124	8018.26
742.464	8009.9
742.804	8009.22
743.143	8023.01
743.483	8032.73
743.823	8046.51
744.162	8097.81
744.502	8145.27
744.841	8072.73
745.181	8127.64
745.52	8117.7
745.86	8188.2
746.199	8252.16
746.538	8209.22
746.877	8295.54
747.216	8339.61
747.556	8370.8
747.895	8426.39
748.234	8414.64
748.573	8457.12
748.911	8496.44
749.25	8554.29
749.589	8604.24
749.928	8673.84
750.267	8739.6
750.605	8765.36
750.944	8788.86
751.283	8818.24
751.621	8960.61
751.96	8921.06
752.298	9036.77
752.636	9160.15
752.975	9133.49
753.313	9273.37
753.651	9381.39
753.989	9479.02
754.327	9460.49
754.666	9667.94
755.004	9732.12
755.342	9807.14
755.679	9900.93
756.017	10017.99
756.355	10172.11
756.693	10256.62
757.031	10351.76
757.368	10478.76
757.706	10637.18
758.044	10663.62
758.381	10851.64
758.719	11029.94
759.056	11099.09
759.394	11221.8
759.731	11336.14
760.068	11539.08
760.405	11608
760.743	11693.65
761.08	11940.42
761.417	12017.71
761.754	12184.71
762.091	12356.91
762.428	12414.76
762.765	12577.92
