Data from hue_220_FLMS001491_00038.txt Node
Date: Tue Feb 07 16:39:23 GMT 2017
User: dcchb
Spectrometer: FLMS00149
Trigger mode: 0
Integration Time (sec): 2.000000E-2
Scans to average: 10
Electric dark correction enabled: true
Nonlinearity correction enabled: false
Boxcar width: 0
XAxis mode: Wavelengths
Number of Pixels in Spectrum: 2048
>>>>>Begin Spectral Data<<<<<
341.393	-20.1
341.776	-20.1
342.16	-20.1
342.543	-57.61
342.927	-56.71
343.31	-70.04
343.693	-78.63
344.077	-54.67
344.46	-52.19
344.843	-59.42
345.226	-50.38
345.61	-53.32
345.993	-16.03
346.376	-8.12
346.759	4.76
347.142	21.26
347.525	40.92
347.908	60.35
348.291	88.83
348.674	111.42
349.057	115.27
349.44	129.73
349.823	151.42
350.206	168.37
350.588	191.2
350.971	199.56
351.354	225.32
351.737	231.42
352.119	278.88
352.502	267.58
352.884	277.52
353.267	277.52
353.65	280.23
354.032	294.7
354.414	290.4
354.797	304.19
355.179	292.89
355.562	315.03
355.944	324.98
356.326	328.37
356.709	343.06
357.091	322.04
357.473	350.74
357.855	320.01
358.238	332.21
358.62	324.07
359.002	349.16
359.384	323.17
359.766	340.12
360.148	332.89
360.53	321.36
360.912	328.59
361.294	328.37
361.676	314.36
362.057	327.01
362.439	313.9
362.821	313.23
363.203	314.36
363.584	301.25
363.966	332.66
364.348	314.36
364.729	297.86
365.111	302.61
365.493	315.94
365.874	322.72
366.256	290.4
366.637	299.67
367.019	297.63
367.4	309.61
367.781	315.26
368.163	327.24
368.544	301.25
368.925	311.19
369.306	323.17
369.688	314.36
370.069	307.8
370.45	307.35
370.831	300.8
371.212	303.73
371.593	304.41
371.974	295.37
372.355	308.48
372.736	304.86
373.117	341.25
373.498	315.49
373.879	318.2
374.26	317.52
374.641	310.74
375.021	310.29
375.402	296.96
375.783	315.49
376.163	312.32
376.544	334.47
376.925	301.48
377.305	313.9
377.686	338.76
378.066	320.68
378.447	323.17
378.827	331.53
379.208	322.04
379.588	331.98
379.968	330.85
380.349	320.23
380.729	330.85
381.109	317.07
381.489	326.79
381.87	343.51
382.25	324.53
382.63	328.14
383.01	338.99
383.39	300.12
383.77	345.32
384.15	318.65
384.53	331.3
384.91	330.17
385.29	325.2
385.67	333.56
386.049	320.91
386.429	360.23
386.809	343.96
387.189	339.21
387.568	365.43
387.948	343.51
388.328	361.13
388.707	348.25
389.087	342.15
389.466	359.33
389.846	338.54
390.225	359.55
390.605	355.26
390.984	374.02
391.363	342.83
391.743	366.33
392.122	368.14
392.501	322.94
392.881	383.05
393.26	376.5
393.639	359.78
394.018	358.65
394.397	365.2
394.776	376.5
395.155	394.81
395.534	386.9
395.913	393.22
396.292	382.6
396.671	374.24
397.05	372.21
397.429	373.56
397.808	380.34
398.186	372.89
398.565	375.6
398.944	386.67
399.323	380.57
399.701	391.64
400.08	400.91
400.458	401.59
400.837	384.86
401.215	402.49
401.594	392.77
401.972	408.59
402.351	390.74
402.729	393.9
403.107	404.75
403.486	408.36
403.864	414.24
404.242	416.5
404.62	415.14
404.999	428.7
405.377	406.78
405.755	407.46
406.133	436.16
406.511	447.01
406.889	424.41
407.267	466.22
407.645	454.92
408.023	456.95
408.401	480.91
408.779	486.78
409.156	453.56
409.534	490.85
409.912	483.17
410.29	498.53
410.667	512.32
411.045	519.32
411.422	513.45
411.8	528.14
412.178	528.59
412.555	539.43
412.933	567
413.31	543.95
413.687	553.67
414.065	599.55
414.442	560.9
414.819	573.78
415.197	573.56
415.574	599.32
415.951	592.54
416.328	609.94
416.705	631.86
417.082	611.52
417.46	626.44
417.837	633.9
418.214	650.17
418.591	648.13
418.967	654.46
419.344	681.35
419.721	680.45
420.098	690.39
420.475	702.37
420.852	714.12
421.228	699.43
421.605	733.33
421.982	726.77
422.358	738.75
422.735	761.58
423.111	768.36
423.488	787.34
423.864	797.51
424.241	810.84
424.617	818.07
424.994	832.76
425.37	849.94
425.746	851.07
426.123	870.05
426.499	912.08
426.875	895.58
427.251	912.08
427.627	941.23
428.003	929.26
428.379	912.98
428.756	932.42
429.132	957.28
429.507	965.19
429.883	966.77
430.259	999.08
430.635	1018.07
431.011	1027.78
431.387	1037.95
431.763	1035.92
432.138	1072.08
432.514	1069.14
432.89	1070.49
433.265	1104.84
433.641	1131.28
434.016	1158.63
434.392	1179.64
434.767	1179.19
435.143	1199.98
435.518	1207.44
435.894	1240.66
436.269	1260.55
436.644	1307.32
437.02	1309.36
437.395	1305.97
437.77	1355.46
438.145	1348.91
438.52	1394.33
438.895	1400.88
439.271	1376.93
439.646	1436.13
440.021	1481.56
440.395	1442.01
440.77	1456.47
441.145	1499.18
441.52	1537.15
441.895	1550.71
442.27	1555.91
442.645	1564.72
443.019	1570.37
443.394	1596.81
443.769	1619.41
444.143	1590.71
444.518	1629.58
444.892	1640.87
445.267	1644.49
445.641	1667.31
446.016	1681.33
446.39	1713.87
446.764	1716.13
447.139	1716.58
447.513	1747.54
447.887	1742.79
448.262	1739.63
448.636	1779.18
449.01	1815.33
449.384	1809.01
449.758	1796.58
450.132	1847.65
450.506	1853.52
450.88	1856.46
451.254	1849.91
451.628	1900.53
452.002	1919.74
452.376	1898.04
452.75	1936.69
453.123	1941.66
453.497	1987.53
453.871	1999.96
454.244	2020.75
454.618	2046.97
454.992	2065.27
455.365	2057.59
455.739	2125.16
456.112	2123.12
456.486	2132.16
456.859	2182.33
457.232	2236.34
457.606	2198.83
457.979	2224.59
458.352	2256.68
458.725	2285.15
459.099	2297.81
459.472	2350.91
459.845	2355.43
460.218	2392.95
460.591	2399.05
460.964	2409.67
461.337	2449.67
461.71	2466.62
462.083	2481.08
462.456	2519.04
462.829	2540.96
463.201	2578.93
463.574	2569.44
463.947	2646.95
464.32	2648.76
464.692	2676.78
465.065	2664.35
465.438	2711.36
465.81	2781.41
466.183	2790.9
466.555	2853.05
466.928	2864.8
467.3	2833.16
467.672	2914.29
468.045	2926.94
468.417	2945.02
468.789	2977.56
469.161	3018.01
469.534	3039.48
469.906	3130.33
470.278	3162.64
470.65	3133.49
471.022	3204.9
471.394	3290.32
471.766	3269.98
472.138	3282.64
472.51	3358.57
472.882	3415.07
473.253	3496.42
473.625	3510.88
473.997	3554.27
474.369	3581.16
474.74	3619.35
475.112	3699.8
475.484	3761.72
475.855	3778.9
476.227	3822.74
476.598	3889.63
476.97	3879.46
477.341	3960.14
477.713	4032.22
478.084	4036.74
478.455	4151.54
478.827	4123.07
479.198	4297.98
479.569	4271.99
479.94	4425.89
480.311	4403.29
480.682	4482.38
481.053	4574.58
481.424	4657.29
481.795	4674.02
482.166	4740
482.537	4800.79
482.908	4850.28
483.279	4930.28
483.65	4992.88
484.021	4998.07
484.391	5126.43
484.762	5163.49
485.133	5222.02
485.503	5205.98
485.874	5291.63
486.244	5381.79
486.615	5475.12
486.985	5517.84
487.356	5582.01
487.726	5581.79
488.097	5695.91
488.467	5708.56
488.837	5822.69
489.207	5864.94
489.578	5959.41
489.948	5980.2
490.318	6108.1
490.688	6098.84
491.058	6169.57
491.428	6217.93
491.798	6291.15
492.168	6334.99
492.538	6396.91
492.908	6395.33
493.278	6435.1
493.648	6528.88
494.017	6595.55
494.387	6619.05
494.757	6655.66
495.126	6701.31
495.496	6718.26
495.866	6762.55
496.235	6791.47
496.605	6843.45
496.974	6891.81
497.344	6941.53
497.713	6932.49
498.082	6965.71
498.452	7085.7
498.821	7103.56
499.19	7037.8
499.559	7159.37
499.928	7135.19
500.298	7165.25
500.667	7190.11
501.036	7207.06
501.405	7251.35
501.774	7242.99
502.143	7307.62
502.512	7336.09
502.88	7362.53
503.249	7392.59
503.618	7341.74
503.987	7402.76
504.356	7484.11
504.724	7495.64
505.093	7525.47
505.462	7507.39
505.83	7470.78
506.199	7532.47
506.567	7652.47
506.936	7608.85
507.304	7654.95
507.672	7631.23
508.041	7701.28
508.409	7725.69
508.777	7820.6
509.145	7806.59
509.514	7797.32
509.882	7809.75
510.25	7746.7
510.618	7836.64
510.986	7828.06
511.354	7913.7
511.722	7914.38
512.09	7969.75
512.458	7911.22
512.826	7918
513.193	7969.52
513.561	7974.95
513.929	8051.55
514.297	8002.06
514.664	8077.32
515.032	8024.21
515.4	8056.98
515.767	8078.67
516.135	8036.86
516.502	8019.24
516.869	8125.22
517.237	8102.63
517.604	8129.07
517.972	8117.99
518.339	8164.32
518.706	8108.05
519.073	8118.67
519.44	8134.49
519.808	8172.23
520.175	8174.71
520.542	8168.39
520.909	8175.39
521.276	8095.62
521.643	8259.01
522.009	8153.47
522.376	8172.68
522.743	8286.35
523.11	8270.98
523.477	8321.15
523.843	8274.82
524.21	8329.51
524.577	8412.45
524.943	8347.59
525.31	8393.92
525.676	8363.41
526.043	8350.3
526.409	8425.1
526.776	8430.98
527.142	8433.24
527.508	8421.26
527.874	8398.66
528.241	8409.96
528.607	8438.89
528.973	8457.87
529.339	8424.43
529.705	8409.74
530.071	8458.55
530.437	8482.5
530.803	8483.86
531.169	8449.74
531.535	8438.21
531.901	8419.68
532.267	8425.1
532.632	8371.09
532.998	8385.56
533.364	8372.22
533.73	8343.75
534.095	8397.76
534.461	8373.35
534.826	8403.41
535.192	8379
535.557	8380.81
535.923	8374.48
536.288	8311.66
536.653	8323.19
537.019	8268.05
537.384	8222.4
537.749	8265.11
538.114	8276.41
538.479	8205.45
538.845	8265.33
539.21	8172.91
539.575	8164.55
539.94	8168.16
540.305	8176.97
540.67	8070.76
541.034	8093.36
541.399	8080.93
541.764	8085.68
542.129	8083.19
542.494	8031.89
542.858	8020.82
543.223	8053.14
543.587	7967.71
543.952	7989.63
544.316	7938.56
544.681	7929.75
545.045	7894.95
545.41	7944.21
545.774	7874.16
546.138	7847.49
546.503	7856.08
546.867	7810.88
547.231	7851.33
547.595	7809.07
547.959	7790.77
548.324	7747.38
548.688	7651.79
549.052	7763.88
549.416	7685.69
549.779	7668.29
550.143	7610.66
550.507	7650.43
550.871	7643.2
551.235	7610.66
551.599	7626.25
551.962	7557.1
552.326	7569.08
552.689	7580.61
553.053	7491.34
553.417	7527.5
553.78	7515.07
554.143	7431.91
554.507	7522.3
554.87	7460.83
555.234	7468.29
555.597	7464.45
555.96	7473.26
556.323	7444.11
556.686	7437.33
557.05	7403.21
557.413	7427.16
557.776	7364.79
558.139	7365.02
558.502	7334.74
558.865	7364.34
559.228	7320.73
559.59	7326.83
559.953	7361.18
560.316	7376.32
560.679	7407.95
561.041	7355.3
561.404	7389.88
561.767	7391.68
562.129	7378.35
562.492	7415.41
562.854	7337.9
563.217	7330.44
563.579	7390.78
563.941	7355.3
564.304	7433.94
564.666	7378.13
565.028	7336.09
565.39	7420.84
565.753	7441.63
566.115	7401.4
566.477	7476.43
566.839	7433.27
567.201	7422.87
567.563	7444.34
567.925	7491.12
568.287	7549.42
568.648	7416.32
569.01	7449.99
569.372	7512.36
569.734	7496.99
570.095	7522.3
570.457	7509.87
570.819	7534.05
571.18	7566.59
571.542	7555.97
571.903	7512.13
572.265	7617.21
572.626	7598.23
572.987	7623.77
573.349	7613.6
573.71	7697.89
574.071	7609.76
574.432	7660.6
574.794	7724.1
575.155	7733.14
575.516	7695.86
575.877	7743.77
576.238	7736.08
576.599	7740.15
576.96	7780.37
577.32	7737.44
577.681	7784.67
578.042	7815.18
578.403	7815.85
578.763	7757.78
579.124	7833.71
579.485	7911.44
579.845	7852.46
580.206	7849.53
580.566	7880.48
580.927	7922.74
581.287	7923.65
581.648	7955.51
582.008	7981.95
582.368	7946.25
582.728	7995.06
583.089	8008.62
583.449	7947.6
583.809	8019.69
584.169	8020.14
584.529	8079.58
584.889	8132
585.249	8076.41
585.609	8080.25
585.969	8071.89
586.329	8115.05
586.688	8183.75
587.048	8133.36
587.408	8122.29
587.768	8146.69
588.127	8156.41
588.487	8132.68
588.846	8213.58
589.206	8168.61
589.565	8216.52
589.925	8239.12
590.284	8273.47
590.643	8237.99
591.003	8226.46
591.362	8332.68
591.721	8269.63
592.08	8301.26
592.44	8322.73
592.799	8324.77
593.158	8310.76
593.517	8264.66
593.876	8336.29
594.235	8332.45
594.593	8379.23
594.952	8429.85
595.311	8381.04
595.67	8386.01
596.029	8473.69
596.387	8449.74
596.746	8472.33
597.104	8419
597.463	8393.47
597.822	8511.43
598.18	8418.1
598.538	8402.96
598.897	8533.8
599.255	8458.32
599.613	8491.77
599.972	8469.85
600.33	8545.1
600.688	8513.46
601.046	8522.05
601.404	8567.47
601.762	8555.72
602.12	8559.11
602.478	8557.53
602.836	8585.33
603.194	8559.79
603.552	8604.31
603.91	8568.15
604.268	8599.34
604.625	8556.4
604.983	8624.65
605.341	8551.2
605.698	8645.66
606.056	8598.88
606.413	8635.95
606.771	8634.36
607.128	8662.61
607.485	8635.72
607.843	8608.6
608.2	8634.59
608.557	8693.34
608.914	8628.04
609.272	8753.23
609.629	8687.24
609.986	8742.16
610.343	8751.2
610.7	8696.73
611.057	8712.1
611.414	8731.99
611.771	8737.19
612.127	8744.19
612.484	8765.21
612.841	8791.87
613.198	8698.09
613.554	8785.32
613.911	8800.91
614.267	8839.56
614.624	8776.96
614.98	8828.93
615.337	8891.08
615.693	8829.39
616.05	8813.57
616.406	8891.08
616.762	8792.78
617.118	8832.32
617.475	8939.44
617.831	8925.43
618.187	8901.02
618.543	8903.06
618.899	8932.66
619.255	8936.28
619.611	8889.72
619.967	8929.72
620.323	8929.5
620.678	8899.89
621.034	8827.13
621.39	8905.99
621.746	8941.02
622.101	8945.09
622.457	8943.51
622.812	8947.8
623.168	8942.83
623.523	8921.59
623.879	9033.67
624.234	8916.62
624.589	9016.95
624.945	8945.77
625.3	8945.54
625.655	8957.07
626.01	8930.63
626.365	8984.18
626.72	8992.09
627.075	8923.4
627.43	8927.24
627.785	8884.75
628.14	8950.06
628.495	8929.95
628.85	8896.73
629.205	8903.96
629.559	8927.91
629.914	8893.11
630.269	8892.66
630.623	8784.64
630.978	8877.29
631.332	8855.37
631.687	8910.29
632.041	8870.06
632.396	8846.56
632.75	8802.95
633.104	8825.32
633.459	8799.33
633.813	8826
634.167	8789.39
634.521	8811.53
634.875	8803.17
635.229	8776.96
635.583	8723.85
635.937	8717.3
636.291	8675.72
636.645	8745.09
636.999	8675.27
637.352	8776.28
637.706	8648.15
638.06	8653.12
638.413	8655.38
638.767	8736.73
639.121	8622.61
639.474	8589.84
639.828	8598.88
640.181	8590.52
640.534	8618.09
640.888	8533.8
641.241	8595.95
641.594	8580.35
641.947	8638.43
642.301	8558.21
642.654	8589.62
643.007	8584.2
643.36	8481.37
643.713	8560.02
644.066	8592.1
644.419	8517.53
644.771	8475.95
645.124	8355.5
645.477	8392.56
645.83	8331.32
646.182	8327.48
646.535	8321.38
646.888	8324.77
647.24	8265.79
647.593	8307.37
647.945	8292.9
648.298	8252
648.65	8208.84
649.002	8247.71
649.355	8349.63
649.707	8280.93
650.059	8379
650.411	8426.91
650.763	8418.1
651.115	8424.88
651.467	8490.64
651.819	8420.13
652.171	8441.15
652.523	8417.19
652.875	8436.4
653.227	8489.28
653.578	8469.62
653.93	8438.44
654.282	8457.19
654.633	8470.75
654.985	8397.08
655.337	8422.62
655.688	8454.48
656.039	8501.03
656.391	8417.19
656.742	8475.05
657.094	8472.33
657.445	8458.55
657.796	8470.75
658.147	8442.5
658.498	8409.74
658.849	8431.43
659.2	8494.03
659.551	8461.71
659.902	8486.8
660.253	8462.62
660.604	8468.72
660.955	8510.52
661.306	8491.32
661.656	8465.78
662.007	8534.7
662.358	8576.96
662.708	8534.93
663.059	8585.55
663.409	8496.74
663.76	8543.74
664.11	8523.86
664.461	8545.78
664.811	8569.73
665.161	8582.39
665.511	8495.16
665.862	8539.22
666.212	8572.22
666.562	8584.87
666.912	8551.88
667.262	8532.45
667.612	8507.36
667.962	8541.26
668.312	8538.55
668.662	8539.45
669.011	8525.44
669.361	8570.64
669.711	8496.97
670.06	8518.66
670.41	8454.71
670.76	8511.88
671.109	8542.61
671.459	8498.77
671.808	8450.87
672.157	8488.83
672.507	8429.62
672.856	8468.94
673.205	8482.28
673.554	8497.42
673.904	8480.24
674.253	8522.73
674.602	8447.02
674.951	8304.2
675.3	8279.57
675.649	8446.8
675.998	8430.07
676.346	8451.54
676.695	8446.57
677.044	8371.09
677.393	8433.01
677.741	8417.19
678.09	8396.63
678.438	8394.6
678.787	8425.78
679.135	8311.66
679.484	8287.48
679.832	8362.96
680.181	8285.22
680.529	8248.16
680.877	8227.14
681.225	8252.23
681.573	8282.51
681.922	8257.88
682.27	8210.87
682.618	8194.6
682.966	8225.56
683.314	8186.47
683.661	8105.11
684.009	8066.69
684.357	8110.54
684.705	8052.23
685.053	8119.35
685.4	8094.49
685.748	7976.75
686.095	8064.66
686.443	8053.36
686.79	8022.18
687.138	7983.31
687.485	7934.49
687.832	7936.08
688.18	7934.04
688.527	7904.44
688.874	7896.08
689.221	7859.47
689.568	7804.78
689.915	7881.84
690.262	7802.29
690.609	7805.91
690.956	7732.92
691.303	7694.05
691.65	7711.45
691.997	7652.92
692.344	7619.93
692.69	7571.34
693.037	7583.09
693.383	7491.57
693.73	7525.92
694.077	7527.73
694.423	7574.96
694.769	7482.08
695.116	7470.33
695.462	7449.31
695.808	7403.89
696.155	7413.15
696.501	7340.84
696.847	7342.42
697.193	7273.04
697.539	7311.91
697.885	7225.13
698.231	7215.19
698.577	7225.59
698.923	7138.36
699.269	7120.5
699.614	7095.19
699.96	7129.54
700.306	7041.41
700.651	7063.78
700.997	6991.24
701.342	7005.93
701.688	6994.18
702.033	6982.43
702.379	6930.23
702.724	6908.08
703.069	6865.6
703.415	6838.48
703.76	6827.41
704.105	6814.52
704.45	6802.77
704.795	6760.29
705.14	6701.98
705.485	6784.02
705.83	6676.67
706.175	6730.01
706.52	6671.7
706.865	6609.11
707.209	6593.74
707.554	6568.88
707.899	6580.41
708.243	6592.38
708.588	6510.8
708.932	6496.11
709.277	6476.45
709.621	6500.63
709.966	6456.34
710.31	6396.68
710.654	6393.97
710.998	6372.5
711.342	6382.67
711.687	6316.91
712.031	6360.3
712.375	6316.68
712.719	6339.96
713.063	6326.63
713.407	6360.3
713.75	6246.4
714.094	6258.83
714.438	6264.71
714.782	6263.35
715.125	6256.57
715.469	6270.13
715.812	6242.34
716.156	6164.37
716.499	6245.73
716.843	6204.6
717.186	6225.39
717.53	6210.7
717.873	6176.57
718.216	6142.45
718.559	6159.4
718.902	6095.9
719.246	6221.32
719.589	6084.6
719.932	6109.91
720.275	6113.53
720.617	6026.52
720.96	6040.99
721.303	6092.28
721.646	6054.77
721.989	6057.26
722.331	6081.21
722.674	5978.84
723.016	6073.75
723.359	6024.71
723.701	6060.19
724.044	6019.52
724.386	6056.35
724.729	6047.99
725.071	6037.37
725.413	6029.91
725.755	5975.45
726.097	6037.82
726.439	5960.08
726.782	6010.7
727.124	6031.95
727.465	5975.22
727.807	5956.47
728.149	5984.49
728.491	5946.52
728.833	5969.35
729.175	5958.73
729.516	5908.33
729.858	5935.23
730.199	5956.24
730.541	5955.11
730.882	5991.95
731.224	5964.38
731.565	5975.68
731.906	5948.11
732.248	5948.56
732.589	5921.21
732.93	5920.31
733.271	5970.03
733.612	5954.89
733.953	5993.98
734.294	5949.01
734.635	5924.15
734.976	5961.89
735.317	5945.39
735.658	6005.51
735.999	5955.56
736.339	5964.15
736.68	5977.48
737.021	5940.65
737.361	5995.79
737.702	5964.6
738.042	6017.93
738.383	5980.87
738.723	6018.61
739.063	6045.05
739.404	6027.2
739.744	6037.6
740.084	6026.97
740.424	6046.41
740.764	6052.28
741.104	6101.55
741.444	6046.63
741.784	6019.74
742.124	6127.54
742.464	6142
742.804	6157.82
743.143	6185.39
743.483	6167.31
743.823	6154.43
744.162	6212.96
744.502	6200.76
744.841	6259.51
745.181	6230.81
745.52	6265.84
745.86	6322.33
746.199	6395.78
746.538	6385.16
746.877	6497.02
747.216	6483.23
747.556	6548.77
747.895	6574.76
748.234	6597.81
748.573	6640.07
748.911	6675.54
749.25	6770.68
749.589	6774.53
749.928	6849.78
750.267	6995.54
750.605	7005.25
750.944	7057.68
751.283	7099.94
751.621	7264.23
751.96	7277.34
752.298	7421.74
752.636	7466.94
752.975	7481.63
753.313	7615.41
753.651	7783.54
753.989	7878
754.327	7915.29
754.666	8006.13
755.004	8161.38
755.342	8302.85
755.679	8422.84
756.017	8483.18
756.355	8601.14
756.693	8761.37
757.031	8934.92
757.368	8993.22
757.706	9193.44
758.044	9329.03
758.381	9509.14
758.719	9623.94
759.056	9755.46
759.394	9909.13
759.731	10046.98
760.068	10165.62
760.405	10283.36
760.743	10471.6
761.08	10673.63
761.417	10757.02
761.754	10971.03
762.091	11154.98
762.428	11233.39
762.765	11417.12
763.102	11679.48
763.438	11718.35
763.775	11874.28
764.112	12141.39
764.449	12334.61
764.785	12460.25
765.122	12478.56
765.458	12662.05
765.795	12822.28
766.131	13024.3
766.467	13200.12
766.804	13278.08
767.14	13412.77
767.476	13619.99
767.812	13660.9
768.148	13889.37
768.485	13974.11
768.821	14036.03
