Data from hue_330_FLMS001491_44.txt Node
Date: Mon Feb 06 15:45:26 GMT 2017
User: dcchb
Spectrometer: FLMS00149
Trigger mode: 0
Integration Time (sec): 2.000000E-2
Scans to average: 10
Electric dark correction enabled: true
Nonlinearity correction enabled: false
Boxcar width: 0
XAxis mode: Wavelengths
Number of Pixels in Spectrum: 2048
>>>>>Begin Spectral Data<<<<<
341.393	-6.33
341.776	-6.33
342.16	-6.33
342.543	-58.98
342.927	-55.14
343.31	-65.54
343.693	-70.28
344.077	-67.57
344.46	-63.95
344.843	-57.63
345.226	-45.42
345.61	-18.98
345.993	-21.24
346.376	-13.11
346.759	11.07
347.142	22.37
347.525	35.25
347.908	53.78
348.291	78.64
348.674	93.56
349.057	129.04
349.44	155.7
349.823	146.89
350.206	174.46
350.588	183.95
350.971	221.24
351.354	215.81
351.737	226.43
352.119	270.28
352.502	244.29
352.884	263.72
353.267	263.5
353.65	296.04
354.032	326.09
354.414	322.03
354.797	331.97
355.179	325.64
355.562	316.6
355.944	321.8
356.326	337.39
356.709	354.57
357.091	336.71
357.473	333.78
357.855	338.3
358.238	353.44
358.62	340.1
359.002	370.84
359.384	347.34
359.766	341.91
360.148	329.48
360.53	321.57
360.912	353.89
361.294	341.46
361.676	349.37
362.057	354.57
362.439	334.45
362.821	333.32
363.203	344.62
363.584	351.63
363.966	352.08
364.348	336.49
364.729	339.43
365.111	306.43
365.493	320.9
365.874	325.42
366.256	327.68
366.637	322.25
367.019	308.24
367.4	313.66
367.781	318.86
368.163	324.96
368.544	317.51
368.925	305.53
369.306	305.75
369.688	316.15
370.069	310.73
370.45	297.62
370.831	299.43
371.212	321.57
371.593	330.84
371.974	328.13
372.355	312.99
372.736	320.44
373.117	308.69
373.498	314.12
373.879	317.96
374.26	315.47
374.641	317.73
375.021	320.44
375.402	318.64
375.783	324.51
376.163	328.8
376.544	341.69
376.925	337.84
377.305	327.9
377.686	334.23
378.066	320.44
378.447	312.53
378.827	324.06
379.208	311.86
379.588	315.92
379.968	306.66
380.349	326.55
380.729	343.04
381.109	348.92
381.489	335.81
381.87	355.47
382.25	337.84
382.63	323.61
383.01	340.33
383.39	353.21
383.77	342.14
384.15	355.24
384.53	320.67
384.91	352.08
385.29	360.89
385.67	336.71
386.049	350.05
386.429	356.83
386.809	336.71
387.189	352.31
387.568	342.14
387.948	365.87
388.328	369.03
388.707	356.83
389.087	359.31
389.466	351.4
389.846	351.86
390.225	379.88
390.605	375.81
390.984	357.96
391.363	362.25
391.743	359.31
392.122	369.26
392.501	370.16
392.881	371.52
393.26	362.93
393.639	361.8
394.018	396.6
394.397	389.82
394.776	394.57
395.155	376.94
395.534	384.62
395.913	390.72
396.292	403.83
396.671	383.27
397.05	368.13
397.429	396.6
397.808	398.63
398.186	408.58
398.565	390.72
398.944	387.33
399.323	397.05
399.701	389.59
400.08	396.15
400.458	403.61
400.837	404.28
401.215	406.77
401.594	412.19
401.972	392.53
402.351	409.25
402.729	398.86
403.107	411.51
403.486	437.73
403.864	420.55
404.242	418.29
404.62	426.88
404.999	412.19
405.377	449.71
405.755	428.46
406.133	432.53
406.511	430.95
406.889	440.67
407.267	445.64
407.645	445.41
408.023	461.68
408.401	437.73
408.779	481.12
409.156	454
409.534	458.07
409.912	468.24
410.29	479.99
410.667	491.96
411.045	487.44
411.422	481.8
411.8	470.5
412.178	497.16
412.555	498.97
412.933	511.17
413.31	518.63
413.687	518.18
414.065	510.95
414.442	530.61
414.819	524.96
415.197	526.99
415.574	549.59
415.951	532.42
416.328	557.5
416.705	554.34
417.082	564.96
417.46	596.59
417.837	542.36
418.214	565.63
418.591	573.77
418.967	592.07
419.344	604.96
419.721	600.21
420.098	595.92
420.475	628.91
420.852	605.18
421.228	624.16
421.605	636.14
421.982	649.7
422.358	644.73
422.735	639.31
423.111	656.71
423.488	629.81
423.864	653.99
424.241	671.39
424.617	660.1
424.994	684.5
425.37	676.14
425.746	713.88
426.123	697.16
426.499	693.99
426.875	705.29
427.251	730.38
427.627	716.37
428.003	719.3
428.379	720.21
428.756	756.14
429.132	726.76
429.507	765.86
429.883	763.82
430.259	764.5
430.635	769.92
431.011	784.16
431.387	781.67
431.763	812.18
432.138	797.49
432.514	798.4
432.89	800.43
433.265	826.87
433.641	829.13
434.016	853.31
434.392	854.21
434.767	882.91
435.143	874.55
435.518	886.53
435.894	887.89
436.269	893.99
436.644	904.61
437.02	900.77
437.395	931.27
437.77	943.25
438.145	940.54
438.52	943.03
438.895	933.31
439.271	948.68
439.646	984.83
440.021	984.15
440.395	945.74
440.77	960.88
441.145	1002.01
441.52	1014.21
441.895	981.22
442.27	1011.5
442.645	1007.66
443.019	1024.15
443.394	1021.44
443.769	1026.64
444.143	1025.06
444.518	1035.45
444.892	1066.64
445.267	1055.11
445.641	1040.65
446.016	1055.57
446.39	1073.87
446.764	1057.6
447.139	1071.16
447.513	1067.09
447.887	1071.84
448.262	1062.34
448.636	1063.7
449.01	1084.72
449.384	1085.85
449.758	1075.9
450.132	1108.67
450.506	1135.34
450.88	1098.5
451.254	1135.34
451.628	1147.99
452.002	1126.75
452.376	1133.08
452.75	1155.68
453.123	1145.05
453.497	1177.14
453.871	1134.66
454.244	1174.88
454.618	1212.4
454.992	1197.93
455.365	1186.64
455.739	1204.49
456.112	1206.97
456.486	1216.01
456.859	1218.27
457.232	1256.24
457.606	1265.05
457.979	1282.68
458.352	1284.94
458.725	1296.92
459.099	1326.07
459.472	1338.72
459.845	1306.18
460.218	1323.58
460.591	1328.33
460.964	1357.25
461.337	1351.6
461.71	1375.56
462.083	1401.77
462.456	1387.08
462.829	1384.37
463.201	1411.94
463.574	1398.38
463.947	1431.6
464.32	1456.68
464.692	1466.18
465.065	1461.88
465.438	1489.23
465.81	1519.73
466.183	1498.94
466.555	1546.4
466.928	1532.39
467.3	1534.42
467.672	1561.54
468.045	1575.78
468.417	1580.75
468.789	1575.55
469.161	1571.94
469.534	1642.44
469.906	1653.06
470.278	1674.76
470.65	1676.11
471.022	1708.2
471.394	1724.02
471.766	1747.75
472.138	1764.25
472.51	1775.32
472.882	1803.79
473.253	1800.18
473.625	1834.08
473.997	1848.31
474.369	1886.5
474.74	1929.67
475.112	1925.37
475.484	1971.25
475.855	1984.81
476.227	1997.69
476.598	2010.12
476.97	2019.83
477.341	2088.76
477.713	2085.14
478.084	2073.84
478.455	2143.45
478.827	2164.69
479.198	2215.99
479.569	2218.7
479.94	2253.27
480.311	2281.97
480.682	2341.86
481.053	2355.64
481.424	2405.59
481.795	2416.21
482.166	2444.46
482.537	2435.64
482.908	2504.57
483.279	2514.51
483.65	2530.33
484.021	2578.46
484.391	2644.45
484.762	2601.51
485.133	2621.17
485.503	2665.47
485.874	2734.84
486.244	2756.31
486.615	2790.44
486.985	2857.78
487.356	2865.69
487.726	2886.93
488.097	2945.46
488.467	2908.4
488.837	2942.07
489.207	3015.29
489.578	3069.98
489.948	3073.59
490.318	3098
490.688	3103.87
491.058	3157.21
491.428	3207.15
491.798	3236.75
492.168	3248.05
492.538	3249.86
492.908	3337.09
493.278	3341.16
493.648	3337.09
494.017	3355.84
494.387	3404.2
494.757	3417.54
495.126	3452.11
495.496	3480.59
495.866	3465.45
496.235	3560.58
496.605	3511.09
496.974	3565.1
497.344	3578.44
497.713	3577.99
498.082	3629.74
498.452	3625.22
498.821	3656.85
499.19	3679.45
499.559	3712.22
499.928	3727.81
500.298	3758.55
500.667	3804.42
501.036	3779.79
501.405	3798.77
501.774	3772.56
502.143	3847.36
502.512	3831.54
502.88	3837.19
503.249	3843.06
503.618	3910.41
503.987	3910.86
504.356	3942.04
504.724	3944.53
505.093	3936.39
505.462	3941.82
505.83	3935.72
506.199	4003.96
506.567	4053.9
506.936	4018.65
507.304	4043.74
507.672	4091.42
508.041	4089.84
508.409	4116.95
508.777	4154.92
509.145	4154.47
509.514	4142.72
509.882	4157.4
510.25	4118.08
510.618	4173.68
510.986	4216.84
511.354	4214.8
511.722	4265.42
512.09	4257.06
512.458	4240.34
512.826	4290.73
513.193	4288.47
513.561	4301.58
513.929	4356.27
514.297	4331.41
514.664	4388.59
515.032	4350.39
515.4	4361.92
515.767	4368.25
516.135	4336.84
516.502	4398.08
516.869	4442.6
517.237	4435.14
517.604	4416.61
517.972	4448.92
518.339	4442.6
518.706	4513.1
519.073	4471.07
519.44	4516.04
519.808	4534.57
520.175	4551.29
520.542	4605.3
520.909	4587
521.276	4594
521.643	4677.62
522.009	4673.32
522.376	4634.45
522.743	4664.51
523.11	4695.47
523.477	4720.1
523.843	4746.99
524.21	4754.68
524.577	4831.51
524.943	4846.2
525.31	4868.35
525.676	4842.36
526.043	4916.93
526.409	4853.43
526.776	4973.65
527.142	4949.02
527.508	4979.08
527.874	5000.77
528.241	5014.78
528.607	5048.23
528.973	5057.49
529.339	5093.43
529.705	5071.51
530.071	5169.58
530.437	5194.21
530.803	5258.62
531.169	5234.21
531.535	5231.27
531.901	5228.56
532.267	5283.48
532.632	5303.59
532.998	5331.16
533.364	5336.13
533.73	5356.24
534.095	5406.19
534.461	5417.26
534.826	5419.74
535.192	5485.05
535.557	5525.28
535.923	5540.19
536.288	5516.92
536.653	5520.31
537.019	5535
537.384	5567.31
537.749	5639.85
538.114	5599.4
538.479	5620.64
538.845	5636.91
539.21	5659.06
539.575	5690.25
539.94	5682.34
540.305	5766.18
540.67	5672.62
541.034	5743.58
541.399	5811.6
541.764	5826.06
542.129	5856.57
542.494	5901.54
542.858	5882.56
543.223	5900.18
543.587	5937.47
543.952	5935.89
544.316	5961.65
544.681	6024.25
545.045	6038.49
545.41	6019.95
545.774	6132.95
546.138	6092.27
546.503	6110.12
546.867	6150.12
547.231	6217.69
547.595	6210.91
547.959	6232.83
548.324	6229.89
548.688	6226.28
549.052	6247.75
549.416	6241.87
549.779	6308.76
550.143	6332.49
550.507	6370.91
550.871	6434.18
551.235	6353.96
551.599	6441.19
551.962	6393.05
552.326	6453.16
552.689	6524.12
553.053	6524.57
553.417	6509.66
553.78	6600.73
554.143	6578.36
554.507	6563.22
554.87	6624.91
555.234	6598.92
555.597	6602.76
555.96	6655.19
556.323	6664.23
556.686	6640.28
557.05	6654.29
557.413	6756.21
557.776	6714.17
558.139	6778.8
558.502	6809.99
558.865	6848.86
559.228	6884.11
559.59	6881.85
559.953	6935.86
560.316	6959.14
560.679	6901.29
561.041	6961.62
561.404	7039.36
561.767	7069.87
562.129	6987.84
562.492	7082.98
562.854	7094.28
563.217	7153.94
563.579	7091.11
563.941	7170.43
564.304	7157.1
564.666	7249.98
565.028	7179.47
565.39	7248.85
565.753	7290.88
566.115	7261.5
566.477	7280.71
566.839	7323.65
567.201	7382.86
567.563	7404.55
567.925	7483.87
568.287	7446.58
568.648	7432.12
569.01	7501.27
569.372	7574.72
569.734	7577.2
570.095	7591.66
570.457	7610.42
570.819	7645
571.18	7625.79
571.542	7696.07
571.903	7756.86
572.265	7807.7
572.626	7861.71
572.987	7865.56
573.349	7936.06
573.71	7944.88
574.071	8029.85
574.432	8034.37
574.794	8179.45
575.155	8171.76
575.516	8214.93
575.877	8236.85
576.238	8337.86
576.599	8364.53
576.96	8420.8
577.32	8503.51
577.681	8632.99
578.042	8708.02
578.403	8791.18
578.763	8846.32
579.124	8938.75
579.485	8981.68
579.845	9198.63
580.206	9267.33
580.566	9289.93
580.927	9405.18
581.287	9585.28
581.648	9661.21
582.008	9843.58
582.368	9953.86
582.728	10132.16
583.089	10268.2
583.449	10373.29
583.809	10564.69
584.169	10781.86
584.529	10848.53
584.889	11109.76
585.249	11243.77
585.609	11471.34
585.969	11638.79
586.329	11838.11
586.688	12089.63
587.048	12238.1
587.408	12457.3
587.768	12728.03
588.127	12932.99
588.487	13022.48
588.846	13445.07
589.206	13551.96
589.565	13833.99
589.925	14170.93
590.284	14377.7
590.643	14650.01
591.003	14815.66
591.362	15224.46
591.721	15390.78
592.08	15611.57
592.44	15991.67
592.799	16277.09
593.158	16435.73
593.517	16739.9
593.876	17080.45
594.235	17350.96
594.593	17637.95
594.952	17942.58
595.311	18164.49
595.67	18446.29
596.029	18899.16
596.387	19168.08
596.746	19419.38
597.104	19571.69
597.463	19807.61
597.822	20256.64
598.18	20448.28
598.538	20779.34
598.897	21191.99
599.255	21152.21
599.613	21791.97
599.972	21958.29
600.33	22245.52
600.688	22549.01
601.046	22833.98
601.404	23256.56
601.762	23380.4
602.12	23817.68
602.478	24073.49
602.836	24300.15
603.194	24428.74
603.552	24807.71
603.91	24922.06
604.268	25293.57
604.625	25515.71
604.983	25872.77
605.341	25883.16
605.698	26347.1
606.056	26610.6
606.413	26780.76
606.771	27048.55
607.128	27361.77
607.485	27487.86
607.843	27752.72
608.2	28051.24
608.557	28305.7
608.914	28336.2
609.272	28694.39
609.629	29045.79
609.986	29205.33
610.343	29285.78
610.7	29638.09
611.057	29661.14
611.414	29930.74
611.771	30159.66
612.127	30461.8
612.484	30585.18
612.841	30824.73
613.198	30950.37
613.554	31085.96
613.911	31292.96
614.267	31567.08
614.624	31646.63
614.98	31927.75
615.337	32228.08
615.693	32151.47
616.05	32305.37
616.406	32788.97
616.762	32698.35
617.118	32738.12
617.475	32845.01
617.831	33173.82
618.187	33330.42
618.543	33449.29
618.899	33706.01
619.255	33765.44
619.611	33853.57
619.967	34048.6
620.323	34243.17
620.678	34219.44
621.034	34355.71
621.39	34381.92
621.746	34453.78
622.101	34890.16
622.457	34718.86
622.812	35021.23
623.168	35089.02
623.523	35149.81
623.879	35269.36
624.234	35169.7
624.589	35347.77
624.945	35582.57
625.3	35517.26
625.655	35628.44
626.01	35779.17
626.365	35756.8
626.72	35816.69
627.075	35838.83
627.43	36014.65
627.785	35936.23
628.14	36044.7
628.495	36149.78
628.85	36201.31
629.205	36103.46
629.559	36313.4
629.914	36189.1
630.269	36307.52
630.623	36226.62
630.978	36220.06
631.332	36427.74
631.687	36562.2
632.041	36419.16
632.396	36570.79
632.75	36422.55
633.104	36634.07
633.459	36417.12
633.813	36430.23
634.167	36524.24
634.521	36632.03
634.875	36648.08
635.229	36571.02
635.583	36452.6
635.937	36572.37
636.291	36563.56
636.645	36604.91
636.999	36498.93
637.352	36710.9
637.706	36502.54
638.06	36694.4
638.413	36441.98
638.767	36364.47
639.121	36659.83
639.474	36364.47
639.828	36474.75
640.181	36448.08
640.534	36520.17
640.888	36544.35
641.241	36276.56
641.594	36438.36
641.947	36592.94
642.301	36451.7
642.654	36445.14
643.007	36504.58
643.36	36459.61
643.713	36475.2
644.066	36480.17
644.419	36425.71
644.771	36124.93
645.124	35810.58
645.477	35728.1
645.83	35541.44
646.182	35390.26
646.535	35383.7
646.888	35423.02
647.24	35279.75
647.593	35536.69
647.945	35431.16
648.298	35308.22
648.65	35321.11
649.002	35286.53
649.355	35368.56
649.707	35224.61
650.059	35431.16
650.411	35798.83
650.763	35788.66
651.115	36145.26
651.467	36091.48
651.819	35961.09
652.171	35976.46
652.523	35943.91
652.875	35921.99
653.227	35877.7
653.578	36045.61
653.93	35977.36
654.282	35790.25
654.633	35766.74
654.985	35956.34
655.337	35868.66
655.688	35874.31
656.039	36020.3
656.391	35662.34
656.742	35767.65
657.094	35675.67
657.445	35880.41
657.796	35733.3
658.147	35727.87
658.498	35738.27
658.849	35773.97
659.2	35711.38
659.551	35760.19
659.902	35755.22
660.253	35752.51
660.604	35719.51
660.955	35695.11
661.306	35712.51
661.656	35616.01
662.007	35658.05
662.358	35529.91
662.708	35550.03
663.059	35716.8
663.409	35477.03
663.76	35617.82
664.11	35574.88
664.461	35641.55
664.811	35582.12
665.161	35647.2
665.511	35503.25
665.862	35614.2
666.212	35705.5
666.562	35706.63
666.912	35512.96
667.262	35550.48
667.612	35724.03
667.962	35615.33
668.312	35539.86
668.662	35656.92
669.011	35611.04
669.361	35398.39
669.711	35454.89
670.06	35483.36
670.41	35334.21
670.76	35399.3
671.109	35537.6
671.459	35335.57
671.808	35430.48
672.157	35481.1
672.507	35330.6
672.856	35306.64
673.205	35396.13
673.554	35497.37
673.904	35223.48
674.253	35604.49
674.602	35237.94
674.951	34795.47
675.3	34671.86
675.649	35349.35
675.998	35176.25
676.346	35226.87
676.695	35336.25
677.044	34999.31
677.393	35148.45
677.741	35195.23
678.09	35066.65
678.438	35083.37
678.787	35092.41
679.135	35049.93
679.484	34941
679.832	34946.43
680.181	34804.51
680.529	34846.99
680.877	34804.96
681.225	34761.57
681.573	34957.72
681.922	34664.85
682.27	34649.94
682.618	34555.02
682.966	34613.1
683.314	34567
683.661	34533.56
684.009	34299.66
684.357	34389.6
684.705	34268.7
685.053	34290.4
685.4	34127.46
685.748	34169.05
686.095	34065.09
686.443	34009.73
686.79	33924.53
687.138	34037.52
687.485	33944.87
687.832	33896.96
688.18	33890.63
688.527	33711.2
688.874	33675.5
689.221	33511.44
689.568	33640.7
689.915	33476.18
690.262	33479.8
690.609	33387.82
690.956	33262.18
691.303	33257.66
691.65	33146.47
691.997	33056.08
692.344	32918.46
692.69	32956.65
693.037	32932.47
693.383	32664.68
693.73	32759.59
694.077	32638.01
694.423	32587.17
694.769	32377
695.116	32350.56
695.462	32365.7
695.808	32193.05
696.155	32262.2
696.501	32178.14
696.847	32111.25
697.193	31805.27
697.539	31924.13
697.885	31863.12
698.231	31597.14
698.577	31663.57
698.923	31539.28
699.269	31444.14
699.614	31452.73
699.96	31226.07
700.306	31327.99
700.651	31234.66
700.997	31113.98
701.342	31006.19
701.688	30931.84
702.033	30814.78
702.379	30739.76
702.724	30707.89
703.069	30707.89
703.415	30455.24
703.76	30445.98
704.105	30527.11
704.45	30422.25
704.795	30140.68
705.14	30178.19
705.485	30135.7
705.83	30089.38
706.175	30064.52
706.52	29855.26
706.865	29840.8
707.209	29848.48
707.554	29731.2
707.899	29792.66
708.243	29630.63
708.588	29649.84
708.932	29433.8
709.277	29343.86
709.621	29486.68
709.966	29139.35
710.31	29384.31
710.654	28999.24
710.998	29034.04
711.342	29052.12
711.687	28985.45
712.031	28970.54
712.375	28735.29
712.719	28794.72
713.063	28825.91
713.407	28936.87
713.75	28665.23
714.094	28646.7
714.438	28533.94
714.782	28469.76
715.125	28429.76
715.469	28484.9
715.812	28263.21
716.156	28174.17
716.499	28161.07
716.843	28125.14
717.186	27954.97
717.53	28156.77
717.873	28046.95
718.216	28035.65
718.559	27843.34
718.902	27914.75
719.246	27698.93
719.589	27646.5
719.932	27694.19
720.275	27592.95
720.617	27568.54
720.96	27498.03
721.303	27576.45
721.646	27465.27
721.989	27268.21
722.331	27459.39
722.674	27341.65
723.016	27297.59
723.359	27245.39
723.701	27321.99
724.044	26980.31
724.386	26905.28
724.729	27065.05
725.071	26973.53
725.413	26999.06
725.755	27018.72
726.097	26916.13
726.439	26837.49
726.782	26726.08
727.124	26813.08
727.465	26717.94
727.807	26548.23
728.149	26530.15
728.491	26606.31
728.833	26573.54
729.175	26432.98
729.516	26519.3
729.858	26414.22
730.199	26556.82
730.541	26297.16
730.882	26309.14
731.224	26308.69
731.565	26125.87
731.906	26164.51
732.248	26188.46
732.589	26059.43
732.93	25993.67
733.271	26056.94
733.612	26000.67
733.953	26047
734.294	25899.66
734.635	25840.68
734.976	25910.05
735.317	25655.14
735.658	25748.48
735.999	25665.77
736.339	25627.8
736.68	25738.08
737.021	25730.17
737.361	25559.78
737.702	25575.37
738.042	25504.19
738.383	25468.48
738.723	25469.16
739.063	25377.86
739.404	25485.88
739.744	25372.89
740.084	25201.6
740.424	25305.1
740.764	25291.09
741.104	25377.41
741.444	25157.3
741.784	25038.89
742.124	24995.95
742.464	25207.02
742.804	25000.47
743.143	24968.38
743.483	24973.58
743.823	24858.78
744.162	24836.41
744.502	24955.5
744.841	24769.29
745.181	24763.19
745.52	24763.64
745.86	24814.26
746.199	24633.02
746.538	24600.71
746.877	24645.45
747.216	24590.54
747.556	24477.55
747.895	24565.23
748.234	24415.63
748.573	24397.55
748.911	24398.91
749.25	24401.62
749.589	24254.28
749.928	24277.33
750.267	24220.38
750.605	24214.05
750.944	24130.21
751.283	24127.95
751.621	24090.67
751.96	23869.65
752.298	24067.16
752.636	23947.84
752.975	23929.99
753.313	23727.06
753.651	23844.8
753.989	23637.12
754.327	23621.75
754.666	23569.1
755.004	23515.54
755.342	23563
755.679	23414.53
756.017	23321.42
756.355	23494.07
756.693	23296.11
757.031	23334.53
757.368	23248.65
757.706	23138.83
758.044	23024.48
758.381	23071.26
758.719	22962.79
759.056	22963.01
759.394	22904.03
759.731	22683.47
760.068	22754.2
760.405	22545.17
