Data from hue_330_FLMS001491_7.txt Node
Date: Mon Feb 06 15:44:48 GMT 2017
User: dcchb
Spectrometer: FLMS00149
Trigger mode: 0
Integration Time (sec): 2.000000E-2
Scans to average: 10
Electric dark correction enabled: true
Nonlinearity correction enabled: false
Boxcar width: 0
XAxis mode: Wavelengths
Number of Pixels in Spectrum: 2048
>>>>>Begin Spectral Data<<<<<
341.393	-23.06
341.776	-23.06
342.16	-23.06
342.543	-76.17
342.927	-93.8
343.31	-66.68
343.693	-56.74
344.077	-74.14
344.46	-59.45
344.843	-52.89
345.226	-40.01
345.61	-24.65
345.993	-33.46
346.376	-5.89
346.759	17.84
347.142	29.14
347.525	25.97
347.908	61.23
348.291	79.53
348.674	94.67
349.057	105.52
349.44	103.94
349.823	140.32
350.206	162.47
350.588	189.13
350.971	211.28
351.354	216.25
351.737	232.75
352.119	244.05
352.502	240.21
352.884	280.2
353.267	266.87
353.65	285.4
354.032	293.76
354.414	301.9
354.797	318.4
355.179	316.81
355.562	332.41
355.944	329.24
356.326	336.25
356.709	327.89
357.091	319.98
357.473	352.07
357.855	316.81
358.238	344.84
358.62	352.52
359.002	313.88
359.384	326.76
359.766	345.29
360.148	329.69
360.53	339.19
360.912	315.91
361.294	352.52
361.676	349.13
362.057	314.1
362.439	338.96
362.821	308.9
363.203	308.68
363.584	317.27
363.966	329.24
364.348	315.91
364.729	328.11
365.111	321.79
365.493	319.75
365.874	323.59
366.256	299.86
366.637	312.29
367.019	292.41
367.4	312.97
367.781	335.34
368.163	312.29
368.544	329.47
368.925	298.51
369.306	303.71
369.688	310.71
370.069	319.07
370.45	310.03
370.831	301.45
371.212	324.5
371.593	320.43
371.974	303.25
372.355	301.9
372.736	310.03
373.117	301.45
373.498	297.15
373.879	318.4
374.26	291.05
374.641	296.7
375.021	306.19
375.402	322.69
375.783	304.16
376.163	316.36
376.544	310.03
376.925	329.24
377.305	329.24
377.686	324.05
378.066	337.38
378.447	325.18
378.827	304.61
379.208	314.33
379.588	319.98
379.968	332.63
380.349	338.96
380.729	332.18
381.109	326.3
381.489	334.44
381.87	330.15
382.25	336.93
382.63	342.58
383.01	311.84
383.39	340.77
383.77	338.96
384.15	321.11
384.53	366.76
384.91	344.38
385.29	361.33
385.67	365.85
386.049	338.06
386.429	332.18
386.809	357.49
387.189	352.52
387.568	356.59
387.948	340.54
388.328	342.58
388.707	368.11
389.087	367.89
389.466	361.56
389.846	352.52
390.225	389.35
390.605	352.29
390.984	357.49
391.363	365.4
391.743	369.47
392.122	362.46
392.501	363.14
392.881	358.62
393.26	363.37
393.639	376.02
394.018	379.64
394.397	383.25
394.776	377.15
395.155	396.13
395.534	375.57
395.913	365.63
396.292	367.66
396.671	373.31
397.05	378.06
397.429	368.56
397.808	374.21
398.186	382.12
398.565	373.54
398.944	399.3
399.323	402.69
399.701	395.46
400.08	411.73
400.458	390.94
400.837	404.04
401.215	390.48
401.594	386.42
401.972	428.68
402.351	423.7
402.729	399.52
403.107	401.56
403.486	426.42
403.864	414.89
404.242	421.44
404.62	412.63
404.999	408.56
405.377	451.73
405.755	426.19
406.133	424.83
406.511	451.5
406.889	420.31
407.267	439.52
407.645	421.44
408.023	445.4
408.401	458.05
408.779	443.82
409.156	451.5
409.534	465.96
409.912	463.7
410.29	460.76
410.667	477.49
411.045	468.67
411.422	488.56
411.8	479.97
412.178	513.42
412.555	481.33
412.933	497.37
413.31	494.89
413.687	520.2
414.065	502.12
414.442	533.76
414.819	523.14
415.197	529.69
415.574	547.99
415.951	559.29
416.328	548.45
416.705	544.15
417.082	546.64
417.46	563.36
417.837	571.04
418.214	592.51
418.591	588.67
418.967	592.74
419.344	595.22
419.721	615.79
420.098	606.3
420.475	612.4
420.852	607.88
421.228	637.48
421.605	639.07
421.982	659.86
422.358	624.38
422.735	646.3
423.111	659.63
423.488	675.22
423.864	666.41
424.241	675.22
424.617	677.71
424.994	661.89
425.37	713.19
425.746	685.17
426.123	719.74
426.499	709.35
426.875	700.08
427.251	701.44
427.627	719.51
428.003	733.53
428.379	742.57
428.756	756.58
429.132	765.84
429.507	770.14
429.883	794.99
430.259	773.75
430.635	785.5
431.011	801.77
431.387	785.28
431.763	786.18
432.138	824.14
432.514	828.21
432.89	822.34
433.265	825.73
433.641	867.76
434.016	862.11
434.392	842.9
434.767	863.01
435.143	881.32
435.518	903.69
435.894	920.41
436.269	891.71
436.644	910.7
437.02	930.13
437.395	938.49
437.77	913.86
438.145	944.14
438.52	960.19
438.895	961.77
439.271	960.86
439.646	953.86
440.021	977.36
440.395	980.53
440.77	992.95
441.145	1010.58
441.52	1017.13
441.895	1026.17
442.27	1035.44
442.645	1024.59
443.019	1039.28
443.394	1034.76
443.769	1049.22
444.143	1009.22
444.518	1053.97
444.892	1051.94
445.267	1096.68
445.641	1057.81
446.016	1046.74
446.39	1085.16
446.764	1075.66
447.139	1081.09
447.513	1104.14
447.887	1065.27
448.262	1108.88
448.636	1075.44
449.01	1086.28
449.384	1120.63
449.758	1092.84
450.132	1126.96
450.506	1119.5
450.88	1135.1
451.254	1128.54
451.628	1134.19
452.002	1150.01
452.376	1155.89
452.75	1170.8
453.123	1165.6
453.497	1181.65
453.871	1172.61
454.244	1197.47
454.618	1205.15
454.992	1234.98
455.365	1229.33
455.739	1221.2
456.112	1229.33
456.486	1239.95
456.859	1257.13
457.232	1266.17
457.606	1284.02
457.979	1300.97
458.352	1303.91
458.725	1341.65
459.099	1307.3
459.472	1340.29
459.845	1338.48
460.218	1371.25
460.591	1350.68
460.964	1353.17
461.337	1421.19
461.71	1400.63
462.083	1409.21
462.456	1426.16
462.829	1416.9
463.201	1450.8
463.574	1437.91
463.947	1470.91
464.32	1484.92
464.692	1507.97
465.065	1507.52
465.438	1513.84
465.81	1541.87
466.183	1528.08
466.555	1559.49
466.928	1581.64
467.3	1542.54
467.672	1608.31
468.045	1596.33
468.417	1633.16
468.789	1613.5
469.161	1641.3
469.534	1649.43
469.906	1705.48
470.278	1710.22
470.65	1731.92
471.022	1747.74
471.394	1765.36
471.766	1766.72
472.138	1790.45
472.51	1797.68
472.882	1839.03
473.253	1881.52
473.625	1881.52
473.997	1918.58
474.369	1924.68
474.74	1928.52
475.112	1944.79
475.484	1988.63
475.855	2002.19
476.227	2037.22
476.598	2056.2
476.97	2050.78
477.341	2112.7
477.713	2131.91
478.084	2151.57
478.455	2202.19
478.827	2214.84
479.198	2289.87
479.569	2275.63
479.94	2365.12
480.311	2339.59
480.682	2401.05
481.053	2442.41
481.424	2451.67
481.795	2465.23
482.166	2504.78
482.537	2528.96
482.908	2561.73
483.279	2575.74
483.65	2594.95
484.021	2667.49
484.391	2668.62
484.762	2692.12
485.133	2717.88
485.503	2761.5
485.874	2806.47
486.244	2808.05
486.615	2886.24
486.985	2901.38
487.356	2924.65
487.726	2957.87
488.097	3020.25
488.467	2996.52
488.837	3096.63
489.207	3089.62
489.578	3141.15
489.948	3169.17
490.318	3169.62
490.688	3217.53
491.058	3242.61
491.428	3274.02
491.798	3293.46
492.168	3333.68
492.538	3385.89
492.908	3408.26
493.278	3485.32
493.648	3415.72
494.017	3454.36
494.387	3478.54
494.757	3531.64
495.126	3581.81
495.496	3521.7
495.866	3577.97
496.235	3647.8
496.605	3693.9
496.974	3687.57
497.344	3712.66
497.713	3713.79
498.082	3732.54
498.452	3769.83
498.821	3785.65
499.19	3768.7
499.559	3857.51
499.928	3839.43
500.298	3823.84
500.667	3909.71
501.036	3864.29
501.405	3878.98
501.774	3926.66
502.143	3958.75
502.512	3945.19
502.88	3998.75
503.249	4002.14
503.618	4005.53
503.987	4027.68
504.356	4017.06
504.724	4042.82
505.093	4062.03
505.462	4100.89
505.83	4139.09
506.199	4095.02
506.567	4143.83
506.936	4161.23
507.304	4203.72
507.672	4207.33
508.041	4210.95
508.409	4192.42
508.777	4241.91
509.145	4276.48
509.514	4302.25
509.882	4297.95
510.25	4290.95
510.618	4277.61
510.986	4346.76
511.354	4392.64
511.722	4401.45
512.09	4391.73
512.458	4412.07
512.826	4436.71
513.193	4443.26
513.561	4403.71
513.929	4485.29
514.297	4526.87
514.664	4515.57
515.032	4530.49
515.4	4526.19
515.767	4578.17
516.135	4564.39
516.502	4471.28
516.869	4546.53
517.237	4618.17
517.604	4599.64
517.972	4615.46
518.339	4635.8
518.706	4664.95
519.073	4641.22
519.44	4682.8
519.808	4692.74
520.175	4677.15
520.542	4720.77
520.909	4772.74
521.276	4760.99
521.643	4796.47
522.009	4824.94
522.376	4831.95
522.743	4843.93
523.11	4845.51
523.477	4937.48
523.843	4917.6
524.21	4962.57
524.577	4985.84
524.943	4986.52
525.31	4972.96
525.676	5083.24
526.043	5059.97
526.409	5125.27
526.776	5144.48
527.142	5122.11
527.508	5130.25
527.874	5208.21
528.241	5276.01
528.607	5224.71
528.973	5290.69
529.339	5255.67
529.705	5354.65
530.071	5323.46
530.437	5327.3
530.803	5363.46
531.169	5436
531.535	5452.72
531.901	5433.97
532.267	5435.78
532.632	5454.31
532.998	5488.43
533.364	5550.12
533.73	5508.32
534.095	5605.04
534.461	5624.7
534.826	5680.06
535.192	5591.03
535.557	5637.8
535.923	5702.43
536.288	5716.22
536.653	5780.62
537.019	5778.59
537.384	5830.34
537.749	5827.4
538.114	5826.95
538.479	5816.1
538.845	5828.76
539.21	5830.34
539.575	5887.97
539.94	5937.91
540.305	5920.96
540.67	5982.88
541.034	5954.86
541.399	6076.21
541.764	6120.28
542.129	6023.78
542.494	6094.29
542.858	6149.88
543.223	6130.45
543.587	6115.53
543.952	6226.04
544.316	6202.76
544.681	6214.06
545.045	6254.51
545.41	6275.75
545.774	6312.36
546.138	6374.06
546.503	6362.53
546.867	6360.95
547.231	6372.47
547.595	6438.23
547.959	6478.23
548.324	6463.77
548.688	6528.18
549.052	6546.93
549.416	6574.05
549.779	6563.88
550.143	6562.3
550.507	6647.04
550.871	6614.28
551.235	6598.68
551.599	6682.3
551.962	6744.89
552.326	6719.36
552.689	6747.38
553.053	6756.87
553.417	6750.77
553.78	6799.13
554.143	6844.78
554.507	6825.12
554.87	6852.46
555.234	6895.85
555.597	6898.11
555.96	6887.26
556.323	6929.07
556.686	6964.32
557.05	7004.55
557.413	7009.52
557.776	7009.52
558.139	7057.43
558.502	7007.94
558.865	7064.88
559.228	7193.24
559.59	7141.94
559.953	7143.3
560.316	7177.65
560.679	7207.48
561.041	7204.09
561.404	7285.44
561.767	7313.01
562.129	7314.37
562.492	7356.85
562.854	7293.35
563.217	7348.04
563.579	7379.9
563.941	7385.55
564.304	7447.25
564.666	7491.99
565.028	7559.34
565.39	7510.3
565.753	7547.36
566.115	7520.24
566.477	7616.28
566.839	7636.62
567.201	7600.01
567.563	7688.6
567.925	7761.82
568.287	7713
568.648	7772.44
569.01	7780.35
569.372	7841.36
569.734	7880.68
570.095	7854.69
570.457	7936.95
570.819	8013.11
571.18	7949.38
571.542	8054.46
571.903	8026.44
572.265	8080.9
572.626	8148.92
572.987	8169.04
573.349	8254.46
573.71	8308.24
574.071	8309.6
574.432	8344.85
574.794	8489.03
575.155	8563.6
575.516	8516.37
575.877	8521.34
576.238	8700.32
576.599	8718.17
576.96	8747.33
577.32	8814.22
577.681	8954.55
578.042	8998.39
578.403	9127.2
578.763	9145.51
579.124	9264.15
579.485	9336.24
579.845	9469.79
580.206	9510.24
580.566	9666.17
580.927	9694.42
581.287	9926.05
581.648	9961.98
582.008	10218.47
582.368	10201.75
582.728	10427.28
583.089	10558.35
583.449	10657.11
583.809	10846.48
584.169	11037.66
584.529	11146.13
584.889	11359.69
585.249	11574.82
585.609	11728.49
585.969	11892.78
586.329	12065.88
586.688	12276.95
587.048	12557.85
587.408	12723.49
587.768	12968.46
588.127	13245.06
588.487	13427.43
588.846	13740.64
589.206	13861.77
589.565	14094.3
589.925	14511.92
590.284	14601.18
590.643	14925.02
591.003	15127.72
591.362	15540.14
591.721	15699.69
592.08	16013.35
592.44	16372.44
592.799	16562.94
593.158	16821.01
593.517	17085.86
593.876	17458.74
594.235	17560.43
594.593	18011.49
594.952	18416.45
595.311	18510.69
595.67	18990.22
596.029	19312.7
596.387	19603.31
596.746	19841.95
597.104	20013.7
597.463	20471.54
597.822	20648.71
598.18	20824.75
598.538	21223.38
598.897	21648
599.255	21678.74
599.613	22364.6
599.972	22480.98
600.33	22770.69
600.688	22907.41
601.046	23334.97
601.404	23604.56
601.762	23861.51
602.12	24226.69
602.478	24492
602.836	24652.9
603.194	24817.64
603.552	25096.05
603.91	25395.02
604.268	25801.12
604.625	25946.2
604.983	26200.43
605.341	26453.98
605.698	26769.45
606.056	27115.43
606.413	27225.71
606.771	27587.96
607.128	27844
607.485	27861.85
607.843	28158.34
608.2	28553.36
608.557	28702.06
608.914	28907.93
609.272	29133.23
609.629	29408.03
609.986	29732.99
610.343	29809.15
610.7	30149.7
611.057	30437.38
611.414	30526.41
611.771	30684.83
612.127	31136.79
612.484	31161.2
612.841	31556.22
613.198	31418.59
613.554	31634.18
613.911	31985.81
614.267	32171.12
614.624	32193.49
614.98	32368.4
615.337	32809.29
615.693	32848.84
616.05	32891.1
616.406	33254.25
616.762	33221.94
617.118	33369.96
617.475	33493.79
617.831	33748.03
618.187	33942.82
618.543	34220.56
618.899	34353.21
619.255	34394.11
619.611	34544.61
619.967	34704.38
620.323	34801.56
620.678	34858.73
621.034	34886.98
621.39	35016.69
621.746	35109.8
622.101	35660.52
622.457	35546.4
622.812	35568.54
623.168	35816.45
623.523	35826.84
623.879	36072.94
624.234	35907.52
624.589	36136.66
624.945	36227.96
625.3	36201.52
625.655	36337.11
626.01	36438.58
626.365	36455.07
626.72	36556.76
627.075	36520.83
627.43	36645.35
627.785	36674.73
628.14	36660.04
628.495	36770.54
628.85	36860.94
629.205	36885.34
629.559	37116.52
629.914	36891.9
630.269	37161.95
630.623	37064.32
630.978	36948.62
631.332	37189.29
631.687	37340.92
632.041	37219.57
632.396	37328.5
632.75	37285.79
633.104	37404.43
633.459	37192.91
633.813	37259.12
634.167	37264.99
634.521	37377.99
634.875	37297.99
635.229	37342.28
635.583	37293.92
635.937	37303.41
636.291	37386.57
636.645	37362.62
636.999	37283.3
637.352	37486.23
637.706	37281.49
638.06	37466.57
638.413	37288.27
638.767	37275.62
639.121	37228.61
639.474	37113.59
639.828	37251.66
640.181	37269.51
640.534	37328.72
640.888	37342.73
641.241	36983.42
641.594	37195.84
641.947	37151.78
642.301	37121.04
642.654	37227.93
643.007	37240.59
643.36	37208.05
643.713	37230.19
644.066	37250.53
644.419	37138.44
644.771	36928.05
645.124	36637.44
645.477	36470.21
645.83	36422.31
646.182	36334.85
646.535	36076.78
646.888	36289.88
647.24	35926.5
647.593	36127.4
647.945	36222.99
648.298	36129.21
648.65	35974.86
649.002	35902.77
649.355	36240.84
649.707	35987.51
650.059	36111.8
650.411	36620.04
650.763	36695.74
651.115	37027.03
651.467	36832.92
651.819	36749.75
652.171	36785.46
652.523	36704.33
652.875	36855.29
653.227	36690.32
653.578	36925.57
653.93	36774.84
654.282	36494.62
654.633	36567.61
654.985	36661.39
655.337	36702.75
655.688	36656.2
656.039	36745.01
656.391	36466.6
656.742	36562.87
657.094	36490.33
657.445	36673.37
657.796	36766.25
658.147	36518.35
658.498	36512.92
658.849	36642.19
659.2	36574.39
659.551	36427.73
659.902	36585.46
660.253	36500.04
660.604	36720.6
660.955	36359.93
661.306	36633.37
661.656	36494.39
662.007	36473.15
662.358	36457.33
662.708	36502.98
663.059	36474.73
663.409	36308.18
663.76	36642.64
664.11	36563.32
664.461	36551.57
664.811	36531.68
665.161	36529.42
665.511	36400.84
665.862	36603.77
666.212	36602.87
666.562	36488.29
666.912	36533.71
667.262	36600.38
667.612	36486.03
667.962	36385.24
668.312	36379.59
668.662	36554.05
669.011	36447.84
669.361	36288.07
669.711	36331.91
670.06	36354.51
670.41	36094.4
670.76	36311.12
671.109	36346.6
671.459	36165.81
671.808	36133.73
672.157	36321.97
672.507	36105.48
672.856	36095.31
673.205	36092.82
673.554	36263.21
673.904	36200.39
674.253	36351.35
674.602	36197.45
674.951	35685.6
675.3	35453.97
675.649	36041.3
675.998	36095.53
676.346	36019.6
676.695	36071.13
677.044	35803.56
677.393	35881.75
677.741	36073.84
678.09	35858.25
678.438	35885.6
678.787	35961.3
679.135	35878.36
679.484	35733.96
679.832	35840.17
680.181	35620.07
680.529	35869.78
680.877	35730.57
681.225	35612.61
681.573	35847.4
681.922	35613.96
682.27	35481.76
682.618	35601.76
682.966	35437.02
683.314	35469.11
683.661	35413.74
684.009	35071.38
684.357	35170.59
684.705	35143.02
685.053	35248.78
685.4	35074.32
685.748	34820.31
686.095	34967.88
686.443	34895.34
686.79	34865.74
687.138	34893.76
687.485	34768.34
687.832	34748.68
688.18	34771.27
688.527	34636.59
688.874	34514.56
689.221	34460.77
689.568	34403.6
689.915	34231.63
690.262	34279.54
690.609	34063.5
690.956	34067.79
691.303	34150.5
691.65	33926.33
691.997	33869.15
692.344	33731.98
692.69	33694.69
693.037	33685.43
693.383	33501.03
693.73	33500.35
694.077	33400.69
694.423	33343.97
694.769	33347.36
695.116	33235.72
695.462	33068.49
695.808	33153.46
696.155	33076.4
696.501	32941.49
696.847	32836.18
697.193	32699.01
697.539	32736.3
697.885	32474.61
698.231	32488.4
698.577	32231.68
698.923	32320.72
699.269	32054.96
699.614	31952.37
699.96	32071.91
700.306	32054.96
700.651	31924.8
700.997	31735.2
701.342	31746.5
701.688	31746.04
702.033	31704.24
702.379	31494.98
702.724	31499.72
703.069	31584.01
703.415	31229.45
703.76	31262.67
704.105	31227.19
704.45	31078.04
704.795	30931.6
705.14	30909
705.485	30828.1
705.83	30738.61
706.175	30850.02
706.52	30684.15
706.865	30521.67
707.209	30517.15
707.554	30398.06
707.899	30501.33
708.243	30352.63
708.588	30230.15
708.932	30149.48
709.277	30098.86
709.621	30071.74
709.966	29907.67
710.31	30022.25
710.654	29705.42
710.998	29800.56
711.342	29724.18
711.687	29607.12
712.031	29508.36
712.375	29382.04
712.719	29508.81
713.063	29388.59
713.407	29580.23
713.75	29387.91
714.094	29279.44
714.438	29130.97
714.782	29181.82
715.125	29068.15
715.469	29173.91
715.812	28951.99
716.156	28885.78
716.499	28820.25
716.843	28888.04
717.186	28603.3
717.53	28896.85
717.873	28711.32
718.216	28657.99
718.559	28600.36
718.902	28442.4
719.246	28502.06
719.589	28414.83
719.932	28220.71
720.275	28309.98
720.617	28264.1
720.96	28244.89
721.303	28120.15
721.646	28093.03
721.989	27970.32
722.331	28229.3
722.674	27949.76
723.016	28001.96
723.359	27854.39
723.701	28079.47
724.044	27767.17
724.386	27673.61
724.729	27728.97
725.071	27769.43
725.413	27728.97
725.755	27636.77
726.097	27629.54
726.439	27379.15
726.782	27342.09
727.124	27538.92
727.465	27354.07
727.807	27409.43
728.149	27223.9
728.491	27303
728.833	27344.8
729.175	27155.66
729.516	27103.23
729.858	27095.54
730.199	27036.11
730.541	26992.72
730.882	26958.6
731.224	27118.37
731.565	26784.14
731.906	26867.98
732.248	26915.21
732.589	26731.49
732.93	26616.91
733.271	26628.44
733.612	26666.18
733.953	26787.08
734.294	26507.31
734.635	26449.69
734.976	26614.65
735.317	26320.2
735.658	26361.78
735.999	26322.01
736.339	26221.67
736.68	26362.68
737.021	26404.26
737.361	26151.84
737.702	26288.79
738.042	26103.03
738.383	26195
738.723	26123.59
739.063	26050.6
739.404	26046.98
739.744	26025.29
740.084	25848.12
740.424	25930.83
740.764	25887.89
741.104	25972.41
741.444	25742.36
741.784	25764.28
742.124	25777.39
742.464	25689.48
742.804	25555.47
743.143	25632.53
743.483	25641.57
743.823	25501.69
744.162	25561.35
744.502	25471.41
744.841	25508.24
745.181	25546.66
745.52	25353.67
745.86	25407.91
746.199	25295.37
746.538	25207.46
746.877	25361.35
747.216	25124.07
747.556	25143.73
747.895	25174.47
748.234	25056.05
748.573	25099.44
748.911	24927.69
749.25	24959.56
749.589	24803.18
749.928	24803.4
750.267	24872.55
750.605	24866
750.944	24701.26
751.283	24768.6
751.621	24594.37
751.96	24625.1
752.298	24557.76
752.636	24627.81
752.975	24430.76
753.313	24353.7
753.651	24468.95
753.989	24360.25
754.327	24335.62
754.666	24161.61
755.004	24160.71
755.342	24167.71
755.679	24081.39
756.017	24038.68
756.355	24061.27
756.693	24024.44
757.031	23925.91
757.368	23819.92
757.706	23826.03
758.044	23721.85
758.381	23759.36
758.719	23476.43
759.056	23621.06
759.394	23506.03
759.731	23355.98
760.068	23372.93
