Data from hue_50_FLMS001491_1.txt Node
Date: Mon Feb 06 15:09:29 GMT 2017
User: dcchb
Spectrometer: FLMS00149
Trigger mode: 0
Integration Time (sec): 2.000000E-2
Scans to average: 10
Electric dark correction enabled: true
Nonlinearity correction enabled: false
Boxcar width: 0
XAxis mode: Wavelengths
Number of Pixels in Spectrum: 2048
>>>>>Begin Spectral Data<<<<<
341.393	5.24
341.776	5.24
342.16	5.24
342.543	-48.54
342.927	-53.52
343.31	-83.12
343.693	-62.33
344.077	-72.5
344.46	-58.94
344.843	-38.15
345.226	-32.95
345.61	-28.66
345.993	-19.84
346.376	4.79
346.759	-0.86
347.142	26.48
347.525	46.82
347.908	70.55
348.291	63.77
348.674	80.49
349.057	104.45
349.44	132.02
349.823	138.12
350.206	161.85
350.588	176.08
350.971	204.78
351.354	227.38
351.737	253.6
352.119	228.51
352.502	270.77
352.884	284.1
353.267	280.04
353.65	289.07
354.032	317.32
354.414	307.15
354.797	299.02
355.179	339.24
355.562	311.22
355.944	331.79
356.326	350.77
356.709	349.19
357.091	331.11
357.473	348.96
357.855	348.06
358.238	347.38
358.62	337.66
359.002	331.56
359.384	350.99
359.766	353.48
360.148	347.83
360.53	336.53
360.912	351.67
361.294	355.06
361.676	334.95
362.057	332.91
362.439	314.38
362.821	342.18
363.203	328.62
363.584	338.34
363.966	309.64
364.348	328.85
364.729	340.6
365.111	324.1
365.493	340.6
365.874	346.7
366.256	326.59
366.637	314.61
367.019	325.01
367.4	327.94
367.781	316.87
368.163	331.33
368.544	315.51
368.925	329.98
369.306	320.49
369.688	300.15
370.069	313.48
370.45	307.6
370.831	326.81
371.212	314.16
371.593	319.81
371.974	312.35
372.355	323.65
372.736	306.25
373.117	292.46
373.498	318.68
373.879	324.1
374.26	315.29
374.641	321.62
375.021	322.97
375.402	320.94
375.783	313.71
376.163	313.25
376.544	325.46
376.925	346.47
377.305	333.14
377.686	321.39
378.066	346.25
378.447	325.68
378.827	333.82
379.208	327.72
379.588	322.07
379.968	320.94
380.349	342.63
380.729	346.7
381.109	339.47
381.489	333.14
381.87	335.4
382.25	327.94
382.63	331.56
383.01	350.09
383.39	342.41
383.77	344.21
384.15	344.21
384.53	339.24
384.91	353.48
385.29	334.27
385.67	342.63
386.049	331.33
386.429	352.8
386.809	353.25
387.189	350.09
387.568	353.03
387.948	343.54
388.328	350.54
388.707	329.07
389.087	347.38
389.466	353.93
389.846	353.48
390.225	361.16
390.605	341.05
390.984	354.16
391.363	349.64
391.743	361.61
392.122	374.72
392.501	361.16
392.881	383.76
393.26	367.72
393.639	378.79
394.018	343.31
394.397	351.67
394.776	352.58
395.155	377.66
395.534	371.78
395.913	360.03
396.292	365
396.671	388.73
397.05	378.34
397.429	362.29
397.808	395.74
398.186	364.78
398.565	365.46
398.944	393.93
399.323	373.59
399.701	374.5
400.08	373.59
400.458	371.78
400.837	386.7
401.215	394.16
401.594	383.54
401.972	390.54
402.351	375.4
402.729	394.83
403.107	413.14
403.486	381.95
403.864	380.37
404.242	370.43
404.62	401.84
404.999	397.55
405.377	379.92
405.755	394.61
406.133	395.29
406.511	405.91
406.889	403.2
407.267	398.22
407.645	402.52
408.023	408.62
408.401	405.46
408.779	412.69
409.156	433.93
409.534	435.51
409.912	426.7
410.29	431.9
410.667	419.69
411.045	444.32
411.422	435.29
411.8	432.8
412.178	440.26
412.555	449.97
412.933	441.16
413.31	453.82
413.687	431.67
414.065	449.75
414.442	453.82
414.819	457.66
415.197	441.16
415.574	465.79
415.951	465.79
416.328	453.36
416.705	470.54
417.082	483.42
417.46	491.33
417.837	476.64
418.214	457.88
418.591	479.35
418.967	486.81
419.344	467.37
419.721	487.04
420.098	476.41
420.475	485.91
420.852	480.71
421.228	480.71
421.605	481.39
421.982	498.33
422.358	479.58
422.735	501.27
423.111	506.02
423.488	510.76
423.864	493.81
424.241	524.32
424.617	512.12
424.994	520.48
425.37	519.8
425.746	527.49
426.123	517.32
426.499	534.94
426.875	522.74
427.251	558.9
427.627	532.91
428.003	535.17
428.379	551.89
428.756	569.97
429.132	561.38
429.507	564.77
429.883	567.71
430.259	562.29
430.635	567.49
431.011	593.93
431.387	580.37
431.763	581.72
432.138	606.81
432.514	595.05
432.89	584.43
433.265	593.47
433.641	622.4
434.016	640.03
434.392	607.03
434.767	589.18
435.143	623.53
435.518	630.99
435.894	628.95
436.269	652.45
436.644	651.1
437.02	644.09
437.395	640.48
437.77	686.8
438.145	640.03
438.52	629.18
438.895	656.75
439.271	653.58
439.646	667.14
440.021	680.48
440.395	672.79
440.77	678.22
441.145	672.12
441.52	685.9
441.895	716.63
442.27	703.75
442.645	681.61
443.019	699.01
443.394	683.64
443.769	682.96
444.143	713.7
444.518	705.11
444.892	712.57
445.267	726.58
445.641	723.87
446.016	710.98
446.39	739.01
446.764	742.62
447.139	716.63
447.513	739.46
447.887	743.07
448.262	728.84
448.636	743.75
449.01	768.16
449.384	738.33
449.758	751.66
450.132	776.07
450.506	780.13
450.88	767.71
451.254	780.13
451.628	794.82
452.002	794.15
452.376	795.73
452.75	807.48
453.123	821.49
453.497	829.63
453.871	828.27
454.244	840.47
454.618	842.28
454.992	848.61
455.365	858.55
455.739	890.87
456.112	868.72
456.486	863.3
456.859	884.76
457.232	903.75
457.606	906.69
457.979	920.92
458.352	929.96
458.725	917.76
459.099	944.42
459.472	957.31
459.845	977.42
460.218	987.81
460.591	972.9
460.964	997.08
461.337	997.3
461.71	1000.24
462.083	1036.4
462.456	1035.04
462.829	1026.46
463.201	1057.19
463.574	1075.72
463.947	1061.94
464.32	1091.77
464.692	1096.28
465.065	1146.45
465.438	1100.8
465.81	1143.97
466.183	1165.66
466.555	1168.37
466.928	1182.61
467.3	1198.2
467.672	1192.55
468.045	1253.79
468.417	1243.4
468.789	1259.44
469.161	1273.46
469.534	1295.83
469.906	1328.14
470.278	1358.65
470.65	1357.07
471.022	1408.82
471.394	1418.76
471.766	1468.03
472.138	1474.13
472.51	1503.05
472.882	1545.09
473.253	1557.97
473.625	1602.71
473.997	1654.01
474.369	1679.77
474.74	1705.08
475.112	1724.97
475.484	1712.54
475.855	1821.24
476.227	1825.76
476.598	1876.15
476.97	1949.37
477.341	1986.66
477.713	2024.85
478.084	2076.37
478.455	2170.61
478.827	2230.72
479.198	2269.14
479.569	2299.64
479.94	2384.84
480.311	2477.94
480.682	2513.2
481.053	2591.39
481.424	2656.47
481.795	2736.92
482.166	2853.3
482.537	2880.19
482.908	2995.44
483.279	3052.17
483.65	3133.75
484.021	3193.63
484.391	3296.68
484.762	3384.36
485.133	3456.9
485.503	3582.32
485.874	3695.76
486.244	3752.26
486.615	3866.16
486.985	3929.66
487.356	4105.02
487.726	4194.96
488.097	4309.53
488.467	4404.9
488.837	4547.49
489.207	4680.15
489.578	4747.94
489.948	4867.71
490.318	5013.02
490.688	5075.62
491.058	5213.46
491.428	5388.38
491.798	5497.75
492.168	5657.07
492.538	5740.91
492.908	5860.45
493.278	6018.19
493.648	6040.11
494.017	6269.71
494.387	6368.91
494.757	6488.46
495.126	6647.78
495.496	6721
495.866	6818.17
496.235	6998.5
496.605	7152.62
496.974	7200.76
497.344	7298.38
497.713	7388.32
498.082	7583.35
498.452	7672.38
498.821	7833.96
499.19	7946.95
499.559	8052.94
499.928	8155.31
500.298	8287.51
500.667	8421.06
501.036	8487.73
501.405	8613.6
501.774	8662.87
502.143	8899.02
502.512	8958
502.88	9051.1
503.249	9139.92
503.618	9306.46
503.987	9392.11
504.356	9430.3
504.724	9618.32
505.093	9688.6
505.462	9768.15
505.83	9944.41
506.199	10078.65
506.567	10192.09
506.936	10241.13
507.304	10408.58
507.672	10489.71
508.041	10522.7
508.409	10677.05
508.777	10875.91
509.145	10944.61
509.514	10977.61
509.882	11151.84
510.25	11169.47
510.618	11302.34
510.986	11386.86
511.354	11451.04
511.722	11698.72
512.09	11751.37
512.458	11739.62
512.826	11864.59
513.193	12098.26
513.561	12073.17
513.929	12266.61
514.297	12271.36
514.664	12499.6
515.032	12493.5
515.4	12638.35
515.767	12718.13
516.135	12808.29
516.502	12834.96
516.869	13050.32
517.237	13139.36
517.604	13111.11
517.972	13255.51
518.339	13393.36
518.706	13422.29
519.073	13567.6
519.44	13644.88
519.808	13808.04
520.175	13741.83
520.542	14061.37
520.909	14089.62
521.276	14111.54
521.643	14309.72
522.009	14407.12
522.376	14488.25
522.743	14548.13
523.11	14696.15
523.477	14852.53
523.843	14968.46
524.21	15205.74
524.577	15275.57
524.943	15290.04
525.31	15457.94
525.676	15533.19
526.043	15736.13
526.409	15718.05
526.776	15984.93
527.142	16036
527.508	16046.85
527.874	16225.83
528.241	16270.12
528.607	16343.79
528.973	16555.54
529.339	16529.78
529.705	16666.5
530.071	16784.01
530.437	16896.1
530.803	16924.57
531.169	17203.88
531.535	17055.41
531.901	17216.31
532.267	17227.39
532.632	17354.16
532.998	17453.82
533.364	17498.34
533.73	17636.19
534.095	17736.53
534.461	17817.2
534.826	18006.12
535.192	17996.63
535.557	18155.27
535.923	18174.03
536.288	18232.78
536.653	18348.49
537.019	18339.22
537.384	18302.61
537.749	18449.27
538.114	18495.15
538.479	18539.44
538.845	18673.45
539.21	18647.69
539.575	18780.34
539.94	18833.22
540.305	19080.22
540.67	18911.64
541.034	19047
541.399	19146.88
541.764	19129.03
542.129	19291.51
542.494	19335.35
542.858	19427.55
543.223	19381
543.587	19608.11
543.952	19589.81
544.316	19675.68
544.681	19668.45
545.045	19712.74
545.41	19952.74
545.774	19945.73
546.138	19910.48
546.503	20026.63
546.867	20151.38
547.231	20268.21
547.595	20314.08
547.959	20393.86
548.324	20372.39
548.688	20388.43
549.052	20489.9
549.416	20522.21
549.779	20558.6
550.143	20758.82
550.507	20818.93
550.871	20887.4
551.235	20804.02
551.599	21052.82
551.962	21016.44
552.326	21114.52
552.689	21184.34
553.053	21156.55
553.417	21284.45
553.78	21545.92
554.143	21442.42
554.507	21598.34
554.87	21630.21
555.234	21869.98
555.597	21864.33
555.96	21818
556.323	21993.81
556.686	21935.06
557.05	22272.68
557.413	22209.4
557.776	22217.09
558.139	22278.33
558.502	22456.18
558.865	22516.74
559.228	22648.03
559.59	22692.55
559.953	22740.01
560.316	23082.83
560.679	23060.68
561.041	23095.93
561.404	23241.47
561.767	23390.61
562.129	23347.9
562.492	23620.44
562.854	23474.45
563.217	23546.99
563.579	23713.54
563.941	23780.89
564.304	23921.67
564.666	24039.41
565.028	24060.88
565.39	24155.34
565.753	24345.62
566.115	24394.2
566.477	24455.44
566.839	24544.03
567.201	24741.99
567.563	24723.01
567.925	24922.78
568.287	24930.01
568.648	24930.69
569.01	25035.99
569.372	25257.23
569.734	25361.18
570.095	25395.31
570.457	25556.21
570.819	25624.45
571.18	25607.28
571.542	25762.08
571.903	25784.68
572.265	25826.26
572.626	26080.26
572.987	26061.5
573.349	26136.76
573.71	26273.93
574.071	26332.23
574.432	26487.93
574.794	26608.16
575.155	26700.58
575.516	26705.33
575.877	26830.07
576.238	26887.92
576.599	27005.66
576.96	27083.4
577.32	27086.79
577.681	27239.78
578.042	27399.55
578.403	27438.19
578.763	27511.86
579.124	27551.41
579.485	27678.18
579.845	27900.1
580.206	27839.54
580.566	27918.86
580.927	27995.46
581.287	28312.52
581.648	28199.75
582.008	28345.51
582.368	28374.89
582.728	28513.42
583.089	28462.12
583.449	28736.46
583.809	28790.25
584.169	28912.5
584.529	28975.33
584.889	29248.76
585.249	29152.72
585.609	29063.68
585.969	29434.52
586.329	29426.84
586.688	29528.31
587.048	29646.72
587.408	29686.04
587.768	29788.64
588.127	29918.13
588.487	29811.46
588.846	30248.29
589.206	29994.96
589.565	30209.64
589.925	30397.21
590.284	30341.84
590.643	30467.94
591.003	30748.61
591.362	30970.08
591.721	30902.05
592.08	30948.61
592.44	31146.12
592.799	31183.18
593.158	31342.72
593.517	31395.6
593.876	31540.91
594.235	31596.27
594.593	31582.94
594.952	31787
595.311	31903.16
595.67	32024.96
596.029	32317.61
596.387	32309.48
596.746	32284.84
597.104	32296.59
597.463	32343.15
597.822	32535.91
598.18	32452.75
598.538	32585.17
598.897	32733.42
599.255	32641.44
599.613	32975.67
599.972	32937.71
600.33	33090.92
600.688	33132.28
601.046	33307.64
601.404	33459.5
601.762	33314.19
602.12	33648.42
602.478	33541.08
602.836	33712.83
603.194	33635.32
603.552	33845.93
603.91	33662.89
604.268	33981.97
604.625	34030.33
604.983	34059.94
605.341	34012.93
605.698	34285.47
606.056	34345.58
606.413	34401.62
606.771	34475.52
607.128	34609.98
607.485	34474.62
607.843	34689.3
608.2	34811.56
608.557	34986.02
608.914	34877.09
609.272	35083.64
609.629	35269.4
609.986	35381.71
610.343	35281.6
610.7	35542.16
611.057	35461.71
611.414	35503.97
611.771	35553.23
612.127	35707.58
612.484	35797.07
612.841	35868.7
613.198	35818.54
613.554	35890.85
613.911	36093.1
614.267	36180.79
614.624	35963.62
614.98	36248.58
615.337	36341.91
615.693	36352.53
616.05	36493.55
616.406	36537.61
616.762	36496.48
617.118	36560.44
617.475	36657.16
617.831	36684.05
618.187	36790.04
618.543	36912.74
618.899	37256.01
619.255	36994.78
619.611	37009.46
619.967	37287.65
620.323	37367.87
620.678	37241.55
621.034	37074.1
621.39	37134.21
621.746	37209.69
622.101	37625.49
622.457	37337.82
622.812	37439.06
623.168	37594.31
623.523	37476.35
623.879	37623.46
624.234	37409.23
624.589	37722.21
624.945	37646.51
625.3	37821.19
625.655	37783
626.01	37732.84
626.365	37750.69
626.72	37744.81
627.075	37735.1
627.43	37794.3
627.785	37717.02
628.14	37622.33
628.495	37852.38
628.85	37787.75
629.205	37661.88
629.559	37985.71
629.914	37728.32
630.269	37801.76
630.623	37765.6
630.978	37831.36
631.332	37888.54
631.687	37836.79
632.041	37727.64
632.396	37881.53
632.75	37663.23
633.104	37733.97
633.459	37743
633.813	37604.93
634.167	37580.98
634.521	37583.91
634.875	37767.18
635.229	37680.63
635.583	37571.71
635.937	37566.74
636.291	37497.59
636.645	37566.74
636.999	37402.67
637.352	37557.92
637.706	37489.45
638.06	37603.8
638.413	37423.69
638.767	37342.34
639.121	37510.02
639.474	37282
639.828	37244.03
640.181	37493.52
640.534	37309.8
640.888	37265.96
641.241	37031.61
641.594	37243.36
641.947	37442.9
642.301	37061.21
642.654	37217.14
643.007	37215.11
643.36	37189.12
643.713	37165.39
644.066	37119.97
644.419	36996.13
644.771	36853.31
645.124	36494.68
645.477	36323.61
645.83	36200.67
646.182	35965.2
646.535	35989.38
646.888	36049.49
647.24	35797.75
647.593	36031.86
647.945	35989.83
648.298	35648.14
648.65	35764.3
649.002	35570.63
649.355	35807.46
649.707	35800.01
650.059	35918.87
650.411	36301.46
650.763	36407.67
651.115	36792.75
651.467	36580.55
651.819	36578.29
652.171	36535.13
652.523	36520.44
652.875	36384.4
653.227	36282.03
653.578	36552.3
653.93	36440.89
654.282	36313.89
654.633	36244.29
654.985	36333.78
655.337	36297.85
655.688	36375.13
656.039	36358.86
656.391	36105.76
656.742	36275.92
657.094	36182.37
657.445	36395.02
657.796	36283.16
658.147	36221.01
658.498	36055.82
658.849	36193.22
659.2	36151.63
659.551	36154.8
659.902	36214.68
660.253	36276.6
660.604	36136.49
660.955	35952.09
661.306	36072.54
661.656	36035.25
662.007	36037.29
662.358	36087.46
662.708	35938.53
663.059	35987.57
663.409	35815.82
663.76	36087.46
664.11	35988.25
664.461	36087.46
664.811	36148.02
665.161	35903.28
665.511	36000
665.862	35945.54
666.212	36114.57
666.562	36095.36
666.912	35905.76
667.262	36000.45
667.612	35954.13
667.962	35937.85
668.312	35854.24
668.662	36125.65
669.011	35841.13
669.361	35739.67
669.711	35882.26
670.06	35731.98
670.41	35769.05
670.76	35720.23
671.109	35892.88
671.459	35755.71
671.808	35683.85
672.157	35761.81
672.507	35524.08
672.856	35595.04
673.205	35626.45
673.554	35764.53
673.904	35502.16
674.253	35679.1
674.602	35544.87
674.951	35163.64
675.3	34931.78
675.649	35562.5
675.998	35578.99
676.346	35568.6
676.695	35710.29
677.044	35350.3
677.393	35370.64
677.741	35563.63
678.09	35441.37
678.438	35220.13
678.787	35427.36
679.135	35274.37
679.484	35182.17
679.832	35407.47
680.181	35035.28
680.529	35280.24
680.877	35021.27
681.225	35040.48
681.573	35357.08
681.922	34963.42
682.27	34875.06
682.618	34847.04
682.966	34798.45
683.314	34961.38
683.661	34710.99
684.009	34646.81
684.357	34653.14
684.705	34478.68
685.053	34514.39
685.4	34603.65
685.748	34417.89
686.095	34353.49
686.443	34261.51
686.79	34173.83
687.138	34358.91
687.485	34286.6
687.832	34076.43
688.18	34225.13
688.527	33914.86
688.874	33904.91
689.221	33865.82
689.568	33753.28
689.915	33760.51
690.262	33637.8
690.609	33568.88
690.956	33548.99
691.303	33471.7
691.65	33406.85
691.997	33335.21
692.344	33214.54
692.69	33027.87
693.037	33099.06
693.383	32885.28
693.73	32967.31
694.077	32852.96
694.423	32819.52
694.769	32652.74
695.116	32615.91
695.462	32565.29
695.808	32343.6
696.155	32553.08
696.501	32351.51
696.847	32289.81
697.193	32042.36
697.539	32195.58
697.885	32043.72
698.231	31941.8
698.577	31879.43
698.923	31755.37
699.269	31695.25
699.614	31498.88
699.96	31463.17
700.306	31422.72
700.651	31352.66
700.997	31221.14
701.342	31321.7
701.688	31098.66
702.033	31066.12
702.379	30961.94
702.724	30916.52
703.069	30892.56
703.415	30541.16
703.76	30831.77
704.105	30749.06
704.45	30589.52
704.795	30304.33
705.14	30372.13
705.485	30446.47
705.83	30144.56
706.175	30245.8
706.52	30227.5
706.865	30056.43
707.209	30016.43
707.554	29792.93
707.899	30014.62
708.243	29755.42
708.588	29729.2
708.932	29442.66
709.277	29546.84
709.621	29571.24
709.966	29374.64
710.31	29434.3
710.654	29103.01
710.998	29147.3
711.342	29222.55
711.687	29131.25
712.031	29135.55
712.375	28961.99
712.719	28934.87
713.063	28940.52
713.407	28950.47
713.75	28731.72
714.094	28783.24
714.438	28732.85
714.782	28662.11
715.125	28435.68
715.469	28645.39
715.812	28517.94
716.156	28264.61
716.499	28377.38
716.843	28263.03
717.186	28119.3
717.53	28333.53
717.873	28189.58
718.216	28138.51
718.559	28077.04
718.902	27905.52
719.246	27974.22
719.589	28008.8
719.932	27857.16
720.275	27717.96
720.617	27711.18
720.96	27672.31
721.303	27623.95
721.646	27589.37
721.989	27534.91
722.331	27578.53
722.674	27463.73
723.016	27475.7
723.359	27382.37
723.701	27443.16
724.044	27289.72
724.386	27152.32
724.729	27233.9
725.071	27057.41
725.413	27169.27
725.755	27080.23
726.097	26984.87
726.439	26799.56
726.782	26912.1
727.124	26917.3
727.465	26820.58
727.807	26794.37
728.149	26723.18
728.491	26807.93
728.833	26737.87
729.175	26644.09
729.516	26457.65
729.858	26538.78
730.199	26594.6
730.541	26518.67
730.882	26355.96
731.224	26519.35
731.565	26364.77
731.906	26308.05
732.248	26424.66
732.589	26231.67
732.93	26170.88
733.271	26260.14
733.612	26213.36
733.953	26183.31
734.294	26051.79
734.635	26000.49
734.976	26028.06
735.317	25787.16
735.658	25864.45
735.999	25947.83
736.339	25891.79
736.68	25900.38
737.021	25847.05
737.361	25680.5
737.702	25863.09
738.042	25638.69
738.383	25634.4
738.723	25643.89
739.063	25516.43
739.404	25621.97
739.744	25454.06
740.084	25378.58
740.424	25475.3
740.764	25362.09
741.104	25392.6
741.444	25191.92
741.784	25249.55
742.124	25204.35
742.464	25210
742.804	25143.56
743.143	25136.56
743.483	25155.31
743.823	24953.74
744.162	25050.01
744.502	25014.07
744.841	25006.16
745.181	24896.34
745.52	24884.81
745.86	24951.25
746.199	24899.27
746.538	24803.68
746.877	24710.58
747.216	24794.87
747.556	24746.51
747.895	24596.68
748.234	24514.88
748.573	24539.96
748.911	24505.16
749.25	24451.83
749.589	24333.64
749.928	24463.58
750.267	24369.8
750.605	24191.5
750.944	24322.11
751.283	24211.84
751.621	24291.61
751.96	24077.83
752.298	24145.4
752.636	24149.01
752.975	23976.36
753.313	23877.61
753.651	23990.15
753.989	23928.23
754.327	23863.14
754.666	23603.94
755.004	23674.67
755.342	23805.52
755.679	23749.7
756.017	23573.66
756.355	23485.75
756.693	23455.47
757.031	23573.43
757.368	23431.29
