Data from hue_180_FLMS001491_00049.txt Node
Date: Tue Feb 07 16:47:03 GMT 2017
User: dcchb
Spectrometer: FLMS00149
Trigger mode: 0
Integration Time (sec): 2.000000E-2
Scans to average: 10
Electric dark correction enabled: true
Nonlinearity correction enabled: false
Boxcar width: 0
XAxis mode: Wavelengths
Number of Pixels in Spectrum: 2048
>>>>>Begin Spectral Data<<<<<
341.393	-3.74
341.776	-3.74
342.16	-3.74
342.543	-55.27
342.927	-62.72
343.31	-72.67
343.693	-77.64
344.077	-58.2
344.46	-40.58
344.843	-47.36
345.226	-40.8
345.61	-43.06
345.993	-8.49
346.376	7.78
346.759	14.56
347.142	14.11
347.525	53.2
347.908	51.17
348.291	67.89
348.674	81
349.057	99.08
349.44	123.49
349.823	135.01
350.206	163.26
350.588	203.71
350.971	200.55
351.354	202.13
351.737	247.55
352.119	255.91
352.502	254.33
352.884	270.6
353.267	273.76
353.65	282.58
354.032	290.71
354.414	328
354.797	311.5
355.179	310.15
355.562	317.15
355.944	336.36
356.326	321.67
356.709	347.89
357.091	326.87
357.473	338.4
357.855	343.82
358.238	317.38
358.62	334.78
359.002	323.71
359.384	358.28
359.766	335.68
360.148	335.23
360.53	316.02
360.912	338.17
361.294	330.26
361.676	332.75
362.057	335.46
362.439	340.88
362.821	320.32
363.203	326.19
363.584	313.08
363.966	323.03
364.348	315.8
364.729	322.8
365.111	318.06
365.493	308.11
365.874	303.14
366.256	319.86
366.637	318.06
367.019	323.48
367.4	310.15
367.781	306.53
368.163	314.89
368.544	310.6
368.925	306.53
369.306	329.58
369.688	306.31
370.069	318.51
370.45	319.86
370.831	306.98
371.212	317.38
371.593	304.27
371.974	304.72
372.355	311.73
372.736	328.9
373.117	326.42
373.498	304.05
373.879	313.99
374.26	318.73
374.641	319.86
375.021	310.37
375.402	297.27
375.783	328.23
376.163	324.61
376.544	324.38
376.925	299.53
377.305	342.01
377.686	323.25
378.066	315.57
378.447	317.83
378.827	323.71
379.208	325.51
379.588	321.45
379.968	335.01
380.349	305.4
380.729	336.36
381.109	318.28
381.489	347.43
381.87	334.78
382.25	339.3
382.63	346.53
383.01	350.15
383.39	331.16
383.77	337.27
384.15	347.66
384.53	345.85
384.91	337.94
385.29	345.4
385.67	349.92
386.049	338.62
386.429	356.7
386.809	345.4
387.189	362.8
387.568	342.46
387.948	354.21
388.328	340.2
388.707	353.08
389.087	366.42
389.466	365.06
389.846	361.9
390.225	360.77
390.605	346.3
390.984	376.36
391.363	365.06
391.743	388.56
392.122	357.6
392.501	376.13
392.881	379.3
393.26	371.16
393.639	369.13
394.018	395.79
394.397	370.26
394.776	397.15
395.155	381.33
395.534	357.6
395.913	392.4
396.292	380.65
396.671	399.86
397.05	394.66
397.429	382.69
397.808	360.54
398.186	392.4
398.565	401.9
398.944	395.12
399.323	408.45
399.701	402.8
400.08	403.7
400.458	419.52
400.837	400.09
401.215	401.9
401.594	405.74
401.972	394.21
402.351	425.85
402.729	424.27
403.107	396.7
403.486	432.86
403.864	423.36
404.242	423.59
404.62	419.52
404.999	433.08
405.377	435.57
405.755	437.6
406.133	454.55
406.511	450.03
406.889	452.52
407.267	444.38
407.645	452.97
408.023	466.3
408.401	460.88
408.779	449.35
409.156	476.24
409.534	490.71
409.912	477.37
410.29	504.27
410.667	512.4
411.045	514.21
411.422	505.4
411.8	483.7
412.178	530.03
412.555	539.29
412.933	541.55
413.31	570.03
413.687	541.1
414.065	564.83
414.442	565.96
414.819	558.95
415.197	575.68
415.574	581.33
415.951	566.41
416.328	614.32
416.705	606.64
417.082	609.57
417.46	621.78
417.837	649.35
418.214	652.06
418.591	635.34
418.967	634.88
419.344	661.78
419.721	676.24
420.098	675.34
420.475	685.05
420.852	689.12
421.228	685.96
421.605	735.45
421.982	729.8
422.358	731.83
422.735	760.98
423.111	741.32
423.488	757.82
423.864	782.23
424.241	784.26
424.617	763.92
424.994	819.74
425.37	791.94
425.746	793.75
426.123	814.99
426.499	828.78
426.875	847.31
427.251	836.46
427.627	871.49
428.003	871.04
428.379	891.83
428.756	915.33
429.132	903.58
429.507	907.65
429.883	932.05
430.259	960.3
430.635	934.31
431.011	972.73
431.387	967.76
431.763	997.13
432.138	1013.63
432.514	1004.14
432.89	1020.19
433.265	1041.65
433.641	1044.82
434.016	1059.28
434.392	1068.55
434.767	1123.69
435.143	1090.69
435.518	1149
435.894	1128.66
436.269	1202.78
436.644	1198.26
437.02	1212.04
437.395	1226.06
437.77	1250.91
438.145	1263.57
438.52	1283.68
438.895	1295.21
439.271	1273.96
439.646	1331.59
440.021	1347.63
440.395	1361.42
440.77	1347.41
441.145	1347.63
441.52	1409.55
441.895	1421.76
442.27	1410.23
442.645	1468.08
443.019	1439.61
443.394	1473.96
443.769	1491.36
444.143	1461.53
444.518	1504.01
444.892	1509.89
445.267	1528.65
445.641	1554.41
446.016	1543.11
446.39	1583.11
446.764	1562.54
447.139	1593.05
447.513	1627.4
447.887	1630.56
448.262	1617.46
448.636	1614.52
449.01	1681.64
449.384	1687.96
449.758	1686.83
450.132	1701.3
450.506	1713.5
450.88	1718.02
451.254	1725.25
451.628	1776.1
452.002	1751.92
452.376	1792.14
452.75	1827.4
453.123	1817.68
453.497	1822.42
453.871	1853.16
454.244	1880.73
454.618	1911.46
454.992	1926.15
455.365	1960.73
455.739	2023.77
456.112	2007.28
456.486	2040.5
456.859	2050.21
457.232	2083.43
457.606	2088.41
457.979	2137.67
458.352	2148.74
458.725	2202.53
459.099	2192.81
459.472	2222.19
459.845	2256.76
460.218	2280.04
460.591	2317.55
460.964	2323.65
461.337	2395.52
461.71	2447.72
462.083	2408.85
462.456	2452.92
462.829	2463.99
463.201	2525.68
463.574	2539.47
463.947	2584.89
464.32	2596.64
464.692	2640.03
465.065	2687.94
465.438	2716.86
465.81	2778.1
466.183	2786.92
466.555	2860.59
466.928	2892.68
467.3	2870.31
467.672	2925.67
468.045	2985.56
468.417	3034.82
468.789	3042.96
469.161	3099.45
469.534	3170.64
469.906	3228.26
470.278	3269.17
470.65	3306
471.022	3349.39
471.394	3436.39
471.766	3459.44
472.138	3516.39
472.51	3524.75
472.882	3628.93
473.253	3663.96
473.625	3801.35
473.997	3824.18
474.369	3908.02
474.74	3904.85
475.112	3999.99
475.484	4057.39
475.855	4142.14
476.227	4196.15
476.598	4321.12
476.97	4385.07
477.341	4485.18
477.713	4513.88
478.084	4550.26
478.455	4682.91
478.827	4712.74
479.198	4877.03
479.569	4958.84
479.94	5105.5
480.311	5137.59
480.682	5216.23
481.053	5359.73
481.424	5442.22
481.795	5494.87
482.166	5605.6
482.537	5718.59
482.908	5859.15
483.279	5885.37
483.65	6036.55
484.021	6181.41
484.391	6251.91
484.762	6292.36
485.133	6404
485.503	6504.33
485.874	6595.18
486.244	6693.26
486.615	6844.66
486.985	6933.93
487.356	7043.3
487.726	7114.49
488.097	7248.5
488.467	7354.48
488.837	7495.5
489.207	7580.01
489.578	7680.57
489.948	7757.18
490.318	7916.95
490.688	7933
491.058	8057.51
491.428	8198.98
491.798	8293.21
492.168	8419.99
492.538	8482.36
492.908	8548.8
493.278	8625.41
493.648	8736.59
494.017	8811.84
494.387	8876.48
494.757	8975.91
495.126	9084.15
495.496	9101.78
495.866	9222.23
496.235	9302.23
496.605	9365.28
496.974	9345.16
497.344	9466.06
497.713	9501.77
498.082	9601.43
498.452	9649.56
498.821	9821.76
499.19	9746.74
499.559	9901.08
499.928	9930.01
500.298	9906.96
500.667	9983.79
501.036	10026.05
501.405	10140.4
501.774	10147.18
502.143	10215.65
502.512	10211.81
502.88	10330.67
503.249	10276.89
503.618	10356.89
503.987	10386.94
504.356	10423.78
504.724	10448.41
505.093	10550.1
505.462	10534.51
505.83	10655.86
506.199	10636.88
506.567	10717.33
506.936	10722.3
507.304	10840.94
507.672	10897.44
508.041	10830.55
508.409	10898.8
508.777	10947.38
509.145	11035.74
509.514	11009.98
509.882	11002.75
510.25	11129.3
510.618	11112.8
510.986	11127.26
511.354	11240.03
511.722	11198.67
512.09	11326.35
512.458	11175.62
512.826	11367.48
513.193	11367.26
513.561	11410.65
513.929	11366.81
514.297	11488.38
514.664	11505.33
515.032	11477.09
515.4	11632.34
515.767	11522.06
516.135	11554.15
516.502	11443.19
516.869	11638.21
517.237	11549.4
517.604	11524.54
517.972	11681.15
518.339	11678.66
518.706	11639.11
519.073	11637.31
519.44	11622.62
519.808	11720.69
520.175	11640.47
520.542	11734.03
520.909	11829.39
521.276	11805.89
521.643	11965.66
522.009	11875.04
522.376	11866.68
522.743	11925.21
523.11	11953
523.477	11973.12
523.843	11920.01
524.21	12036.84
524.577	12053.57
524.943	12077.75
525.31	12028.26
525.676	12032.55
526.043	12131.98
526.409	12063.28
526.776	12092.89
527.142	12106.22
527.508	12055.15
527.874	12187.8
528.241	12209.27
528.607	12086.56
528.973	12165.2
529.339	12098.99
529.705	12119.1
530.071	12189.38
530.437	12124.98
530.803	12156.16
531.169	12146.67
531.535	12034.13
531.901	11994.36
532.267	12061.7
532.632	11980.12
532.998	11998.65
533.364	11993.23
533.73	11938.32
534.095	11899.22
534.461	11922.5
534.826	11939.22
535.192	11988.26
535.557	11919.56
535.923	11857.64
536.288	11795.27
536.653	11798.66
537.019	11697.64
537.384	11740.58
537.749	11681.83
538.114	11643.18
538.479	11528.38
538.845	11569.74
539.21	11403.19
539.575	11464.88
539.94	11408.84
540.305	11380.36
540.67	11344.89
541.034	11321.38
541.399	11273.47
541.764	11244.55
542.129	11246.13
542.494	11159.58
542.858	11184.66
543.223	11045.01
543.587	11119.35
543.952	11053.37
544.316	11011.11
544.681	10887.04
545.045	10897.67
545.41	10929.3
545.774	10876.2
546.138	10687.73
546.503	10765.01
546.867	10713.72
547.231	10737.22
547.595	10690.44
547.959	10600.27
548.324	10514.17
548.688	10446.38
549.052	10468.98
549.416	10430.11
549.779	10388.3
550.143	10304.01
550.507	10320.05
550.871	10313.95
551.235	10148.31
551.599	10255.87
551.962	10225.82
552.326	10186.27
552.689	10137.46
553.053	10057.69
553.417	9985.6
553.78	10038.03
554.143	9965.03
554.507	9966.84
554.87	9939.72
555.234	9969.55
555.597	9831.03
555.96	9811.59
556.323	9753.51
556.686	9788.99
557.05	9794.64
557.413	9734.76
557.776	9698.83
558.139	9751.48
558.502	9726.4
558.865	9715.55
559.228	9683.46
559.59	9646.17
559.953	9663.8
560.316	9719.39
560.679	9623.12
561.041	9687.75
561.404	9635.78
561.767	9609.56
562.129	9601.88
562.492	9559.17
562.854	9572.28
563.217	9552.62
563.579	9548.32
563.941	9568.21
564.304	9555.33
564.666	9554.88
565.028	9584.03
565.39	9523.92
565.753	9504.03
566.115	9546.97
566.477	9617.02
566.839	9534.99
567.201	9579.51
567.563	9553.75
567.925	9575.89
568.287	9591.71
568.648	9572.05
569.01	9556.23
569.372	9616.34
569.734	9549.45
570.095	9581.99
570.457	9526.18
570.819	9514.42
571.18	9505.16
571.542	9578.38
571.903	9572.5
572.265	9549.9
572.626	9517.59
572.987	9542.67
573.349	9546.51
573.71	9568.66
574.071	9590.13
574.432	9534.54
574.794	9570.47
575.155	9514.65
575.516	9570.69
575.877	9568.66
576.238	9612.28
576.599	9574.08
576.96	9612.5
577.32	9577.7
577.681	9581.54
578.042	9633.52
578.403	9570.47
578.763	9574.54
579.124	9618.15
579.485	9561.88
579.845	9615.67
580.206	9527.31
580.566	9556.91
580.927	9572.5
581.287	9536.12
581.648	9526.4
582.008	9510.58
582.368	9534.31
582.728	9541.77
583.089	9553.52
583.449	9539.96
583.809	9486.63
584.169	9469
584.529	9403.24
584.889	9504.71
585.249	9496.35
585.609	9402.79
585.969	9409.12
586.329	9410.7
586.688	9396.01
587.048	9422.9
587.408	9327.54
587.768	9425.61
588.127	9396.24
588.487	9338.38
588.846	9385.16
589.206	9307.42
589.565	9313.3
589.925	9334.32
590.284	9244.38
590.643	9306.75
591.003	9343.81
591.362	9333.64
591.721	9327.54
592.08	9311.72
592.44	9293.41
592.799	9274.66
593.158	9260.42
593.517	9267.43
593.876	9233.75
594.235	9273.08
594.593	9171.16
594.952	9236.92
595.311	9179.74
595.67	9250.48
596.029	9269.23
596.387	9188.78
596.746	9308.33
597.104	9197.6
597.463	9184.94
597.822	9144.27
598.18	9195.34
598.538	9168.22
598.897	9201.89
599.255	9117.6
599.613	9204.15
599.972	9157.6
600.33	9219.97
600.688	9101.1
601.046	9175.9
601.404	9240.08
601.762	9179.52
602.12	9186.98
602.478	9159.86
602.836	9146.75
603.194	9073.31
603.552	9091.39
603.91	9168.67
604.268	9169.8
604.625	9093.87
604.983	9169.58
605.341	9074.66
605.698	9116.02
606.056	9186.52
606.413	9106.98
606.771	9151.04
607.128	9146.75
607.485	9142.46
607.843	9084.38
608.2	9137.03
608.557	9144.49
608.914	9118.5
609.272	9207.54
609.629	9183.13
609.986	9184.49
610.343	9136.13
610.7	9205.73
611.057	9231.04
611.414	9135.68
611.771	9167.77
612.127	9233.3
612.484	9172.74
612.841	9217.71
613.198	9200.76
613.554	9189.69
613.911	9191.27
614.267	9246.41
614.624	9218.39
614.98	9256.13
615.337	9284.37
615.693	9272.62
616.05	9262.68
616.406	9351.27
616.762	9284.83
617.118	9269.69
617.475	9258.61
617.831	9251.61
618.187	9350.14
618.543	9281.44
618.899	9288.22
619.255	9347.88
619.611	9296.8
619.967	9346.07
620.323	9402.11
620.678	9330.02
621.034	9356.91
621.39	9321.44
621.746	9289.35
622.101	9390.36
622.457	9287.54
622.812	9320.53
623.168	9370.93
623.523	9319.4
623.879	9340.42
624.234	9296.35
624.589	9331.6
624.945	9339.06
625.3	9321.66
625.655	9335.9
626.01	9353.75
626.365	9341.77
626.72	9337.03
627.075	9279.63
627.43	9278.27
627.785	9326.63
628.14	9273.3
628.495	9241.44
628.85	9322.11
629.205	9259.52
629.559	9381.32
629.914	9252.51
630.269	9285.5
630.623	9220.87
630.978	9235.79
631.332	9258.61
631.687	9272.85
632.041	9192.4
632.396	9178.84
632.75	9167.99
633.104	9194.66
633.459	9105.85
633.813	9138.84
634.167	9157.82
634.521	9154.21
634.875	9155.34
635.229	9159.18
635.583	9125.06
635.937	9030.6
636.291	9064.72
636.645	9026.53
636.999	9008.22
637.352	9064.27
637.706	8990.82
638.06	9035.79
638.413	8970.03
638.767	9031.05
639.121	9005.51
639.474	8956.02
639.828	8989.47
640.181	8972.07
640.534	8927.1
640.888	8964.16
641.241	8947.21
641.594	8953.54
641.947	8964.83
642.301	8888.68
642.654	8947.21
643.007	8998.05
643.36	8884.84
643.713	8926.19
644.066	8920.77
644.419	8833.09
644.771	8822.92
645.124	8706.08
645.477	8764.39
645.83	8647.33
646.182	8691.4
646.535	8664.96
646.888	8588.57
647.24	8570.49
647.593	8637.84
647.945	8636.03
648.298	8589.93
648.65	8550.16
649.002	8523.94
649.355	8611.4
649.707	8568.91
650.059	8629.93
650.411	8681.68
650.763	8736.14
651.115	8831.96
651.467	8844.16
651.819	8786.99
652.171	8818.4
652.523	8727.1
652.875	8782.47
653.227	8723.26
653.578	8796.25
653.93	8771.85
654.282	8758.51
654.633	8768
654.985	8846.42
655.337	8787.89
655.688	8775.69
656.039	8830.38
656.391	8777.5
656.742	8786.99
657.094	8747.89
657.445	8761.45
657.796	8798.96
658.147	8780.43
658.498	8744.5
658.849	8835.35
659.2	8814.33
659.551	8736.14
659.902	8792.41
660.253	8833.09
660.604	8824.5
660.955	8820.66
661.306	8836.7
661.656	8853.2
662.007	8860.66
662.358	8797.61
662.708	8847.55
663.059	8884.61
663.409	8833.54
663.76	8891.62
664.11	8839.41
664.461	8869.7
664.811	8891.16
665.161	8932.29
665.511	8879.41
665.862	8851.62
666.212	8867.66
666.562	8863.59
666.912	8867.89
667.262	8882.13
667.612	8927.55
667.962	8874.89
668.312	8895.23
668.662	8941.33
669.011	8877.38
669.361	8835.57
669.711	8903.82
670.06	8830.15
670.41	8862.69
670.76	8817.27
671.109	8902.01
671.459	8869.47
671.808	8819.08
672.157	8803.71
672.507	8787.44
672.856	8736.59
673.205	8841.9
673.554	8839.64
673.904	8792.86
674.253	8845.29
674.602	8799.19
674.951	8704.28
675.3	8696.37
675.649	8841.9
675.998	8761.22
676.346	8753.77
676.695	8744.73
677.044	8642.81
677.393	8752.19
677.741	8672.87
678.09	8739.08
678.438	8683.71
678.787	8713.77
679.135	8698.4
679.484	8610.27
679.832	8625.86
680.181	8605.52
680.529	8621.34
680.877	8581.57
681.225	8563.49
681.573	8611.4
681.922	8585.64
682.27	8481.23
682.618	8551.51
682.966	8486.66
683.314	8504.73
683.661	8494.56
684.009	8354
684.357	8485.07
684.705	8422.7
685.053	8416.6
685.4	8342.7
685.748	8357.17
686.095	8361.46
686.443	8307.68
686.79	8306.55
687.138	8297.28
687.485	8314
687.832	8301.35
688.18	8283.27
688.527	8231.97
688.874	8166.44
689.221	8151.97
689.568	8157.85
689.915	8147
690.262	8199.21
690.609	8081.92
690.956	8019.55
691.303	8083.28
691.65	7967.35
691.997	7997.18
692.344	7975.71
692.69	7900
693.037	7895.26
693.383	7869.95
693.73	7845.09
694.077	7859.33
694.423	7808.03
694.769	7774.58
695.116	7804.41
695.462	7734.13
695.808	7665.66
696.155	7694.36
696.501	7592.67
696.847	7558.77
697.193	7552.67
697.539	7495.27
697.885	7471.09
698.231	7447.36
698.577	7455.95
698.923	7474.7
699.269	7422.73
699.614	7396.97
699.96	7316.74
700.306	7336.18
700.651	7301.6
700.997	7258.44
701.342	7308.38
701.688	7235.61
702.033	7182.06
702.379	7215.05
702.724	7152.45
703.069	7193.58
703.415	7095.73
703.76	7090.99
704.105	7107.48
704.45	7015.06
704.795	6964.89
705.14	6974.83
705.485	6948.39
705.83	6935.74
706.175	6941.16
706.52	6877.88
706.865	6857.32
707.209	6818.45
707.554	6822.52
707.899	6843.31
708.243	6792.91
708.588	6805.57
708.932	6729.41
709.277	6717.89
709.621	6745.01
709.966	6691.9
710.31	6667.72
710.654	6584.78
710.998	6589.53
711.342	6674.05
711.687	6567.16
712.031	6516.09
712.375	6533.49
712.719	6561.28
713.063	6540.49
713.407	6540.49
713.75	6504.33
714.094	6513.6
714.438	6455.97
714.782	6486.71
715.125	6438.8
715.469	6477.44
715.812	6422.53
716.156	6379.14
716.499	6352.25
716.843	6355.41
717.186	6340.95
717.53	6375.75
717.873	6382.53
718.216	6371
718.559	6326.26
718.902	6306.6
719.246	6350.44
719.589	6292.81
719.932	6258.69
720.275	6333.27
720.617	6287.17
720.96	6324.45
721.303	6292.59
721.646	6277.9
721.989	6220.73
722.331	6278.13
722.674	6242.19
723.016	6290.55
723.359	6228.41
723.701	6291.68
724.044	6277.67
724.386	6193.38
724.729	6267.96
725.071	6224.79
725.413	6201.29
725.755	6178.92
726.097	6213.72
726.439	6190.9
726.782	6192.48
727.124	6148.86
727.465	6132.59
727.807	6148.86
728.149	6159.94
728.491	6162.2
728.833	6164.68
729.175	6192.48
729.516	6167.17
729.858	6133.95
730.199	6133.04
730.541	6146.38
730.882	6152.48
731.224	6181.18
731.565	6118.36
731.906	6149.09
732.248	6148.19
732.589	6129.88
732.93	6118.81
733.271	6102.31
733.612	6148.64
733.953	6115.42
734.294	6175.08
734.635	6130.56
734.976	6165.13
735.317	6137.34
735.658	6154.97
735.999	6174.85
736.339	6148.86
736.68	6214.4
737.021	6150.22
737.361	6147.51
737.702	6223.21
738.042	6188.64
738.383	6182.76
738.723	6230.9
739.063	6168.75
739.404	6198.81
739.744	6242.87
740.084	6230.9
740.424	6295.75
740.764	6249.43
741.104	6269.76
741.444	6295.53
741.784	6259.6
742.124	6328.75
742.464	6280.84
742.804	6341.18
743.143	6368.07
743.483	6407.16
743.823	6389.08
744.162	6447.84
744.502	6478.12
744.841	6508.18
745.181	6515.63
745.52	6549.76
745.86	6571
746.199	6620.26
746.538	6692.13
746.877	6731.67
747.216	6723.54
747.556	6767.83
747.895	6817.55
748.234	6877.21
748.573	6893.7
748.911	6915.62
749.25	7020.93
749.589	7058.9
749.928	7079.69
750.267	7185.9
750.605	7248.04
750.944	7321.04
751.283	7361.04
751.621	7450.75
751.96	7533.23
752.298	7637.86
752.636	7749.27
752.975	7809.61
753.313	7858.2
753.651	8043.28
753.989	8094.12
754.327	8179.77
754.666	8332.54
755.004	8430.16
755.342	8588.12
755.679	8690.72
756.017	8783.6
756.355	8984.5
756.693	9084.83
757.031	9237.37
757.368	9317.14
757.706	9407.54
758.044	9612.5
758.381	9767.75
758.719	9942.89
759.056	10149.89
759.394	10265.14
759.731	10377.68
760.068	10415.19
760.405	10614.51
760.743	10802.07
761.08	10968.85
761.417	11084.55
761.754	11223.31
762.091	11513.24
762.428	11639.11
762.765	11727.7
763.102	11928.37
763.438	12106.22
763.775	12168.59
764.112	12484.06
764.449	12638.64
764.785	12753.89
765.122	12948.23
765.458	13006.99
765.795	13199.98
766.131	13387.77
766.467	13549.35
766.804	13599.74
767.14	13682.68
