Data from hue_90_FLMS001491_57.txt Node
Date: Mon Feb 06 15:25:20 GMT 2017
User: dcchb
Spectrometer: FLMS00149
Trigger mode: 0
Integration Time (sec): 2.000000E-2
Scans to average: 10
Electric dark correction enabled: true
Nonlinearity correction enabled: false
Boxcar width: 0
XAxis mode: Wavelengths
Number of Pixels in Spectrum: 2048
>>>>>Begin Spectral Data<<<<<
341.393	5.9
341.776	5.9
342.16	5.9
342.543	-54.66
342.927	-71.16
343.31	-99.18
343.693	-86.07
344.077	-65.28
344.46	-53.76
344.843	-55.34
345.226	-28.45
345.61	-42.23
345.993	-13.08
346.376	4.55
346.759	-2.68
347.142	28.05
347.525	49.97
347.908	66.69
348.291	82.51
348.674	111.89
349.057	102.4
349.44	137.65
349.823	180.81
350.206	153.92
350.588	183.53
350.971	197.31
351.354	240.02
351.737	238.44
352.119	221.04
352.502	250.19
352.884	262.62
353.267	294.94
353.65	277.99
354.032	283.41
354.414	300.59
354.797	310.75
355.179	323.18
355.562	333.35
355.944	327.25
356.326	327.25
356.709	339.45
357.091	320.25
357.473	336.06
357.855	336.06
358.238	348.95
358.62	353.24
359.002	333.58
359.384	329.96
359.766	327.25
360.148	339.91
360.53	335.39
360.912	330.42
361.294	322.73
361.676	327.25
362.057	329.51
362.439	318.89
362.821	320.47
363.203	306.46
363.584	328.83
363.966	324.09
364.348	310.08
364.729	337.87
365.111	319.57
365.493	322.28
365.874	324.99
366.256	326.8
366.637	324.09
367.019	307.14
367.4	316.86
367.781	306.69
368.163	309.17
368.544	321.15
368.925	297.65
369.306	327.03
369.688	307.59
370.069	313.92
370.45	301.72
370.831	318.66
371.212	307.59
371.593	332.9
371.974	302.17
372.355	320.25
372.736	298.55
373.117	312.56
373.498	330.64
373.879	327.93
374.26	307.82
374.641	308.95
375.021	318.44
375.402	317.76
375.783	315.27
376.163	321.83
376.544	333.58
376.925	330.87
377.305	317.99
377.686	339
378.066	316.63
378.447	337.87
378.827	315.73
379.208	325.9
379.588	317.08
379.968	322.96
380.349	317.76
380.729	339.68
381.109	302.62
381.489	337.87
381.87	327.48
382.25	333.8
382.63	343.52
383.01	337.42
383.39	313.47
383.77	337.42
384.15	347.36
384.53	348.04
384.91	341.04
385.29	338.55
385.67	331.32
386.049	346.46
386.429	336.74
386.809	358.66
387.189	334.03
387.568	360.7
387.948	350.53
388.328	339.23
388.707	349.62
389.087	357.31
389.466	339.68
389.846	350.3
390.225	384.42
390.605	357.31
390.984	362.05
391.363	369.06
391.743	342.39
392.122	358.89
392.501	351.43
392.881	348.95
393.26	367.7
393.639	374.26
394.018	385.33
394.397	359.57
394.776	377.19
395.155	369.28
395.534	378.78
395.913	396.63
396.292	357.76
396.671	368.38
397.05	394.14
397.429	374.93
397.808	384.42
398.186	386.46
398.565	382.17
398.944	369.51
399.323	375.84
399.701	389.85
400.08	381.71
400.458	391.2
400.837	399.79
401.215	420.36
401.594	394.14
401.972	407.25
402.351	407.7
402.729	408.38
403.107	412.67
403.486	414.03
403.864	409.96
404.242	407.02
404.62	404.54
404.999	410.64
405.377	400.47
405.755	403.86
406.133	420.81
406.511	421.03
406.889	421.94
407.267	426.01
407.645	425.33
408.023	441.37
408.401	419.68
408.779	441.82
409.156	451.77
409.534	426.23
409.912	436.17
410.29	426.68
410.667	434.14
411.045	450.19
411.422	444.08
411.8	460.81
412.178	474.59
412.555	447.93
412.933	455.38
413.31	451.09
413.687	474.14
414.065	469.17
414.442	484.08
414.819	476.85
415.197	466.23
415.574	490.41
415.951	482.73
416.328	484.76
416.705	476.17
417.082	478.66
417.46	484.76
417.837	501.71
418.214	509.39
418.591	513.01
418.967	503.07
419.344	479.79
419.721	526.12
420.098	499.22
420.475	518.21
420.852	527.02
421.228	518.21
421.605	523.18
421.982	527.25
422.358	528.38
422.735	547.13
423.111	542.16
423.488	522.95
423.864	548.94
424.241	561.14
424.617	541.71
424.994	559.56
425.37	543.06
425.746	553.46
426.123	544.19
426.499	541.71
426.875	541.03
427.251	554.82
427.627	579
428.003	551.65
428.379	566.34
428.756	561.14
429.132	580.13
429.507	605.44
429.883	580.13
430.259	599.33
430.635	627.36
431.011	618.54
431.387	606.79
431.763	620.35
432.138	610.86
432.514	633.91
432.89	643.63
433.265	673
433.641	650.18
434.016	623.97
434.392	643.85
434.767	665.1
435.143	662.61
435.518	674.81
435.894	680.24
436.269	689.73
436.644	680.69
437.02	702.83
437.395	673.23
437.77	713.68
438.145	708.03
438.52	721.82
438.895	707.35
439.271	738.31
439.646	724.98
440.021	742.61
440.395	732.89
440.77	746.45
441.145	744.42
441.52	762.95
441.895	746.45
442.27	745.32
442.645	756.62
443.019	786.22
443.394	760.69
443.769	770.18
444.143	778.76
444.518	774.02
444.892	784.41
445.267	782.15
445.641	795.49
446.016	788.48
446.39	776.05
446.764	819.44
447.139	821.48
447.513	817.41
447.887	851.31
448.262	829.61
448.636	847.24
449.01	853.34
449.384	863.51
449.758	849.27
450.132	856.73
450.506	861.7
450.88	884.3
451.254	878.42
451.628	883.39
452.002	876.62
452.376	904.41
452.75	910.29
453.123	921.13
453.497	923.39
453.871	938.31
454.244	945.31
454.618	935.14
454.992	964.75
455.365	948.93
455.739	970.85
456.112	1007.01
456.486	992.77
456.859	1001.81
457.232	1024.63
457.606	1023.5
457.979	1065.76
458.352	1044.07
458.725	1037.97
459.099	1081.13
459.472	1088.59
459.845	1104.86
460.218	1113.45
460.591	1104.18
460.964	1134.91
461.337	1134.91
461.71	1155.48
462.083	1160.45
462.456	1186.44
462.829	1177.62
463.201	1223.05
463.574	1212.43
463.947	1231.41
464.32	1263.72
464.692	1301.46
465.065	1286.32
465.438	1319.99
465.81	1327.22
466.183	1334.23
466.555	1368.35
466.928	1376.04
467.3	1372.42
467.672	1408.8
468.045	1456.94
468.417	1471.18
468.789	1469.37
469.161	1495.13
469.534	1564.73
469.906	1563.38
470.278	1564.73
470.65	1621.45
471.022	1631.85
471.394	1658.74
471.766	1680.89
472.138	1703.71
472.51	1734.45
472.882	1790.94
473.253	1832.75
473.625	1876.59
473.997	1896.25
474.369	1919.3
474.74	1952.75
475.112	2020.09
475.484	2069.58
475.855	2116.13
476.227	2158.39
476.598	2227.77
476.97	2248.78
477.341	2311.83
477.713	2383.02
478.084	2405.61
478.455	2477.93
478.827	2559.96
479.198	2634.08
479.569	2699.84
479.94	2771.03
480.311	2853.06
480.682	2890.8
481.053	3018.25
481.424	3101.42
481.795	3133.51
482.166	3254.41
482.537	3324.23
482.908	3391.58
483.279	3512.93
483.65	3587.73
484.021	3696.65
484.391	3787.73
484.762	3879.47
485.133	3966.03
485.503	4026.14
485.874	4162.18
486.244	4269.07
486.615	4368.73
486.985	4472.23
487.356	4599.68
487.726	4717.87
488.097	4895.04
488.467	4902.5
488.837	5078.76
489.207	5201.02
489.578	5372.09
489.948	5460.9
490.318	5527.11
490.688	5656.15
491.058	5767.33
491.428	5923.26
491.798	6038.06
492.168	6226.53
492.538	6273.54
492.908	6379.97
493.278	6587.2
493.648	6694.09
494.017	6746.97
494.387	6901.54
494.757	7014.76
495.126	7134.98
495.496	7250.91
495.866	7274.87
496.235	7397.35
496.605	7597.79
496.974	7697.9
497.344	7799.37
497.713	7891.12
498.082	7985.81
498.452	8171.11
498.821	8269.64
499.19	8355.29
499.559	8411.56
499.928	8530.2
500.298	8631.89
500.667	8718.67
501.036	8728.84
501.405	8838.89
501.774	8926.35
502.143	9072.56
502.512	9123.4
502.88	9201.59
503.249	9282.04
503.618	9361.82
503.987	9491.3
504.356	9534.24
504.724	9603.39
505.093	9653.79
505.462	9777.4
505.83	9798.87
506.199	9873.89
506.567	9997.96
506.936	10084.28
507.304	10225.3
507.672	10213.77
508.041	10226.65
508.409	10348
508.777	10371.73
509.145	10461.67
509.514	10457.38
509.882	10602.24
510.25	10603.14
510.618	10699.41
510.986	10757.03
511.354	10848.1
511.722	10893.3
512.09	11006.07
512.458	10948.67
512.826	11071.83
513.193	11074.54
513.561	11135.78
513.929	11206.06
514.297	11337.36
514.664	11294.42
515.032	11268.43
515.4	11423.46
515.767	11465.94
516.135	11512.27
516.502	11453.74
516.869	11618.71
517.237	11635.2
517.604	11542.1
517.972	11657.8
518.339	11722.43
518.706	11717.69
519.073	11714.97
519.44	11796.1
519.808	11842.2
520.175	11916.78
520.542	11882.2
520.909	12006.27
521.276	11920.17
521.643	12026.15
522.009	12070.45
522.376	12135.75
522.743	12148.18
523.11	12245.36
523.477	12339.59
523.843	12306.15
524.21	12345.47
524.577	12424.79
524.943	12464.56
525.31	12408.52
525.676	12559.25
526.043	12504.11
526.409	12533.26
526.776	12631.11
527.142	12589.08
527.508	12667.04
527.874	12722.41
528.241	12697.55
528.607	12672.24
528.973	12772.35
529.339	12745.91
529.705	12775.74
530.071	12833.82
530.437	12688.73
530.803	12821.16
531.169	12824.78
531.535	12797.21
531.901	12797.88
532.267	12809.63
532.632	12757.21
532.998	12870.2
533.364	12791.1
533.73	12803.31
534.095	12804.21
534.461	12865.9
534.826	12837.88
535.192	12764.21
535.557	12863.64
535.923	12774.16
536.288	12756.08
536.653	12800.6
537.019	12751.33
537.384	12732.57
537.749	12748.39
538.114	12680.6
538.479	12713.37
538.845	12723.31
539.21	12609.19
539.575	12635.4
539.94	12632.92
540.305	12592.69
540.67	12589.08
541.034	12521.96
541.399	12534.16
541.764	12467.72
542.129	12421.17
542.494	12406.03
542.858	12430.44
543.223	12384.34
543.587	12425.69
543.952	12273.38
544.316	12372.81
544.681	12237.9
545.045	12294.85
545.41	12333.94
545.774	12258.69
546.138	12260.04
546.503	12268.63
546.867	12153.38
547.231	12173.49
547.595	12171.46
547.959	12104.34
548.324	12128.07
548.688	12039.49
549.052	12013.72
549.416	12010.56
549.779	11921.97
550.143	11922.2
550.507	11956.32
550.871	11919.26
551.235	11932.82
551.599	11978.02
551.962	11846.04
552.326	11863.67
552.689	11823.9
553.053	11796.78
553.417	11768.98
553.78	11806.05
554.143	11761.75
554.507	11695.54
554.87	11787.97
555.234	11811.24
555.597	11703
555.96	11605.6
556.323	11664.81
556.686	11604.92
557.05	11718.59
557.413	11709.78
557.776	11680.85
558.139	11657.12
558.502	11636.11
558.865	11593.17
559.228	11602.44
559.59	11634.75
559.953	11621.64
560.316	11725.14
560.679	11680.85
561.041	11768.08
561.404	11688.31
561.767	11730.34
562.129	11618.25
562.492	11771.47
562.854	11706.61
563.217	11723.56
563.579	11711.81
563.941	11744.8
564.304	11743.22
564.666	11773.05
565.028	11797.01
565.39	11870
565.753	11842.65
566.115	11785.26
566.477	11841.75
566.839	11872.94
567.201	11830
567.563	11841.3
567.925	11939.38
568.287	11902.09
568.648	11873.84
569.01	11987.74
569.372	11911.13
569.734	11874.07
570.095	11882.2
570.457	11990.9
570.819	11944.12
571.18	11973.27
571.542	12011.69
571.903	11967.62
572.265	12027.73
572.626	11974.4
572.987	11996.1
573.349	12065.7
573.71	12048.3
574.071	12066.38
574.432	12129.88
574.794	12133.27
575.155	12048.3
575.516	12040.62
575.877	12092.14
576.238	12104.12
576.599	12134.17
576.96	12096.66
577.32	12098.47
577.681	12219.37
578.042	12147.96
578.403	12170.56
578.763	12094.4
579.124	12140.73
579.485	12285.58
579.845	12165.81
580.206	12166.49
580.566	12213.49
580.927	12124.23
581.287	12204.23
581.648	12156.54
582.008	12124.91
582.368	12093.5
582.728	12227.73
583.089	12091.69
583.449	12076.09
583.809	12218.69
584.169	12166.49
584.529	12123.33
584.889	12194.28
585.249	12123.1
585.609	12142.99
585.969	12127.17
586.329	12128.07
586.688	12096.89
587.048	12033.38
587.408	12005.14
587.768	12101.63
588.127	12091.69
588.487	12020.05
588.846	12018.92
589.206	11943.67
589.565	11989.54
589.925	12055.76
590.284	11997.68
590.643	11990.22
591.003	12069.32
591.362	12013.72
591.721	11946.61
592.08	11992.48
592.44	12021.41
592.799	12010.79
593.158	11938.02
593.517	11924.69
593.876	11971.24
594.235	11977.34
594.593	11904.12
594.952	11969.88
595.311	11896.89
595.67	11903.44
596.029	11958.36
596.387	11880.62
596.746	11935.31
597.104	11949.09
597.463	11903.44
597.822	11893.95
598.18	11906.61
598.538	11830.68
598.897	11918.13
599.255	11883.11
599.613	11973.05
599.972	11913.61
600.33	11899.15
600.688	11801.53
601.046	11889.89
601.404	11919.94
601.762	11866.38
602.12	11919.49
602.478	11897.12
602.836	11911.81
603.194	11868.42
603.552	11969.43
603.91	11871.81
604.268	11902.31
604.625	11795.42
604.983	11877.23
605.341	11860.51
605.698	11874.07
606.056	11872.94
606.413	11867.51
606.771	11882.65
607.128	11923.1
607.485	11859.83
607.843	11825.93
608.2	11837.91
608.557	11981.63
608.914	11980.73
609.272	11974.18
609.629	11937.79
609.986	12011.92
610.343	11959.49
610.7	11999.26
611.057	12036.55
611.414	11986.83
611.771	11955.87
612.127	12060.5
612.484	12017.11
612.841	12084.46
613.198	11977.57
613.554	12049.65
613.911	12104.57
614.267	12078.35
614.624	12110.22
614.98	12126.49
615.337	12172.59
615.693	12106.38
616.05	12097.79
616.406	12141.63
616.762	12157
617.118	12123.1
617.475	12123.33
617.831	12233.6
618.187	12168.75
618.543	12169.88
618.899	12268.63
619.255	12221.63
619.611	12276.54
619.967	12317.67
620.323	12241.29
620.678	12214.4
621.034	12191.8
621.39	12178.01
621.746	12151.57
622.101	12246.26
622.457	12205.13
622.812	12239.25
623.168	12307.05
623.523	12345.01
623.879	12317.9
624.234	12161.97
624.589	12239.48
624.945	12195.19
625.3	12256.88
625.655	12349.53
626.01	12200.16
626.365	12258.91
626.72	12246.49
627.075	12215.53
627.43	12252.59
627.785	12260.95
628.14	12192.7
628.495	12196.32
628.85	12205.36
629.205	12193.38
629.559	12201.97
629.914	12198.13
630.269	12193.83
630.623	12181.18
630.978	12081.52
631.332	12186.37
631.687	12158.58
632.041	12094.85
632.396	12112.7
632.75	12033.61
633.104	12145.92
633.459	12017.79
633.813	11971.92
634.167	12004.23
634.521	12032.48
634.875	12087.62
635.229	11953.84
635.583	11944.8
635.937	11901.64
636.291	11890.34
636.645	11988.19
636.999	11869.55
637.352	11889.89
637.706	11849.89
638.06	11862.09
638.413	11820.96
638.767	11815.08
639.121	11784.13
639.474	11759.04
639.828	11815.76
640.181	11835.42
640.534	11753.39
640.888	11797.91
641.241	11669.55
641.594	11729.89
641.947	11791.81
642.301	11664.81
642.654	11728.31
643.007	11759.27
643.36	11675.43
643.713	11682.88
644.066	11701.87
644.419	11636.11
644.771	11628.88
645.124	11510.91
645.477	11484.25
645.83	11428.88
646.182	11369.22
646.535	11358.15
646.888	11357.02
647.24	11286.74
647.593	11291.48
647.945	11277.92
648.298	11240.86
648.65	11246.74
649.002	11215.78
649.355	11230.69
649.707	11287.87
650.059	11271.6
650.411	11418.49
650.763	11401.99
651.115	11570.35
651.467	11562.66
651.819	11545.26
652.171	11453.51
652.523	11451.03
652.875	11571.7
653.227	11428.2
653.578	11638.14
653.93	11468.2
654.282	11448.54
654.633	11409.67
654.985	11483.12
655.337	11514.3
655.688	11433.17
656.039	11520.18
656.391	11408.77
656.742	11506.17
657.094	11483.57
657.445	11506.39
657.796	11530.12
658.147	11511.14
658.498	11495.32
658.849	11494.64
659.2	11431.82
659.551	11468.43
659.902	11467.3
660.253	11500.97
660.604	11536
660.955	11478.82
661.306	11592.72
661.656	11583.68
662.007	11559.72
662.358	11563.11
662.708	11596.79
663.059	11617.8
663.409	11545.71
663.76	11514.08
664.11	11563.11
664.461	11576.67
664.811	11642.89
665.161	11638.37
665.511	11576.45
665.862	11599.05
666.212	11559.5
666.562	11569.44
666.912	11645.82
667.262	11543.68
667.612	11623.68
667.962	11553.85
668.312	11559.95
668.662	11571.25
669.011	11533.51
669.361	11573.51
669.711	11533.51
670.06	11551.36
670.41	11544.81
670.76	11476.34
671.109	11479.05
671.459	11496.9
671.808	11514.98
672.157	11527.41
672.507	11462.55
672.856	11462.78
673.205	11480.86
673.554	11552.94
673.904	11423.46
674.253	11538.71
674.602	11461.87
674.951	11334.19
675.3	11297.13
675.649	11536.45
675.998	11377.13
676.346	11412.38
676.695	11424.13
677.044	11352.27
677.393	11375.55
677.741	11357.92
678.09	11374.64
678.438	11329.45
678.787	11380.75
679.135	11303.91
679.484	11244.48
679.832	11262.78
680.181	11249.68
680.529	11265.72
680.877	11222.56
681.225	11203.58
681.573	11216.23
681.922	11158.83
682.27	11092.17
682.618	11169
682.966	11152.73
683.314	11097.82
683.661	11091.49
684.009	10995.22
684.357	10973.3
684.705	10964.94
685.053	10948.44
685.4	10911.38
685.748	10898.72
686.095	10922
686.443	10888.78
686.79	10826.41
687.138	10824.83
687.485	10858.27
687.832	10724.04
688.18	10766.07
688.527	10695.57
688.874	10716.81
689.221	10753.64
689.568	10631.39
689.915	10623.93
690.262	10591.39
690.609	10514.55
690.956	10514.1
691.303	10524.95
691.65	10515.46
691.997	10538.06
692.344	10387.33
692.69	10367.67
693.037	10347.55
693.383	10281.34
693.73	10340.55
694.077	10195.69
694.423	10262.58
694.769	10198.86
695.116	10167.9
695.462	10151.63
695.808	10086.77
696.155	10080.44
696.501	9934.91
696.847	9962.25
697.193	9887
697.539	9927.9
697.885	9836.38
698.231	9841.58
698.577	9852.65
698.923	9812.43
699.269	9702.15
699.614	9675.03
699.96	9630.51
700.306	9648.81
700.651	9595.71
700.997	9578.08
701.342	9525.88
701.688	9524.52
702.033	9448.37
702.379	9477.29
702.724	9433.9
703.069	9395.04
703.415	9349.16
703.76	9362.49
704.105	9325.43
704.45	9259.45
704.795	9200.01
705.14	9201.59
705.485	9193.46
705.83	9181.26
706.175	9154.59
706.52	9177.87
706.865	9113.01
707.209	9109.17
707.554	8965.67
707.899	9071.65
708.243	8990.07
708.588	8963.63
708.932	8923.86
709.277	8898.33
709.621	8860.13
709.966	8848.61
710.31	8839.12
710.654	8800.47
710.998	8815.62
711.342	8806.8
711.687	8754.83
712.031	8651.1
712.375	8616.75
712.719	8655.39
713.063	8614.72
713.407	8651.55
713.75	8591.21
714.094	8607.26
714.438	8536.07
714.782	8552.57
715.125	8517.32
715.469	8542.18
715.812	8490.2
716.156	8481.61
716.499	8477.77
716.843	8422.18
717.186	8380.6
717.53	8448.62
717.873	8423.99
718.216	8415.4
718.559	8363.42
718.902	8336.98
719.246	8327.72
719.589	8375.63
719.932	8332.01
720.275	8306.48
720.617	8347.38
720.96	8291.56
721.303	8305.12
721.646	8317.55
721.989	8224.9
722.331	8263.31
722.674	8249.53
723.016	8249.3
723.359	8245.91
723.701	8260.83
724.044	8181.96
724.386	8146.25
724.729	8142.64
725.071	8128.18
725.413	8094.96
725.755	8196.65
726.097	8204.11
726.439	8126.37
726.782	8109.42
727.124	8158.68
727.465	8113.04
727.807	8096.31
728.149	8128.63
728.491	8100.15
728.833	8127.5
729.175	8093.6
729.516	8094.28
729.858	8100.61
730.199	8148.97
730.541	8121.17
730.882	8123.2
731.224	8086.82
731.565	8063.77
731.906	8100.61
732.248	8133.6
732.589	8038.46
732.93	8045.47
733.271	8029.65
733.612	8024.45
733.953	8017.9
734.294	8020.83
734.635	8063.55
734.976	8050.89
735.317	8054.73
735.658	8055.86
735.999	8060.38
736.339	8035.3
736.68	8097.89
737.021	8104.9
737.361	8063.55
737.702	8126.82
738.042	8092.02
738.383	8076.43
738.723	8073.49
739.063	8090.44
739.404	8112.13
739.744	8088.86
740.084	8075.97
740.424	8144.22
740.764	8126.14
741.104	8168.63
741.444	8168.18
741.784	8130.89
742.124	8160.72
742.464	8204.33
742.804	8215.18
743.143	8243.65
743.483	8254.5
743.823	8209.76
744.162	8195.29
744.502	8265.57
744.841	8337.44
745.181	8362.07
745.52	8311.67
745.86	8422.41
746.199	8403.65
746.538	8438.68
746.877	8530.2
747.216	8610.65
747.556	8573.14
747.895	8638.67
748.234	8621.27
748.573	8672.12
748.911	8755.73
749.25	8782.17
749.589	8832.79
749.928	8874.6
750.267	8944.88
750.605	9018.55
750.944	9068.04
751.283	9149.84
751.621	9215.83
751.96	9202.05
752.298	9326.34
752.636	9451.76
752.975	9466.67
753.313	9578.76
753.651	9707.57
753.989	9809.26
754.327	9928.35
754.666	9937.17
755.004	10110.04
755.342	10245.41
755.679	10302.13
756.017	10332.19
756.355	10492.18
756.693	10620.09
757.031	10769.46
757.368	10877.71
757.706	11017.37
758.044	11077.03
758.381	11184.59
758.719	11324.93
759.056	11450.12
759.394	11582.55
759.731	11703.68
760.068	11810.11
