Data from hue_160_FLMS001491_00045.txt Node
Date: Tue Feb 07 16:51:14 GMT 2017
User: dcchb
Spectrometer: FLMS00149
Trigger mode: 0
Integration Time (sec): 2.000000E-2
Scans to average: 10
Electric dark correction enabled: true
Nonlinearity correction enabled: false
Boxcar width: 0
XAxis mode: Wavelengths
Number of Pixels in Spectrum: 2048
>>>>>Begin Spectral Data<<<<<
341.393	-14.62
341.776	-14.62
342.16	-14.62
342.543	-71.34
342.927	-72.24
343.31	-67.72
343.693	-66.37
344.077	-72.47
344.46	-71.57
344.843	-53.04
345.226	-41.74
345.61	-36.31
345.993	-13.04
346.376	-1.51
346.759	18.6
347.142	22.67
347.525	40.52
347.908	61.31
348.291	78.03
348.674	87.3
349.057	115.32
349.44	115.32
349.823	139.73
350.206	155.32
350.588	171.14
350.971	207.75
351.354	204.36
351.737	237.35
352.119	237.8
352.502	239.84
352.884	263.34
353.267	253.85
353.65	293.85
354.032	288.42
354.414	278.26
354.797	290.68
355.179	320.74
355.562	325.94
355.944	318.25
356.326	313.51
356.709	339.27
357.091	333.4
357.473	335.2
357.855	324.81
358.238	337.24
358.62	332.94
359.002	332.49
359.384	332.04
359.766	348.76
360.148	329.33
360.53	341.53
360.912	328.42
361.294	336.11
361.676	358.71
362.057	329.33
362.439	315.77
362.821	322.77
363.203	332.27
363.584	322.1
363.966	313.96
364.348	301.98
364.729	309.22
365.111	306.73
365.493	308.54
365.874	300.18
366.256	308.76
366.637	318.93
367.019	311.47
367.4	308.31
367.781	314.86
368.163	296.56
368.544	296.56
368.925	312.38
369.306	302.44
369.688	329.55
370.069	326.39
370.45	301.98
370.831	318.25
371.212	299.95
371.593	323.45
371.974	309.67
372.355	286.39
372.736	322.77
373.117	305.37
373.498	328.2
373.879	320.29
374.26	329.55
374.641	299.95
375.021	295.2
375.402	309.22
375.783	315.99
376.163	301.08
376.544	317.35
376.925	321.42
377.305	313.96
377.686	325.03
378.066	308.76
378.447	320.51
378.827	325.94
379.208	332.27
379.588	319.84
379.968	320.29
380.349	314.64
380.729	334.98
381.109	331.59
381.489	319.38
381.87	305.37
382.25	340.17
382.63	341.98
383.01	322.55
383.39	319.84
383.77	344.92
384.15	355.99
384.53	354.41
384.91	331.36
385.29	323.23
385.67	332.49
386.049	349.89
386.429	325.03
386.809	350.12
387.189	340.4
387.568	336.33
387.948	355.09
388.328	333.85
388.707	338.59
389.087	359.61
389.466	364.81
389.846	343.79
390.225	343.79
390.605	360.74
390.984	362.55
391.363	351.25
391.743	364.35
392.122	360.97
392.501	365.71
392.881	368.2
393.26	353.06
393.639	360.51
394.018	357.8
394.397	372.94
394.776	376.11
395.155	366.61
395.534	359.84
395.913	363.45
396.292	364.81
396.671	353.73
397.05	391.47
397.429	378.37
397.808	363.68
398.186	383.56
398.565	381.53
398.944	358.48
399.323	385.37
399.701	389.44
400.08	385.6
400.458	393.51
400.837	398.7
401.215	407.97
401.594	394.86
401.972	393.96
402.351	409.55
402.729	416.33
403.107	393.51
403.486	385.37
403.864	395.54
404.242	424.47
404.62	406.39
404.999	416.56
405.377	417.69
405.755	424.01
406.133	395.99
406.511	434.18
406.889	415.43
407.267	423.79
407.645	449.32
408.023	428.31
408.401	433.05
408.779	433.51
409.156	440.96
409.534	432.38
409.912	452.04
410.29	431.02
410.667	440.96
411.045	442.77
411.422	461.53
411.8	461.3
412.178	450.23
412.555	465.82
412.933	457.23
413.31	499.72
413.687	469.21
414.065	470.57
414.442	476.22
414.819	472.15
415.197	477.8
415.574	473.05
415.951	491.13
416.328	515.54
416.705	501.07
417.082	493.62
417.46	483.67
417.837	487.06
418.214	513.96
418.591	496.33
418.967	502.66
419.344	498.81
419.721	505.59
420.098	533.84
420.475	536.78
420.852	552.15
421.228	505.82
421.605	530.45
421.982	546.72
422.358	535.88
422.735	562.32
423.111	544.01
423.488	547.85
423.864	545.59
424.241	554.63
424.617	573.39
424.994	574.97
425.37	559.83
425.746	568.42
426.123	574.07
426.499	575.87
426.875	595.76
427.251	594.18
427.627	604.57
428.003	604.12
428.379	613.39
428.756	624.69
429.132	607.96
429.507	612.03
429.883	640.96
430.259	621.07
430.635	637.12
431.011	650.22
431.387	628.3
431.763	649.32
432.138	663.1
432.514	651.58
432.89	675.08
433.265	676.21
433.641	664.69
434.016	701.07
434.392	688.87
434.767	713.5
435.143	715.31
435.518	727.96
435.894	715.76
436.269	726.15
436.644	760.5
437.02	741.97
437.395	731.12
437.77	746.72
438.145	739.49
438.52	747.17
438.895	750.11
439.271	779.94
439.646	791.46
440.021	795.98
440.395	784
440.77	797.11
441.145	787.85
441.52	813.61
441.895	811.8
442.27	829.2
442.645	824.91
443.019	833.5
443.394	854.06
443.769	825.13
444.143	838.01
444.518	857.45
444.892	844.34
445.267	876.88
445.641	873.72
446.016	873.04
446.39	870.78
446.764	857.22
447.139	894.28
447.513	899.26
447.887	899.93
448.262	880.73
448.636	908.97
449.01	918.24
449.384	917.56
449.758	939.48
450.132	954.4
450.506	952.14
450.88	944.23
451.254	956.88
451.628	984.9
452.002	959.82
452.376	1009.31
452.75	995.98
453.123	995.98
453.497	1021.51
453.871	1010.67
454.244	1037.56
454.618	1077.78
454.992	1062.42
455.365	1079.36
455.739	1074.39
456.112	1104.45
456.486	1108.29
456.859	1086.82
457.232	1124.33
457.606	1124.79
457.979	1147.84
458.352	1166.59
458.725	1193.03
459.099	1199.81
459.472	1216.54
459.845	1217.44
460.218	1224.67
460.591	1249.3
460.964	1245.91
461.337	1271
461.71	1301.28
462.083	1293.82
462.456	1333.82
462.829	1347.15
463.201	1347.61
463.574	1369.3
463.947	1403.65
464.32	1385.34
464.692	1464.44
465.065	1458.79
465.438	1435.51
465.81	1487.72
466.183	1496.53
466.555	1534.27
466.928	1546.7
467.3	1576.07
467.672	1569.07
468.045	1628.5
468.417	1635.73
468.789	1652.23
469.161	1676.41
469.534	1734.04
469.906	1781.72
470.278	1805.22
470.65	1802.51
471.022	1841.15
471.394	1896.97
471.766	1916.18
472.138	1976.97
472.51	1998.89
472.882	2059.45
473.253	2063.29
473.625	2110.3
473.997	2178.77
474.369	2182.39
474.74	2250.63
475.112	2290.86
475.484	2360.69
475.855	2390.52
476.227	2445.2
476.598	2522.04
476.97	2569.04
477.341	2658.98
477.713	2706.67
478.084	2754.57
478.455	2792.77
478.827	2935.36
479.198	2997.28
479.569	3030.05
479.94	3132.42
480.311	3183.04
480.682	3311.4
481.053	3392.52
481.424	3488.34
481.795	3553.65
482.166	3632.52
482.537	3711.84
482.908	3828.44
483.279	3922.23
483.65	4022.79
484.021	4164.71
484.391	4228.43
484.762	4322.22
485.133	4403.12
485.503	4526.05
485.874	4702.09
486.244	4745.48
486.615	4924.23
486.985	4979.37
487.356	5160.16
487.726	5213.04
488.097	5325.58
488.467	5434.5
488.837	5592.01
489.207	5708.62
489.578	5871.78
489.948	5918.11
490.318	6109.29
490.688	6199
491.058	6336.63
491.428	6435.16
491.798	6615.04
492.168	6795.82
492.538	6841.25
492.908	7026.1
493.278	7130.96
493.648	7206.89
494.017	7327.11
494.387	7448.69
494.757	7591.28
495.126	7675.58
495.496	7765.52
495.866	7872.41
496.235	7975.45
496.605	8118.28
496.974	8238.27
497.344	8309.23
497.713	8433.97
498.082	8497.7
498.452	8663.57
498.821	8678.71
499.19	8799.84
499.559	8965.71
499.928	9019.27
500.298	9089.55
500.667	9291.35
501.036	9292.71
501.405	9366.83
501.774	9380.61
502.143	9558.69
502.512	9641.85
502.88	9710.32
503.249	9717.33
503.618	9809.98
503.987	9888.62
504.356	9957.1
504.724	10004.55
505.093	10074.61
505.462	10091.78
505.83	10212.91
506.199	10242.97
506.567	10455.39
506.936	10414.49
507.304	10559.12
507.672	10619.23
508.041	10683.86
508.409	10742.84
508.777	10877.75
509.145	10804.31
509.514	10867.36
509.882	10917.07
510.25	10993.45
510.618	11071.19
510.986	11128.59
511.354	11074.58
511.722	11193.45
512.09	11295.82
512.458	11295.82
512.826	11363.61
513.193	11397.51
513.561	11451.52
513.929	11504.4
514.297	11495.59
514.664	11559.31
515.032	11585.3
515.4	11709.37
515.767	11725.64
516.135	11788.24
516.502	11624.85
516.869	11707.33
517.237	11784.85
517.604	11693.55
517.972	11866.88
518.339	11848.57
518.706	11865.97
519.073	11865.52
519.44	12013.99
519.808	11964.73
520.175	11941.9
520.542	12065.52
520.909	12074.56
521.276	12057.15
521.643	12122.01
522.009	12150.03
522.376	12157.49
522.743	12210.15
523.11	12298.05
523.477	12248.34
523.843	12385.28
524.21	12402.91
524.577	12384.38
524.943	12474.54
525.31	12459.18
525.676	12515.9
526.043	12559.29
526.409	12439.52
526.776	12588.89
527.142	12583.69
527.508	12605.84
527.874	12652.17
528.241	12505.5
528.607	12599.51
528.973	12693.97
529.339	12646.97
529.705	12712.5
530.071	12680.42
530.437	12622.11
530.803	12662.79
531.169	12711.37
531.535	12576.01
531.901	12659.85
532.267	12637.03
532.632	12639.74
532.998	12622.79
533.364	12587.54
533.73	12537.59
534.095	12667.53
534.461	12568.1
534.826	12564.94
535.192	12627.08
535.557	12555.67
535.923	12465.28
536.288	12525.84
536.653	12458.5
537.019	12366.98
537.384	12367.2
537.749	12400.65
538.114	12387.09
538.479	12338.73
538.845	12320.65
539.21	12177.6
539.575	12234.78
539.94	12197.49
540.305	12268
540.67	12103.71
541.034	12096.93
541.399	12168.11
541.764	12053.09
542.129	12036.36
542.494	11981.68
542.858	12003.14
543.223	11939.42
543.587	11964.73
543.952	11948.91
544.316	11834.79
544.681	11903.49
545.045	11824.62
545.41	11787.78
545.774	11786.88
546.138	11721.57
546.503	11672.98
546.867	11659.88
547.231	11674.11
547.595	11629.6
547.959	11596.83
548.324	11556.38
548.688	11508.92
549.052	11529.94
549.416	11417.17
549.779	11468.24
550.143	11399.54
550.507	11371.75
550.871	11447.68
551.235	11312.54
551.599	11312.54
551.962	11219.66
552.326	11213.56
552.689	11267.34
553.053	11125.2
553.417	11132.43
553.78	11243.16
554.143	11135.6
554.507	11084.07
554.87	11095.82
555.234	11099.89
555.597	11068.25
555.96	11087.91
556.323	11027.35
556.686	10972.44
557.05	11026.22
557.413	11025.32
557.776	10986.45
558.139	11019.67
558.502	10965.43
558.865	10976.28
559.228	10974.92
559.59	10986.45
559.953	10939.67
560.316	11081.36
560.679	10943.51
561.041	11008.14
561.404	10917.07
561.767	11040.01
562.129	10938.99
562.492	11037.97
562.854	10933.57
563.217	10916.39
563.579	10992.78
563.941	11047.24
564.304	11062.15
564.666	11065.54
565.028	10976.28
565.39	11003.4
565.753	11128.82
566.115	11056.28
566.477	11027.8
566.839	11033.23
567.201	11136.05
567.563	11044.07
567.925	11099.44
568.287	11134.92
568.648	11094.92
569.01	11098.76
569.372	11136.73
569.734	11124.98
570.095	11215.14
570.457	11133.11
570.819	11246.55
571.18	11157.74
571.542	11212.43
571.903	11267.8
572.265	11183.28
572.626	11197.97
572.987	11310.06
573.349	11192.09
573.71	11226.44
574.071	11285.65
574.432	11289.27
574.794	11366.78
575.155	11270.06
575.516	11228.25
575.877	11301.24
576.238	11262.37
576.599	11302.6
576.96	11269.6
577.32	11329.94
577.681	11284.07
578.042	11232.09
578.403	11418.08
578.763	11338.08
579.124	11286.1
579.485	11332.88
579.845	11352.09
580.206	11374.01
580.566	11360.68
580.927	11332.43
581.287	11374.01
581.648	11341.24
582.008	11421.24
582.368	11314.58
582.728	11254.24
583.089	11381.24
583.449	11364.74
583.809	11320.9
584.169	11330.39
584.529	11275.93
584.889	11305.54
585.249	11324.74
585.609	11272.09
585.969	11254.92
586.329	11316.38
586.688	11260.11
587.048	11268.7
587.408	11247.01
587.768	11207.01
588.127	11186.9
588.487	11135.37
588.846	11285.88
589.206	11145.54
589.565	11135.15
589.925	11164.75
590.284	11194.58
590.643	11171.98
591.003	11167.91
591.362	11206.56
591.721	11262.83
592.08	11108.71
592.44	11148.48
592.799	11184.41
593.158	11174.69
593.517	11125.88
593.876	11174.01
594.235	11113.22
594.593	11063.06
594.952	11119.1
595.311	11170.62
595.67	11107.8
596.029	11066.9
596.387	11145.99
596.746	11167.46
597.104	11035.03
597.463	11041.36
597.822	11051.08
598.18	11065.32
598.538	11008.82
598.897	11141.92
599.255	10993
599.613	11128.82
599.972	11076.84
600.33	11051.31
600.688	11074.36
601.046	11068.25
601.404	11135.6
601.762	11063.28
602.12	11092.66
602.478	11167.23
602.836	11080.23
603.194	11035.71
603.552	11076.84
603.91	11002.49
604.268	11081.14
604.625	11038.88
604.983	11093.34
605.341	11064.86
605.698	11102.38
606.056	11032.1
606.413	11088.14
606.771	11143.73
607.128	11126.11
607.485	11030.52
607.843	11001.82
608.2	11058.76
608.557	11171.98
608.914	11088.14
609.272	11148.93
609.629	11116.39
609.986	11143.28
610.343	11123.85
610.7	11205.88
611.057	11110.29
611.414	11145.54
611.771	11168.59
612.127	11208.14
612.484	11169.49
612.841	11223.28
613.198	11163.17
613.554	11223.96
613.911	11295.37
614.267	11255.14
614.624	11271.41
614.98	11203.39
615.337	11209.49
615.693	11258.08
616.05	11233.22
616.406	11308.25
616.762	11321.35
617.118	11282.71
617.475	11276.61
617.831	11369.72
618.187	11275.93
618.543	11245.88
618.899	11363.84
619.255	11305.99
619.611	11388.92
619.967	11349.15
620.323	11348.47
620.678	11287.46
621.034	11315.71
621.39	11330.62
621.746	11350.05
622.101	11424.63
622.457	11327.23
622.812	11398.41
623.168	11383.27
623.523	11407
623.879	11447.91
624.234	11310.73
624.589	11362.94
624.945	11404.29
625.3	11367
625.655	11429.37
626.01	11377.85
626.365	11380.56
626.72	11360.68
627.075	11341.02
627.43	11294.01
627.785	11371.3
628.14	11387.34
628.495	11343.28
628.85	11339.43
629.205	11307.12
629.559	11350.51
629.914	11348.92
630.269	11308.93
630.623	11209.72
630.978	11243.84
631.332	11261.92
631.687	11310.73
632.041	11262.37
632.396	11274.12
632.75	11277.29
633.104	11235.71
633.459	11228.25
633.813	11217.18
634.167	11152.77
634.521	11191.64
634.875	11164.75
635.229	11173.79
635.583	11047.69
635.937	11153.9
636.291	11112.09
636.645	11159.33
636.999	11048.59
637.352	11042.04
637.706	11031.64
638.06	11076.39
638.413	11055.37
638.767	10984.87
639.121	10985.09
639.474	11035.49
639.828	10987.8
640.181	11001.36
640.534	11060.57
640.888	10893.34
641.241	10874.59
641.594	10949.84
641.947	10928.82
642.301	10970.63
642.654	10894.7
643.007	10946
643.36	10898.99
643.713	10871.65
644.066	10908.03
644.419	10879.78
644.771	10761.37
645.124	10657.87
645.477	10680.24
645.83	10602.5
646.182	10533.8
646.535	10499.46
646.888	10539.91
647.24	10534.48
647.593	10592.11
647.945	10615.38
648.298	10466.91
648.65	10487.48
649.002	10450.19
649.355	10537.19
649.707	10538.32
650.059	10549.17
650.411	10687.25
650.763	10637.53
651.115	10822.61
651.467	10681.37
651.819	10720.24
652.171	10720.01
652.523	10749.17
652.875	10736.29
653.227	10669.85
653.578	10803.18
653.93	10776.51
654.282	10714.37
654.633	10692.44
654.985	10723.63
655.337	10714.37
655.688	10733.35
656.039	10714.14
656.391	10759.79
656.742	10678.43
657.094	10746.23
657.445	10743.06
657.796	10765.44
658.147	10735.61
658.498	10691.54
658.849	10772.22
659.2	10736.06
659.551	10736.51
659.902	10771.76
660.253	10722.95
660.604	10710.07
660.955	10660.13
661.306	10780.13
661.656	10717.08
662.007	10755.72
662.358	10781.71
662.708	10711.2
663.059	10813.8
663.409	10669.39
663.76	10818.32
664.11	10731.31
664.461	10778.77
664.811	10772.22
665.161	10777.64
665.511	10757.08
665.862	10820.8
666.212	10838.2
666.562	10780.35
666.912	10830.97
667.262	10757.53
667.612	10833.23
667.962	10785.32
668.312	10805.44
668.662	10808.83
669.011	10748.94
669.361	10792.33
669.711	10803.63
670.06	10796.85
670.41	10792.1
670.76	10747.13
671.109	10805.89
671.459	10777.64
671.808	10779.22
672.157	10812.89
672.507	10740.58
672.856	10666.23
673.205	10684.99
673.554	10762.05
673.904	10735.61
674.253	10677.98
674.602	10731.77
674.951	10536.52
675.3	10543.07
675.649	10657.42
675.998	10681.37
676.346	10623.07
676.695	10716.85
677.044	10617.19
677.393	10593.92
677.741	10679.56
678.09	10601.15
678.438	10581.49
678.787	10612.22
679.135	10548.49
679.484	10549.85
679.832	10603.41
680.181	10459
680.529	10455.84
680.877	10477.08
681.225	10439.34
681.573	10449.29
681.922	10385.56
682.27	10333.36
682.618	10344.43
682.966	10390.53
683.314	10308.27
683.661	10328.61
684.009	10261.5
684.357	10253.59
684.705	10202.74
685.053	10252.23
685.4	10197.54
685.748	10155.06
686.095	10155.51
686.443	10080.26
686.79	10099.47
687.138	10139.92
687.485	10104.89
687.832	10095.62
688.18	10066.7
688.527	10084.1
688.874	10054.27
689.221	9996.42
689.568	9936.76
689.915	9954.84
690.262	9883.65
690.609	9873.26
690.956	9842.75
691.303	9797.33
691.65	9756.42
691.997	9780.6
692.344	9670.55
692.69	9689.53
693.037	9732.24
693.383	9570.21
693.73	9581.29
694.077	9538.12
694.423	9552.81
694.769	9563.89
695.116	9529.99
695.462	9515.98
695.808	9421.29
696.155	9408.64
696.501	9288.64
696.847	9347.85
697.193	9193.05
697.539	9285.25
697.885	9215.87
698.231	9137.68
698.577	9182.65
698.923	9127.97
699.269	9134.52
699.614	9050.45
699.96	9045.93
700.306	9010
700.651	8953.06
700.997	8887.52
701.342	8874.64
701.688	8922.55
702.033	8858.37
702.379	8818.6
702.724	8867.18
703.069	8821.76
703.415	8701.54
703.76	8649.11
704.105	8684.59
704.45	8633.29
704.795	8583.35
705.14	8654.98
705.485	8607.3
705.83	8511.71
706.175	8586.51
706.52	8523.91
706.865	8461.32
707.209	8494.99
707.554	8354.43
707.899	8483.24
708.243	8414.99
708.588	8337.25
708.932	8278.5
709.277	8270.81
709.621	8297.03
709.966	8271.49
710.31	8260.87
710.654	8242.11
710.998	8166.18
711.342	8232.4
711.687	8166.86
712.031	8143.59
712.375	8137.94
712.719	8178.61
713.063	8106.75
713.407	8128.44
713.75	8113.08
714.094	8100.87
714.438	8080.08
714.782	8022.23
715.125	8019.75
715.469	8047.54
715.812	7972.74
716.156	7937.04
716.499	7994.44
716.843	7916.25
717.186	7860.2
717.53	7947.21
717.873	7932.97
718.216	7920.99
718.559	7818.17
718.902	7849.81
719.246	7799.87
719.589	7847.55
719.932	7820.43
720.275	7805.97
720.617	7866.76
720.96	7830.37
721.303	7727.78
721.646	7808.23
721.989	7768
722.331	7825.4
722.674	7747.44
723.016	7778.4
723.359	7749.7
723.701	7754.89
724.044	7655.69
724.386	7634.67
724.729	7655.01
725.071	7696.37
725.413	7729.13
725.755	7652.98
726.097	7690.94
726.439	7613.88
726.782	7659.53
727.124	7710.6
727.465	7594.45
727.807	7594.67
728.149	7684.61
728.491	7656.37
728.833	7630.6
729.175	7642.58
729.516	7609.81
729.858	7636.93
730.199	7671.51
730.541	7592.64
730.882	7550.38
731.224	7620.89
731.565	7569.36
731.906	7584.28
732.248	7638.74
732.589	7574.11
732.93	7478.29
733.271	7598.29
733.612	7589.02
733.953	7553.77
734.294	7543.6
734.635	7488.01
734.976	7561.91
735.317	7541.79
735.658	7520.1
735.999	7563.71
736.339	7498.86
736.68	7618.85
737.021	7553.32
737.361	7583.6
737.702	7572.3
738.042	7603.03
738.383	7572.98
738.723	7588.57
739.063	7605.97
739.404	7615.24
739.744	7595.58
740.084	7563.04
740.424	7603.26
740.764	7610.04
741.104	7681.22
741.444	7683.48
741.784	7655.46
742.124	7724.84
742.464	7670.83
742.804	7741.79
743.143	7768
743.483	7767.55
743.823	7748.57
744.162	7826.08
744.502	7864.27
744.841	7857.72
745.181	7896.36
745.52	7867.89
745.86	7977.94
746.199	7958.28
746.538	8045.28
746.877	8056.13
747.216	8109.91
747.556	8117.82
747.895	8230.59
748.234	8182.45
748.573	8224.26
748.911	8336.35
749.25	8378.38
749.589	8372.05
749.928	8450.92
750.267	8501.09
750.605	8575.89
750.944	8661.09
751.283	8720.29
751.621	8796.9
751.96	8795.77
752.298	8930.68
752.636	9031.02
752.975	9115.31
753.313	9184.01
753.651	9373.38
753.989	9389.43
754.327	9518.01
754.666	9525.02
755.004	9705.8
755.342	9833.94
755.679	9976.08
756.017	10011.33
756.355	10158.45
756.693	10268.5
757.031	10391.66
757.368	10561.83
757.706	10639.56
758.044	10743.29
758.381	10954.81
758.719	11121.59
759.056	11254.46
759.394	11348.92
759.731	11457.17
760.068	11631.86
