Data from hue_330_FLMS001491_76.txt Node
Date: Mon Feb 06 15:45:52 GMT 2017
User: dcchb
Spectrometer: FLMS00149
Trigger mode: 0
Integration Time (sec): 2.000000E-2
Scans to average: 10
Electric dark correction enabled: true
Nonlinearity correction enabled: false
Boxcar width: 0
XAxis mode: Wavelengths
Number of Pixels in Spectrum: 2048
>>>>>Begin Spectral Data<<<<<
341.393	-18.74
341.776	-18.74
342.16	-18.74
342.543	-52.64
342.927	-62.81
343.31	-67.78
343.693	-76.59
344.077	-39.76
344.46	-64.84
344.843	-42.24
345.226	-42.92
345.61	-48.8
345.993	-21.45
346.376	-1.79
346.759	-3.15
347.142	13.35
347.525	48.83
347.908	45.89
348.291	93.8
348.674	101.71
349.057	105.77
349.44	119.56
349.823	157.3
350.206	170.63
350.588	209.95
350.971	195.94
351.354	218.77
351.737	239.56
352.119	228.03
352.502	242.04
352.884	289.72
353.267	275.49
353.65	283.17
354.032	301.93
354.414	294.47
354.797	308.03
355.179	313.45
355.562	325.66
355.944	324.3
356.326	338.08
356.709	290.85
357.091	331.98
357.473	351.64
357.855	355.49
358.238	334.69
358.62	343.51
359.002	328.37
359.384	359.33
359.766	350.74
360.148	339.89
360.53	325.2
360.912	343.51
361.294	317.97
361.676	318.42
362.057	330.17
362.439	336.05
362.821	328.82
363.203	317.07
363.584	328.14
363.966	323.4
364.348	312.1
364.729	299.22
365.111	313.9
365.493	311.19
365.874	310.29
366.256	314.81
366.637	316.16
367.019	305.32
367.4	298.09
367.781	305.09
368.163	314.36
368.544	325.88
368.925	307.8
369.306	320.23
369.688	303.73
370.069	298.54
370.45	308.25
370.831	294.47
371.212	299.44
371.593	309.84
371.974	329.95
372.355	315.26
372.736	314.81
373.117	309.38
373.498	324.3
373.879	306.67
374.26	313.68
374.641	317.07
375.021	324.3
375.402	321.59
375.783	319.33
376.163	320.91
376.544	333.79
376.925	335.37
377.305	335.15
377.686	305.77
378.066	329.27
378.447	348.48
378.827	308.71
379.208	306.45
379.588	321.59
379.968	346.22
380.349	324.98
380.729	328.82
381.109	334.24
381.489	344.86
381.87	331.53
382.25	344.64
382.63	334.02
383.01	343.28
383.39	342.38
383.77	340.8
384.15	339.67
384.53	331.3
384.91	341.02
385.29	338.54
385.67	348.03
386.049	340.57
386.429	347.58
386.809	326.33
387.189	347.58
387.568	346.22
387.948	352.55
388.328	366.33
388.707	341.93
389.087	345.54
389.466	351.19
389.846	350.51
390.225	355.03
390.605	358.2
390.984	368.14
391.363	364.98
391.743	376.73
392.122	367.24
392.501	352.32
392.881	364.3
393.26	378.31
393.639	371.08
394.018	375.82
394.397	366.78
394.776	385.77
395.155	366.78
395.534	397.74
395.913	380.34
396.292	388.48
396.671	372.43
397.05	379.21
397.429	402.72
397.808	380.57
398.186	394.81
398.565	381.7
398.944	399.1
399.323	408.82
399.701	385.31
400.08	386.67
400.458	378.54
400.837	393.9
401.215	431.64
401.594	410.4
401.972	398.2
402.351	413.56
402.729	423.51
403.107	424.41
403.486	417.4
403.864	393.22
404.242	415.14
404.62	417.4
404.999	415.6
405.377	440.23
405.755	409.04
406.133	440.45
406.511	410.4
406.889	442.04
407.267	438.19
407.645	441.81
408.023	438.19
408.401	442.49
408.779	474.35
409.156	478.42
409.534	462.37
409.912	481.36
410.29	481.81
410.667	477.52
411.045	492.43
411.422	510.06
411.8	473.22
412.178	497.85
412.555	487.23
412.933	496.05
413.31	525.2
413.687	518.42
414.065	534.24
414.442	514.58
414.819	542.6
415.197	532.2
415.574	532.66
415.951	561.81
416.328	559.55
416.705	581.69
417.082	593.67
417.46	571.98
417.837	590.96
418.214	608.36
418.591	595.25
418.967	583.5
419.344	595.25
419.721	633.67
420.098	615.14
420.475	610.39
420.852	640
421.228	644.06
421.605	649.49
421.982	650.17
422.358	637.29
422.735	662.14
423.111	652.65
423.488	674.35
423.864	657.85
424.241	697.85
424.617	695.59
424.994	670.73
425.37	690.62
425.746	704.63
426.123	701.01
426.499	739.43
426.875	714.57
427.251	738.53
427.627	737.85
428.003	744.18
428.379	755.02
428.756	766.1
429.132	790.73
429.507	784.4
429.883	799.99
430.259	823.95
430.635	788.92
431.011	787.56
431.387	820.33
431.763	827.34
432.138	859.2
432.514	843.16
432.89	861.69
433.265	865.53
433.641	889.26
434.016	875.7
434.392	879.31
434.767	910.5
435.143	886.54
435.518	910.05
435.894	932.87
436.269	912.08
436.644	962.25
437.02	954.57
437.395	943.04
437.77	975.13
438.145	952.98
438.52	968.12
438.895	1013.55
439.271	1008.8
439.646	1004.51
440.021	1009.48
440.395	1050.38
440.77	1028.24
441.145	1035.69
441.52	1036.15
441.895	1055.13
442.27	1037.95
442.645	1053.55
443.019	1074.56
443.394	1046.99
443.769	1080.44
444.143	1076.6
444.518	1103.71
444.892	1080.66
445.267	1077.73
445.641	1084.73
446.016	1103.71
446.39	1124.5
446.764	1102.81
447.139	1079.08
447.513	1129.02
447.887	1110.49
448.262	1125.18
448.636	1143.26
449.01	1131.28
449.384	1136.93
449.758	1134.9
450.132	1195.91
450.506	1175.8
450.88	1184.16
451.254	1150.94
451.628	1197.5
452.002	1172.86
452.376	1168.34
452.75	1244.28
453.123	1196.82
453.497	1244.73
453.871	1247.21
454.244	1253.54
454.618	1261.9
454.992	1275.69
455.365	1256.03
455.739	1305.52
456.112	1288.34
456.486	1316.82
456.859	1318.4
457.232	1332.63
457.606	1340.32
457.979	1376.7
458.352	1363.82
458.725	1363.37
459.099	1350.26
459.472	1389.81
459.845	1436.59
460.218	1412.18
460.591	1397.94
460.964	1433.65
461.337	1442.01
461.71	1469.58
462.083	1477.49
462.456	1477.49
462.829	1481.78
463.201	1515.68
463.574	1521.33
463.947	1529.47
464.32	1526.53
464.692	1568.33
465.065	1555.23
465.438	1552.29
465.81	1617.82
466.183	1616.02
466.555	1641.78
466.928	1616.02
467.3	1628.45
467.672	1676.81
468.045	1699.63
468.417	1712.29
468.789	1683.81
469.161	1726.52
469.534	1772.85
469.906	1774.88
470.278	1758.84
470.65	1798.84
471.022	1838.38
471.394	1850.81
471.766	1870.93
472.138	1873.86
472.51	1911.6
472.882	1953.64
473.253	1964.48
473.625	1959.96
473.997	2022.56
474.369	2024.82
474.74	2054.88
475.112	2064.37
475.484	2070.92
475.855	2108.89
476.227	2126.29
476.598	2200.63
476.97	2190.69
477.341	2234.08
477.713	2275.43
478.084	2256.23
478.455	2310.01
478.827	2368.31
479.198	2420.74
479.569	2408.09
479.94	2472.72
480.311	2456.45
480.682	2531.47
481.053	2566.95
481.424	2552.26
481.795	2646.05
482.166	2658.93
482.537	2650.79
482.908	2725.59
483.279	2742.09
483.65	2773.95
484.021	2820.28
484.391	2872.93
484.762	2889.2
485.133	2905.47
485.503	2933.27
485.874	2983.44
486.244	2967.85
486.615	3067.73
486.985	3075.19
487.356	3097.56
487.726	3144.56
488.097	3216.43
488.467	3196.99
488.837	3274.73
489.207	3265.46
489.578	3332.13
489.948	3377.1
490.318	3396.53
490.688	3399.92
491.058	3491.22
491.428	3505.68
491.798	3562.86
492.168	3567.38
492.538	3572.35
492.908	3600.6
493.278	3670.88
493.648	3664.1
494.017	3746.81
494.387	3715.85
494.757	3743.64
495.126	3797.2
495.496	3816.18
495.866	3841.95
496.235	3873.36
496.605	3864.09
496.974	3871.78
497.344	3913.13
497.713	3954.03
498.082	3991.77
498.452	4020.93
498.821	4025.9
499.19	3983.64
499.559	4046.01
499.928	4098.44
500.298	4098.89
500.667	4137.76
501.036	4168.49
501.405	4187.7
501.774	4168.72
502.143	4231.77
502.512	4244.87
502.88	4264.08
503.249	4250.3
503.618	4315.15
503.987	4322.16
504.356	4295.95
504.724	4324.65
505.093	4316.06
505.462	4327.81
505.83	4364.42
506.199	4411.2
506.567	4458.2
506.936	4464.3
507.304	4467.92
507.672	4471.31
508.041	4509.27
508.409	4565.54
508.777	4486
509.145	4580.46
509.514	4583.4
509.882	4610.97
510.25	4606.67
510.618	4623.17
510.986	4630.63
511.354	4661.36
511.722	4662.49
512.09	4688.7
512.458	4664.52
512.826	4726.44
513.193	4778.65
513.561	4772.32
513.929	4805.54
514.297	4826.55
514.664	4814.35
515.032	4826.33
515.4	4842.37
515.767	4850.28
516.135	4903.39
516.502	4857.97
516.869	4932.77
517.237	4978.87
517.604	4918.3
517.972	4981.13
518.339	4972.31
518.706	4994.01
519.073	5022.71
519.44	4944.74
519.808	5025.64
520.175	5031.75
520.542	5048.69
520.909	5110.84
521.276	5097.96
521.643	5085.08
522.009	5159.43
522.376	5186.09
522.743	5162.14
523.11	5204.17
523.477	5222.25
523.843	5248.24
524.21	5301.12
524.577	5306.54
524.943	5368.91
525.31	5344.73
525.676	5354
526.043	5413.88
526.409	5434.9
526.776	5471.51
527.142	5506.99
527.508	5486.2
527.874	5591.51
528.241	5530.94
528.607	5567.55
528.973	5622.92
529.339	5647.32
529.705	5677.6
530.071	5694.78
530.437	5696.81
530.803	5782.01
531.169	5733.87
531.535	5768.22
531.901	5805.51
532.267	5814.55
532.632	5900.88
532.998	5889.8
533.364	5942
533.73	5976.13
534.095	5998.05
534.461	6053.19
534.826	6033.98
535.192	6076.92
535.557	6122.79
535.923	6126.86
536.288	6126.63
536.653	6153.3
537.019	6194.65
537.384	6207.31
537.749	6197.37
538.114	6250.92
538.479	6277.82
538.845	6268.1
539.21	6301.77
539.575	6292.05
539.94	6337.7
540.305	6343.8
540.67	6414.76
541.034	6414.31
541.399	6504.48
541.764	6510.13
542.129	6491.59
542.494	6514.42
542.858	6523.46
543.223	6549.9
543.587	6621.08
543.952	6645.26
544.316	6664.92
544.681	6662.89
545.045	6726.84
545.41	6806.61
545.774	6792.6
546.138	6796.22
546.503	6823.56
546.867	6778.59
547.231	6854.98
547.595	6909.66
547.959	6974.97
548.324	6979.94
548.688	6936.33
549.052	6976.1
549.416	7000.06
549.779	7041.86
550.143	7052.71
550.507	6977.68
550.871	7159.6
551.235	7111.47
551.599	7154.85
551.962	7187.17
552.326	7227.85
552.689	7235.53
553.053	7240.05
553.417	7231.01
553.78	7333.83
554.143	7289.31
554.507	7329.99
554.87	7338.8
555.234	7400.72
555.597	7398.69
555.96	7370.67
556.323	7422.64
556.686	7425.13
557.05	7445.69
557.413	7467.84
557.776	7537.44
558.139	7604.33
558.502	7542.87
558.865	7600.72
559.228	7609.98
559.59	7619.93
559.953	7623.09
560.316	7771.11
560.679	7765.23
561.041	7824.67
561.404	7796.65
561.767	7836.64
562.129	7850.88
562.492	7914.61
562.854	7888.85
563.217	7873.71
563.579	7885.23
563.941	7972.23
564.304	8018.79
564.666	8031.44
565.028	8055.17
565.39	7986.92
565.753	8103.3
566.115	8047.03
566.477	8155.51
566.839	8167.26
567.201	8243.87
567.563	8217.65
567.925	8250.64
568.287	8318.44
568.648	8300.36
569.01	8375.61
569.372	8422.84
569.734	8331.32
570.095	8430.75
570.457	8527.93
570.819	8617.64
571.18	8576.51
571.542	8619.22
571.903	8632.56
572.265	8704.19
572.626	8762.72
572.987	8763.63
573.349	8814.7
573.71	8847.47
574.071	8952.32
574.432	8998.42
574.794	9047.91
575.155	9074.58
575.516	9055.6
575.877	9155.93
576.238	9274.57
576.599	9368.13
576.96	9398.19
577.32	9471.18
577.681	9626.43
578.042	9736.93
578.403	9691.51
578.763	9882.24
579.124	9942.8
579.485	10095.34
579.845	10125.62
580.206	10227.09
580.566	10402.9
580.927	10460.98
581.287	10649.68
581.648	10759.51
582.008	10914.98
582.368	10986.84
582.728	11244.46
583.089	11322.65
583.449	11608.3
583.809	11703.44
584.169	11923.32
584.529	12109.53
584.889	12264.32
585.249	12474.49
585.609	12589.51
585.969	12876.96
586.329	13067.24
586.688	13325.09
587.048	13481.69
587.408	13733.89
587.768	13992.87
588.127	14144.5
588.487	14353.54
588.846	14756.46
589.206	14910.13
589.565	15172.27
589.925	15517.35
590.284	15602.99
590.643	15934.28
591.003	16233.49
591.362	16544.89
591.721	16815.39
592.08	17113.46
592.44	17393.68
592.799	17587.57
593.158	17921.35
593.517	18164.28
593.876	18502.13
594.235	18773.31
594.593	18991.61
594.952	19297.81
595.311	19586.17
595.67	19895.08
596.029	20299.14
596.387	20577.33
596.746	20877.21
597.104	21046.92
597.463	21387.93
597.822	21779.78
598.18	21980.68
598.538	22197.62
598.897	22663.82
599.255	22655.92
599.613	23338.61
599.972	23301.77
600.33	23772.72
600.688	23983.56
601.046	24236.21
601.404	24632.36
601.762	24739.7
602.12	25275.96
602.478	25552.79
602.836	25625.56
603.194	25759.79
603.552	26151.87
603.91	26213.56
604.268	26631.4
604.625	26773.32
604.983	27239.52
605.341	27170.37
605.698	27534.88
606.056	27929
606.413	28147.97
606.771	28336.22
607.128	28664.35
607.485	28653.72
607.843	28894.17
608.2	29181.85
608.557	29630.65
608.914	29571.21
609.272	30025.67
609.629	30206.9
609.986	30528.48
610.343	30389.27
610.7	30950.84
611.057	31102.93
611.414	31259.31
611.771	31402.8
612.127	31709.46
612.484	31746.3
612.841	32114.2
613.198	32275.78
613.554	32248.43
613.911	32658.59
614.267	32695.43
614.624	32848.19
614.98	32993.27
615.337	33361.17
615.693	33462.64
616.05	33521.62
616.406	33704.44
616.762	33698.34
617.118	34016.52
617.475	34227.14
617.831	34274.14
618.187	34479.56
618.543	34482.05
618.899	34938.53
619.255	34935.82
619.611	34998.19
619.967	35221.01
620.323	35384.85
620.678	35397.73
621.034	35392.76
621.39	35440.66
621.746	35494.67
622.101	36013.53
622.457	35731.28
622.812	35912.29
623.168	36156.58
623.523	36083.13
623.879	36303.47
624.234	36298.27
624.589	36517.02
624.945	36434.08
625.3	36714.98
625.655	36770.35
626.01	36918.82
626.365	36840.4
626.72	36952.49
627.075	36935.54
627.43	37008.08
627.785	37036.1
628.14	37089.21
628.495	37239.03
628.85	37330.33
629.205	37259.6
629.559	37485.58
629.914	37286.72
630.269	37389.09
630.623	37326.72
630.978	37415.53
631.332	37533.04
631.687	37618.01
632.041	37506.37
632.396	37612.36
632.75	37582.08
633.104	37671.11
633.459	37532.59
633.813	37585.01
634.167	37449.42
634.521	37688.29
634.875	37752.02
635.229	37736.2
635.583	37543.21
635.937	37496.66
636.291	37571.23
636.645	37627.27
636.999	37587.05
637.352	37785.69
637.706	37555.18
638.06	37608.06
638.413	37609.87
638.767	37586.6
639.121	37695.29
639.474	37477.9
639.828	37493.49
640.181	37549.31
640.534	37542.98
640.888	37480.16
641.241	37487.39
641.594	37528.07
641.947	37747.72
642.301	37493.72
642.654	37510.44
643.007	37380.73
643.36	37553.15
643.713	37506.15
644.066	37615.07
644.419	37400.84
644.771	37140.05
645.124	36983.45
645.477	36898.03
645.83	36594.31
646.182	36474.76
646.535	36413.07
646.888	36518.15
647.24	36364.03
647.593	36430.92
647.945	36539.84
648.298	36238.84
648.65	36367.42
649.002	36208.1
649.355	36348.66
649.707	36309.79
650.059	36467.08
650.411	36817.35
650.763	36906.39
651.115	37370.33
651.467	37212.14
651.819	37100.51
652.171	37150.45
652.523	37077.23
652.875	37079.27
653.227	37007.4
653.578	37179.15
653.93	37070.23
654.282	36924.47
654.633	36912.94
654.985	36891.47
655.337	36888.99
655.688	36910.91
656.039	37114.74
656.391	36718.6
656.742	36846.28
657.094	36890.12
657.445	37030.45
657.796	36962.88
658.147	36920.4
658.498	36729.67
658.849	36827.52
659.2	36746.62
659.551	36735.77
659.902	36881.76
660.253	36733.51
660.604	36865.71
660.955	36666.62
661.306	36711.82
661.656	36792.04
662.007	36732.61
662.358	36758.6
662.708	36776.45
663.059	36704.13
663.409	36583.46
663.76	36761.31
664.11	36773.51
664.461	36679.5
664.811	36709.33
665.161	36687.64
665.511	36738.26
665.862	36654.64
666.212	36732.16
666.562	36820.74
666.912	36802.21
667.262	36660.75
667.612	36739.61
667.962	36793.85
668.312	36630.46
668.662	36831.36
669.011	36764.92
669.361	36610.35
669.711	36677.69
670.06	36517.02
670.41	36501.65
670.76	36515.44
671.109	36682.44
671.459	36592.95
671.808	36446.06
672.157	36592.5
672.507	36396.12
672.856	36400.64
673.205	36484.7
673.554	36572.84
673.904	36370.58
674.253	36676.11
674.602	36455.1
674.951	35881.78
675.3	35738.28
675.649	36356.12
675.998	36345.5
676.346	36205.84
676.695	36429.56
677.044	36040.65
677.393	36249.68
677.741	36295.56
678.09	36260.76
678.438	36113.19
678.787	36228.89
679.135	36267.31
679.484	35952.52
679.832	36104.6
680.181	35959.75
680.529	36000.42
680.877	35886.53
681.225	35852.86
681.573	36059.18
681.922	35825.51
682.27	35795.68
682.618	35741.45
682.966	35670.71
683.314	35763.82
683.661	35668.45
684.009	35472.53
684.357	35396.15
684.705	35410.61
685.053	35411.74
685.4	35273.66
685.748	35145.08
686.095	35268.47
686.443	35184.63
686.79	34899.89
687.138	35186.43
687.485	35087.23
687.832	34949.6
688.18	34993.22
688.527	34878.65
688.874	34781.47
689.221	34620.8
689.568	34722.49
689.915	34570.86
690.262	34635.26
690.609	34545.55
690.956	34376.96
691.303	34318.66
691.65	34139.68
691.997	34230.07
692.344	33926.35
692.69	33942.17
693.037	33941.95
693.383	33610.43
693.73	33853.36
694.077	33657.21
694.423	33717.55
694.769	33442.3
695.116	33518.23
695.462	33435.75
695.808	33420.6
696.155	33355.07
696.501	33127.5
696.847	33027.62
697.193	32920.28
697.539	33079.6
697.885	32723.9
698.231	32830.34
698.577	32759.6
698.923	32660.85
699.269	32477.58
699.614	32300.41
699.96	32263.8
700.306	32374.98
700.651	32155.55
700.997	32174.31
701.342	32133.41
701.688	32026.06
702.033	32041.88
702.379	31915.56
702.724	31944.94
703.069	31842.79
703.415	31639.18
703.76	31659.07
704.105	31550.15
704.45	31430.15
704.795	31297.5
705.14	31288.91
705.485	31172.75
705.83	31146.54
706.175	30988.35
706.52	30970.5
706.865	30914.46
707.209	30856.83
707.554	30728.7
707.899	30818.41
708.243	30589.94
708.588	30657.97
708.932	30405.09
709.277	30449.83
709.621	30434.24
709.966	30150.86
710.31	30305.21
710.654	29902.5
710.998	30074.25
711.342	30076.51
711.687	29996.06
712.031	29928.72
712.375	29757.65
712.719	29867.48
713.063	29775.05
713.407	29901.83
713.75	29740.02
714.094	29577.99
714.438	29541.84
714.782	29561.95
715.125	29437.66
715.469	29392.24
715.812	29341.62
716.156	29110.66
716.499	29187.5
716.843	29277.21
717.186	29078.8
717.53	29124.67
717.873	29110.44
718.216	28955.64
718.559	28863.89
718.902	28738.47
719.246	28662.09
719.589	28665.7
719.932	28567.4
720.275	28578.7
720.617	28542.77
720.96	28390.91
721.303	28566.27
721.646	28564.01
721.989	28417.8
722.331	28361.98
722.674	28308.87
723.016	28312.26
723.359	28275.43
723.701	28234.3
724.044	28107.07
724.386	27959.96
724.729	28068.88
725.071	27878.38
725.413	27980.52
725.755	27935.55
726.097	27878.83
726.439	27727.87
726.782	27598.38
727.124	27768.78
727.465	27645.39
727.807	27603.36
728.149	27615.33
728.491	27473.64
728.833	27479.07
729.175	27429.12
729.516	27314.1
729.858	27251.5
730.199	27297.83
730.541	27294.21
730.882	27266.64
731.224	27284.95
731.565	27195.91
731.906	27061.68
732.248	27158.4
732.589	26946.88
732.93	27009.93
733.271	26937.84
733.612	27032.75
733.953	26980.32
734.294	26799.99
734.635	26766.32
734.976	26966.08
735.317	26743.04
735.658	26683.61
735.999	26795.92
736.339	26684.74
736.68	26730.38
737.021	26599.31
737.361	26493.78
737.702	26670.95
738.042	26449.26
738.383	26468.02
738.723	26500.11
739.063	26364.07
739.404	26524.97
739.744	26344.41
740.084	26310.96
740.424	26260.57
740.764	26210.62
741.104	26185.77
741.444	26165.65
741.784	26054.7
742.124	26148.48
742.464	26003.85
742.804	25949.84
743.143	25881.59
743.483	25918.43
743.823	25829.17
744.162	25856.06
744.502	25879.79
744.841	25748.04
745.181	25700.13
745.52	25622.62
745.86	25721.15
746.199	25594.6
746.538	25494.03
746.877	25661.94
747.216	25459.23
747.556	25466.01
747.895	25494.26
748.234	25378.1
748.573	25366.35
748.911	25333.81
749.25	25223.53
749.589	25042.52
749.928	25207.71
750.267	25156.19
750.605	25061.95
750.944	24945.12
751.283	25026.02
751.621	25034.84
751.96	24890.66
752.298	24798.46
752.636	24730.89
752.975	24647.73
753.313	24562.98
753.651	24717.56
753.989	24582.87
754.327	24623.32
754.666	24408.86
755.004	24441.18
755.342	24469.65
755.679	24525.47
756.017	24245.25
756.355	24266.72
756.693	24087.29
757.031	24175.2
757.368	24085.48
757.706	24055.2
758.044	23995.09
758.381	23967.97
758.719	23864.02
759.056	23878.93
759.394	23683.46
759.731	23570.02
