Data from hue_90_FLMS001491_35.txt Node
Date: Mon Feb 06 15:25:02 GMT 2017
User: dcchb
Spectrometer: FLMS00149
Trigger mode: 0
Integration Time (sec): 2.000000E-2
Scans to average: 10
Electric dark correction enabled: true
Nonlinearity correction enabled: false
Boxcar width: 0
XAxis mode: Wavelengths
Number of Pixels in Spectrum: 2048
>>>>>Begin Spectral Data<<<<<
341.393	-7.95
341.776	-7.95
342.16	-7.95
342.543	-59.02
342.927	-78.46
343.31	-74.16
343.693	-59.48
344.077	-57.44
344.46	-50.89
344.843	-57.89
345.226	-39.14
345.61	-41.62
345.993	-2.08
346.376	-1.4
346.759	12.61
347.142	12.16
347.525	34.98
347.908	43.35
348.291	79.05
348.674	89.45
349.057	112.5
349.44	127.19
349.823	137.58
350.206	173.06
350.588	204.25
350.971	218.71
351.354	222.55
351.737	240.86
352.119	247.63
352.502	260.06
352.884	263.23
353.267	302.1
353.65	302.55
354.032	305.71
354.414	323.34
354.797	317.01
355.179	323.56
355.562	346.39
355.944	331.47
356.326	350.23
356.709	332.6
357.091	323.79
357.473	329.44
357.855	329.21
358.238	345.49
358.62	358.37
359.002	330.12
359.384	323.79
359.766	339.61
360.148	342.55
360.53	360.63
360.912	354.3
361.294	338.25
361.676	345.03
362.057	314.98
362.439	331.25
362.821	342.55
363.203	312.27
363.584	339.16
363.966	335.77
364.348	319.5
364.729	326.28
365.111	324.69
365.493	336.22
365.874	320.85
366.256	316.11
366.637	304.58
367.019	333.06
367.4	343
367.781	315.88
368.163	327.41
368.544	323.34
368.925	316.56
369.306	345.94
369.688	314.75
370.069	325.15
370.45	313.17
370.831	339.16
371.212	317.01
371.593	319.5
371.974	306.62
372.355	319.05
372.736	331.25
373.117	312.04
373.498	307.97
373.879	306.39
374.26	321.31
374.641	310.91
375.021	323.56
375.402	331.25
375.783	314.75
376.163	333.06
376.544	331.02
376.925	318.82
377.305	335.54
377.686	331.25
378.066	317.69
378.447	327.18
378.827	337.8
379.208	348.88
379.588	333.51
379.968	365.15
380.349	351.59
380.729	345.94
381.109	332.15
381.489	337.12
381.87	353.62
382.25	352.04
382.63	368.08
383.01	354.52
383.39	342.1
383.77	346.62
384.15	354.52
384.53	355.65
384.91	359.5
385.29	371.47
385.67	356.33
386.049	367.18
386.429	338.25
386.809	376.22
387.189	344.13
387.568	371.02
387.948	353.39
388.328	381.19
388.707	366.95
389.087	382.09
389.466	380.51
389.846	372.83
390.225	366.05
390.605	388.65
390.984	366.28
391.363	364.24
391.743	371.93
392.122	383
392.501	368.76
392.881	397.69
393.26	394.75
393.639	401.53
394.018	402.43
394.397	396.78
394.776	397.91
395.155	407.18
395.534	394.07
395.913	397.46
396.292	399.27
396.671	416.67
397.05	402.66
397.429	411.47
397.808	427.29
398.186	403.56
398.565	423.68
398.944	419.83
399.323	393.39
399.701	396.78
400.08	417.12
400.458	412.6
400.837	427.07
401.215	432.04
401.594	421.19
401.972	439.95
402.351	429.55
402.729	408.76
403.107	430.23
403.486	441.75
403.864	436.1
404.242	427.07
404.62	434.97
404.999	442.43
405.377	447.63
405.755	454.63
406.133	434.52
406.511	457.35
406.889	458.7
407.267	454.86
407.645	449.44
408.023	450.79
408.401	483.11
408.779	489.21
409.156	461.41
409.534	464.13
409.912	486.27
410.29	484.24
410.667	478.36
411.045	489.21
411.422	491.02
411.8	492.6
412.178	523.11
412.555	531.47
412.933	503.9
413.31	481.3
413.687	503.22
414.065	513.62
414.442	540.28
414.819	503.22
415.197	526.05
415.574	530.57
415.951	529.89
416.328	529.44
416.705	523.11
417.082	548.64
417.46	553.39
417.837	572.15
418.214	565.59
418.591	567.85
418.967	577.34
419.344	563.33
419.721	564.46
420.098	553.39
420.475	587.06
420.852	588.64
421.228	575.76
421.605	590.9
421.982	599.49
422.358	602.2
422.735	605.82
423.111	625.03
423.488	599.49
423.864	611.69
424.241	609.21
424.617	621.18
424.994	616.21
425.37	616.21
425.746	628.19
426.123	610.79
426.499	641.97
426.875	643.1
427.251	640.62
427.627	663.89
428.003	665.93
428.379	680.17
428.756	682.65
429.132	679.04
429.507	698.47
429.883	697.11
430.259	705.93
430.635	679.94
431.011	690.11
431.387	709.77
431.763	747.51
432.138	750.22
432.514	739.37
432.89	742.54
433.265	723.55
433.641	737.79
434.016	753.61
434.392	759.71
434.767	771.91
435.143	767.4
435.518	773.72
435.894	793.84
436.269	818.24
436.644	784.8
437.02	787.06
437.395	823.89
437.77	811.91
438.145	843.33
438.52	851.23
438.895	857.79
439.271	839.48
439.646	872.03
440.021	846.72
440.395	847.84
440.77	863.89
441.145	879.03
441.52	900.27
441.895	886.04
442.27	909.99
442.645	885.81
443.019	903.66
443.394	918.58
443.769	930.55
444.143	927.16
444.518	936.2
444.892	916.77
445.267	940.5
445.641	963.77
446.016	915.19
446.39	986.37
446.764	964.68
447.139	980.95
447.513	965.13
447.887	990.67
448.262	1001.74
448.636	996.77
449.01	1006.03
449.384	1001.29
449.758	1019.14
450.132	1018.24
450.506	1035.64
450.88	1029.08
451.254	1054.85
451.628	1061.62
452.002	1077.44
452.376	1082.42
452.75	1077.44
453.123	1097.1
453.497	1109.76
453.871	1120.38
454.244	1148.18
454.618	1153.6
454.992	1147.05
455.365	1152.7
455.739	1197.67
456.112	1203.77
456.486	1214.84
456.859	1189.98
457.232	1215.29
457.606	1218.91
457.979	1258
458.352	1289.87
458.725	1299.81
459.099	1290.77
459.472	1322.86
459.845	1329.41
460.218	1341.39
460.591	1385.23
460.964	1367.61
461.337	1395.85
461.71	1436.98
462.083	1468.85
462.456	1453.03
462.829	1466.59
463.201	1483.76
463.574	1500.48
463.947	1518.34
464.32	1561.72
464.692	1574.38
465.065	1573.25
465.438	1586.58
465.81	1618.45
466.183	1643.53
466.555	1682.63
466.928	1689.4
467.3	1696.86
467.672	1745.9
468.045	1815.73
468.417	1785.22
468.789	1812.79
469.161	1861.83
469.534	1890.3
469.906	1921.04
470.278	1948.38
470.65	1991.54
471.022	1993.35
471.394	2050.53
471.766	2088.04
472.138	2109.96
472.51	2197.64
472.882	2217.98
473.253	2243.74
473.625	2285.55
473.997	2353.12
474.369	2401.02
474.74	2437.63
475.112	2509.27
475.484	2538.2
475.855	2641.24
476.227	2678.08
476.598	2777.06
476.97	2796.27
477.341	2872.65
477.713	2976.83
478.084	3051.85
478.455	3072.65
478.827	3130.27
479.198	3224.73
479.569	3280.78
479.94	3438.74
480.311	3508.57
480.682	3585.17
481.053	3728.45
481.424	3801.44
481.795	3900.65
482.166	4015.22
482.537	4100.19
482.908	4228.32
483.279	4351.26
483.65	4453.4
484.021	4611.14
484.391	4702.43
484.762	4781.98
485.133	4925.48
485.503	4988.98
485.874	5168.18
486.244	5308.07
486.615	5425.13
486.985	5550.77
487.356	5716.64
487.726	5852.69
488.097	5994.15
488.467	6143.52
488.837	6301.03
489.207	6430.52
489.578	6529.5
489.948	6762.72
490.318	6907.57
490.688	6974.69
491.058	7193.44
491.428	7369.93
491.798	7444.96
492.168	7665.29
492.538	7819.41
492.908	7918.39
493.278	8140.08
493.648	8220.31
494.017	8346.63
494.387	8579.39
494.757	8725.6
495.126	8837.47
495.496	8930.8
495.866	9056.89
496.235	9322.65
496.605	9392.93
496.974	9478.58
497.344	9693.04
497.713	9758.35
498.082	9902.75
498.452	10016.19
498.821	10096.87
499.19	10314.26
499.559	10396.97
499.928	10527.82
500.298	10686.68
500.667	10770.97
501.036	10844.64
501.405	10954.92
501.774	11018.88
502.143	11190.4
502.512	11274.24
502.88	11435.14
503.249	11439.2
503.618	11572.31
503.987	11665.19
504.356	11808.23
504.724	11834
505.093	11903.37
505.462	11996.7
505.83	12051.84
506.199	12268.34
506.567	12423.13
506.936	12417.71
507.304	12486.63
507.672	12524.6
508.041	12649.79
508.409	12785.16
508.777	12846.4
509.145	12958.71
509.514	12956.68
509.882	13117.13
510.25	13078.48
510.618	13246.39
510.986	13215.88
511.354	13366.61
511.722	13429.44
512.09	13535.42
512.458	13532.94
512.826	13598.7
513.193	13708.98
513.561	13685.47
513.929	13800.27
514.297	13904
514.664	13916.2
515.032	14002.53
515.4	14142.86
515.767	14091.56
516.135	14166.59
516.502	14116.87
516.869	14253.14
517.237	14281.39
517.604	14218.11
517.972	14376.98
518.339	14383.31
518.706	14440.26
519.073	14404.78
519.44	14464.44
519.808	14651.78
520.175	14591.66
520.542	14709.63
520.909	14882.96
521.276	14760.7
521.643	14755.5
522.009	14903.52
522.376	14990.98
522.743	15032.56
523.11	14976.06
523.477	15093.12
523.843	15149.39
524.21	15240.69
524.577	15234.59
524.943	15329.05
525.31	15262.83
525.676	15295.37
526.043	15447.24
526.409	15475.93
526.776	15465.09
527.142	15559.1
527.508	15530.62
527.874	15711.18
528.241	15705.53
528.607	15582.6
528.973	15667.57
529.339	15573.79
529.705	15744.4
530.071	15799.54
530.437	15699.21
530.803	15758.64
531.169	15796.83
531.535	15690.84
531.901	15761.58
532.267	15728.58
532.632	15786.21
532.998	15753.89
533.364	15746.44
533.73	15878.64
534.095	15857.39
534.461	15843.83
534.826	15827.11
535.192	15774.23
535.557	15816.94
535.923	15721.35
536.288	15809.26
536.653	15748.24
537.019	15670.28
537.384	15705.08
537.749	15748.24
538.114	15615.82
538.479	15641.81
538.845	15707.34
539.21	15564.75
539.575	15577.63
539.94	15473.68
540.305	15544.86
540.67	15506.44
541.034	15478.42
541.399	15478.19
541.764	15320.01
542.129	15438.65
542.494	15311.42
542.858	15362.27
543.223	15306.67
543.587	15317.75
543.952	15260.57
544.316	15311.42
544.681	15181.03
545.045	15180.58
545.41	15224.64
545.774	15186
546.138	15088.6
546.503	15043.18
546.867	15061.48
547.231	15093.35
547.595	15073.01
547.959	14994.82
548.324	14954.14
548.688	14958.89
549.052	14962.5
549.416	14936.74
549.779	14871.21
550.143	14870.08
550.507	14926.12
550.871	14793.47
551.235	14844.31
551.599	14800.92
551.962	14797.31
552.326	14714.37
552.689	14713.92
553.053	14653.13
553.417	14540.14
553.78	14757.08
554.143	14594.6
554.507	14605
554.87	14593.7
555.234	14669.18
555.597	14595.73
555.96	14558.44
556.323	14496.3
556.686	14542.17
557.05	14596.41
557.413	14637.99
557.776	14588.05
558.139	14556.19
558.502	14587.82
558.865	14616.07
559.228	14601.61
559.59	14562.29
559.953	14543.53
560.316	14732.9
560.679	14655.62
561.041	14640.93
561.404	14675.5
561.767	14722.96
562.129	14585.56
562.492	14680.48
562.854	14668.72
563.217	14595.73
563.579	14621.27
563.941	14747.59
564.304	14794.37
564.666	14728.38
565.028	14780.13
565.39	14766.8
565.753	14849.96
566.115	14807.25
566.477	14704.66
566.839	14936.97
567.201	14903.29
567.563	14853.13
567.925	14946.23
568.287	14892.9
568.648	14823.3
569.01	15026.68
569.372	15052.22
569.734	14973.58
570.095	15059.67
570.457	15104.19
570.819	15021.03
571.18	15019
571.542	15170.18
571.903	15136.06
572.265	15127.02
572.626	15197.3
572.987	15167.47
573.349	15200.01
573.71	15144.87
574.071	15159.33
574.432	15153.68
574.794	15361.14
575.155	15282.95
575.516	15220.57
575.877	15309.61
576.238	15300.35
576.599	15337.86
576.96	15262.38
577.32	15316.84
577.681	15373.79
578.042	15404.3
578.403	15371.3
578.763	15267.8
579.124	15422.38
579.485	15362.27
579.845	15467.35
580.206	15384.41
580.566	15388.93
580.927	15365.66
581.287	15437.52
581.648	15278.2
582.008	15448.59
582.368	15398.65
582.728	15367.92
583.089	15375.6
583.449	15384.41
583.809	15365.88
584.169	15295.15
584.529	15256.73
584.889	15403.62
585.249	15318.2
585.609	15280.69
585.969	15308.03
586.329	15168.15
586.688	15279.33
587.048	15297.63
587.408	15318.88
587.768	15204.76
588.127	15221.7
588.487	15183.74
588.846	15266
589.206	15140.12
589.565	15199.11
589.925	15164.98
590.284	15163.4
590.643	15191.2
591.003	15240.01
591.362	15309.16
591.721	15247.24
592.08	15145.32
592.44	15235.04
592.799	15316.39
593.158	15167.92
593.517	15133.57
593.876	15230.07
594.235	15118.66
594.593	15135.38
594.952	15226.68
595.311	15047.47
595.67	15151.2
596.029	15172.44
596.387	15137.64
596.746	15248.14
597.104	15124.31
597.463	15140.8
597.822	15232.78
598.18	15138.77
598.538	15099.45
598.897	15146.23
599.255	15042.05
599.613	15321.59
599.972	15119.33
600.33	15190.52
600.688	15066.68
601.046	15112.33
601.404	15133.8
601.762	15173.34
602.12	15204.53
602.478	15215.38
602.836	15047.02
603.194	15062.39
603.552	15185.1
603.91	15058.09
604.268	15196.62
604.625	15146.9
604.983	15137.86
605.341	15026.91
605.698	15153.91
606.056	15281.82
606.413	15113.01
606.771	15250.4
607.128	15138.54
607.485	15160.01
607.843	15196.62
608.2	15328.59
608.557	15364.98
608.914	15190.29
609.272	15298.76
609.629	15267.35
609.986	15383.51
610.343	15214.25
610.7	15363.4
611.057	15342.61
611.414	15372.21
611.771	15343.96
612.127	15351.87
612.484	15420.8
612.841	15348.93
613.198	15317.29
613.554	15345.32
613.911	15428.93
614.267	15513.45
614.624	15393.23
614.98	15445.88
615.337	15493.34
615.693	15410.63
616.05	15494.92
616.406	15466.9
616.762	15451.3
617.118	15442.72
617.475	15427.8
617.831	15575.37
618.187	15537.63
618.543	15562.71
618.899	15513.45
619.255	15619.66
619.611	15604.52
619.967	15638.64
620.323	15758.41
620.678	15576.5
621.034	15592.09
621.39	15610.85
621.746	15501.47
622.101	15743.72
622.457	15587.34
622.812	15639.55
623.168	15717.74
623.523	15665.31
623.879	15633.22
624.234	15567.23
624.589	15600.45
624.945	15657.17
625.3	15609.26
625.655	15734.46
626.01	15535.82
626.365	15632.77
626.72	15670.96
627.075	15567.23
627.43	15641.35
627.785	15612.65
628.14	15618.98
628.495	15693.1
628.85	15521.36
629.205	15547.35
629.559	15619.43
629.914	15489.95
630.269	15550.28
630.623	15479.55
630.978	15493.11
631.332	15462.38
631.687	15493.34
632.041	15499.66
632.396	15496.27
632.75	15356.84
633.104	15418.76
633.459	15352.1
633.813	15402.26
634.167	15385.32
634.521	15348.03
634.875	15418.08
635.229	15343.73
635.583	15296.28
635.937	15379.21
636.291	15179.9
636.645	15240.69
636.999	15253.12
637.352	15235.26
637.706	15218.77
638.06	15239.56
638.413	15189.84
638.767	15140.35
639.121	15172.21
639.474	14997.76
639.828	15020.35
640.181	15078.43
640.534	15143.97
640.888	14993.46
641.241	14989.39
641.594	14999.56
641.947	15093.35
642.301	15055.83
642.654	15026.46
643.007	15037.3
643.36	14995.95
643.713	15007.02
644.066	14967.47
644.419	14917.08
644.771	14884.99
645.124	14741.04
645.477	14667.37
645.83	14618.33
646.182	14555.28
646.535	14498.33
646.888	14410.43
647.24	14442.97
647.593	14464.89
647.945	14494.72
648.298	14421.95
648.65	14378.56
649.002	14303.76
649.355	14408.84
649.707	14408.17
650.059	14447.49
650.411	14708.05
650.763	14650.87
651.115	14840.92
651.467	14749.85
651.819	14735.16
652.171	14695.39
652.523	14758.44
652.875	14746.69
653.227	14546.69
653.578	14767.48
653.93	14760.25
654.282	14644.09
654.633	14662.62
654.985	14706.24
655.337	14645
655.688	14799.34
656.039	14733.81
656.391	14573.59
656.742	14648.84
657.094	14647.71
657.445	14713.02
657.796	14659.01
658.147	14720.93
658.498	14734.94
658.849	14650.19
659.2	14766.8
659.551	14697.65
659.902	14706.01
660.253	14707.82
660.604	14699.91
660.955	14631.89
661.306	14767.03
661.656	14716.41
662.007	14778.55
662.358	14736.29
662.708	14743.3
663.059	14705.11
663.409	14647.48
663.76	14798.66
664.11	14691.55
664.461	14742.17
664.811	14754.6
665.161	14743.75
665.511	14717.99
665.862	14686.58
666.212	14773.58
666.562	14790.76
666.912	14687.26
667.262	14733.81
667.612	14730.19
667.962	14703.98
668.312	14715.95
668.662	14837.08
669.011	14769.29
669.361	14732
669.711	14709.85
670.06	14728.16
670.41	14722.96
670.76	14699.01
671.109	14690.42
671.459	14780.36
671.808	14622.85
672.157	14716.63
672.507	14599.57
672.856	14590.53
673.205	14651.1
673.554	14678.67
673.904	14629.63
674.253	14755.28
674.602	14631.21
674.951	14437.09
675.3	14363.42
675.649	14517.09
675.998	14498.79
676.346	14510.08
676.695	14576.52
677.044	14452.68
677.393	14493.81
677.741	14558.67
678.09	14447.49
678.438	14404.1
678.787	14443.19
679.135	14438
679.484	14466.7
679.832	14345.8
680.181	14317.77
680.529	14393.93
680.877	14298.34
681.225	14234.61
681.573	14356.42
681.922	14216.76
682.27	14227.38
682.618	14187.61
682.966	14249.98
683.314	14203.65
683.661	14099.25
684.009	14106.03
684.357	14010.21
684.705	13981.96
685.053	13962.98
685.4	14020.15
685.748	13953.26
686.095	13969.08
686.443	13801.85
686.79	13726.15
687.138	13850.67
687.485	13763.44
687.832	13780.84
688.18	13713.5
688.527	13674.17
688.874	13602.31
689.221	13653.38
689.568	13621.52
689.915	13583.33
690.262	13584.01
690.609	13480.51
690.956	13379.27
691.303	13437.12
691.65	13414.07
691.997	13303.56
692.344	13264.02
692.69	13278.03
693.037	13180.63
693.383	13129.33
693.73	13116.67
694.077	13055.43
694.423	13009.11
694.769	13000.75
695.116	12983.57
695.462	12940.18
695.808	12849.56
696.155	12879.39
696.501	12808.66
696.847	12846.17
697.193	12654.31
697.539	12641.43
697.885	12546.75
698.231	12526.63
698.577	12512.4
698.923	12484.15
699.269	12438.95
699.614	12430.59
699.96	12409.12
700.306	12335.9
700.651	12320.54
700.997	12156.93
701.342	12184.5
701.688	12164.61
702.033	12160.09
702.379	12081.67
702.724	12103.14
703.069	12033.31
703.415	11909.47
703.76	11915.8
704.105	11914.22
704.45	11869.25
704.795	11792.19
705.14	11756.03
705.485	11770.27
705.83	11706.54
706.175	11763.49
706.52	11591.74
706.865	11533.67
707.209	11493.44
707.554	11473.1
707.899	11541.35
708.243	11474.23
708.588	11425.65
708.932	11354.69
709.277	11301.81
709.621	11408.92
709.966	11352.2
710.31	11331.64
710.654	11221.13
710.998	11247.12
711.342	11232.43
711.687	11220.68
712.031	11116.05
712.375	11122.6
712.719	11070.85
713.063	11062.72
713.407	11158.31
713.75	11036.73
714.094	11027.46
714.438	10947.24
714.782	11021.81
715.125	10887.13
715.469	10938.88
715.812	10898.88
716.156	10803.29
716.499	10807.81
716.843	10843.29
717.186	10773.01
717.53	10751.99
717.873	10797.87
718.216	10804.42
718.559	10758.32
718.902	10707.25
719.246	10751.77
719.589	10780.24
719.932	10691.65
720.275	10700.02
720.617	10657.3
720.96	10610.75
721.303	10662.05
721.646	10573.24
721.989	10573.69
722.331	10589.51
722.674	10514.26
723.016	10571.21
723.359	10551.09
723.701	10524.65
724.044	10472.9
724.386	10440.36
724.729	10548.38
725.071	10474.94
725.413	10406.69
725.755	10441.49
726.097	10437.65
726.439	10356.97
726.782	10365.11
727.124	10472.68
727.465	10351.55
727.807	10394.49
728.149	10346.8
728.491	10366.24
728.833	10372.11
729.175	10418.67
729.516	10370.31
729.858	10331.21
730.199	10390.42
730.541	10282.4
730.882	10347.71
731.224	10359.46
731.565	10300.03
731.906	10322.4
732.248	10338.44
732.589	10292.34
732.93	10248.5
733.271	10310.42
733.612	10309.07
733.953	10308.39
734.294	10229.75
734.635	10283.76
734.976	10340.02
735.317	10274.49
735.658	10276.98
735.999	10300.93
736.339	10257.54
736.68	10274.49
737.021	10222.51
737.361	10239.91
737.702	10376.41
738.042	10233.13
738.383	10328.05
738.723	10392.68
739.063	10265.45
739.404	10356.75
739.744	10268.84
740.084	10305.22
740.424	10288.27
740.764	10313.81
741.104	10370.76
741.444	10307.71
741.784	10301.38
742.124	10368.05
742.464	10343.19
742.804	10410.08
743.143	10380.7
743.483	10405.33
743.823	10409.4
744.162	10449.63
744.502	10523.75
744.841	10457.08
745.181	10608.27
745.52	10597.87
745.86	10650.98
746.199	10638.77
746.538	10707.25
746.877	10757.41
747.216	10814.59
747.556	10830.41
747.895	10887.58
748.234	10937.75
748.573	10958.77
748.911	11027.01
749.25	11108.14
749.589	11120.12
749.928	11200.79
750.267	11368.92
750.605	11320.79
750.944	11353.56
751.283	11507.68
751.621	11627
751.96	11719.42
752.298	11756.71
752.636	11916.03
752.975	11931.85
753.313	12054.78
753.651	12224.04
753.989	12161.45
754.327	12366.41
754.666	12437.6
755.004	12604.6
755.342	12744.03
755.679	12843.69
756.017	12962.78
756.355	13130.69
