Data from hue_60_FLMS001491_26.txt Node
Date: Mon Feb 06 15:17:09 GMT 2017
User: dcchb
Spectrometer: FLMS00149
Trigger mode: 0
Integration Time (sec): 2.000000E-2
Scans to average: 10
Electric dark correction enabled: true
Nonlinearity correction enabled: false
Boxcar width: 0
XAxis mode: Wavelengths
Number of Pixels in Spectrum: 2048
>>>>>Begin Spectral Data<<<<<
341.393	-8.69
341.776	-8.69
342.16	-8.69
342.543	-57.05
342.927	-63.15
343.31	-81.9
343.693	-69.48
344.077	-49.59
344.46	-85.29
344.843	-49.36
345.226	-34.22
345.61	-17.05
345.993	-30.38
346.376	-16.14
346.759	20.69
347.142	30.86
347.525	46.45
347.908	48.71
348.291	69.05
348.674	108.15
349.057	109.5
349.44	137.3
349.823	156.96
350.206	164.19
350.588	196.05
350.971	210.52
351.354	219.33
351.737	234.25
352.119	248.71
352.502	253.45
352.884	298.88
353.267	277.18
353.65	295.94
354.032	306.33
354.414	301.36
354.797	322.6
355.179	328.71
355.562	331.87
355.944	329.61
356.326	327.58
356.709	322.38
357.091	351.76
357.473	339.1
357.855	341.14
358.238	359.67
358.62	339.33
359.002	351.08
359.384	344.07
359.766	335.71
360.148	348.14
360.53	335.03
360.912	322.38
361.294	347.01
361.676	317.18
362.057	352.43
362.439	334.58
362.821	341.81
363.203	324.86
363.584	317.86
363.966	339.55
364.348	325.99
364.729	304.75
365.111	336.16
365.493	320.8
365.874	333.68
366.256	318.76
366.637	321.93
367.019	312.89
367.4	329.38
367.781	317.86
368.163	309.95
368.544	320.57
368.925	311.76
369.306	353.11
369.688	319.67
370.069	328.25
370.45	322.38
370.831	313.79
371.212	321.93
371.593	304.53
371.974	312.66
372.355	302.72
372.736	307.01
373.117	327.58
373.498	317.41
373.879	292.1
374.26	336.62
374.641	329.16
375.021	304.75
375.402	322.15
375.783	339.1
376.163	331.64
376.544	327.8
376.925	327.35
377.305	325.09
377.686	321.02
378.066	329.38
378.447	351.3
378.827	331.19
379.208	325.77
379.588	299.55
379.968	327.35
380.349	323.28
380.729	311.08
381.109	336.84
381.489	348.82
381.87	331.42
382.25	323.06
382.63	321.25
383.01	328.03
383.39	342.94
383.77	349.72
384.15	334.36
384.53	321.02
384.91	363.96
385.29	346.56
385.67	341.81
386.049	363.28
386.429	331.42
386.809	358.31
387.189	354.47
387.568	345.2
387.948	355.37
388.328	371.64
388.707	346.33
389.087	345.43
389.466	362.83
389.846	368.93
390.225	348.82
390.605	349.5
390.984	358.31
391.363	375.26
391.743	374.58
392.122	375.03
392.501	363.73
392.881	369.38
393.26	343.62
393.639	355.6
394.018	365.09
394.397	361.25
394.776	367.58
395.155	342.27
395.534	356.73
395.913	370.74
396.292	378.87
396.671	348.37
397.05	367.12
397.429	387.69
397.808	362.6
398.186	390.4
398.565	374.35
398.944	391.53
399.323	376.61
399.701	363.51
400.08	386.56
400.458	375.94
400.837	370.74
401.215	385.65
401.594	390.63
401.972	385.43
402.351	391.08
402.729	376.84
403.107	397.86
403.486	404.64
403.864	407.57
404.242	418.87
404.62	397.63
404.999	388.37
405.377	408.48
405.755	396.95
406.133	400.12
406.511	402.38
406.889	403.28
407.267	403.05
407.645	404.64
408.023	417.97
408.401	408.48
408.779	410.96
409.156	427.01
409.534	422.94
409.912	405.99
410.29	422.26
410.667	445.09
411.045	423.62
411.422	448.93
411.8	414.35
412.178	443.28
412.555	436.27
412.933	452.54
413.31	448.93
413.687	450.51
414.065	445.31
414.442	458.65
414.819	464.3
415.197	463.17
415.574	444.86
415.951	465.88
416.328	478.31
416.705	487.57
417.082	466.33
417.46	480.79
417.837	486.22
418.214	489.83
418.591	471.08
418.967	467.69
419.344	489.83
419.721	500.23
420.098	488.93
420.475	470.62
420.852	503.39
421.228	491.41
421.605	503.62
421.982	523.5
422.358	512.43
422.735	511.75
423.111	513.11
423.488	507.23
423.864	523.96
424.241	521.7
424.617	533.9
424.994	521.7
425.37	535.48
425.746	540.23
426.123	554.46
426.499	532.77
426.875	526.21
427.251	545.88
427.627	556.72
428.003	537.06
428.379	570.73
428.756	554.24
429.132	566.21
429.507	578.19
429.883	561.69
430.259	554.69
430.635	566.44
431.011	553.11
431.387	591.98
431.763	602.6
432.138	568.47
432.514	615.03
432.89	604.63
433.265	606.89
433.641	626.55
434.016	637.17
434.392	604.41
434.767	622.71
435.143	612.77
435.518	638.08
435.894	623.16
436.269	639.43
436.644	645.31
437.02	671.75
437.395	635.59
437.77	655.93
438.145	664.52
438.52	666.32
438.895	676.95
439.271	671.07
439.646	703.84
440.021	672.43
440.395	686.44
440.77	667.91
441.145	720.56
441.52	687.79
441.895	706.55
442.27	700.9
442.645	708.36
443.019	739.09
443.394	730.28
443.769	723.72
444.143	720.33
444.518	729.83
444.892	719.88
445.267	742.71
445.641	749.49
446.016	730.96
446.39	717.62
446.764	724.85
447.139	754.46
447.513	732.76
447.887	747
448.262	777.73
448.636	773.67
449.01	764.85
449.384	765.3
449.758	765.08
450.132	773.44
450.506	820.44
450.88	802.82
451.254	809.37
451.628	800.33
452.002	793.55
452.376	801.46
452.75	827
453.123	812.31
453.497	805.08
453.871	818.18
454.244	862.48
454.618	852.08
454.992	831.74
455.365	867.67
455.739	897.73
456.112	874.91
456.486	882.82
456.859	871.97
457.232	920.33
457.606	894.11
457.979	937.28
458.352	944.51
458.725	957.62
459.099	953.77
459.472	951.51
459.845	979.54
460.218	1003.94
460.591	995.81
460.964	992.87
461.337	1047.33
461.71	1032.64
462.083	1040.55
462.456	1040.33
462.829	1085.07
463.201	1063.38
463.574	1088.46
463.947	1103.6
464.32	1129.59
464.692	1115.58
465.065	1133.43
465.438	1178.85
465.81	1166.88
466.183	1182.47
466.555	1219.08
466.928	1233.54
467.3	1230.38
467.672	1283.26
468.045	1305.86
468.417	1297.95
468.789	1311.96
469.161	1342.01
469.534	1357.61
469.906	1393.99
470.278	1403.48
470.65	1412.97
471.022	1462.91
471.394	1479.86
471.766	1520.99
472.138	1520.77
472.51	1553.98
472.882	1590.37
473.253	1627.88
473.625	1714.21
473.997	1729.8
474.369	1783.13
474.74	1795.56
475.112	1830.59
475.484	1881.43
475.855	1892.73
476.227	1983.13
476.598	2053.86
476.97	2078.26
477.341	2131.37
477.713	2198.71
478.084	2227.87
478.455	2329.78
478.827	2338.14
479.198	2454.75
479.569	2469.44
479.94	2574.3
480.311	2628.98
480.682	2714.41
481.053	2820.39
481.424	2905.59
481.795	2987.17
482.166	3034.62
482.537	3161.17
482.908	3219.25
483.279	3305.58
483.65	3406.14
484.021	3580.82
484.391	3667.38
484.762	3775.85
485.133	3812.91
485.503	3965.45
485.874	4078.66
486.244	4178.32
486.615	4270.52
486.985	4401.37
487.356	4559.78
487.726	4738.76
488.097	4851.52
488.467	4962.26
488.837	5093.55
489.207	5224.4
489.578	5361.12
489.948	5551.17
490.318	5680.66
490.688	5805.62
491.058	5969.69
491.428	6077.26
491.798	6236.12
492.168	6445.83
492.538	6541.42
492.908	6703.45
493.278	6909.78
493.648	7012.37
494.017	7212.82
494.387	7293.49
494.757	7484
495.126	7669.3
495.496	7769.19
495.866	7911.11
496.235	8113.59
496.605	8220.48
496.974	8441.71
497.344	8563.74
497.713	8656.17
498.082	8894.36
498.452	9088.7
498.821	9181.81
499.19	9294.12
499.559	9444.85
499.928	9619.76
500.298	9707.89
500.667	9936.36
501.036	10060.65
501.405	10197.83
501.774	10273.08
502.143	10493.18
502.512	10592.16
502.88	10733.86
503.249	10921.65
503.618	11058.82
503.987	11149.44
504.356	11301.3
504.724	11470.11
505.093	11585.59
505.462	11594.17
505.83	11839.59
506.199	12036.42
506.567	12186.93
506.936	12266.25
507.304	12558.44
507.672	12612.45
508.041	12723.63
508.409	12823.74
508.777	13010.41
509.145	13150.52
509.514	13256.5
509.882	13423.73
510.25	13500.56
510.618	13609.26
510.986	13738.97
511.354	14020.78
511.722	14172.41
512.09	14295.34
512.458	14316.81
512.826	14575.34
513.193	14613.75
513.561	14762.9
513.929	14844.93
514.297	15032.05
514.664	15241.76
515.032	15283.12
515.4	15478.36
515.767	15562.2
516.135	15711.58
516.502	15672.26
516.869	15959.93
517.237	16078.35
517.604	16096.43
517.972	16379.81
518.339	16457.55
518.706	16545.68
519.073	16608.96
519.44	16901.6
519.808	16953.13
520.175	17060.7
520.542	17269.5
520.909	17426.11
521.276	17500.23
521.643	17702.94
522.009	17830.17
522.376	17838.3
522.743	18107.22
523.11	18245.07
523.477	18481.9
523.843	18633.99
524.21	18744.72
524.577	18971.15
524.943	18976.13
525.31	19105.16
525.676	19405.72
526.043	19454.3
526.409	19587.63
526.776	19717.35
527.142	19924.8
527.508	20012.26
527.874	20187.62
528.241	20343.55
528.607	20391.23
528.973	20572.24
529.339	20642.75
529.705	20920.48
530.071	20979.69
530.437	21073.25
530.803	21261.94
531.169	21315.05
531.535	21381.03
531.901	21535.38
532.267	21532.67
532.632	21823.73
532.998	21870.06
533.364	21969.27
533.73	22085.87
534.095	22268.24
534.461	22287
534.826	22366.54
535.192	22472.98
535.557	22644.05
535.923	22642.24
536.288	22942.8
536.653	22991.16
537.019	22933.54
537.384	23065.51
537.749	23174.43
538.114	23170.14
538.479	23301.66
538.845	23328.33
539.21	23330.36
539.575	23481.77
539.94	23580.3
540.305	23657.81
540.67	23713.85
541.034	23886.5
541.399	23899.39
541.764	24025.94
542.129	24180.06
542.494	24178.7
542.858	24219.83
543.223	24293.5
543.587	24394.29
543.952	24375.31
544.316	24563.55
544.681	24616.2
545.045	24759.7
545.41	24838.8
545.774	24887.61
546.138	24934.16
546.503	24973.48
546.867	25039.47
547.231	25297.09
547.595	25220.25
547.959	25448.95
548.324	25354.94
548.688	25468.84
549.052	25569.62
549.416	25641.94
549.779	25649.62
550.143	25736.85
550.507	25879.9
550.871	26055.71
551.235	25871.31
551.599	26147.01
551.962	26268.59
552.326	26406.66
552.689	26420.9
553.053	26477.17
553.417	26583.16
553.78	26765.98
554.143	26711.52
554.507	26891.85
554.87	26937.05
555.234	27171.62
555.597	27172.97
555.96	27210.94
556.323	27401.67
556.686	27370.03
557.05	27666.07
557.413	27759.17
557.776	27877.13
558.139	27901.09
558.502	28023.35
558.865	28216.79
559.228	28343.34
559.59	28493.62
559.953	28466.5
560.316	28627.17
560.679	28815.87
561.041	28868.07
561.404	28946.26
561.767	29247.72
562.129	29033.49
562.492	29467.6
562.854	29309.64
563.217	29514.61
563.579	29579.69
563.941	29743.3
564.304	29932.22
564.666	30122.95
565.028	30070.52
565.39	30267.13
565.753	30505.31
566.115	30663.5
566.477	30798.41
566.839	30863.04
567.201	31057.84
567.563	31083.15
567.925	31226.88
568.287	31256.48
568.648	31376.25
569.01	31464.61
569.372	31654.21
569.734	31503.93
570.095	31804.71
570.457	31940.08
570.819	31972.39
571.18	32046.74
571.542	32273.85
571.903	32373.51
572.265	32459.61
572.626	32514.75
572.987	32647.18
573.349	32650.79
573.71	32945.48
574.071	32785.03
574.432	32853.95
574.794	33233.15
575.155	33200.16
575.516	33135.75
575.877	33301.62
576.238	33353.83
576.599	33563.99
576.96	33513.6
577.32	33439.93
577.681	33738
578.042	33787.26
578.403	33707.72
578.763	33869.97
579.124	33893.93
579.485	33974.83
579.845	34170.98
580.206	34041.27
580.566	34143.18
580.927	34106.8
581.287	34345.66
581.648	34207.36
582.008	34367.81
582.368	34339.11
582.728	34393.35
583.089	34372.56
583.449	34347.25
583.809	34469.28
584.169	34414.36
584.529	34409.62
584.889	34797.63
585.249	34504.53
585.609	34413.46
585.969	34527.58
586.329	34615.71
586.688	34519.22
587.048	34611.87
587.408	34636.73
587.768	34598.77
588.127	34561.25
588.487	34508.6
588.846	34837.86
589.206	34490.97
589.565	34587.47
589.925	34829.04
590.284	34755.37
590.643	34920.34
591.003	34882.83
591.362	34985.2
591.721	34870.4
592.08	34995.82
592.44	35042.6
592.799	34896.38
593.158	34984.07
593.517	35044.18
593.876	35089.83
594.235	34935.03
594.593	35166.43
594.952	35082.59
595.311	35093.44
595.67	35073.78
596.029	35250.5
596.387	35233.55
596.746	35391.96
597.104	35229.03
597.463	35284.17
597.822	35357.84
598.18	35254.57
598.538	35223.61
598.897	35595.8
599.255	35259.31
599.613	35743.37
599.972	35493.66
600.33	35729.58
600.688	35399.42
601.046	35669.92
601.404	35769.13
601.762	35805.06
602.12	35898.39
602.478	35903.36
602.836	36022
603.194	35745.18
603.552	35899.07
603.91	35697.27
604.268	36028.33
604.625	36001.67
604.983	36206.18
605.341	36078.5
605.698	36286.63
606.056	36386.52
606.413	36276.01
606.771	36397.36
607.128	36527.08
607.485	36295.9
607.843	36379.96
608.2	36685.72
608.557	36757.35
608.914	36640.75
609.272	36800.52
609.629	36883.23
609.986	36931.59
610.343	36754.64
610.7	37037.12
611.057	37035.31
611.414	37088.42
611.771	37125.93
612.127	37232.14
612.484	37231.92
612.841	37407.73
613.198	37375.64
613.554	37373.61
613.911	37512.14
614.267	37634.62
614.624	37497.67
614.98	37635.97
615.337	37797.33
615.693	37691.79
616.05	37764.33
616.406	37958.23
616.762	37822.64
617.118	37841.62
617.475	37828.29
617.831	37997.77
618.187	38038
618.543	38127.49
618.899	38448.83
619.255	38437.08
619.611	38334.94
619.967	38554.14
620.323	38530.64
620.678	38359.34
621.034	38470.08
621.39	38389.63
621.746	38332
622.101	38878.88
622.457	38579
622.812	38645.66
623.168	38803.85
623.523	38862.38
623.879	38919.56
624.234	38496.52
624.589	38800.91
624.945	38743.74
625.3	38783.74
625.655	38880.91
626.01	38907.58
626.365	38828.71
626.72	38920.46
627.075	38969.72
627.43	38850.41
627.785	38826
628.14	38920.46
628.495	38790.29
628.85	38887.47
629.205	38861.7
629.559	39113.22
629.914	38904.87
630.269	38748.26
630.623	38832.33
630.978	38862.16
631.332	38901.48
631.687	39076.39
632.041	38805.21
632.396	38906.45
632.75	38595.5
633.104	38847.47
633.459	38628.49
633.813	38677.98
634.167	38797.75
634.521	38690.18
634.875	38726.79
635.229	38711.65
635.583	38531.77
635.937	38576.06
636.291	38528.61
636.645	38600.92
636.999	38391.66
637.352	38541.49
637.706	38398.67
638.06	38652.9
638.413	38575.38
638.767	38441.15
639.121	38492.9
639.474	38140.37
639.828	38283.19
640.181	38430.08
640.534	38360.47
640.888	38212
641.241	38156.64
641.594	38093.14
641.947	38134.49
642.301	38204.32
642.654	38180.14
643.007	38056.08
643.36	38161.84
643.713	38067.37
644.066	38209.07
644.419	38106.92
644.771	37684.33
645.124	37302.65
645.477	37448.63
645.83	37130.22
646.182	36984.24
646.535	36834.64
646.888	37014.97
647.24	36693.85
647.593	37085.25
647.945	36970.68
648.298	36731.14
648.65	36687.52
649.002	36636.68
649.355	36763.45
649.707	36552.39
650.059	36781.98
650.411	37227.62
650.763	37176.1
651.115	37639.14
651.467	37493.38
651.819	37493.83
652.171	37339.71
652.523	37304.01
652.875	37325.25
653.227	37247.96
653.578	37479.59
653.93	37407.96
654.282	37205.93
654.633	37094.07
654.985	37150.34
655.337	37170.68
655.688	37120.73
656.039	37275.98
656.391	37036.22
656.742	37086.38
657.094	37169.77
657.445	37170.45
657.796	37093.84
658.147	37053.84
658.498	36969.78
658.849	37033.28
659.2	36989.21
659.551	36977.01
659.902	37049.1
660.253	36937.23
660.604	37027.63
660.955	36799.39
661.306	37027.85
661.656	36966.16
662.007	36876.22
662.358	36908.31
662.708	36770.46
663.059	36930.91
663.409	36604.59
663.76	36845.49
664.11	36847.07
664.461	36840.51
664.811	36878.93
665.161	36841.87
665.511	36890
665.862	36704.25
666.212	36901.08
666.562	36813.4
666.912	36737.92
667.262	36742.89
667.612	36872.6
667.962	36790.8
668.312	36735.66
668.662	37087.97
669.011	36866.5
669.361	36741.53
669.711	36678.71
670.06	36516.68
670.41	36677.81
670.76	36538.6
671.109	36686.39
671.459	36577.02
671.808	36622.44
672.157	36704.47
672.507	36567.53
672.856	36566.85
673.205	36483.24
673.554	36554.65
673.904	36435.1
674.253	36591.71
674.602	36415.44
674.951	35897.71
675.3	35830.37
675.649	36429.23
675.998	36450.02
676.346	36354.88
676.695	36508.09
677.044	36170.25
677.393	36283.47
677.741	36257.03
678.09	36262.45
678.438	36028.78
678.787	36022.23
679.135	36090.7
679.484	35922.35
679.832	36162.57
680.181	35904.04
680.529	36085.73
680.877	35954.89
681.225	35864.04
681.573	36006.41
681.922	35881.44
682.27	35702.01
682.618	35756.25
682.966	35537.27
683.314	35621.34
683.661	35623.82
684.009	35479.87
684.357	35432.42
684.705	35351.29
685.053	35302.48
685.4	35304.96
685.748	35155.13
686.095	35132.76
686.443	35088.92
686.79	34994.69
687.138	35051.41
687.485	35067.23
687.832	34977.96
688.18	35023.39
688.527	34639.22
688.874	34788.82
689.221	34699.78
689.568	34479.22
689.915	34565.09
690.262	34377.08
690.609	34359
690.956	34194.48
691.303	34260.7
691.65	34036.07
691.997	34111.09
692.344	33895.51
692.69	33875.39
693.037	33772.57
693.383	33563.31
693.73	33589.3
694.077	33554.73
694.423	33484.67
694.769	33401.51
695.116	33404.22
695.462	33321.96
695.808	33203.55
696.155	33263.21
696.501	33034.29
696.847	32997
697.193	32757.46
697.539	32902.99
697.885	32578.93
698.231	32520.63
698.577	32569.89
698.923	32534.86
699.269	32317.47
699.614	32220.75
699.96	32084.48
700.306	32147.98
700.651	31937.59
700.997	32048.32
701.342	31903.24
701.688	31880.64
702.033	31839.06
702.379	31648.56
702.724	31554.33
703.069	31706.19
703.415	31244.73
703.76	31385.74
704.105	31392.3
704.45	31275.91
704.795	31092.87
705.14	31047.9
705.485	30903.04
705.83	30809.94
706.175	30967.22
706.52	30855.36
706.865	30680.9
707.209	30756.38
707.554	30666.89
707.899	30576.72
708.243	30420.57
708.588	30383.73
708.932	30101.03
709.277	30173.57
709.621	30200.24
709.966	30014.25
710.31	30047.92
710.654	29783.52
710.998	29745.33
711.342	29944.88
711.687	29750.31
712.031	29706.69
712.375	29605.45
712.719	29595.51
713.063	29525
713.407	29649.29
713.75	29370.65
714.094	29462.86
714.438	29284.33
714.782	29369.3
715.125	29122.75
715.469	29095.41
715.812	29104.22
716.156	28854.51
716.499	28971.57
716.843	29013.15
717.186	28823.1
717.53	28837.56
717.873	28910.33
718.216	28837.11
718.559	28585.82
718.902	28389.21
719.246	28471.69
719.589	28383.11
719.932	28294.75
720.275	28369.55
720.617	28360.29
720.96	28227.86
721.303	28242.55
721.646	28214.07
721.989	28105.15
722.331	28067.86
722.674	28075.77
723.016	28084.13
723.359	27977.7
723.701	28005.27
724.044	27808.89
724.386	27643.69
724.729	27853.41
725.071	27794.65
725.413	27675.78
725.755	27676.91
726.097	27594.2
726.439	27367.32
726.782	27349.01
727.124	27596.69
727.465	27383.59
727.807	27314.89
728.149	27382.46
728.491	27293.65
728.833	27273.76
729.175	27227.43
729.516	27186.3
729.858	27037.16
730.199	27046.42
730.541	26996.93
730.882	26945.86
731.224	27005.29
731.565	26934.79
731.906	26831.74
732.248	26843.94
732.589	26645.75
732.93	26644.62
733.271	26642.59
733.612	26758.29
733.953	26730.27
734.294	26542.25
734.635	26516.04
734.976	26514.46
735.317	26335.25
735.658	26386.55
735.999	26206.67
736.339	26321.92
736.68	26386.55
737.021	26301.81
737.361	26078.09
737.702	26294.58
738.042	26157.86
738.383	26148.82
738.723	26091.42
739.063	25978.65
739.404	26123.73
739.744	25997.86
740.084	25953.79
740.424	25894.81
740.764	25915.83
741.104	26005.55
741.444	25789.28
741.784	25655.27
742.124	25758.32
742.464	25626.12
742.804	25679.68
743.143	25556.52
743.483	25558.55
743.823	25458.89
744.162	25603.75
744.502	25444.88
744.841	25374.38
745.181	25377.54
745.52	25273.13
745.86	25342.29
746.199	25244.21
746.538	25210.76
746.877	25403.3
747.216	25225
747.556	25128.28
747.895	25154.27
748.234	25020.49
748.573	25040.37
748.911	24995.63
749.25	25057.55
749.589	24817.33
749.928	24889.64
750.267	24745.01
750.605	24743.88
750.944	24733.04
751.283	24617.78
751.621	24603.32
751.96	24581.18
752.298	24513.61
752.636	24503.89
752.975	24353.61
753.313	24343.22
753.651	24429.09
753.989	24265.48
754.327	24242.43
754.666	24201.52
755.004	24137.35
755.342	24130.79
755.679	24065.48
756.017	23801.54
756.355	24073.39
756.693	23802.21
