Data from hue_160_FLMS001491_00003.txt Node
Date: Tue Feb 07 16:50:40 GMT 2017
User: dcchb
Spectrometer: FLMS00149
Trigger mode: 0
Integration Time (sec): 2.000000E-2
Scans to average: 10
Electric dark correction enabled: true
Nonlinearity correction enabled: false
Boxcar width: 0
XAxis mode: Wavelengths
Number of Pixels in Spectrum: 2048
>>>>>Begin Spectral Data<<<<<
341.393	-2.43
341.776	-2.43
342.16	-2.43
342.543	-52.37
342.927	-76.33
343.31	-60.73
343.693	-77.23
344.077	-57.12
344.46	-48.53
344.843	-62.54
345.226	-52.6
345.61	-34.97
345.993	-30.68
346.376	-6.5
346.759	16.1
347.142	32.37
347.525	40.51
347.908	70.11
348.291	67.85
348.674	90.22
349.057	113.73
349.44	128.41
349.823	117.79
350.206	149.21
350.588	193.95
350.971	216.32
351.354	231.69
351.737	222.65
352.119	234.17
352.502	269.2
352.884	265.81
353.267	278.69
353.65	288.86
354.032	307.85
354.414	309.88
354.797	301.52
355.179	306.49
355.562	308.52
355.944	315.08
356.326	329.77
356.709	349.65
357.091	329.99
357.473	326.6
357.855	341.74
358.238	359.82
358.62	362.31
359.002	345.81
359.384	333.16
359.766	332.93
360.148	334.74
360.53	335.64
360.912	349.43
361.294	355.08
361.676	343.78
362.057	341.97
362.439	324.57
362.821	334.96
363.203	343.1
363.584	317.34
363.966	323.66
364.348	313.27
364.729	313.95
365.111	305.59
365.493	314.17
365.874	288.86
366.256	295.87
366.637	313.27
367.019	314.17
367.4	331.35
367.781	294.29
368.163	322.31
368.544	314.4
368.925	315.75
369.306	325.7
369.688	313.27
370.069	325.47
370.45	308.52
370.831	298.13
371.212	318.47
371.593	297.68
371.974	302.42
372.355	311.01
372.736	312.36
373.117	313.49
373.498	334.51
373.879	298.35
374.26	324.34
374.641	319.37
375.021	314.17
375.402	327.73
375.783	316.21
376.163	326.83
376.544	332.25
376.925	315.3
377.305	309.88
377.686	337.45
378.066	335.64
378.447	326.6
378.827	321.86
379.208	305.81
379.588	327.96
379.968	319.6
380.349	299.94
380.729	320.27
381.109	344.23
381.489	342.87
381.87	324.57
382.25	301.52
382.63	339.93
383.01	357.34
383.39	353.04
383.77	327.96
384.15	339.48
384.53	346.26
384.91	365.24
385.29	346.71
385.67	350.56
386.049	341.52
386.429	357.11
386.809	339.48
387.189	351.46
387.568	349.43
387.948	363.89
388.328	357.11
388.707	358.01
389.087	367.96
389.466	361.85
389.846	384.68
390.225	365.92
390.605	366.37
390.984	365.92
391.363	355.53
391.743	360.72
392.122	348.75
392.501	380.39
392.881	373.38
393.26	369.54
393.639	359.37
394.018	375.87
394.397	357.34
394.776	383.78
395.155	393.49
395.534	365.7
395.913	393.72
396.292	366.15
396.671	411.12
397.05	367.5
397.429	367.96
397.808	378.58
398.186	385.13
398.565	393.49
398.944	377.9
399.323	391.68
399.701	396.43
400.08	406.15
400.458	395.07
400.837	389.65
401.215	399.14
401.594	407.73
401.972	419.71
402.351	384.45
402.729	412.25
403.107	414.51
403.486	416.32
403.864	413.83
404.242	413.15
404.62	427.39
404.999	416.99
405.377	435.75
405.755	421.29
406.133	424
406.511	421.74
406.889	419.25
407.267	434.17
407.645	460.84
408.023	429.65
408.401	446.82
408.779	448.63
409.156	462.87
409.534	431.01
409.912	468.74
410.29	458.58
410.667	460.84
411.045	467.39
411.422	456.32
411.8	440.5
412.178	472.13
412.555	456.09
412.933	499.7
413.31	502.19
413.687	499.48
414.065	482.98
414.442	488.86
414.819	492.7
415.197	505.58
415.574	493.38
415.951	521.4
416.328	500.83
416.705	496.77
417.082	512.13
417.46	508.74
417.837	530.66
418.214	525.92
418.591	510.55
418.967	522.98
419.344	518.01
419.721	545.13
420.098	538.35
420.475	558.91
420.852	548.97
421.228	551
421.605	558.01
421.982	560.95
422.358	574.96
422.735	572.92
423.111	569.53
423.488	585.8
423.864	580.83
424.241	577.44
424.617	604.11
424.994	594.17
425.37	593.71
425.746	576.54
426.123	609.31
426.499	606.37
426.875	613.83
427.251	628.29
427.627	596.88
428.003	612.7
428.379	640.04
428.756	651.11
429.132	643.43
429.507	638.23
429.883	644.11
430.259	670.1
430.635	667.16
431.011	658.12
431.387	678.46
431.763	705.12
432.138	675.07
432.514	712.13
432.89	684.56
433.265	709.87
433.641	702.41
434.016	718.68
434.392	725.24
434.767	717.78
435.143	718.91
435.518	740.83
435.894	774.27
436.269	770.88
436.644	781.5
437.02	775.18
437.395	755.29
437.77	791
438.145	783.09
438.52	790.54
438.895	798.23
439.271	806.81
439.646	836.87
440.021	802.75
440.395	820.15
440.77	849.07
441.145	842.75
441.52	858.34
441.895	844.55
442.27	849.53
442.645	862.41
443.019	862.86
443.394	874.84
443.769	884.78
444.143	861.05
444.518	890.43
444.892	878.23
445.267	913.93
445.641	938.56
446.016	909.86
446.39	919.58
446.764	913.48
447.139	925.68
447.513	926.81
447.887	918.22
448.262	949.64
448.636	972.91
449.01	963.65
449.384	980.6
449.758	1003.65
450.132	988.51
450.506	999.35
450.88	1005.23
451.254	1016.75
451.628	989.41
452.002	1013.14
452.376	1047.26
452.75	1034.38
453.123	1058.33
453.497	1076.19
453.871	1073.25
454.244	1101.5
454.618	1096.3
454.992	1086.81
455.365	1129.52
455.739	1150.76
456.112	1146.02
456.486	1167.03
456.859	1196.86
457.232	1188.5
457.606	1193.02
457.979	1199.12
458.352	1239.8
458.725	1235.5
459.099	1244.09
459.472	1271.66
459.845	1284.99
460.218	1307.82
460.591	1277.54
460.964	1321.83
461.337	1351.89
461.71	1367.25
462.083	1369.51
462.456	1390.08
462.829	1419.45
463.201	1424.65
463.574	1451.77
463.947	1463.75
464.32	1494.25
464.692	1517.76
465.065	1548.94
465.438	1535.38
465.81	1581.71
466.183	1590.52
466.555	1635.49
466.928	1616.74
467.3	1645.89
467.672	1691.54
468.045	1744.42
468.417	1719.33
468.789	1747.81
469.161	1796.85
469.534	1818.54
469.906	1858.31
470.278	1885.88
470.65	1919.33
471.022	1947.8
471.394	1984.19
471.766	2008.82
472.138	2051.98
472.51	2103.05
472.882	2124.29
473.253	2191.86
473.625	2245.87
473.997	2292.65
474.369	2330.39
474.74	2347.34
475.112	2417.85
475.484	2488.35
475.855	2537.39
476.227	2592.3
476.598	2675.47
476.97	2745.97
477.341	2786.42
477.713	2857.61
478.084	2890.15
478.455	2998.85
478.827	3040.43
479.198	3129.47
479.569	3207.43
479.94	3290.82
480.311	3378.27
480.682	3446.29
481.053	3571.71
481.424	3691.03
481.795	3703.91
482.166	3831.59
482.537	3879.05
482.908	4033.62
483.279	4094.86
483.65	4194.52
484.021	4326.95
484.391	4415.31
484.762	4535.53
485.133	4615.75
485.503	4704.79
485.874	4863.66
486.244	4957.67
486.615	5118.11
486.985	5142.29
487.356	5352.91
487.726	5446.01
488.097	5566.92
488.467	5692.79
488.837	5839.22
489.207	6017.75
489.578	6085.77
489.948	6201.93
490.318	6365.54
490.688	6439.21
491.058	6589.94
491.428	6782.48
491.798	6828.8
492.168	7008.23
492.538	7103.15
492.908	7266.53
493.278	7399.18
493.648	7492.97
494.017	7624.71
494.387	7774.54
494.757	7900.64
495.126	8024.03
495.496	8064.25
495.866	8200.74
496.235	8349.44
496.605	8458.59
496.974	8585.59
497.344	8692.94
497.713	8756.66
498.082	8875.53
498.452	8998.01
498.821	9106.71
499.19	9201.4
499.559	9255.18
499.928	9334.05
500.298	9454.05
500.667	9607.71
501.036	9619.92
501.405	9779.69
501.774	9863.53
502.143	9921.38
502.512	9986.01
502.88	10149.39
503.249	10102.62
503.618	10224.87
503.987	10298.09
504.356	10411.53
504.724	10470.52
505.093	10572.21
505.462	10531.31
505.83	10658.08
506.199	10707.8
506.567	10920.45
506.936	10928.36
507.304	11044.29
507.672	11089.93
508.041	11089.03
508.409	11241.34
508.777	11311.85
509.145	11401.56
509.514	11376.71
509.882	11452.86
510.25	11445.18
510.618	11537.15
510.986	11611.28
511.354	11707.32
511.722	11763.59
512.09	11760.2
512.458	11823.7
512.826	11966.52
513.193	11937.14
513.561	11983.92
513.929	12014.2
514.297	12164.71
514.664	12244.71
515.032	12151.6
515.4	12256.68
515.767	12210.81
516.135	12339.39
516.502	12179.17
516.869	12391.14
517.237	12352.5
517.604	12409.9
517.972	12479.28
518.339	12450.58
518.706	12485.15
519.073	12466.85
519.44	12545.72
519.808	12584.13
520.175	12527.41
520.542	12657.12
520.909	12683.56
521.276	12731.7
521.643	12768.76
522.009	12862.32
522.376	12878.59
522.743	12835.88
523.11	12890.57
523.477	13030.45
523.843	12985.93
524.21	13138.92
524.577	13070.67
524.943	13045.59
525.31	13102.99
525.676	13211.69
526.043	13184.79
526.409	13188.41
526.776	13274.51
527.142	13290.78
527.508	13220.27
527.874	13309.54
528.241	13356.54
528.607	13275.87
528.973	13361.06
529.339	13283.32
529.705	13327.16
530.071	13399.7
530.437	13391.34
530.803	13403.77
531.169	13392.47
531.535	13354.28
531.901	13393.6
532.267	13371.23
532.632	13394.05
532.998	13298.69
533.364	13343.66
533.73	13371.46
534.095	13413.94
534.461	13281.52
534.826	13376.43
535.192	13268.18
535.557	13380.72
535.923	13186.83
536.288	13268.18
536.653	13107.06
537.019	13153.16
537.384	13121.07
537.749	13150.22
538.114	13088.75
538.479	12996.32
538.845	13058.47
539.21	12996.78
539.575	13038.36
539.94	12967.17
540.305	12952.03
540.67	12890.57
541.034	12943.9
541.399	12885.59
541.764	12755.43
542.129	12812.37
542.494	12813.5
542.858	12669.1
543.223	12719.95
543.587	12677.92
543.952	12697.8
544.316	12621.19
544.681	12546.85
545.045	12587.07
545.41	12538.26
545.774	12454.19
546.138	12492.16
546.503	12470.24
546.867	12356.34
547.231	12400.41
547.595	12316.12
547.959	12377.58
548.324	12242.45
548.688	12276.34
549.052	12253.07
549.416	12239.73
549.779	12171.49
550.143	12199.96
550.507	12074.54
550.871	12042.68
551.235	12009.91
551.599	12106.4
551.962	12031.6
552.326	11971.95
552.689	11972.62
553.053	11879.52
553.417	11842.68
553.78	12001.1
554.143	11847.43
554.507	11827.77
554.87	11855.34
555.234	11943.25
555.597	11807.2
555.96	11757.04
556.323	11776.7
556.686	11719.97
557.05	11777.15
557.413	11720.43
557.776	11800.42
558.139	11743.25
558.502	11678.62
558.865	11691.5
559.228	11709.81
559.59	11705.74
559.953	11675
560.316	11762.46
560.679	11715
561.041	11698.51
561.404	11784.15
561.767	11733.08
562.129	11753.42
562.492	11775.11
562.854	11711.16
563.217	11675.68
563.579	11692.18
563.941	11738.28
564.304	11777.6
564.666	11781.89
565.028	11722.91
565.39	11691.73
565.753	11749.35
566.115	11658.06
566.477	11802.91
566.839	11764.27
567.201	11821.67
567.563	11828.45
567.925	11847.65
568.287	11848.56
568.648	11838.16
569.01	11847.43
569.372	11861.89
569.734	11807.2
570.095	11864.38
570.457	11850.59
570.819	11882.46
571.18	11835.68
571.542	11936.69
571.903	11941.44
572.265	11948.44
572.626	11991.83
572.987	11985.28
573.349	11978.05
573.71	12005.16
574.071	12089.46
574.432	12058.5
574.794	12110.47
575.155	12022.34
575.516	11951.15
575.877	12038.84
576.238	12069.12
576.599	12054.2
576.96	12051.49
577.32	12009.46
577.681	12087.2
578.042	12053.75
578.403	12056.24
578.763	12117.93
579.124	12086.74
579.485	12138.27
579.845	12113.86
580.206	12048.78
580.566	12100.53
580.927	12015.56
581.287	12072.73
581.648	12045.62
582.008	12097.14
582.368	12051.27
582.728	12142.56
583.089	12001.32
583.449	12015.33
583.809	12063.69
584.169	12070.02
584.529	12063.92
584.889	12063.92
585.249	11985.28
585.609	11937.82
585.969	12016.01
586.329	11991.83
586.688	11932.4
587.048	11966.3
587.408	11882.46
587.768	11909.35
588.127	11959.52
588.487	11864.38
588.846	11942.57
589.206	11892.63
589.565	11922.68
589.925	11930.82
590.284	11906.86
590.643	11891.95
591.003	11993.87
591.362	11915.45
591.721	11839.07
592.08	11873.64
592.44	11861.67
592.799	11853.98
593.158	11824.6
593.517	11832.06
593.876	11738.96
594.235	11788.45
594.593	11764.27
594.952	11781.44
595.311	11752.06
595.67	11729.01
596.029	11900.76
596.387	11912.51
596.746	11836.36
597.104	11772.85
597.463	11785.51
597.822	11814.44
598.18	11712.97
598.538	11743.02
598.897	11797.03
599.255	11654.89
599.613	11828.45
599.972	11775.57
600.33	11815.34
600.688	11671.16
601.046	11787.09
601.404	11762.69
601.762	11778.96
602.12	11757.94
602.478	11809.92
602.836	11851.04
603.194	11738.73
603.552	11795.45
603.91	11763.81
604.268	11801.33
604.625	11749.13
604.983	11768.33
605.341	11689.24
605.698	11778.5
606.056	11816.47
606.413	11783.25
606.771	11894.21
607.128	11817.82
607.485	11724.95
607.843	11767.66
608.2	11795.45
608.557	11832.51
608.914	11802.01
609.272	11839.07
609.629	11805.17
609.986	11734.66
610.343	11768.56
610.7	11826.41
611.057	11846.3
611.414	11818.95
611.771	11923.81
612.127	11892.4
612.484	11867.99
612.841	11966.3
613.198	11826.64
613.554	11864.15
613.911	11951.61
614.267	11945.05
614.624	11939.18
614.98	11940.08
615.337	11969.46
615.693	11958.61
616.05	11960.19
616.406	11979.4
616.762	11976.69
617.118	12035.67
617.475	12063.24
617.831	12044.03
618.187	11992.51
618.543	12075.67
618.899	12099.17
619.255	12089.46
619.611	12025.73
619.967	12104.6
620.323	12059.63
620.678	12067.54
621.034	12038.38
621.39	12052.85
621.746	12069.57
622.101	12164.26
622.457	12063.02
622.812	12115.67
623.168	12067.99
623.523	12162
623.879	12130.58
624.234	12005.16
624.589	12061.66
624.945	12083.35
625.3	12156.35
625.655	12079.29
626.01	12139.17
626.365	12087.2
626.72	12066.63
627.075	12170.81
627.43	11992.74
627.785	12013.75
628.14	12088.78
628.495	12088.1
628.85	12039.74
629.205	11997.03
629.559	12079.06
629.914	12035.22
630.269	12042.45
630.623	11967.65
630.978	12017.82
631.332	12012.4
631.687	12032.73
632.041	11959.06
632.396	11951.38
632.75	11833.19
633.104	11899.18
633.459	11929.69
633.813	11947.99
634.167	11970.82
634.521	11903.92
634.875	11929.23
635.229	11936.92
635.583	11809.92
635.937	11784.83
636.291	11908.9
636.645	11796.58
636.999	11801.33
637.352	11793.64
637.706	11760.2
638.06	11786.19
638.413	11704.83
638.767	11673.65
639.121	11693.99
639.474	11606.53
639.828	11625.51
640.181	11720.43
640.534	11620.77
640.888	11575.57
641.241	11537.83
641.594	11602.92
641.947	11590.03
642.301	11642.69
642.654	11644.27
643.007	11567.21
643.36	11594.78
643.713	11599.07
644.066	11539.19
644.419	11545.29
644.771	11467.55
645.124	11398.63
645.477	11397.5
645.83	11328.8
646.182	11307.56
646.535	11122.25
646.888	11205.64
647.24	11178.75
647.593	11163.83
647.945	11222.59
648.298	11199.99
648.65	11128.58
649.002	11104.85
649.355	11274.56
649.707	11231.4
650.059	11238.63
650.411	11347.78
650.763	11411.51
651.115	11462.81
651.467	11366.54
651.819	11373.32
652.171	11401.56
652.523	11390.04
652.875	11411.73
653.227	11260.78
653.578	11402.24
653.93	11403.37
654.282	11399.53
654.633	11389.36
654.985	11338.52
655.337	11364.28
655.688	11387.1
656.039	11461.45
656.391	11373.32
656.742	11342.36
657.094	11352.98
657.445	11496.48
657.796	11418.06
658.147	11429.36
658.498	11472.98
658.849	11394.11
659.2	11431.85
659.551	11439.08
659.902	11413.32
660.253	11369.7
660.604	11431.62
660.955	11387.1
661.306	11440.21
661.656	11468.91
662.007	11461.45
662.358	11440.89
662.708	11370.38
663.059	11428.91
663.409	11365.63
663.76	11460.09
664.11	11506.65
664.461	11535.57
664.811	11526.08
665.161	11381.68
665.511	11510.04
665.862	11432.52
666.212	11480.43
666.562	11524.73
666.912	11493.77
667.262	11412.64
667.612	11443.6
667.962	11440.43
668.312	11429.13
668.662	11462.35
669.011	11408.57
669.361	11485.63
669.711	11434.11
670.06	11369.02
670.41	11419.87
670.76	11451.96
671.109	11479.3
671.459	11391.17
671.808	11268.91
672.157	11425.74
672.507	11320.89
672.856	11359.08
673.205	11368.57
673.554	11420.77
673.904	11385.75
674.253	11390.72
674.602	11341
674.951	11225.07
675.3	11192.76
675.649	11298.29
675.998	11272.3
676.346	11313.43
676.695	11346.88
677.044	11265.75
677.393	11315.24
677.741	11235.69
678.09	11165.19
678.438	11129.48
678.787	11258.07
679.135	11179.2
679.484	11052.42
679.832	11112.76
680.181	11087.9
680.529	11113.21
680.877	11044.06
681.225	11086.77
681.573	11160.44
681.922	10980.11
682.27	11010.16
682.618	11035.92
682.966	11004.06
683.314	10960.9
683.661	10992.08
684.009	10866.21
684.357	10902.59
684.705	10886.32
685.053	10981.01
685.4	10911.86
685.748	10898.98
686.095	10788.47
686.443	10782.37
686.79	10763.62
687.138	10788.25
687.485	10741.69
687.832	10729.72
688.18	10682.04
688.527	10619.44
688.874	10622.38
689.221	10572.21
689.568	10534.69
689.915	10579.44
690.262	10518.42
690.609	10456.73
690.956	10419.67
691.303	10451.31
691.65	10391.2
691.997	10341.03
692.344	10260.58
692.69	10241.6
693.037	10294.7
693.383	10205.89
693.73	10151.65
694.077	10080.47
694.423	10160.92
694.769	10080.02
695.116	10094.71
695.462	10063.07
695.808	9968.16
696.155	9920.93
696.501	9926.35
696.847	9908.5
697.193	9870.76
697.539	9783.3
697.885	9803.19
698.231	9755.05
698.577	9722.51
698.923	9643.87
699.269	9653.59
699.614	9621.5
699.96	9571.78
700.306	9550.99
700.651	9491.11
700.997	9423.09
701.342	9514.38
701.688	9421.73
702.033	9375.86
702.379	9333.82
702.724	9327.95
703.069	9346.03
703.415	9270.55
703.76	9253.82
704.105	9222.64
704.45	9249.08
704.795	9145.13
705.14	9091.57
705.485	9113.04
705.83	9028.97
706.175	9007.5
706.52	9015.64
706.865	9037.33
707.209	8884.57
707.554	8859.26
707.899	8953.95
708.243	8843.44
708.588	8838.24
708.932	8811.12
709.277	8744.91
709.621	8795.53
709.966	8799.15
710.31	8783.33
710.654	8699.49
710.998	8715.76
711.342	8687.74
711.687	8686.83
712.031	8596.67
712.375	8625.59
712.719	8586.05
713.063	8595.54
713.407	8611.36
713.75	8563
714.094	8570.45
714.438	8530.68
714.782	8477.12
715.125	8478.03
715.469	8486.39
715.812	8452.72
716.156	8391.93
716.499	8453.62
716.843	8417.91
717.186	8336.33
717.53	8379.72
717.873	8379.5
718.216	8308.76
718.559	8279.84
718.902	8248.2
719.246	8265.6
719.589	8186.28
719.932	8213.4
720.275	8275.09
720.617	8205.26
720.96	8220.18
721.303	8247.52
721.646	8216.56
721.989	8157.36
722.331	8256.11
722.674	8204.36
723.016	8171.14
723.359	8152.61
723.701	8118.94
724.044	8181.31
724.386	8091.14
724.729	8180.18
725.071	8098.6
725.413	8142.67
725.755	8032.39
726.097	8026.96
726.439	8052.95
726.782	8040.75
727.124	8150.8
727.465	8061.77
727.807	8071.71
728.149	8039.17
728.491	8061.77
728.833	8117.81
729.175	8052.27
729.516	8045.49
729.858	8013.86
730.199	8068.54
730.541	7991.03
730.882	7959.17
731.224	8033.29
731.565	7953.07
731.906	7990.81
732.248	8076.45
732.589	7993.97
732.93	8004.82
733.271	8022.44
733.612	8052.5
733.953	8035.33
734.294	7949.9
734.635	7940.19
734.976	7977.02
735.317	7983.35
735.658	7961.88
735.999	7961.43
736.339	8025.61
736.68	8074.42
737.021	8043.69
737.361	7979.96
737.702	7984.03
738.042	7996
738.383	7991.26
738.723	8101.54
739.063	7987.19
739.404	8091.6
739.744	8111.26
740.084	8066.51
740.424	8043.69
740.764	8070.58
741.104	8088.66
741.444	8064.25
741.784	8059.73
742.124	8163.68
742.464	8139.96
742.804	8125.04
743.143	8160.29
743.483	8203.91
743.823	8206.17
744.162	8231.7
744.502	8310.8
744.841	8262.89
745.181	8348.76
745.52	8363.9
745.86	8391.7
746.199	8487.52
746.538	8411.36
746.877	8545.37
747.216	8622.43
747.556	8607.97
747.895	8650.22
748.234	8654.29
748.573	8717.12
748.911	8725.48
749.25	8849.99
749.589	8858.58
749.928	8942.42
750.267	9016.54
750.605	9079.37
750.944	9129.53
751.283	9194.17
751.621	9337.66
751.96	9295.86
752.298	9426.93
752.636	9607.04
752.975	9643.42
753.313	9683.87
753.651	9887.25
753.989	10016.06
754.327	10077.08
754.666	10070.07
755.004	10290.41
755.342	10344.19
755.679	10527.46
756.017	10667.57
756.355	10784.18
756.693	10829.6
757.031	11010.84
757.368	11118.86
757.706	11275.92
758.044	11445.86
758.381	11623.71
758.719	11745.28
759.056	11974.2
759.394	11991.61
