Data from hue_40_FLMS001491_46.txt Node
Date: Mon Feb 06 15:07:57 GMT 2017
User: dcchb
Spectrometer: FLMS00149
Trigger mode: 0
Integration Time (sec): 2.000000E-2
Scans to average: 10
Electric dark correction enabled: true
Nonlinearity correction enabled: false
Boxcar width: 0
XAxis mode: Wavelengths
Number of Pixels in Spectrum: 2048
>>>>>Begin Spectral Data<<<<<
341.393	-12.25
341.776	-12.25
342.16	-12.25
342.543	-50.44
342.927	-73.49
343.31	-61.74
343.693	-53.83
344.077	-66.26
344.46	-60.38
344.843	-52.47
345.226	-60.15
345.61	-31.91
345.993	-7.95
346.376	-5.69
346.759	-3.43
347.142	24.14
347.525	47.41
347.908	55.32
348.291	66.17
348.674	97.36
349.057	113.4
349.44	127.64
349.823	156.34
350.206	148.65
350.588	186.39
350.971	211.93
351.354	230.23
351.737	238.6
352.119	261.65
352.502	273.17
352.884	279.95
353.267	282.21
353.65	291.93
354.032	298.93
354.414	311.81
354.797	314.07
355.179	322.44
355.562	325.6
355.944	340.29
356.326	359.5
356.709	330.12
357.091	352.04
357.473	348.42
357.855	326.95
358.238	348.88
358.62	356.33
359.002	346.84
359.384	339.61
359.766	361.98
360.148	337.58
360.53	355.88
360.912	339.61
361.294	324.02
361.676	333.06
362.057	345.71
362.439	331.93
362.821	336.22
363.203	316.56
363.584	316.11
363.966	317.24
364.348	334.19
364.729	323.34
365.111	328.76
365.493	308.88
365.874	333.06
366.256	318.37
366.637	339.61
367.019	322.66
367.4	324.69
367.781	322.66
368.163	321.76
368.544	320.4
368.925	322.89
369.306	348.88
369.688	318.82
370.069	305.03
370.45	327.18
370.831	296.9
371.212	338.71
371.593	324.47
371.974	305.71
372.355	305.71
372.736	323.79
373.117	307.97
373.498	313.17
373.879	323.34
374.26	325.82
374.641	318.37
375.021	309.33
375.402	321.53
375.783	303
376.163	324.92
376.544	333.28
376.925	327.18
377.305	309.1
377.686	304.36
378.066	360.17
378.447	326.73
378.827	329.21
379.208	344.36
379.588	332.15
379.968	326.95
380.349	349.33
380.729	336.45
381.109	312.72
381.489	352.72
381.87	347.52
382.25	349.55
382.63	363.79
383.01	347.07
383.39	356.78
383.77	338.48
384.15	375.31
384.53	358.37
384.91	371.7
385.29	358.82
385.67	351.36
386.049	329.67
386.429	373.51
386.809	357.24
387.189	361.76
387.568	362.66
387.948	357.69
388.328	363.11
388.707	355.88
389.087	370.57
389.466	388.2
389.846	357.91
390.225	349.78
390.605	355.2
390.984	367.86
391.363	379.83
391.743	381.64
392.122	368.54
392.501	371.93
392.881	378.25
393.26	386.39
393.639	398.14
394.018	386.84
394.397	360.4
394.776	351.59
395.155	371.7
395.534	392.04
395.913	373.51
396.292	390.68
396.671	390.23
397.05	385.71
397.429	381.42
397.808	390
398.186	370.12
398.565	388.42
398.944	399.72
399.323	406.5
399.701	399.04
400.08	407.18
400.458	409.89
400.837	408.53
401.215	408.99
401.594	400.4
401.972	401.53
402.351	392.94
402.729	417.12
403.107	412.83
403.486	400.4
403.864	402.43
404.242	398.59
404.62	393.39
404.999	411.02
405.377	423.68
405.755	414.86
406.133	415.77
406.511	428.42
406.889	431.13
407.267	425.26
407.645	416.22
408.023	431.58
408.401	441.98
408.779	432.94
409.156	448.53
409.534	453.51
409.912	440.4
410.29	443.79
410.667	446.5
411.045	437.69
411.422	434.97
411.8	439.72
412.178	466.39
412.555	446.5
412.933	453.73
413.31	479.27
413.687	483.56
414.065	474.52
414.442	456.89
414.819	481.75
415.197	496.89
415.574	502.77
415.951	481.07
416.328	504.13
416.705	487.85
417.082	491.47
417.46	483.56
417.837	504.35
418.214	504.35
418.591	498.93
418.967	508.42
419.344	519.04
419.721	505.71
420.098	528.53
420.475	519.27
420.852	524.69
421.228	521.75
421.605	527.4
421.982	519.94
422.358	549.32
422.735	552.71
423.111	523.56
423.488	555.42
423.864	549.55
424.241	552.26
424.617	535.31
424.994	566.5
425.37	547.51
425.746	571.69
426.123	559.04
426.499	549.55
426.875	585.93
427.251	573.28
427.627	581.64
428.003	577.34
428.379	591.13
428.756	593.84
429.132	589.55
429.507	583.22
429.883	622.09
430.259	608.3
430.635	613.95
431.011	613.95
431.387	639.71
431.763	627.29
432.138	631.13
432.514	634.52
432.89	665.7
433.265	623.67
433.641	645.82
434.016	659.83
434.392	663.89
434.767	682.43
435.143	661.64
435.518	674.29
435.894	694.4
436.269	665.48
436.644	697.34
437.02	701.63
437.395	700.28
437.77	694.18
438.145	735.31
438.52	724.01
438.895	722.42
439.271	714.74
439.646	735.76
440.021	748.86
440.395	712.93
440.77	751.12
441.145	766.27
441.52	760.16
441.895	746.38
442.27	762.2
442.645	761.75
443.019	768.98
443.394	770.78
443.769	778.92
444.143	774.17
444.518	790.9
444.892	782.54
445.267	779.37
445.641	784.8
446.016	791.12
446.39	811.69
446.764	811.69
447.139	811.24
447.513	802.2
447.887	819.15
448.262	822.08
448.636	823.21
449.01	830.44
449.384	853.72
449.758	847.39
450.132	870.9
450.506	864.79
450.88	862.76
451.254	836.32
451.628	868.86
452.002	882.87
452.376	895.75
452.75	877.67
453.123	895.53
453.497	898.47
453.871	915.64
454.244	922.19
454.618	924.68
454.992	930.55
455.365	952.25
455.739	949.76
456.112	980.27
456.486	965.13
456.859	956.77
457.232	994.96
457.606	986.82
457.979	989.31
458.352	1012.81
458.725	1022.76
459.099	1007.16
459.472	1053.94
459.845	1071.79
460.218	1103.66
460.591	1072.47
460.964	1086.48
461.337	1111.11
461.71	1117.44
462.083	1154.96
462.456	1122.87
462.829	1147.72
463.201	1176.65
463.574	1153.83
463.947	1196.76
464.32	1224.11
464.692	1208.51
465.065	1213.49
465.438	1239.7
465.81	1242.64
466.183	1274.73
466.555	1324.22
466.928	1321.96
467.3	1323.76
467.672	1343.43
468.045	1363.09
468.417	1363.09
468.789	1398.56
469.161	1422.75
469.534	1448.96
469.906	1477.88
470.278	1474.72
470.65	1491.22
471.022	1527.83
471.394	1571.67
471.766	1556.98
472.138	1599.46
472.51	1664.77
472.882	1670.2
473.253	1723.98
473.625	1709.29
473.997	1805.11
474.369	1814.6
474.74	1826.12
475.112	1881.04
475.484	1907.7
475.855	1966.01
476.227	1982.96
476.598	2048.94
476.97	2062.5
477.341	2119.9
477.713	2168.26
478.084	2206.91
478.455	2293.46
478.827	2324.42
479.198	2387.24
479.569	2426.11
479.94	2539.1
480.311	2564.41
480.682	2636.05
481.053	2728.02
481.424	2792.2
481.795	2874.91
482.166	2924.17
482.537	2987.45
482.908	3083.27
483.279	3162.59
483.65	3237.16
484.021	3345.41
484.391	3371.17
484.762	3494.56
485.133	3513.54
485.503	3611.39
485.874	3773.64
486.244	3819.52
486.615	3963.47
486.985	4017.03
487.356	4113.52
487.726	4180.19
488.097	4360.29
488.467	4381.09
488.837	4507.41
489.207	4597.12
489.578	4736.78
489.948	4837.8
490.318	4968.64
490.688	5017
491.058	5157.56
491.428	5267.16
491.798	5354.39
492.168	5516.42
492.538	5582.18
492.908	5733.14
493.278	5816.08
493.648	5883.64
494.017	6026.47
494.387	6140.59
494.757	6264.43
495.126	6380.35
495.496	6451.31
495.866	6566.56
496.235	6662.38
496.605	6736.28
496.974	6818.08
497.344	6951.41
497.713	7016.04
498.082	7154.35
498.452	7253.78
498.821	7334.68
499.19	7342.14
499.559	7590.72
499.928	7603.83
500.298	7680.89
500.667	7802.01
501.036	7838.62
501.405	7972.4
501.774	8051.5
502.143	8183.92
502.512	8206.07
502.88	8319.29
503.249	8411.71
503.618	8524.03
503.987	8493.29
504.356	8648.09
504.724	8694.42
505.093	8774.42
505.462	8797.92
505.83	8915.66
506.199	9068.87
506.567	9220.73
506.936	9190.45
507.304	9359.71
507.672	9468.18
508.041	9489.88
508.409	9551.8
508.777	9656.65
509.145	9765.12
509.514	9752.7
509.882	9908.62
510.25	9896.87
510.618	9977.77
510.986	10025
511.354	10239.01
511.722	10236.52
512.09	10379.57
512.458	10339.35
512.826	10521.94
513.193	10523.75
513.561	10654.14
513.929	10684.42
514.297	10782.5
514.664	10792.89
515.032	10836.06
515.4	10996.28
515.767	11007.58
516.135	11116.95
516.502	11107.69
516.869	11274.46
517.237	11351.3
517.604	11333.9
517.972	11475.81
518.339	11545.87
518.706	11555.59
519.073	11591.97
519.44	11680.33
519.808	11831.96
520.175	11855.92
520.542	12074.44
520.909	12071.05
521.276	12088.45
521.643	12195.8
522.009	12328.67
522.376	12427.2
522.743	12360.54
523.11	12560.53
523.477	12608.67
523.843	12640.76
524.21	12839.39
524.577	12944.7
524.943	13047.3
525.31	13061.31
525.676	13168.42
526.043	13219.95
526.409	13268.76
526.776	13451.81
527.142	13439.83
527.508	13613.61
527.874	13617.23
528.241	13720.05
528.607	13810.89
528.973	13873.72
529.339	13971.57
529.705	14089.53
530.071	14179.25
530.437	14222.41
530.803	14299.24
531.169	14381.27
531.535	14387.83
531.901	14411.1
532.267	14507.82
532.632	14529.29
532.998	14673.02
533.364	14755.95
533.73	14818.78
534.095	14902.39
534.461	14909.62
534.826	15064.19
535.192	15114.59
535.557	15211.99
535.923	15171.76
536.288	15314.13
536.653	15305.77
537.019	15308.93
537.384	15445.43
537.749	15471.19
538.114	15539.66
538.479	15498.99
538.845	15667.57
539.21	15625.54
539.575	15766.55
539.94	15876.15
540.305	15929.71
540.67	15884.96
541.034	16014.9
541.399	16010.16
541.764	16086.31
542.129	16187.55
542.494	16241.56
542.858	16243.82
543.223	16380.54
543.587	16411.05
543.952	16406.08
544.316	16598.84
544.681	16539.18
545.045	16611.95
545.41	16750.25
545.774	16812.85
546.138	16829.35
546.503	16861.89
546.867	16885.84
547.231	17086.74
547.595	16972.84
547.959	17073.86
548.324	17140.07
548.688	17136.91
549.052	17338.94
549.416	17314.08
549.779	17390.23
550.143	17279.28
550.507	17428.88
550.871	17590.91
551.235	17550.46
551.599	17733.95
551.962	17784.12
552.326	17799.94
552.689	17937.57
553.053	17816.44
553.417	17841.52
553.78	18222.76
554.143	18100.5
554.507	18156.54
554.87	18234.51
555.234	18453.26
555.597	18325.8
555.96	18459.36
556.323	18524.44
556.686	18514.5
557.05	18663.42
557.413	18731.89
557.776	18739.8
558.139	18848.05
558.502	18881.5
558.865	18911.78
559.228	19066.8
559.59	19152.67
559.953	19152.9
560.316	19378.66
560.679	19344.08
561.041	19467.47
561.404	19563.06
561.767	19700
562.129	19576.39
562.492	19781.81
562.854	19761.02
563.217	19815.93
563.579	19903.62
563.941	20022.93
564.304	20098.41
564.666	20221.35
565.028	20281.01
565.39	20331.85
565.753	20352.87
566.115	20525.07
566.477	20441.68
566.839	20619.53
567.201	20689.36
567.563	20687.1
567.925	20923.25
568.287	20986.75
568.648	21013.64
569.01	21078.5
569.372	21204.15
569.734	21253.64
570.095	21329.34
570.457	21483.46
570.819	21535.44
571.18	21465.83
571.542	21722.32
571.903	21723.23
572.265	21850.46
572.626	21929.55
572.987	21974.3
573.349	22148.53
573.71	22186.72
574.071	22144.69
574.432	22459.71
574.794	22584
575.155	22459.03
575.516	22512.13
575.877	22714.61
576.238	22795.06
576.599	22882.52
576.96	23114.83
577.32	23044.1
577.681	23265.11
578.042	23403.41
578.403	23499.23
578.763	23553.69
579.124	23810.18
579.485	23908.93
579.845	24021.92
580.206	24155.93
580.566	24227.12
580.927	24348.7
581.287	24566.54
581.648	24577.62
582.008	24913.43
582.368	24880.66
582.728	25106.42
583.089	25216.47
583.449	25330.59
583.809	25540.75
584.169	25901.2
584.529	25910.24
584.889	26244.69
585.249	26272.04
585.609	26352.71
585.969	26603.55
586.329	26687.39
586.688	27063.2
587.048	27186.81
587.408	27269.3
587.768	27516.75
588.127	27627.03
588.487	27804.2
588.846	28078.09
589.206	28107.24
589.565	28390.17
589.925	28542.48
590.284	28872.64
590.643	29010.49
591.003	29218.17
591.362	29421.56
591.721	29589.01
592.08	29802.79
592.44	30023.57
592.799	30187.19
593.158	30435.32
593.517	30559.38
593.876	30790.79
594.235	30838.24
594.593	31087.73
594.952	31434.61
595.311	31274.16
595.67	31661.95
596.029	32005.22
596.387	32004.54
596.746	32325.21
597.104	32248.6
597.463	32555.03
597.822	32778.3
598.18	32871.86
598.538	33011.52
598.897	33286.09
599.255	33165.19
599.613	33828.9
599.972	33759.52
600.33	34088.78
600.688	34056.92
601.046	34198.38
601.404	34490.35
601.762	34714.07
602.12	34898.93
602.478	35010.34
602.836	35219.37
603.194	35044.91
603.552	35313.83
603.91	35354.51
604.268	35703.65
604.625	35669.53
604.983	35952.91
605.341	35924.21
605.698	36201.49
606.056	36340.47
606.413	36475.61
606.771	36634.47
607.128	36735.94
607.485	36645.77
607.843	36881.7
608.2	37248.24
608.557	37351.29
608.914	37208.24
609.272	37626.54
609.629	37632.19
609.986	37946.76
610.343	37839.41
610.7	38173.64
611.057	38163.7
611.414	38438.72
611.771	38452.96
612.127	38640.3
612.484	38634.2
612.841	38768.88
613.198	38729.56
613.554	38847.52
613.911	39095.43
614.267	39043.68
614.624	39356.44
614.98	39234.86
615.337	39464.68
615.693	39504.23
616.05	39567.28
616.406	39886.59
616.762	39672.59
617.118	39728.86
617.475	39926.59
617.831	40060.6
618.187	39982.41
618.543	40184.89
618.899	40510.76
619.255	40386.47
619.611	40445.67
619.967	40754.59
620.323	40691.77
620.678	40555.5
621.034	40496.07
621.39	40742.62
621.746	40653.8
622.101	41030.07
622.457	40794.14
622.812	41039.33
623.168	41155.49
623.523	41244.3
623.879	41134.24
624.234	41040.23
624.589	41315.93
624.945	41253.56
625.3	41392.77
625.655	41313.67
626.01	41514.57
626.365	41475.48
626.72	41356.84
627.075	41453.56
627.43	41448.13
627.785	41374.24
628.14	41636.83
628.495	41623.5
628.85	41521.35
629.205	41449.72
629.559	41797.28
629.914	41560.45
630.269	41648.81
630.623	41583.72
630.978	41527.45
631.332	41814.68
631.687	41811.51
632.041	41554.8
632.396	41765.19
632.75	41595.47
633.104	41673.66
633.459	41457.62
633.813	41522.93
634.167	41482.93
634.521	41533.78
634.875	41711.18
635.229	41519.32
635.583	41442.03
635.937	41500.79
636.291	41423.28
636.645	41404.52
636.999	41232.09
637.352	41498.98
637.706	41232.77
638.06	41384.18
638.413	41276.61
638.767	41174.24
639.121	41279.55
639.474	41249.72
639.828	41061.48
640.181	41151.42
640.534	41111.42
640.888	41160.68
641.241	40934.93
641.594	40999.11
641.947	41179.67
642.301	41029.84
642.654	41037.97
643.007	41016.28
643.36	41077.07
643.713	40954.36
644.066	41051.99
644.419	40732.67
644.771	40615.39
645.124	40194.16
645.477	40301.5
645.83	40008.4
646.182	39857.67
646.535	39742.19
646.888	39870.55
647.24	39602.98
647.593	39813.6
647.945	39678.01
648.298	39635.3
648.65	39569.09
649.002	39438.69
649.355	39579.93
649.707	39630.33
650.059	39762.3
650.411	40219.24
650.763	40207.26
651.115	40412
651.467	40417.2
651.819	40430.76
652.171	40250.42
652.523	40225.57
652.875	40214.72
653.227	40070.09
653.578	40306.02
653.93	40260.14
654.282	40085.68
654.633	40025.35
654.985	39994.39
655.337	40102.63
655.688	39995.97
656.039	40148.96
656.391	39927.72
656.742	39979.92
657.094	39991.67
657.445	40132.69
657.796	39983.31
658.147	39902.64
658.498	39954.61
658.849	39989.41
659.2	39918.68
659.551	39838.91
659.902	39966.82
660.253	39953.03
660.604	39983.77
660.955	39734.28
661.306	40009.53
661.656	39846.14
662.007	39979.02
662.358	39798.91
662.708	39801.17
663.059	39805.46
663.409	39711.68
663.76	39822.87
664.11	39663.77
664.461	39903.54
664.811	39896.54
665.161	39773.83
665.511	39701.06
665.862	39629.42
666.212	39877.55
666.562	39706.03
666.912	39833.49
667.262	39607.73
667.612	39671
667.962	39722.08
668.312	39640.05
668.662	39804.11
669.011	39556.21
669.361	39624.23
669.711	39571.8
670.06	39558.47
670.41	39433.05
670.76	39394.4
671.109	39655.19
671.459	39467.17
671.808	39419.49
672.157	39505.81
672.507	39376.78
672.856	39184.92
673.205	39379.94
673.554	39532.7
673.904	39226.95
674.253	39435.08
674.602	39352.6
674.951	38834.42
675.3	38524.59
675.649	39278.02
675.998	39193.96
676.346	39278.47
676.695	39224.46
677.044	39029.21
677.393	39130.45
677.741	39222.66
678.09	39111.02
678.438	38843.23
678.787	39287.74
679.135	39080.51
679.484	38776.79
679.832	39019.95
680.181	38838.48
680.529	38929.78
680.877	38811.59
681.225	38754.87
681.573	38753.06
681.922	38711.48
682.27	38487.99
682.618	38523.24
682.966	38394.88
683.314	38608.89
683.661	38331.61
684.009	38255.9
684.357	38284.6
684.705	38151.72
685.053	38200.08
685.4	38054.78
685.748	38043.93
686.095	38016.13
686.443	37967.55
686.79	37742.24
687.138	37864.95
687.485	37903.14
687.832	37688.01
688.18	37835.8
688.527	37638.52
688.874	37711.73
689.221	37339.77
689.568	37281.69
689.915	37259.54
690.262	37195.36
690.609	37164.63
690.956	36868.14
691.303	37037.85
691.65	36944.97
691.997	36877.18
692.344	36628.83
692.69	36592.89
693.037	36643.51
693.383	36292.79
693.73	36399.68
694.077	36281.72
694.423	36317.19
694.769	36069.52
695.116	36040.14
695.462	36050.31
695.808	35835.85
696.155	35986.36
696.501	35741.84
696.847	35647.38
697.193	35411.46
697.539	35508.18
697.885	35346.82
698.231	35203.33
698.577	35184.34
698.923	35190.9
699.269	35035.19
699.614	34733.28
699.96	34767.63
700.306	34784.81
700.651	34545.26
700.997	34574.87
701.342	34339.85
701.688	34513.4
702.033	34220.3
702.379	34313.63
702.724	34249.45
703.069	34213.3
703.415	33741.22
703.76	33946.86
704.105	33869.35
704.45	33710.03
704.795	33533.77
705.14	33435.69
705.485	33525.18
705.83	33421.45
706.175	33298.52
706.52	33284.73
706.865	33117.96
707.209	33019.88
707.554	33069.82
707.899	33106.66
708.243	32778.98
708.588	32941.92
708.932	32462.83
709.277	32744.86
709.621	32606.56
709.966	32423.29
710.31	32537.18
710.654	32170.41
710.998	32329.05
711.342	32264.87
711.687	32114.59
712.031	31922.51
712.375	32035.95
712.719	31999.57
713.063	31986.24
713.407	31930.42
713.75	31819.23
714.094	31794.15
714.438	31746.92
714.782	31632.57
715.125	31559.35
715.469	31591.22
715.812	31310.55
716.156	31245.01
716.499	31307.16
716.843	31368.17
717.186	31038.01
717.53	31267.84
717.873	31274.16
718.216	31150.55
718.559	30875.53
718.902	30844.34
719.246	30845.25
719.589	30714.18
719.932	30671.24
720.275	30600.73
720.617	30646.61
720.96	30488.2
721.303	30517.35
721.646	30573.39
721.989	30320.74
722.331	30381.31
722.674	30417.24
723.016	30280.29
723.359	30331.82
723.701	30179.96
724.044	30039.39
724.386	29897.93
724.729	29996.23
725.071	30007.08
725.413	29966.4
725.755	30072.61
726.097	29812.28
726.439	29759.4
726.782	29742
727.124	29815.9
727.465	29720.53
727.807	29642.79
728.149	29461.78
728.491	29612.51
728.833	29616.35
729.175	29428.11
729.516	29444.61
729.858	29352.63
730.199	29413.87
730.541	29269.7
730.882	29309.02
731.224	29263.59
731.565	29048.46
731.906	29146.99
732.248	29075.35
732.589	29075.35
732.93	28722.82
733.271	28782.7
733.612	28882.14
733.953	28915.13
734.294	28688.92
734.635	28740.22
734.976	28726.21
735.317	28548.81
735.658	28546.1
735.999	28559.43
736.339	28447.12
736.68	28483.73
737.021	28378.42
737.361	28325.09
737.702	28433.56
738.042	28339.78
738.383	28306.56
738.723	28420.45
739.063	28232.89
739.404	28142.49
739.744	28190.4
740.084	28038.54
740.424	28044.42
740.764	28013.68
741.104	28057.07
741.444	27931.43
741.784	27835.61
742.124	27979.56
742.464	27862.5
742.804	27820.47
743.143	27625.9
743.483	27674.94
743.823	27447.15
744.162	27658.67
744.502	27683.3
744.841	27363.53
745.181	27671.77
745.52	27414.83
745.86	27399.69
746.199	27304.32
746.538	27276.98
746.877	27402.85
747.216	27376.19
747.556	27278.56
747.895	27258.22
748.234	27051.68
748.573	26988.4
748.911	27056.2
749.25	26955.86
749.589	26800.16
749.928	26967.38
750.267	26881.51
750.605	26747.73
750.944	26823.89
751.283	26658.92
751.621	26796.09
751.96	26610.78
752.298	26398.13
752.636	26439.71
752.975	26386.83
753.313	26467.28
753.651	26385.93
753.989	26202.43
754.327	26217.8
754.666	26065.03
755.004	26092.38
755.342	26125.6
755.679	26092.6
756.017	25882.89
756.355	25878.37
756.693	25881.99
757.031	25921.54
757.368	25830.69
