Data from hue_20_FLMS001491_97.txt Node
Date: Mon Feb 06 15:35:00 GMT 2017
User: dcchb
Spectrometer: FLMS00149
Trigger mode: 0
Integration Time (sec): 2.000000E-2
Scans to average: 10
Electric dark correction enabled: true
Nonlinearity correction enabled: false
Boxcar width: 0
XAxis mode: Wavelengths
Number of Pixels in Spectrum: 2048
>>>>>Begin Spectral Data<<<<<
341.393	3.81
341.776	3.81
342.16	3.81
342.543	-67.6
342.927	-54.94
343.31	-92.91
343.693	-64.21
344.077	-65.56
344.46	-49.07
344.843	-30.31
345.226	-50.87
345.61	-21.72
345.993	-14.27
346.376	-16.52
346.759	15.56
347.142	5.62
347.525	49.46
347.908	47.2
348.291	75
348.674	96.47
349.057	116.13
349.44	141.21
349.823	127.43
350.206	166.52
350.588	192.28
350.971	218.05
351.354	227.08
351.737	232.96
352.119	254.43
352.502	259.85
352.884	273.64
353.267	293.52
353.65	296.91
354.032	290.13
354.414	302.79
354.797	321.55
355.179	321.77
355.562	312.96
355.944	328.78
356.326	332.84
356.709	341.66
357.091	335.1
357.473	341.66
357.855	337.59
358.238	331.26
358.62	352.96
359.002	343.24
359.384	346.18
359.766	343.24
360.148	327.42
360.53	358.38
360.912	361.09
361.294	331.94
361.676	325.84
362.057	318.83
362.439	321.77
362.821	335.78
363.203	344.82
363.584	309.34
363.966	342.56
364.348	324.71
364.729	319.06
365.111	317.25
365.493	316.12
365.874	316.35
366.256	331.04
366.637	315.9
367.019	326.52
367.4	332.62
367.781	310.7
368.163	305.05
368.544	322.9
368.925	320.64
369.306	323.58
369.688	343.24
370.069	295.33
370.45	314.54
370.831	317.25
371.212	313.86
371.593	338.95
371.974	319.51
372.355	310.25
372.736	315.9
373.117	321.77
373.498	334.65
373.879	319.29
374.26	326.52
374.641	311.83
375.021	325.84
375.402	312.28
375.783	323.13
376.163	311.38
376.544	312.73
376.925	326.29
377.305	326.06
377.686	330.58
378.066	333.75
378.447	343.24
378.827	331.94
379.208	342.11
379.588	307.53
379.968	336.91
380.349	334.65
380.729	341.88
381.109	349.57
381.489	360.41
381.87	343.69
382.25	353.41
382.63	340.75
383.01	361.09
383.39	350.25
383.77	322.68
384.15	360.41
384.53	352.28
384.91	357.7
385.29	342.79
385.67	368.32
386.049	358.38
386.429	349.79
386.809	359.96
387.189	345.5
387.568	345.73
387.948	378.04
388.328	385.27
388.707	367.87
389.087	391.6
389.466	375.33
389.846	397.48
390.225	380.75
390.605	385.5
390.984	357.48
391.363	390.92
391.743	385.27
392.122	398.38
392.501	388.21
392.881	391.37
393.26	394.09
393.639	398.38
394.018	415.33
394.397	399.96
394.776	408.55
395.155	403.12
395.534	382.33
395.913	402.9
396.292	399.74
396.671	410.13
397.05	398.38
397.429	407.42
397.808	394.76
398.186	410.36
398.565	421.43
398.944	407.64
399.323	411.26
399.701	422.11
400.08	422.11
400.458	423.46
400.837	426.85
401.215	415.33
401.594	424.82
401.972	429.79
402.351	440.86
402.729	414.2
403.107	448.32
403.486	426.85
403.864	432.73
404.242	451.94
404.62	457.36
404.999	462.78
405.377	466.63
405.755	436.8
406.133	452.62
406.511	458.72
406.889	467.53
407.267	470.02
407.645	452.62
408.023	473.63
408.401	477.47
408.779	468.43
409.156	470.47
409.534	481.09
409.912	462.11
410.29	496.68
410.667	503.91
411.045	478.15
411.422	501.88
411.8	507.3
412.178	520.86
412.555	518.15
412.933	510.69
413.31	525.61
413.687	530.58
414.065	533.29
414.442	521.54
414.819	530.13
415.197	533.52
415.574	536
415.951	523.8
416.328	554.08
416.705	531.48
417.082	550.24
417.46	565.61
417.837	564.25
418.214	574.65
418.591	563.8
418.967	538.26
419.344	570.35
419.721	583.91
420.098	561.76
420.475	591.59
420.852	581.88
421.228	584.36
421.605	584.36
421.982	597.92
422.358	613.51
422.735	612.16
423.111	616.68
423.488	599.73
423.864	632.05
424.241	620.29
424.617	616
424.994	639.28
425.37	623.23
425.746	668.88
426.123	640.86
426.499	633.85
426.875	632.95
427.251	636.34
427.627	651.25
428.003	689.67
428.379	669.56
428.756	688.99
429.132	681.99
429.507	662.78
429.883	689.9
430.259	685.15
430.635	705.94
431.011	708.65
431.387	719.95
431.763	726.28
432.138	723.79
432.514	713.85
432.89	743.23
433.265	764.92
433.641	765.15
434.016	754.08
434.392	771.93
434.767	771.93
435.143	795.88
435.518	790.23
435.894	795.43
436.269	815.77
436.644	792.27
437.02	816.22
437.395	858.03
437.77	845.37
438.145	848.09
438.52	824.13
438.895	844.7
439.271	869.1
439.646	893.73
440.021	850.34
440.395	869.1
440.77	832.94
441.145	884.47
441.52	891.47
441.895	882.66
442.27	891.02
442.645	886.28
443.019	907.74
443.394	890.34
443.769	908.87
444.143	940.74
444.518	953.39
444.892	935.09
445.267	923.11
445.641	953.17
446.016	954.07
446.39	943.68
446.764	959.27
447.139	939.61
447.513	963.56
447.887	960.62
448.262	989.32
448.636	1015.31
449.01	1008.31
449.384	1001.53
449.758	989.32
450.132	1024.35
450.506	987.97
450.88	1026.84
451.254	1048.53
451.628	1025.03
452.002	1037.01
452.376	1063.22
452.75	1070.68
453.123	1080.4
453.497	1064.12
453.871	1098.25
454.244	1118.81
454.618	1103.22
454.992	1115.42
455.365	1151.35
455.739	1153.61
456.112	1154.07
456.486	1154.52
456.859	1200.39
457.232	1213.5
457.606	1186.16
457.979	1182.77
458.352	1227.51
458.725	1242.2
459.099	1246.72
459.472	1269.99
459.845	1300.5
460.218	1300.28
460.591	1322.42
460.964	1295.98
461.337	1330.33
461.71	1338.47
462.083	1369.2
462.456	1370.56
462.829	1398.81
463.201	1418.01
463.574	1423.44
463.947	1409.65
464.32	1443.1
464.692	1480.84
465.065	1503.66
465.438	1486.03
465.81	1515.19
466.183	1537.78
466.555	1527.39
466.928	1555.41
467.3	1569.65
467.672	1606.48
468.045	1633.15
468.417	1668.18
468.789	1644.9
469.161	1668.4
469.534	1724.67
469.906	1726.48
470.278	1787.27
470.65	1773.26
471.022	1802.41
471.394	1830.21
471.766	1836.99
472.138	1852.35
472.51	1907.72
472.882	1931.45
473.253	1958.56
473.625	1963.54
473.997	2025.46
474.369	2029.75
474.74	2101.16
475.112	2087.83
475.484	2137.77
475.855	2185
476.227	2170.08
476.598	2252.34
476.97	2274.49
477.341	2319.68
477.713	2357.65
478.084	2355.62
478.455	2430.87
478.827	2486.23
479.198	2527.14
479.569	2548.83
479.94	2642.39
480.311	2651.2
480.682	2722.16
481.053	2768.03
481.424	2800.12
481.795	2850.97
482.166	2893.23
482.537	2930.97
482.908	2975.26
483.279	3031.08
483.65	3076.73
484.021	3147.91
484.391	3211.86
484.762	3211.19
485.133	3231.75
485.503	3338.42
485.874	3377.74
486.244	3429.49
486.615	3496.15
486.985	3578.18
487.356	3606.66
487.726	3629.48
488.097	3696.15
488.467	3731.85
488.837	3825.86
489.207	3843.26
489.578	3965.52
489.948	3949.47
490.318	4005.52
490.688	4031.5
491.058	4071.96
491.428	4166.42
491.798	4239.41
492.168	4298.39
492.538	4339.97
492.908	4410.25
493.278	4453.64
493.648	4413.64
494.017	4497.03
494.387	4574.77
494.757	4597.59
495.126	4642.56
495.496	4720.98
495.866	4684.82
496.235	4721.88
496.605	4833.97
496.974	4837.81
497.344	4876.68
497.713	4902.67
498.082	5002.78
498.452	5013.85
498.821	5003
499.19	5038.71
499.559	5086.62
499.928	5170.23
500.298	5198.71
500.667	5271.47
501.036	5253.84
501.405	5276.67
501.774	5286.39
502.143	5320.28
502.512	5381.3
502.88	5437.79
503.249	5505.59
503.618	5483.22
503.987	5536.32
504.356	5551.01
504.724	5585.14
505.093	5616.1
505.462	5589.43
505.83	5700.84
506.199	5692.7
506.567	5796.43
506.936	5807.5
507.304	5865.58
507.672	5882.53
508.041	5878.46
508.409	5920.04
508.777	5979.7
509.145	6014.05
509.514	6069.87
509.882	6058.34
510.25	6162.75
510.618	6177.89
510.986	6133.82
511.354	6200.71
511.722	6224.89
512.09	6270.77
512.458	6266.93
512.826	6295.4
513.193	6361.84
513.561	6341.27
513.929	6406.81
514.297	6464.43
514.664	6461.04
515.032	6563.19
515.4	6544.88
515.767	6617.65
516.135	6631.89
516.502	6630.31
516.869	6737.2
517.237	6747.14
517.604	6733.35
517.972	6764.31
518.339	6790.08
518.706	6839.34
519.073	6813.13
519.44	6879.11
519.808	6951.88
520.175	7008.38
520.542	6994.14
520.909	7072.55
521.276	7060.58
521.643	7155.04
522.009	7211.53
522.376	7226.67
522.743	7274.58
523.11	7345.99
523.477	7361.36
523.843	7400
524.21	7509.15
524.577	7491.98
524.943	7544.18
525.31	7633.44
525.676	7647
526.043	7724.29
526.409	7715.25
526.776	7754.34
527.142	7848.13
527.508	7891.06
527.874	7960.67
528.241	7987.33
528.607	8002.47
528.973	8095.35
529.339	8090.15
529.705	8137.38
530.071	8245.18
530.437	8233.43
530.803	8319.75
531.169	8370.37
531.535	8345.74
531.901	8366.31
532.267	8446.98
532.632	8507.09
532.998	8531.05
533.364	8519.75
533.73	8604.27
534.095	8657.37
534.461	8641.33
534.826	8693.08
535.192	8763.36
535.557	8713.64
535.923	8797.03
536.288	8902.11
536.653	8926.74
537.019	8913.86
537.384	8965.61
537.749	9026.18
538.114	9037.93
538.479	9027.76
538.845	9134.19
539.21	9067.08
539.575	9216.45
539.94	9181.88
540.305	9214.64
540.67	9248.77
541.034	9273.85
541.399	9342.32
541.764	9378.48
542.129	9380.52
542.494	9425.03
542.858	9483.11
543.223	9459.16
543.587	9538.48
543.952	9569.21
544.316	9603.11
544.681	9595.65
545.045	9663.45
545.41	9790
545.774	9753.61
546.138	9707.29
546.503	9857.79
546.867	9839.94
547.231	9881.29
547.595	9970.33
547.959	9940.5
548.324	10053.04
548.688	10014.17
549.052	10010.56
549.416	10069.76
549.779	10146.82
550.143	10130.55
550.507	10256.65
550.871	10271.79
551.235	10232.25
551.599	10308.18
551.962	10315.63
552.326	10368.96
552.689	10461.17
553.053	10433.6
553.417	10387.5
553.78	10548.39
554.143	10548.62
554.507	10601.5
554.87	10677.43
555.234	10758.33
555.597	10682.85
555.96	10679.46
556.323	10804.89
556.686	10792.23
557.05	10819.8
557.413	10950.42
557.776	10895.05
558.139	11021.15
558.502	11023.41
558.865	11023.41
559.228	11145.22
559.59	11161.49
559.953	11155.61
560.316	11269.73
560.679	11265.21
561.041	11336.85
561.404	11375.72
561.767	11479.67
562.129	11454.59
562.492	11511.99
562.854	11554.47
563.217	11560.57
563.579	11647.35
563.941	11780
564.304	11718.31
564.666	11814.58
565.028	11823.84
565.39	11825.88
565.753	11958.08
566.115	11975.25
566.477	12032.65
566.839	12002.59
567.201	12048.02
567.563	12123.49
567.925	12191.29
568.287	12256.37
568.648	12161.91
569.01	12292.3
569.372	12460.21
569.734	12307.9
570.095	12470.15
570.457	12575.01
570.819	12471.96
571.18	12561.45
571.542	12696.14
571.903	12678.28
572.265	12756.02
572.626	12859.97
572.987	12791.27
573.349	12930.48
573.71	13089.35
574.071	12991.49
574.432	13081.21
574.794	13228.55
575.155	13266.74
575.516	13175.9
575.877	13342.45
576.238	13351.26
576.599	13451.6
576.96	13549.45
577.32	13643.68
577.681	13720.06
578.042	13760.97
578.403	13781.98
578.763	13896.78
579.124	13872.83
579.485	14116.44
579.845	14208.41
580.206	14346.71
580.566	14347.17
580.927	14533.6
581.287	14640.72
581.648	14714.16
582.008	14934.04
582.368	14971.78
582.728	15053.36
583.089	15178.56
583.449	15331.55
583.809	15476.4
584.169	15632.78
584.529	15756.17
584.889	16055.82
585.249	16073
585.609	16203.61
585.969	16540.78
586.329	16607.67
586.688	16877.95
587.048	17006.08
587.408	17212.4
587.768	17411.04
588.127	17530.36
588.487	17825.49
588.846	18143.68
589.206	18163.11
589.565	18449.88
589.925	18764
590.284	18949.53
590.643	19271.78
591.003	19493.92
591.362	19746.12
591.721	19994.7
592.08	20271.76
592.44	20420.68
592.799	20762.14
593.158	21065.41
593.517	21442.35
593.876	21527.77
594.235	21816.12
594.593	22158.71
594.952	22583.78
595.311	22677.57
595.67	23069.65
596.029	23381.73
596.387	23860.14
596.746	24137.87
597.104	24175.83
597.463	24458.99
597.822	24827.34
598.18	25068.01
598.538	25424.39
598.897	25657.38
599.255	25860.08
599.613	26407.86
599.972	26565.83
600.33	26824.13
600.688	27017.79
601.046	27499.59
601.404	27869.07
601.762	27960.59
602.12	28432.9
602.478	28638.54
602.836	29061.81
603.194	29174.12
603.552	29479.87
603.91	29569.36
604.268	29952.18
604.625	30216.58
604.983	30566.63
605.341	30627.19
605.698	31012.94
606.056	31306.95
606.413	31527.96
606.771	31904.22
607.128	32165
607.485	32142.63
607.843	32573.35
608.2	32899.67
608.557	33140.8
608.914	33411.3
609.272	33657.62
609.629	33992.52
609.986	34123.14
610.343	34229.13
610.7	34865.04
611.057	34912.27
611.414	35033.17
611.771	35365.6
612.127	35675.87
612.484	35741.18
612.841	35885.58
613.198	36025.69
613.554	36195.86
613.911	36493.7
614.267	36690.31
614.624	36847.59
614.98	37089.17
615.337	37422.94
615.693	37539.32
616.05	37600.34
616.406	37949.71
616.762	38095.47
617.118	38067.9
617.475	38368.23
617.831	38567.32
618.187	38840.08
618.543	38917.82
618.899	39201.43
619.255	39338.37
619.611	39313.29
619.967	39497.69
620.323	39787.4
620.678	39727.29
621.034	39655.2
621.39	39807.96
621.746	39927.51
622.101	40482.07
622.457	40186.71
622.812	40417.44
623.168	40533.37
623.523	40563.42
623.879	40739.01
624.234	40683.2
624.589	40977.43
624.945	40990.08
625.3	41078.44
625.655	41077.99
626.01	41310.52
626.365	41490.63
626.72	41355.49
627.075	41561.36
627.43	41529.5
627.785	41495.83
628.14	41730.85
628.495	41666.45
628.85	41748.03
629.205	41524.76
629.559	42089.49
629.914	41828.93
630.269	41998.64
630.623	41843.17
630.978	41826.22
631.332	42101.46
631.687	42178.3
632.041	42040
632.396	42281.12
632.75	41891.75
633.104	42111.86
633.459	41911.64
633.813	41951.64
634.167	42176.26
634.521	42036.61
634.875	42144.17
635.229	42177.17
635.583	42010.17
635.937	42034.35
636.291	41938.08
636.645	42010.39
636.999	42061.46
637.352	42193.89
637.706	42092.65
638.06	42128.58
638.413	42079.54
638.767	41946.67
639.121	42187.79
639.474	41894.92
639.828	41822.37
640.181	41996.61
640.534	42198.86
640.888	41940.34
641.241	41790.96
641.594	41887.23
641.947	42091.97
642.301	41997.06
642.654	42066.89
643.007	41839.1
643.36	41872.32
643.713	41838.19
644.066	42089.03
644.419	41838.42
644.771	41571.08
645.124	41219.45
645.477	41183.75
645.83	40899.69
646.182	40889.07
646.535	40678.9
646.888	40811.78
647.24	40549.87
647.593	40870.08
647.945	40825.79
648.298	40592.8
648.65	40523.88
649.002	40443.43
649.355	40557.55
649.707	40558
650.059	40741.27
650.411	41187.14
650.763	41290.64
651.115	41610.4
651.467	41612.66
651.819	41584.19
652.171	41371.77
652.523	41467.58
652.875	41442.72
653.227	41242.28
653.578	41447.02
653.93	41381.71
654.282	41191.43
654.633	41227.81
654.985	41238.21
655.337	41144.43
655.688	41287.25
656.039	41388.49
656.391	40916.64
656.742	41135.39
657.094	41066.24
657.445	41170.87
657.796	41125.44
658.147	41129.51
658.498	41087.48
658.849	41198.21
659.2	41228.27
659.551	41020.81
659.902	41178.32
660.253	41167.93
660.604	41231.66
660.955	40972
661.306	41120.7
661.656	41074.82
662.007	41010.87
662.358	40955.96
662.708	41095.84
663.059	41038.67
663.409	40779.46
663.76	40998.67
664.11	40967.26
664.461	41063.07
664.811	41038.21
665.161	41061.04
665.511	40924.77
665.862	40922.96
666.212	41152.79
666.562	41155.27
666.912	41057.42
667.262	40983.75
667.612	40927.48
667.962	41007.26
668.312	40904.66
668.662	41087.25
669.011	40882.51
669.361	40950.08
669.711	40875.06
670.06	41018.1
670.41	40796.19
670.76	40705.79
671.109	40980.59
671.459	40861.95
671.808	40698.79
672.157	40870.76
672.507	40635.74
672.856	40609.07
673.205	40758
673.554	40812.23
673.904	40675.29
674.253	40995.73
674.602	40676.42
674.951	40102.65
675.3	40007.28
675.649	40581.28
675.998	40616.98
676.346	40646.13
676.695	40602.07
677.044	40355.97
677.393	40463.99
677.741	40455.18
678.09	40427.84
678.438	40467.61
678.787	40468.74
679.135	40387.61
679.484	40036.89
679.832	40185.36
680.181	40007.96
680.529	40165.7
680.877	40113.27
681.225	40016.09
681.573	40240.27
681.922	39850
682.27	39710.11
682.618	39924.12
682.966	39754.18
683.314	39818.13
683.661	39748.76
684.009	39544.69
684.357	39459.5
684.705	39517.58
685.053	39592.83
685.4	39464.47
685.748	39376.34
686.095	39310.35
686.443	39150.81
686.79	39125.04
687.138	39168.43
687.485	39134.99
687.832	39066.29
688.18	39057.7
688.527	38816.58
688.874	38783.81
689.221	38692.97
689.568	38456.81
689.915	38500.43
690.262	38462.24
690.609	38419.98
690.956	38270.83
691.303	38151.51
691.65	37967.79
691.997	38091.63
692.344	37931.63
692.69	37869.71
693.037	37790.84
693.383	37552.88
693.73	37738.41
694.077	37323.51
694.423	37453.68
694.769	37412.55
695.116	37173.01
695.462	37219.56
695.808	37031.54
696.155	37180.01
696.501	36886.46
696.847	36755.39
697.193	36681.72
697.539	36746.35
697.885	36351.56
698.231	36293.71
698.577	36440.82
698.923	36310.88
699.269	36112.02
699.614	36032.47
699.96	36016.65
700.306	36044.45
700.651	35772.59
700.997	35777.79
701.342	35578.25
701.688	35618.24
702.033	35521.75
702.379	35503.45
702.724	35313.62
703.069	35261.64
703.415	35032.95
703.76	34899.39
704.105	34964.25
704.45	35061.42
704.795	34765.16
705.14	34550.25
705.485	34715.9
705.83	34553.64
706.175	34498.73
706.52	34537.59
706.865	34295.79
707.209	34296.47
707.554	34175.57
707.899	34211.5
708.243	34081.11
708.588	33981.45
708.932	33797.05
709.277	33792.98
709.621	33822.36
709.966	33621.23
710.31	33635.92
710.654	33423.27
710.998	33446.55
711.342	33408.81
711.687	33272.09
712.031	33100.8
712.375	33058.76
712.719	33158.65
713.063	33151.19
713.407	33072.32
713.75	32911.87
714.094	32860.58
714.438	32872.78
714.782	32861.48
715.125	32656.06
715.469	32622.84
715.812	32602.96
716.156	32413.13
716.499	32393.02
716.843	32476.41
717.186	32319.35
717.53	32454.94
717.873	32389.63
718.216	32369.06
718.559	32172.23
718.902	31952.58
719.246	31981.5
719.589	31968.17
719.932	31833.71
720.275	31772.02
720.617	31680.04
720.96	31668.52
721.303	31686.14
721.646	31681.17
721.989	31472.59
722.331	31475.3
722.674	31367.28
723.016	31448.41
723.359	31419.48
723.701	31349.66
724.044	31128.64
724.386	31048.87
724.729	31102.88
725.071	31074.63
725.413	31098.59
725.755	30960.29
726.097	30895.43
726.439	30799.39
726.782	30816.79
727.124	30893.17
727.465	30792.16
727.807	30685.27
728.149	30691.59
728.491	30639.17
728.833	30735.21
729.175	30422.67
729.516	30464.71
729.858	30432.62
730.199	30591.71
730.541	30237.37
730.882	30337.71
731.224	30475.33
731.565	30085.06
731.906	30376.35
732.248	30146.3
732.589	29981.1
732.93	29999.86
733.271	29982.01
733.612	29938.62
733.953	29948.34
734.294	29847.32
734.635	29766.65
734.976	29917.6
735.317	29677.16
735.658	29719.19
735.999	29828.79
736.339	29759.64
736.68	29634.22
737.021	29676.25
737.361	29342.48
737.702	29640.55
738.042	29459.31
738.383	29382.93
738.723	29520.1
739.063	29303.38
739.404	29400.33
739.744	29323.27
740.084	29252.76
740.424	29178.19
740.764	29057.29
741.104	29160.56
741.444	29048.47
741.784	28944.07
742.124	29071.75
742.464	29014.12
742.804	28909.49
743.143	28852.32
743.483	28911.75
743.823	28702.49
744.162	28722.61
744.502	28735.04
744.841	28524.65
745.181	28747.46
745.52	28713.12
745.86	28594.47
746.199	28596.28
746.538	28513.8
746.877	28553.35
747.216	28481.48
747.556	28369.62
747.895	28418.66
748.234	28365.78
748.573	28264.77
748.911	28327.59
749.25	28254.6
749.589	28116.75
749.928	28146.35
750.267	28072
750.605	28196.29
750.944	28106.8
751.283	27994.49
751.621	28060.93
751.96	27841.73
752.298	27845.57
752.636	27827.26
752.975	27747.94
753.313	27620.49
753.651	27842.86
753.989	27687.15
754.327	27620.26
754.666	27486.48
755.004	27492.81
755.342	27378.91
755.679	27320.16
756.017	27182.31
756.355	27334.85
756.693	27179.14
757.031	27138.24
757.368	27122.65
757.706	27053.05
758.044	26925.14
758.381	26964.69
758.719	26881.52
