Data from hue_20_FLMS001491_27.txt Node
Date: Mon Feb 06 15:33:50 GMT 2017
User: dcchb
Spectrometer: FLMS00149
Trigger mode: 0
Integration Time (sec): 2.000000E-2
Scans to average: 10
Electric dark correction enabled: true
Nonlinearity correction enabled: false
Boxcar width: 0
XAxis mode: Wavelengths
Number of Pixels in Spectrum: 2048
>>>>>Begin Spectral Data<<<<<
341.393	-7.27
341.776	-7.27
342.16	-7.27
342.543	-49.53
342.927	-62.41
343.31	-79.14
343.693	-69.65
344.077	-67.84
344.46	-62.87
344.843	-60.61
345.226	-39.14
345.61	-31
345.993	-25.58
346.376	-13.83
346.759	32.05
347.142	25.04
347.525	48.09
347.908	61.65
348.291	65.27
348.674	123.8
349.057	93.74
349.44	147.3
349.823	161.76
350.206	165.38
350.588	199.27
350.971	210.8
351.354	243.12
351.737	233.17
352.119	247.86
352.502	258.48
352.884	258.48
353.267	275.66
353.65	301.19
354.032	282.66
354.414	319.72
354.797	341.19
355.179	322.44
355.562	324.47
355.944	311.81
356.326	341.87
356.709	352.04
357.091	354.98
357.473	325.82
357.855	337.35
358.238	354.75
358.62	335.99
359.002	351.59
359.384	342.77
359.766	352.04
360.148	342.1
360.53	349.33
360.912	340.74
361.294	349.33
361.676	335.09
362.057	338.71
362.439	323.34
362.821	328.76
363.203	319.27
363.584	329.89
363.966	323.79
364.348	318.14
364.729	333.51
365.111	317.69
365.493	335.54
365.874	332.38
366.256	308.88
366.637	331.93
367.019	316.11
367.4	342.77
367.781	321.53
368.163	326.95
368.544	324.92
368.925	296.22
369.306	350.23
369.688	338.48
370.069	337.8
370.45	306.16
370.831	311.59
371.212	315.43
371.593	307.29
371.974	329.67
372.355	323.11
372.736	345.49
373.117	331.7
373.498	331.02
373.879	330.12
374.26	312.94
374.641	312.94
375.021	319.5
375.402	322.66
375.783	320.85
376.163	335.77
376.544	343.45
376.925	325.15
377.305	335.77
377.686	345.03
378.066	319.05
378.447	326.73
378.827	319.27
379.208	325.6
379.588	334.19
379.968	321.53
380.349	327.63
380.729	342.1
381.109	343.68
381.489	327.86
381.87	340.51
382.25	351.13
382.63	364.02
383.01	354.3
383.39	350
383.77	362.21
384.15	348.2
384.53	348.42
384.91	339.84
385.29	342.77
385.67	348.88
386.049	354.07
386.429	358.59
386.809	324.47
387.189	361.53
387.568	359.5
387.948	350.46
388.328	361.98
388.707	359.5
389.087	359.95
389.466	359.27
389.846	337.35
390.225	384.35
390.605	359.04
390.984	371.02
391.363	367.63
391.743	371.25
392.122	373.73
392.501	368.54
392.881	351.81
393.26	366.73
393.639	379.61
394.018	388.65
394.397	379.38
394.776	364.24
395.155	360.63
395.534	371.7
395.913	367.86
396.292	372.6
396.671	391.81
397.05	383.22
397.429	375.09
397.808	377.35
398.186	395.43
398.565	377.8
398.944	414.18
399.323	411.02
399.701	380.96
400.08	402.21
400.458	383.68
400.837	412.15
401.215	389.1
401.594	394.3
401.972	386.16
402.351	412.38
402.729	401.75
403.107	407.63
403.486	390.91
403.864	419.38
404.242	402.66
404.62	409.66
404.999	420.96
405.377	437.91
405.755	426.39
406.133	413.05
406.511	428.87
406.889	428.42
407.267	422.32
407.645	415.09
408.023	416.22
408.401	431.36
408.779	439.95
409.156	430.23
409.534	413.96
409.912	430.45
410.29	448.08
410.667	447.18
411.045	444.92
411.422	436.33
411.8	455.76
412.178	430.68
412.555	477.23
412.933	448.08
413.31	472.94
413.687	486.27
414.065	461.41
414.442	461.19
414.819	455.09
415.197	479.27
415.574	491.47
415.951	487.4
416.328	488.53
416.705	469.55
417.082	494.86
417.46	500.28
417.837	497.35
418.214	490.79
418.591	497.8
418.967	493.28
419.344	493.5
419.721	486.72
420.098	484.46
420.475	485.59
420.852	511.81
421.228	534.18
421.605	510.45
421.982	506.16
422.358	511.36
422.735	538.25
423.111	520.62
423.488	506.84
423.864	527.85
424.241	547.06
424.617	517.68
424.994	547.06
425.37	512.26
425.746	547.74
426.123	540.73
426.499	550.9
426.875	544.8
427.251	549.1
427.627	572.15
428.003	564.24
428.379	575.99
428.756	576.89
429.132	574.63
429.507	574.41
429.883	596.55
430.259	600.39
430.635	590.45
431.011	586.38
431.387	582.54
431.763	600.62
432.138	601.07
432.514	629.32
432.89	619.15
433.265	624.8
433.641	637.68
434.016	622.54
434.392	637.23
434.767	622.54
435.143	638.36
435.518	633.84
435.894	661.18
436.269	672.93
436.644	657.79
437.02	679.49
437.395	667.06
437.77	688.08
438.145	690.33
438.52	717.68
438.895	687.17
439.271	696.21
439.646	690.33
440.021	691.24
440.395	690.79
440.77	668.19
441.145	716.32
441.52	732.37
441.895	720.16
442.27	717.45
442.645	705.7
443.019	730.56
443.394	738.92
443.769	739.15
444.143	736.89
444.518	743.67
444.892	762.42
445.267	744.12
445.641	739.37
446.016	746.6
446.39	771.01
446.764	755.64
447.139	766.94
447.513	747.51
447.887	789.32
448.262	784.12
448.636	790.9
449.01	800.84
449.384	770.78
449.758	781.86
450.132	797.68
450.506	801.07
450.88	801.29
451.254	784.57
451.628	821.86
452.002	815.3
452.376	819.82
452.75	858.01
453.123	842.2
453.497	837
453.871	842.65
454.244	885.36
454.618	899.14
454.992	893.95
455.365	898.92
455.739	861.86
456.112	873.38
456.486	927.84
456.859	927.39
457.232	928.07
457.606	940.27
457.979	930.55
458.352	962.19
458.725	948.63
459.099	973.04
459.472	978.01
459.845	977.56
460.218	997.45
460.591	1021.4
460.964	1010.55
461.337	1023.43
461.71	1022.3
462.083	1073.83
462.456	1033.38
462.829	1047.84
463.201	1061.4
463.574	1078.35
463.947	1090.78
464.32	1110.66
464.692	1111.79
465.065	1112.24
465.438	1118.57
465.81	1154.96
466.183	1174.16
466.555	1175.29
466.928	1169.42
467.3	1168.74
467.672	1224.33
468.045	1237.89
468.417	1260.04
468.789	1233.82
469.161	1259.59
469.534	1290.55
469.906	1331.45
470.278	1332.8
470.65	1327.83
471.022	1351.56
471.394	1382.75
471.766	1420.71
472.138	1419.13
472.51	1436.3
472.882	1481.95
473.253	1465.46
473.625	1506.58
473.997	1523.31
474.369	1540.71
474.74	1566.7
475.112	1598.11
475.484	1619.35
475.855	1667.03
476.227	1670.2
476.598	1729.18
476.97	1726.47
477.341	1762.17
477.713	1788.16
478.084	1797.42
478.455	1837.2
478.827	1906.12
479.198	1934.6
479.569	1934.6
479.94	2008.27
480.311	2030.86
480.682	2072.9
481.053	2131.65
481.424	2182.73
481.795	2200.8
482.166	2244.19
482.537	2289.84
482.908	2298.65
483.279	2319.67
483.65	2362.83
484.021	2456.84
484.391	2480.57
484.762	2554.01
485.133	2530.74
485.503	2579.55
485.874	2639.21
486.244	2681.47
486.615	2714.91
486.985	2748.36
487.356	2886.89
487.726	2845.76
488.097	2925.53
488.467	2916.49
488.837	2985.19
489.207	3050.72
489.578	3123.94
489.948	3123.49
490.318	3138.41
490.688	3214.79
491.058	3258.4
491.428	3326.42
491.798	3377.72
492.168	3412.3
492.538	3451.62
492.908	3498.62
493.278	3555.8
493.648	3561.45
494.017	3573.87
494.387	3636.7
494.757	3685.06
495.126	3728.9
495.496	3761.44
495.866	3763.25
496.235	3836.69
496.605	3849.57
496.974	3900.19
497.344	3899.97
497.713	3964.6
498.082	4013.86
498.452	3978.61
498.821	4022.45
499.19	4068.78
499.559	4110.13
499.928	4182.67
500.298	4227.42
500.667	4213.63
501.036	4149.23
501.405	4231.48
501.774	4229.9
502.143	4303.35
502.512	4305.83
502.88	4354.42
503.249	4365.04
503.618	4403.46
503.987	4432.38
504.356	4436.23
504.724	4438.71
505.093	4497.01
505.462	4461.31
505.83	4561.87
506.199	4566.39
506.567	4609.55
506.936	4585.15
507.304	4651.81
507.672	4670.57
508.041	4655.88
508.409	4708.08
508.777	4716.67
509.145	4767.29
509.514	4770.91
509.882	4798.02
510.25	4797.12
510.618	4876.44
510.986	4864.69
511.354	4890.45
511.722	4871.69
512.09	4926.16
512.458	4908.08
512.826	4953.95
513.193	4974.29
513.561	4964.12
513.929	5005.7
514.297	5065.36
514.664	5064.23
515.032	5033.27
515.4	5083.21
515.767	5112.59
516.135	5157.56
516.502	5073.5
516.869	5234.17
517.237	5189.2
517.604	5143.78
517.972	5202.53
518.339	5184
518.706	5211.8
519.073	5261.51
519.44	5288.63
519.808	5293.6
520.175	5321.85
520.542	5369.31
520.909	5369.76
521.276	5361.4
521.643	5429.42
522.009	5418.8
522.376	5472.58
522.743	5486.59
523.11	5546.48
523.477	5527.72
523.843	5559.59
524.21	5634.61
524.577	5607.27
524.943	5667.61
525.31	5696.08
525.676	5737.43
526.043	5752.57
526.409	5754.16
526.776	5825.57
527.142	5790.77
527.508	5837.32
527.874	5922.06
528.241	5879.35
528.607	5885.23
528.973	5943.98
529.339	5997.77
529.705	5973.13
530.071	6052.45
530.437	6082.06
530.803	6110.76
531.169	6153.69
531.535	6114.6
531.901	6194.82
532.267	6145.33
532.632	6181.04
532.998	6153.92
533.364	6283.18
533.73	6277.76
534.095	6313.92
534.461	6338.1
534.826	6379
535.192	6456.06
535.557	6429.62
535.923	6403.63
536.288	6457.19
536.653	6510.07
537.019	6544.64
537.384	6537.64
537.749	6530.63
538.114	6623.96
538.479	6603.85
538.845	6651.31
539.21	6651.99
539.575	6672.78
539.94	6701.25
540.305	6787.35
540.67	6736.96
541.034	6756.16
541.399	6802.04
541.764	6803.85
542.129	6885.2
542.494	6886.33
542.858	6931.3
543.223	6929.72
543.587	6953.22
543.952	6987.12
544.316	7058.98
544.681	7089.04
545.045	7068.25
545.41	7158.19
545.774	7109.6
546.138	7161.13
546.503	7248.35
546.867	7228.69
547.231	7294.68
547.595	7284.51
547.959	7336.04
548.324	7317.51
548.688	7340.33
549.052	7354.11
549.416	7377.16
549.779	7389.14
550.143	7400.22
550.507	7491.96
550.871	7489.48
551.235	7472.53
551.599	7575.35
551.962	7615.8
552.326	7579.87
552.689	7665.97
553.053	7638.85
553.417	7699.42
553.78	7747.78
554.143	7708.91
554.507	7740.55
554.87	7815.57
555.234	7859.41
555.597	7831.62
555.96	7788
556.323	7900.99
556.686	7872.52
557.05	7987.09
557.413	7922.91
557.776	7933.76
558.139	7991.16
558.502	8076.13
558.865	8009.24
559.228	8085.17
559.59	8128.33
559.953	8110.7
560.316	8186.64
560.679	8185.28
561.041	8256.46
561.404	8290.14
561.767	8278.16
562.129	8289.91
562.492	8358.61
562.854	8342.34
563.217	8326.07
563.579	8436.12
563.941	8406.06
564.304	8412.84
564.666	8502.11
565.028	8561.31
565.39	8536
565.753	8623.23
566.115	8635.21
566.477	8689.9
566.839	8694.87
567.201	8725.6
567.563	8708.66
567.925	8832.95
568.287	8752.04
568.648	8760.86
569.01	8864.13
569.372	8949.78
569.734	8900.29
570.095	8938.48
570.457	9040.85
570.819	9035.65
571.18	9088.53
571.542	9169.21
571.903	9149.1
572.265	9172.6
572.626	9267.06
572.987	9307.06
573.349	9361.75
573.71	9419.37
574.071	9464.79
574.432	9611.23
574.794	9599.48
575.155	9629.08
575.516	9685.35
575.877	9806.48
576.238	9891
576.599	9899.58
576.96	9997.43
577.32	10033.37
577.681	10168.96
578.042	10231.33
578.403	10292.34
578.763	10420.7
579.124	10521.26
579.485	10654.59
579.845	10808.26
580.206	10837.64
580.566	11038.54
580.927	11082.83
581.287	11318.3
581.648	11393.56
582.008	11641.69
582.368	11780.89
582.728	11891.85
583.089	12104.27
583.449	12286.64
583.809	12496.8
584.169	12674.65
584.529	12830.81
584.889	13157.8
585.249	13298.59
585.609	13519.15
585.969	13803.21
586.329	13967.95
586.688	14306.93
587.048	14559.35
587.408	14771.32
587.768	14957.98
588.127	15225.32
588.487	15527.01
588.846	15906.21
589.206	16108.69
589.565	16468.9
589.925	16822.79
590.284	17004.93
590.643	17399.05
591.003	17776.89
591.362	18060.05
591.721	18429.98
592.08	18776.87
592.44	19113.13
592.799	19457.3
593.158	19720.8
593.517	20201.46
593.876	20475.8
594.235	20843.7
594.593	21143.36
594.952	21560.07
595.311	21821.08
595.67	22310.11
596.029	22818.11
596.387	23131.1
596.746	23489.51
597.104	23736.51
597.463	24173.33
597.822	24601.8
598.18	24918.62
598.538	25182.12
598.897	25684.71
599.255	25796.12
599.613	26547.51
599.972	26698.24
600.33	27207.38
600.688	27503.87
601.046	27807.81
601.404	28385.65
601.762	28660.22
602.12	29003.71
602.478	29256.14
602.836	29750.14
603.194	29831.72
603.552	30241.2
603.91	30455.88
604.268	31082.3
604.625	31294.28
604.983	31708.5
605.341	31755.05
605.698	32269.84
606.056	32630.74
606.413	32963.16
606.771	33322.92
607.128	33475.91
607.485	33779.86
607.843	34025.05
608.2	34416.45
608.557	34797.23
608.914	34785.94
609.272	35361.29
609.629	35510.66
609.986	36017.54
610.343	36032
610.7	36509.51
611.057	36767.35
611.414	36885.09
611.771	37224.06
612.127	37389.71
612.484	37629.7
612.841	38156.92
613.198	38153.3
613.554	38354.43
613.911	38838.94
614.267	38864.47
614.624	38963
614.98	39371.13
615.337	39664.45
615.693	39761.4
616.05	39908.51
616.406	40268.28
616.762	40381.04
617.118	40521.6
617.475	40699.23
617.831	40941.71
618.187	41190.29
618.543	41281.58
618.899	41653.1
619.255	41817.84
619.611	41963.15
619.967	42083.82
620.323	42222.35
620.678	42126.76
621.034	42396.81
621.39	42496.69
621.746	42518.16
622.101	43137.58
622.457	42756.12
622.812	43131.25
623.168	43288.76
623.523	43310.23
623.879	43455.99
624.234	43405.37
624.589	43622.31
624.945	43685.36
625.3	43752.25
625.655	43950.21
626.01	44058.23
626.365	44220.49
626.72	44010.55
627.075	44204.67
627.43	44228.85
627.785	44285.8
628.14	44498.67
628.495	44617.09
628.85	44645.79
629.205	44478.34
629.559	44767.59
629.914	44604.89
630.269	44704.77
630.623	44706.8
630.978	44620.03
631.332	44942.96
631.687	45097.75
632.041	44846.69
632.396	45043.52
632.75	44856.41
633.104	44951.32
633.459	44846.01
633.813	44919
634.167	44833.58
634.521	44996.97
634.875	45077.19
635.229	45110.86
635.583	44854.82
635.937	44836.07
636.291	44943.86
636.645	45025.44
636.999	44957.87
637.352	45099.34
637.706	44904.77
638.06	45000.81
638.413	44991.54
638.767	44919.23
639.121	45079
639.474	44821.38
639.828	44849.17
640.181	44971.66
640.534	44856.18
640.888	44845.11
641.241	44658.22
641.594	44813.47
641.947	44976.63
642.301	44820.93
642.654	44863.86
643.007	44933.69
643.36	44852.79
643.713	44872.68
644.066	45022.73
644.419	44680.59
644.771	44348.85
645.124	44100.04
645.477	44029.99
645.83	43873.15
646.182	43743.67
646.535	43627.29
646.888	43834.29
647.24	43434.52
647.593	43747.96
647.945	43665.02
648.298	43531.92
648.65	43539.6
649.002	43283.57
649.355	43640.62
649.707	43594.29
650.059	43607.85
650.411	44018.46
650.763	44181.39
651.115	44443.76
651.467	44325.8
651.819	44332.8
652.171	44414.16
652.523	44218.91
652.875	44159.93
653.227	44188.85
653.578	44408.96
653.93	44330.32
654.282	44142.07
654.633	44083.77
654.985	44158.8
655.337	44148.85
655.688	44224.56
656.039	44269.3
656.391	43971.23
656.742	44106.82
657.094	44015.3
657.445	44299.36
657.796	44186.59
658.147	44099.59
658.498	43973.04
658.849	44163.54
659.2	43997.9
659.551	43859.14
659.902	44042.87
660.253	43875.64
660.604	44033.83
660.955	43902.76
661.306	44072.7
661.656	43841.97
662.007	43921.74
662.358	43885.13
662.708	43867.5
663.059	43866.37
663.409	43627.51
663.76	44009.42
664.11	44021.85
664.461	43920.38
664.811	43840.61
665.161	43794.06
665.511	43832.25
665.862	43837.22
666.212	44015.07
666.562	44056.65
666.912	43884
667.262	43795.87
667.612	43843.78
667.962	43854.85
668.312	43844.91
668.662	44049.42
669.011	43938.24
669.361	43867.05
669.711	43851.01
670.06	43774.63
670.41	43721.52
670.76	43705.7
671.109	43730.33
671.459	43770.11
671.808	43701.86
672.157	43709.54
672.507	43482.43
672.856	43445.59
673.205	43582.09
673.554	43767.62
673.904	43609.21
674.253	43761.74
674.602	43527.63
674.951	42985.95
675.3	43012.61
675.649	43492.37
675.998	43312.49
676.346	43465.03
676.695	43553.39
677.044	43009.9
677.393	43350.68
677.741	43508.87
678.09	43192.04
678.438	43204.92
678.787	43246.73
679.135	43327.86
679.484	42955.44
679.832	43243.57
680.181	42953.63
680.529	43032.05
680.877	42945.27
681.225	42886.51
681.573	43108.43
681.922	42710.02
682.27	42582.79
682.618	42674.99
682.966	42612.4
683.314	42644.26
683.661	42548.67
684.009	42308
684.357	42318.39
684.705	42180.32
685.053	42325.17
685.4	42141
685.748	42085.18
686.095	41980.55
686.443	41956.37
686.79	41879.31
687.138	42016.03
687.485	41907.1
687.832	41871.85
688.18	41943.94
688.527	41687.45
688.874	41553.44
689.221	41541.01
689.568	41449.04
689.915	41470.51
690.262	41280.23
690.609	41090.85
690.956	41078.2
691.303	41011.99
691.65	40752.11
691.997	40958.43
692.344	40656.52
692.69	40642.05
693.037	40552.34
693.383	40318.67
693.73	40424.88
694.077	40189.86
694.423	40226.47
694.769	40094.5
695.116	40040.49
695.462	40080.94
695.808	39849.98
696.155	39847.95
696.501	39539.93
696.847	39506.49
697.193	39322.99
697.539	39469.88
697.885	39228.76
698.231	39126.39
698.577	39097.69
698.923	38908.09
699.269	38862.89
699.614	38626.29
699.96	38558.27
700.306	38558.27
700.651	38417.25
700.997	38350.36
701.342	38351.27
701.688	38215.9
702.033	38134.55
702.379	38054.55
702.724	37972.97
703.069	38041.9
703.415	37483.27
703.76	37584.05
704.105	37693.88
704.45	37584.51
704.795	37422.48
705.14	37243.72
705.485	37291.86
705.83	37118.98
706.175	37135.03
706.52	36970.06
706.865	36986.56
707.209	36867.69
707.554	36689.61
707.899	36735.71
708.243	36662.72
708.588	36526
708.932	36256.63
709.277	36317.42
709.621	36281.72
709.966	36020.48
710.31	36264.99
710.654	35853.48
710.998	36057.77
711.342	35950.42
711.687	35904.55
712.031	35641.05
712.375	35642.18
712.719	35696.65
713.063	35478.57
713.407	35649.87
713.75	35438.8
714.094	35331.46
714.438	35165.59
714.782	35202.42
715.125	35047.85
715.469	35164.68
715.812	34987.29
716.156	34771.92
716.499	34761.08
716.843	34859.15
717.186	34707.52
717.53	34624.81
717.873	34747.07
718.216	34611.7
718.559	34589.1
718.902	34342.56
719.246	34447.41
719.589	34187.99
719.932	34140.53
720.275	34213.75
720.617	34176.01
720.96	34032.96
721.303	33929.23
721.646	33945.96
721.989	33804.04
722.331	33957.48
722.674	33800.88
723.016	33845.4
723.359	33689.47
723.701	33662.58
724.044	33477.95
724.386	33277.5
724.729	33498.96
725.071	33466.42
725.413	33459.42
725.755	33468
726.097	33179.65
726.439	33087
726.782	33037.51
727.124	33183.04
727.465	33030.5
727.807	32917.51
728.149	32895.59
728.491	32790.06
728.833	32800.23
729.175	32818.98
729.516	32684.52
729.858	32565.66
730.199	32720.91
730.541	32626.67
730.882	32638.65
731.224	32563.62
731.565	32459.22
731.906	32426
732.248	32335.38
732.589	32344.19
732.93	32210.41
733.271	32204.99
733.612	32186.46
733.953	32294.25
734.294	31936.97
734.635	32062.62
734.976	32117.98
735.317	31814.94
735.658	31901.49
735.999	31976.97
736.339	31800.48
736.68	31880.48
737.021	31889.97
737.361	31770.42
737.702	31840.48
738.042	31727.48
738.383	31725.45
738.723	31561.61
739.063	31463.76
739.404	31534.72
739.744	31452.69
740.084	31194.84
740.424	31429.19
740.764	31212.92
741.104	31450.43
741.444	31081.4
741.784	31128.18
742.124	31126.82
742.464	31078.46
742.804	31054.06
743.143	31009.99
743.483	31004.79
743.823	30838.92
744.162	30739.26
744.502	30874.85
744.841	30670.11
745.181	30798.02
745.52	30627.63
745.86	30747.85
746.199	30614.29
746.538	30602.32
746.877	30648.19
747.216	30612.03
747.556	30561.41
747.895	30513.73
748.234	30405.71
748.573	30258.37
748.911	30352.83
749.25	30284.59
749.589	30097.25
749.928	30083.01
750.267	30200.29
750.605	30147.19
750.944	30020.41
751.283	30003.69
751.621	30137.02
751.96	29783.81
752.298	29827.65
752.636	29850.02
752.975	29727.54
753.313	29584.26
753.651	29668.56
753.989	29610.03
754.327	29598.95
754.666	29406.19
755.004	29479.18
755.342	29446.19
755.679	29345.85
756.017	29136.14
756.355	29303.59
756.693	29089.36
757.031	29263.14
757.368	29064.96
757.706	29094.11
758.044	28843.72
758.381	28893.44
758.719	28808.69
759.056	28824.28
759.394	28724.4
759.731	28558.53
760.068	28598.98
760.405	28380.45
760.743	28333.45
761.08	28465.88
761.417	28137.07
