Data from hue_32_FLMS001491_00054.txt Node
Date: Tue Feb 07 17:23:36 GMT 2017
User: dcchb
Spectrometer: FLMS00149
Trigger mode: 0
Integration Time (sec): 2.000000E-2
Scans to average: 10
Electric dark correction enabled: true
Nonlinearity correction enabled: false
Boxcar width: 0
XAxis mode: Wavelengths
Number of Pixels in Spectrum: 2048
>>>>>Begin Spectral Data<<<<<
341.393	-10.24
341.776	-10.24
342.16	-10.24
342.543	-69.45
342.927	-91.14
343.31	-56.79
343.693	-60.63
344.077	-75.32
344.46	-54.53
344.843	-43.91
345.226	-40.75
345.61	-43.23
345.993	-8.43
346.376	1.96
346.759	18.91
347.142	15.3
347.525	27.73
347.908	53.94
348.291	45.8
348.674	95.52
349.057	124.45
349.44	131.68
349.823	130.55
350.206	159.47
350.588	195.18
350.971	203.54
351.354	242.63
351.737	243.09
352.119	257.1
352.502	261.84
352.884	286.7
353.267	276.76
353.65	276.08
354.032	288.06
354.414	301.84
354.797	311.79
355.179	311.33
355.562	328.06
355.944	324.21
356.326	338.45
356.709	339.36
357.091	347.72
357.473	346.81
357.855	334.16
358.238	357.89
358.62	326.7
359.002	327.15
359.384	347.94
359.766	343.2
360.148	334.61
360.53	331.67
360.912	330.32
361.294	337.1
361.676	323.54
362.057	294.16
362.439	358.11
362.821	326.25
363.203	329.19
363.584	332.12
363.966	340.49
364.348	315.4
364.729	329.64
365.111	337.77
365.493	316.98
365.874	328.51
366.256	318.57
366.637	338.45
367.019	293.26
367.4	302.29
367.781	309.3
368.163	307.72
368.544	319.47
368.925	325.12
369.306	336.19
369.688	324.44
370.069	321.05
370.45	280.37
370.831	309.07
371.212	309.3
371.593	300.94
371.974	327.15
372.355	301.84
372.736	304.1
373.117	356.08
373.498	307.49
373.879	314.95
374.26	336.19
374.641	313.14
375.021	330.77
375.402	339.58
375.783	328.73
376.163	329.41
376.544	305.68
376.925	323.31
377.305	326.47
377.686	329.64
378.066	330.09
378.447	321.5
378.827	337.1
379.208	317.44
379.588	330.54
379.968	331.67
380.349	337.32
380.729	342.52
381.109	298.9
381.489	331.9
381.87	340.71
382.25	361.28
382.63	338.23
383.01	332.58
383.39	327.83
383.77	354.27
384.15	346.13
384.53	353.14
384.91	342.29
385.29	354.5
385.67	363.76
386.049	323.76
386.429	353.14
386.809	358.11
387.189	341.62
387.568	366.7
387.948	331.9
388.328	344.1
388.707	355.85
389.087	356.53
389.466	338.45
389.846	367.6
390.225	346.36
390.605	383.42
390.984	354.04
391.363	359.92
391.743	366.25
392.122	376.87
392.501	387.49
392.881	363.99
393.26	367.83
393.639	362.86
394.018	387.26
394.397	386.13
394.776	364.44
395.155	407.15
395.534	389.07
395.913	393.82
396.292	400.6
396.671	398.56
397.05	411.9
397.429	370.54
397.808	408.96
398.186	378.45
398.565	384.1
398.944	376.87
399.323	401.05
399.701	400.14
400.08	392.91
400.458	390.43
400.837	399.24
401.215	420.03
401.594	390.65
401.972	402.18
402.351	421.16
402.729	408.51
403.107	389.52
403.486	404.66
403.864	433.82
404.242	411.9
404.62	410.77
404.999	408.28
405.377	435.4
405.755	419.81
406.133	414.16
406.511	412.35
406.889	440.37
407.267	431.78
407.645	437.66
408.023	431.1
408.401	444.21
408.779	460.93
409.156	432.69
409.534	440.37
409.912	441.05
410.29	467.26
410.667	453.7
411.045	452.35
411.422	453.93
411.8	453.7
412.178	457.09
412.555	450.54
412.933	477.66
413.31	482.63
413.687	469.75
414.065	481.5
414.442	475.17
414.819	484.66
415.197	481.72
415.574	493.7
415.951	508.16
416.328	492.57
416.705	497.54
417.082	526.47
417.46	516.98
417.837	509.29
418.214	528.05
418.591	508.84
418.967	507.03
419.344	495.51
419.721	503.87
420.098	508.16
420.475	518.79
420.852	534.6
421.228	526.24
421.605	530.99
421.982	524.21
422.358	563.08
422.735	551.78
423.111	570.54
423.488	547.26
423.864	550.2
424.241	552.46
424.617	565.11
424.994	568.5
425.37	557.2
425.746	537.99
426.123	564.21
426.499	567.15
426.875	581.83
427.251	570.99
427.627	574.15
428.003	603.53
428.379	604.21
428.756	588.84
429.132	603.98
429.507	612.12
429.883	615.73
430.259	624.77
430.635	622.29
431.011	625.68
431.387	649.86
431.763	646.01
432.138	648.05
432.514	657.77
432.89	672.91
433.265	653.02
433.641	681.04
434.016	674.49
434.392	685.11
434.767	703.41
435.143	684.88
435.518	693.92
435.894	710.42
436.269	702.96
436.644	717.2
437.02	710.42
437.395	726.92
437.77	725.33
438.145	749.29
438.52	729.63
438.895	737.09
439.271	742.28
439.646	742.51
440.021	773.24
440.395	764.66
440.77	766.01
441.145	754.26
441.52	784.32
441.895	786.8
442.27	780.02
442.645	803.3
443.019	790.87
443.394	802.85
443.769	809.4
444.143	788.16
444.518	798.33
444.892	800.36
445.267	832.22
445.641	802.39
446.016	790.64
446.39	844.43
446.764	822.73
447.139	812.79
447.513	837.42
447.887	827.93
448.262	855.73
448.636	859.12
449.01	866.12
449.384	863.41
449.758	875.39
450.132	863.41
450.506	901.37
450.88	903.63
451.254	885.1
451.628	887.59
452.002	908.38
452.376	923.07
452.75	922.17
453.123	932.11
453.497	940.92
453.871	941.6
454.244	970.3
454.618	980.47
454.992	952.45
455.365	989.96
455.739	993.35
456.112	990.64
456.486	999
456.859	1014.82
457.232	1027.7
457.606	1022.05
457.979	1040.58
458.352	1056.4
458.725	1077.19
459.099	1050.75
459.472	1097.53
459.845	1114.48
460.218	1108.6
460.591	1109.73
460.964	1137.07
461.337	1158.32
461.71	1178.66
462.083	1162.16
462.456	1157.87
462.829	1194.02
463.201	1205.1
463.574	1180.92
463.947	1218.88
464.32	1233.34
464.692	1239.9
465.065	1281.7
465.438	1285.55
465.81	1297.75
466.183	1304.08
466.555	1330.06
466.928	1366.45
467.3	1346.33
467.672	1361.93
468.045	1417.29
468.417	1412.55
468.789	1426.56
469.161	1450.06
469.534	1472.66
469.906	1507.23
470.278	1513.56
470.65	1542.71
471.022	1516.5
471.394	1605.54
471.766	1629.94
472.138	1645.76
472.51	1675.82
472.882	1707.91
473.253	1725.31
473.625	1767.11
473.997	1791.29
474.369	1782.03
474.74	1818.19
475.112	1852.31
475.484	1882.82
475.855	1940.67
476.227	1969.6
476.598	2007.11
476.97	2053.43
477.341	2092.53
477.713	2128.91
478.084	2158.52
478.455	2214.11
478.827	2264.95
479.198	2335.69
479.569	2364.61
479.94	2456.14
480.311	2488.23
480.682	2582.01
481.053	2612.29
481.424	2677.6
481.795	2750.82
482.166	2784.04
482.537	2877.59
482.908	2909.46
483.279	2932.06
483.65	3065.84
484.021	3084.82
484.391	3180.86
484.762	3179.28
485.133	3297.92
485.503	3327.53
485.874	3430.8
486.244	3494.98
486.615	3591.02
486.985	3666.05
487.356	3770.9
487.726	3812.03
488.097	3946.27
488.467	3960.5
488.837	4047.51
489.207	4172.93
489.578	4237.78
489.948	4304
490.318	4416.76
490.688	4472.58
491.058	4513.48
491.428	4647.04
491.798	4651.11
492.168	4830.76
492.538	4885.22
492.908	4974.04
493.278	5028.5
493.648	5103.52
494.017	5190.75
494.387	5256.06
494.757	5349.17
495.126	5412.22
495.496	5443.85
495.866	5535.38
496.235	5635.71
496.605	5731.3
496.974	5757.29
497.344	5837.52
497.713	5906.67
498.082	6004.74
498.452	6076.61
498.821	6070.73
499.19	6149.82
499.559	6171.52
499.928	6282.48
500.298	6337.62
500.667	6462.81
501.036	6462.13
501.405	6542.58
501.774	6592.98
502.143	6711.62
502.512	6688.12
502.88	6824.16
503.249	6830.71
503.618	6879.75
503.987	6929.24
504.356	6997.71
504.724	7078.39
505.093	7114.54
505.462	7168.55
505.83	7174.2
506.199	7244.03
506.567	7425.04
506.936	7358.61
507.304	7504.59
507.672	7505.04
508.041	7598.83
508.409	7560.86
508.777	7698.71
509.145	7738.93
509.514	7792.27
509.882	7848.99
510.25	7877.91
510.618	7895.54
510.986	7949.1
511.354	8021.87
511.722	8135.08
512.09	8112.26
512.458	8160.17
512.826	8236.55
513.193	8310.45
513.561	8368.3
513.929	8342.99
514.297	8413.72
514.664	8571
515.032	8519.71
515.4	8659.59
515.767	8667.95
516.135	8701.62
516.502	8589.99
516.869	8814.16
517.237	8750.21
517.604	8851.45
517.972	8923.54
518.339	8956.08
518.706	9046.47
519.073	9004.89
519.44	9099.8
519.808	9163.3
520.175	9159.69
520.542	9221.61
520.909	9272.91
521.276	9360.59
521.643	9347.48
522.009	9424.31
522.376	9433.81
522.743	9559.45
523.11	9647.36
523.477	9700.69
523.843	9727.58
524.21	9832.44
524.577	9956.5
524.943	9916.05
525.31	9911.99
525.676	10134.8
526.043	10102.49
526.409	10116.73
526.776	10293.44
527.142	10289.6
527.508	10311.75
527.874	10414.57
528.241	10499.54
528.607	10509.03
528.973	10596.26
529.339	10577.73
529.705	10610.72
530.071	10802.58
530.437	10782.7
530.803	10850.49
531.169	10903.6
531.535	10841.68
531.901	10907.89
532.267	10996.25
532.632	11114.89
532.998	11064.27
533.364	11199.86
533.73	11304.49
534.095	11279.18
534.461	11305.62
534.826	11396.47
535.192	11413.64
535.557	11523.69
535.923	11506.29
536.288	11549.46
536.653	11611.83
537.019	11690.24
537.384	11645.95
537.749	11712.39
538.114	11796.68
538.479	11861.31
538.845	11858.6
539.21	11903.35
539.575	11944.47
539.94	11986.73
540.305	12077.13
540.67	12059.27
541.034	12125.49
541.399	12202.55
541.764	12206.16
542.129	12204.35
542.494	12325.71
542.858	12476.44
543.223	12389.66
543.587	12551.46
543.952	12499.26
544.316	12506.27
544.681	12642.08
545.045	12635.76
545.41	12743.55
545.774	12788.75
546.138	12760.27
546.503	12855.64
546.867	12860.61
547.231	12919.14
547.595	12897.9
547.959	12983.99
548.324	13063.09
548.688	13154.61
549.052	13128.85
549.416	13234.38
549.779	13230.99
550.143	13279.13
550.507	13388.05
550.871	13379.69
551.235	13384.21
551.599	13553.02
551.962	13535.39
552.326	13556.41
552.689	13553.02
553.053	13607.03
553.417	13644.54
553.78	13839.11
554.143	13789.85
554.507	13841.15
554.87	13869.62
555.234	14029.39
555.597	13938.09
555.96	14024.19
556.323	14018.54
556.686	14084.76
557.05	14197.97
557.413	14272.32
557.776	14195.49
558.139	14382.38
558.502	14363.17
558.865	14356.84
559.228	14547.34
559.59	14543.05
559.953	14553.67
560.316	14667.79
560.679	14614.01
561.041	14769.71
561.404	14815.59
561.767	14871.63
562.129	14945.98
562.492	15037.5
562.854	15017.84
563.217	15012.64
563.579	15099.19
563.941	15219.19
564.304	15154.56
564.666	15317.94
565.028	15398.85
565.39	15406.08
565.753	15407.21
566.115	15452.4
566.477	15522.91
566.839	15607.43
567.201	15715.45
567.563	15717.26
567.925	15788.89
568.287	15862.56
568.648	15831.15
569.01	15937.82
569.372	16070.69
569.734	15964.03
570.095	16103.23
570.457	16235.21
570.819	16234.08
571.18	16346.62
571.542	16363.34
571.903	16457.8
572.265	16508.2
572.626	16594.07
572.987	16730.79
573.349	16721.75
573.71	16829.32
574.071	16913.38
574.432	16977.56
574.794	17194.28
575.155	17192.92
575.516	17162.64
575.877	17368.96
576.238	17475.18
576.599	17552.24
576.96	17733.25
577.32	17709.29
577.681	17865.45
578.042	18013.24
578.403	18073.35
578.763	18239
579.124	18385.43
579.485	18537.75
579.845	18747.69
580.206	18727.57
580.566	18907
580.927	19079.43
581.287	19239.65
581.648	19416.82
582.008	19665.63
582.368	19723.48
582.728	19903.59
583.089	19951.95
583.449	20153.52
583.809	20294.54
584.169	20566.17
584.529	20769.33
584.889	21105.59
585.249	21214.51
585.609	21304
585.969	21669.87
586.329	21897.21
586.688	22025.11
587.048	22240.25
587.408	22374.03
587.768	22731.08
588.127	22828.93
588.487	23185.08
588.846	23454.45
589.206	23610.83
589.565	23861.22
589.925	24248.11
590.284	24297.6
590.643	24666.63
591.003	24979.16
591.362	25270.68
591.721	25390.22
592.08	25692.14
592.44	26014.16
592.799	26325.11
593.158	26466.58
593.517	26728.04
593.876	26944.31
594.235	27138.2
594.593	27439.66
594.952	27796.49
595.311	27862.02
595.67	28237.6
596.029	28693.41
596.387	28962.78
596.746	29246.62
597.104	29237.8
597.463	29508.08
597.822	29887.28
598.18	30069.65
598.538	30140.38
598.897	30671.21
599.255	30678.22
599.613	31288.82
599.972	31374.92
600.33	31763.84
600.688	31712.99
601.046	32112.53
601.404	32490.37
601.762	32430.94
602.12	32875.22
602.478	33055.78
602.836	33256
603.194	33284.03
603.552	33636.11
603.91	33733.73
604.268	34083.55
604.625	34035.64
604.983	34396.77
605.341	34521.96
605.698	34963.08
606.056	35083.75
606.413	35279.68
606.771	35391.99
607.128	35689.84
607.485	35744.75
607.843	35823.39
608.2	36253.67
608.557	36570.72
608.914	36496.82
609.272	36848.68
609.629	37025.4
609.986	37406.4
610.343	37184.71
610.7	37664.48
611.057	37735.89
611.414	37803.46
611.771	37896.11
612.127	38226.04
612.484	38351.69
612.841	38529.31
613.198	38497.22
613.554	38605.24
613.911	38916.65
614.267	39259.91
614.624	39120.48
614.98	39299.46
615.337	39623.97
615.693	39535.61
616.05	39650.41
616.406	40052.21
616.762	39986
617.118	40145.31
617.475	40183.96
617.831	40382.6
618.187	40413.33
618.543	40579.43
618.899	40775.58
619.255	40854.67
619.611	40851.28
619.967	41129.7
620.323	41233.87
620.678	41296.7
621.034	41227.55
621.39	41305.74
621.746	41346.41
622.101	41829.79
622.457	41497.82
622.812	41731.94
623.168	41685.16
623.523	41943.23
623.879	41989.33
624.234	41816.23
624.589	42103.23
624.945	42114.3
625.3	42248.76
625.655	42181.42
626.01	42342.54
626.365	42469.1
626.72	42331.02
627.075	42453.95
627.43	42505.48
627.785	42445.37
628.14	42468.19
628.495	42565.59
628.85	42534.4
629.205	42616.44
629.559	42857.33
629.914	42565.14
630.269	42661.63
630.623	42624.57
630.978	42633.61
631.332	42782.08
631.687	42856.2
632.041	42866.82
632.396	42769.65
632.75	42705.25
633.104	42951.34
633.459	42662.08
633.813	42799.93
634.167	42806.04
634.521	42795.41
634.875	42917.22
635.229	42763.55
635.583	42589.32
635.937	42818.24
636.291	42668.86
636.645	42705.93
636.999	42714.06
637.352	42896.43
637.706	42717.68
638.06	42839.71
638.413	42670.22
638.767	42563.78
639.121	42806.49
639.474	42469.32
639.828	42520.17
640.181	42666.38
640.534	42581.18
640.888	42471.81
641.241	42330.34
641.594	42502.77
641.947	42565.59
642.301	42410.79
642.654	42432.26
643.007	42459.6
643.36	42417.57
643.713	42433.84
644.066	42717.45
644.419	42479.49
644.771	42137.58
645.124	41760.64
645.477	41768.1
645.83	41378.95
646.182	41332.18
646.535	41274.78
646.888	41324.04
647.24	40981.9
647.593	41373.3
647.945	41298.5
648.298	41081.79
648.65	41197.26
649.002	40985.52
649.355	41200.2
649.707	41151.84
650.059	41307.54
650.411	41784.37
650.763	41724.48
651.115	42185.71
651.467	42058.48
651.819	42096.9
652.171	41867.98
652.523	41883.57
652.875	41864.82
653.227	41655.56
653.578	41992.05
653.93	41880.18
654.282	41719.96
654.633	41713.63
654.985	41811.49
655.337	41791.15
655.688	41787.31
656.039	41977.36
656.391	41493.98
656.742	41722.22
657.094	41764.03
657.445	41985.72
657.796	41744.82
658.147	41745.27
658.498	41637.93
658.849	41837.25
659.2	41626.41
659.551	41610.81
659.902	41754.54
660.253	41622.56
660.604	41638.16
660.955	41533.98
661.306	41753.18
661.656	41638.83
662.007	41592.06
662.358	41543.02
662.708	41581.89
663.059	41498.05
663.409	41240.2
663.76	41486.07
664.11	41417.15
664.461	41519.52
664.811	41511.83
665.161	41637.03
665.511	41406.98
665.862	41337.15
666.212	41550.02
666.562	41523.36
666.912	41379.86
667.262	41400.65
667.612	41460.31
667.962	41484.04
668.312	41266.19
668.662	41510.48
669.011	41427.77
669.361	41425.28
669.711	41333.53
670.06	41284.95
670.41	41228
670.76	41210.37
671.109	41470.25
671.459	41315.23
671.808	41168.79
672.157	41318.39
672.507	41114.55
672.856	41117.94
673.205	41118.62
673.554	41301.89
673.904	41138.73
674.253	41269.8
674.602	41345.73
674.951	40576.04
675.3	40414.23
675.649	41078.17
675.998	41176.7
676.346	41078.4
676.695	41230.94
677.044	40797.27
677.393	41047.89
677.741	41063.03
678.09	41045.63
678.438	40899.19
678.787	41042.69
679.135	40915.69
679.484	40606.09
679.832	40869.59
680.181	40578.98
680.529	40697.62
680.877	40515.7
681.225	40680.44
681.573	40837.5
681.922	40440.9
682.27	40322.26
682.618	40410.84
682.966	40227.8
683.314	40443.39
683.661	40370.17
684.009	40096.5
684.357	39983.74
684.705	39930.18
685.053	40102.38
685.4	40133.11
685.748	39876.4
686.095	39805.21
686.443	39717.98
686.79	39524.77
687.138	39714.14
687.485	39826
687.832	39436.86
688.18	39607.93
688.527	39283.64
688.874	39221.05
689.221	39152.35
689.568	39084.1
689.915	39127.04
690.262	39005.23
690.609	38777.67
690.956	38830.32
691.303	38890.88
691.65	38790.77
691.997	38635.98
692.344	38442.31
692.69	38271.69
693.037	38440.5
693.383	38240.51
693.73	38358.69
694.077	37937.46
694.423	38067.85
694.769	37867.41
695.116	37774.98
695.462	37860.63
695.808	37714.42
696.155	37840.06
696.501	37359.85
696.847	37512.39
697.193	37179.52
697.539	37352.39
697.885	37028.11
698.231	37023.36
698.577	36989.24
698.923	36946.98
699.269	36819.53
699.614	36523.94
699.96	36463.15
700.306	36661.56
700.651	36355.58
700.997	36341.57
701.342	36239.88
701.688	36182.25
702.033	36084.18
702.379	36090.51
702.724	35920.79
703.069	35932.09
703.415	35429.51
703.76	35544.98
704.105	35516.51
704.45	35479.45
704.795	35284.43
705.14	35255.05
705.485	35152.45
705.83	34972.57
706.175	35179.12
706.52	34945
706.865	34990.87
707.209	34780.48
707.554	34693.25
707.899	34846.47
708.243	34559.02
708.588	34651
708.932	34390.21
709.277	34440.61
709.621	34319.93
709.966	34099.37
710.31	34215.98
710.654	33928.53
710.998	34062.76
711.342	34017.57
711.687	33661.87
712.031	33741.42
712.375	33613.06
712.719	33701.19
713.063	33607.63
713.407	33733.51
713.75	33459.16
714.094	33488.99
714.438	33374.42
714.782	33397.24
715.125	33196.57
715.469	33211.71
715.812	33133.75
716.156	32899.86
716.499	32945.5
716.843	33176.23
717.186	32818.5
717.53	32864.6
717.873	32910.93
718.216	32885.17
718.559	32612.63
718.902	32555.23
719.246	32563.82
719.589	32416.03
719.932	32296.71
720.275	32375.35
720.617	32402.47
720.96	32154.56
721.303	32255.35
721.646	32233.66
721.989	31989.6
722.331	32135.36
722.674	31940.56
723.016	31954.57
723.359	31900.33
723.701	31941.69
724.044	31763.84
724.386	31540.12
724.729	31770.17
725.071	31663.96
725.413	31521.59
725.755	31597.74
726.097	31475.26
726.439	31390.52
726.782	31321.82
727.124	31485.43
727.465	31287.02
727.807	31404.98
728.149	31164.53
728.491	31188.26
728.833	31278.2
729.175	31017.87
729.516	30990.07
729.858	30940.13
730.199	30991.2
730.541	30926.12
730.882	30815.62
731.224	30935.61
731.565	30656.52
731.906	30655.17
732.248	30829.4
732.589	30581.95
732.93	30493.36
733.271	30474.61
733.612	30543.31
733.953	30587.37
734.294	30452.46
734.635	30369.75
734.976	30341.05
735.317	30226.71
735.658	30296.31
735.999	30237.78
736.339	30207.5
736.68	30182.19
737.021	30134.28
737.361	29892.7
737.702	30157.1
738.042	30006.82
738.383	29946.26
738.723	30049.99
739.063	29865.81
739.404	29885.02
739.744	29801.41
740.084	29691.58
740.424	29847.51
740.764	29600.28
741.104	29792.14
741.444	29628.75
741.784	29406.39
742.124	29554.18
742.464	29511.24
742.804	29417.46
743.143	29218.14
743.483	29315.77
743.823	29261.53
744.162	29228.09
744.502	29225.6
744.841	29121.88
745.181	29276.9
745.52	29051.59
745.86	29089.33
746.199	29054.31
746.538	28965.72
746.877	29078.94
747.216	28943.58
747.556	28949.68
747.895	28898.83
748.234	28898.83
748.573	28792.39
748.911	28793.97
749.25	28765.05
749.589	28720.98
749.928	28606.41
750.267	28702.45
750.605	28657.25
750.944	28496.81
751.283	28413.87
751.621	28549.91
751.96	28333.65
752.298	28202.35
752.636	28239.86
752.975	28220.43
753.313	27987.67
753.651	28205.74
753.989	28017.5
754.327	28026.99
754.666	27915.35
755.004	27874
755.342	27905.64
755.679	27917.16
756.017	27727.34
756.355	27721.46
756.693	27730.05
757.031	27682.59
757.368	27506.32
757.706	27492.54
758.044	27417.29
