Data from hue_50_FLMS001491_76.txt Node
Date: Mon Feb 06 15:10:58 GMT 2017
User: dcchb
Spectrometer: FLMS00149
Trigger mode: 0
Integration Time (sec): 2.000000E-2
Scans to average: 10
Electric dark correction enabled: true
Nonlinearity correction enabled: false
Boxcar width: 0
XAxis mode: Wavelengths
Number of Pixels in Spectrum: 2048
>>>>>Begin Spectral Data<<<<<
341.393	-30.61
341.776	-30.61
342.16	-30.61
342.543	-51.62
342.927	-78.74
343.31	-53.88
343.693	-66.54
344.077	-60.21
344.46	-68.8
344.843	-49.36
345.226	-37.61
345.61	-41.23
345.993	-26.31
346.376	9.17
346.759	-3.04
347.142	36.06
347.525	55.04
347.908	39.9
348.291	77.41
348.674	101.37
349.057	88.03
349.44	109.95
349.823	150.18
350.206	157.19
350.588	180.91
350.971	222.95
351.354	200.35
351.737	229.5
352.119	253
352.502	277.86
352.884	279.22
353.267	290.51
353.65	270.63
354.032	296.84
354.414	309.95
354.797	305.66
355.179	327.35
355.562	320.34
355.944	322.83
356.326	333.9
356.709	316.5
357.091	325.54
357.473	336.39
357.855	331.19
358.238	343.39
358.62	341.59
359.002	331.64
359.384	346.11
359.766	323.73
360.148	344.98
360.53	345.43
360.912	334.58
361.294	323.51
361.676	337.97
362.057	326.67
362.439	338.42
362.821	321.25
363.203	347.69
363.584	351.76
363.966	329.84
364.348	328.48
364.729	302.94
365.111	321.47
365.493	322.15
365.874	321.47
366.256	315.6
366.637	301.14
367.019	305.66
367.4	311.31
367.781	328.93
368.163	321.02
368.544	297.07
368.925	316.5
369.306	345.65
369.688	306.56
370.069	303.85
370.45	292.1
370.831	296.84
371.212	301.36
371.593	316.95
371.974	322.83
372.355	308.59
372.736	330.06
373.117	317.63
373.498	291.64
373.879	309.95
374.26	312.21
374.641	320.8
375.021	297.07
375.402	319.44
375.783	321.47
376.163	322.38
376.544	306.79
376.925	338.2
377.305	319.21
377.686	332.32
378.066	316.73
378.447	327.58
378.827	329.61
379.208	341.81
379.588	336.39
379.968	345.2
380.349	345.88
380.729	327.58
381.109	330.74
381.489	337.75
381.87	342.27
382.25	320.12
382.63	336.16
383.01	329.16
383.39	355.37
383.77	339.33
384.15	330.51
384.53	345.2
384.91	358.31
385.29	345.2
385.67	356.05
386.049	351.76
386.429	355.82
386.809	354.02
387.189	338.88
387.568	354.02
387.948	347.69
388.328	354.47
388.707	348.82
389.087	341.36
389.466	369.61
389.846	344.3
390.225	369.38
390.605	357.18
390.984	368.03
391.363	357.41
391.743	386.78
392.122	375.03
392.501	350.63
392.881	369.83
393.26	378.2
393.639	340.46
394.018	357.41
394.397	352.66
394.776	366.67
395.155	361.7
395.534	375.26
395.913	373.68
396.292	375.48
396.671	376.16
397.05	373
397.429	366.45
397.808	353.56
398.186	371.42
398.565	396.73
398.944	396.05
399.323	382.49
399.701	375.71
400.08	393.34
400.458	381.59
400.837	399.89
401.215	382.04
401.594	367.8
401.972	392.43
402.351	403.28
402.729	383.39
403.107	386.33
403.486	397.4
403.864	401.25
404.242	394.24
404.62	409.61
404.999	397.18
405.377	394.69
405.755	419.78
406.133	393.56
406.511	422.26
406.889	390.85
407.267	413.45
407.645	438.08
408.023	414.58
408.401	419.78
408.779	415.71
409.156	419.55
409.534	408.93
409.912	431.3
410.29	414.58
410.667	444.64
411.045	430.4
411.422	426.78
411.8	443.73
412.178	430.4
412.555	447.12
412.933	444.18
413.31	447.35
413.687	445.09
414.065	459.78
414.442	468.14
414.819	467.23
415.197	472.66
415.574	458.19
415.951	463.17
416.328	469.27
416.705	451.41
417.082	462.94
417.46	478.53
417.837	482.15
418.214	469.27
418.591	485.76
418.967	495.26
419.344	481.24
419.721	490.28
420.098	498.87
420.475	511.98
420.852	474.01
421.228	503.39
421.605	507.68
421.982	499.1
422.358	493.67
422.735	534.12
423.111	492.09
423.488	529.38
423.864	521.02
424.241	519.21
424.617	523.96
424.994	516.05
425.37	525.31
425.746	527.12
426.123	543.16
426.499	518.76
426.875	546.78
427.251	556.27
427.627	551.98
428.003	558.53
428.379	553.56
428.756	562.15
429.132	575.71
429.507	563.95
429.883	572.77
430.259	588.13
430.635	569.15
431.011	594.91
431.387	580.9
431.763	586.1
432.138	589.26
432.514	620
432.89	599.21
433.265	601.02
433.641	599.43
434.016	607.79
434.392	622.71
434.767	636.04
435.143	612.99
435.518	628.13
435.894	636.95
436.269	640.34
436.644	656.61
437.02	661.35
437.395	663.84
437.77	656.16
438.145	672.65
438.52	662.71
438.895	661.8
439.271	671.97
439.646	709.49
440.021	707.45
440.395	680.79
440.77	689.83
441.145	689.6
441.52	731.18
441.895	727.79
442.27	704.06
442.645	715.36
443.019	710.84
443.394	739.99
443.769	723.95
444.143	734.8
444.518	739.99
444.892	700.45
445.267	723.95
445.641	745.64
446.016	744.29
446.39	756.04
446.764	754.01
447.139	763.04
447.513	751.75
447.887	772.99
448.262	761.01
448.636	770.73
449.01	756.72
449.384	788.81
449.758	779.77
450.132	803.04
450.506	775.02
450.88	810.73
451.254	829.03
451.628	841.69
452.002	831.97
452.376	806.66
452.75	804.85
453.123	862.25
453.497	844.17
453.871	868.35
454.244	897.96
454.618	867.22
454.992	878.3
455.365	876.49
455.739	904.51
456.112	898.86
456.486	890.95
456.859	916.49
457.232	939.99
457.606	940.67
457.979	925.53
458.352	945.64
458.725	951.51
459.099	993.1
459.472	988.12
459.845	999.42
460.218	991.06
460.591	1027.44
460.964	1003.94
461.337	1043.49
461.71	1045.75
462.083	1061.79
462.456	1075.13
462.829	1061.57
463.201	1104.05
463.574	1090.27
463.947	1137.72
464.32	1132.3
464.692	1115.8
465.065	1145.86
465.438	1162.81
465.81	1195.35
466.183	1223.82
466.555	1201.9
466.928	1246.42
467.3	1228.57
467.672	1273.54
468.045	1292.97
468.417	1329.81
468.789	1332.3
469.161	1342.24
469.534	1349.47
469.906	1407.1
470.278	1416.81
470.65	1442.58
471.022	1498.62
471.394	1499.3
471.766	1513.76
472.138	1530.48
472.51	1584.27
472.882	1645.28
473.253	1655.9
473.625	1691.38
473.997	1753.98
474.369	1731.16
474.74	1805.73
475.112	1808.67
475.484	1869
475.855	1924.14
476.227	1932.05
476.598	2012.5
476.97	2031.49
477.341	2086.17
477.713	2145.61
478.084	2200.75
478.455	2260.63
478.827	2345.15
479.198	2458.37
479.569	2431.7
479.94	2533.85
480.311	2588.53
480.682	2649.32
481.053	2736.55
481.424	2824.46
481.795	2908.75
482.166	2969.54
482.537	3057.22
482.908	3132.02
483.279	3198.46
483.65	3317.78
484.021	3407.72
484.391	3499.92
484.762	3600.03
485.133	3672.8
485.503	3792.34
485.874	3893.36
486.244	4019
486.615	4086.12
486.985	4254.48
487.356	4340.13
487.726	4421.25
488.097	4578.99
488.467	4656.95
488.837	4812.66
489.207	4887.68
489.578	5061.01
489.948	5135.59
490.318	5345.07
490.688	5349.36
491.058	5587.55
491.428	5662.35
491.798	5836.81
492.168	6027.77
492.538	6106.41
492.908	6256.69
493.278	6458.26
493.648	6458.94
494.017	6652.38
494.387	6775.77
494.757	6863.9
495.126	7060.51
495.496	7176.89
495.866	7297.56
496.235	7377.33
496.605	7545.47
496.974	7656.2
497.344	7827.94
497.713	7957.66
498.082	8093.93
498.452	8169.18
498.821	8357.2
499.19	8447.59
499.559	8544.31
499.928	8700.46
500.298	8811.42
500.667	8988.82
501.036	8992.21
501.405	9161.92
501.774	9262.48
502.143	9340.45
502.512	9555.13
502.88	9674.67
503.249	9688.69
503.618	9829.47
503.987	9887.32
504.356	10073.31
504.724	10202.34
505.093	10341.1
505.462	10453.41
505.83	10546.06
506.199	10613.18
506.567	10808.2
506.936	10870.12
507.304	11080.06
507.672	11087.97
508.041	11195.76
508.409	11360.51
508.777	11499.03
509.145	11614.29
509.514	11656.32
509.882	11744
510.25	11823.55
510.618	11942.64
510.986	12077.78
511.354	12224.89
511.722	12339.01
512.09	12433.7
512.458	12484.54
512.826	12651.32
513.193	12761.15
513.561	12803.18
513.929	12979.67
514.297	13138.09
514.664	13190.97
515.032	13276.39
515.4	13439.55
515.767	13482.48
516.135	13593.44
516.502	13615.59
516.869	13737.62
517.237	13864.85
517.604	13915.24
517.972	14066.42
518.339	14132.41
518.706	14218.96
519.073	14311.62
519.44	14339.41
519.808	14591.61
520.175	14615.79
520.542	14799.74
520.909	14913.41
521.276	14904.14
521.643	15128.99
522.009	15186.17
522.376	15408.31
522.743	15400.63
523.11	15603.78
523.477	15719.26
523.843	15829.54
524.21	16027.73
524.577	16123.09
524.943	16247.84
525.31	16250.1
525.676	16462.29
526.043	16533.93
526.409	16693.25
526.776	16868.16
527.142	16898.67
527.508	16958.55
527.874	17151.77
528.241	17233.8
528.607	17247.58
528.973	17453
529.339	17437.63
529.705	17665.65
530.071	17786.33
530.437	17906.55
530.803	17970.05
531.169	18062.7
531.535	18063.61
531.901	18091.18
532.267	18271.06
532.632	18501.79
532.998	18464.27
533.364	18568
533.73	18543.82
534.095	18740.2
534.461	18864.26
534.826	18930.02
535.192	19052.06
535.557	19116.69
535.923	19207.76
536.288	19339.28
536.653	19393.97
537.019	19262.45
537.384	19382.44
537.749	19560.52
538.114	19586.96
538.479	19745.6
538.845	19694.52
539.21	19685.03
539.575	19892.94
539.94	19878.7
540.305	20034.18
540.67	20028.98
541.034	20148.75
541.399	20335.64
541.764	20256.09
542.129	20336.77
542.494	20498.57
542.858	20471.45
543.223	20487.5
543.587	20669.87
543.952	20669.41
544.316	20794.16
544.681	20794.61
545.045	20840.48
545.41	20988.5
545.774	21104.66
546.138	20977.43
546.503	21063.53
546.867	21174.26
547.231	21404.99
547.595	21425.78
547.959	21474.82
548.324	21625.77
548.688	21624.19
549.052	21705.32
549.416	21687.47
549.779	21651.54
550.143	21749.84
550.507	22020.34
550.871	21986.44
551.235	22019.44
551.599	22236.15
551.962	22273.21
552.326	22300.56
552.689	22546.2
553.053	22372.42
553.417	22504.62
553.78	22796.59
554.143	22652.86
554.507	22816.02
554.87	22849.92
555.234	23106.19
555.597	23005.17
555.96	23069.13
556.323	23226.18
556.686	23354.32
557.05	23426.63
557.413	23434.54
557.776	23519.06
558.139	23709.79
558.502	23646.06
558.865	23793.17
559.228	24065.94
559.59	24069.55
559.953	24088.99
560.316	24335.98
560.679	24361.29
561.041	24386.83
561.404	24522.42
561.767	24754.05
562.129	24613.72
562.492	24945.23
562.854	24860.26
563.217	24869.3
563.579	24983.88
563.941	25211.89
564.304	25288.5
564.666	25482.85
565.028	25422.96
565.39	25615.5
565.753	25846.23
566.115	25805.1
566.477	25928.71
566.839	26053.23
567.201	26178.2
567.563	26275.37
567.925	26425.65
568.287	26493.89
568.648	26474.46
569.01	26664.96
569.372	26832.42
569.734	26767.11
570.095	26927.55
570.457	27066.53
570.819	27130.04
571.18	27097.72
571.542	27285.74
571.903	27403.02
572.265	27418.16
572.626	27560.31
572.987	27713.52
573.349	27726.86
573.71	27870.35
574.071	27965.95
574.432	28090.46
574.794	28273.51
575.155	28269.67
575.516	28226.05
575.877	28442.09
576.238	28460.4
576.599	28609.09
576.96	28702.65
577.32	28724.12
577.681	28947.61
578.042	28961.4
578.403	29007.05
578.763	29126.37
579.124	29208.85
579.485	29333.37
579.845	29463.53
580.206	29390.77
580.566	29516.19
580.927	29600.48
581.287	29867.59
581.648	29751.44
582.008	30008.83
582.368	29964.09
582.728	30200.24
583.089	30124.31
583.449	30164.53
583.809	30378.76
584.169	30593.9
584.529	30504.64
584.889	30906.89
585.249	30807
585.609	30838.86
585.969	31086.77
586.329	30978.52
586.688	31177.61
587.048	31310.49
587.408	31303.48
587.768	31312.98
588.127	31507.55
588.487	31467.32
588.846	31759.97
589.206	31620.31
589.565	31800.87
589.925	32026.4
590.284	32053.52
590.643	32126.06
591.003	32298.49
591.362	32446.73
591.721	32450.57
592.08	32589.33
592.44	32818.25
592.799	32663.68
593.158	32835.42
593.517	32932.59
593.876	33099.6
594.235	33068.18
594.593	33203.77
594.952	33378.01
595.311	33373.03
595.67	33665.23
596.029	33796.07
596.387	33779.58
596.746	33990.42
597.104	33743.42
597.463	34057.31
597.822	34098.67
598.18	33994.26
598.538	34184.54
598.897	34220.92
599.255	34002.17
599.613	34695.03
599.972	34562.83
600.33	34788.14
600.688	34608.93
601.046	34705.66
601.404	34902.94
601.762	34945.65
602.12	35074.23
602.478	35236.04
602.836	35249.6
603.194	35182.03
603.552	35363.04
603.91	35255.47
604.268	35459.08
604.625	35429.25
604.983	35698.17
605.341	35558.06
605.698	35835.57
606.056	35837.15
606.413	35881.67
606.771	35947.2
607.128	36043.47
607.485	35959.86
607.843	36064.26
608.2	36347.42
608.557	36381.54
608.914	36375.44
609.272	36605.49
609.629	36557.58
609.986	36811.81
610.343	36683.23
610.7	36880.06
611.057	36934.3
611.414	36948.08
611.771	37094.07
612.127	37267.62
612.484	37257
612.841	37407.51
613.198	37281.63
613.554	37269.88
613.911	37642.98
614.267	37774.73
614.624	37481.4
614.98	37878.45
615.337	37814.95
615.693	37864.22
616.05	37783.09
616.406	38205.9
616.762	37929.98
617.118	37971.78
617.475	38124.77
617.831	38124.77
618.187	38213.59
618.543	38202.51
618.899	38633.01
619.255	38463.07
619.611	38513.01
619.967	38625.1
620.323	38764.76
620.678	38691.09
621.034	38623.52
621.39	38593.91
621.746	38576.06
622.101	39003.62
622.457	38720.69
622.812	38763.63
623.168	38929.95
623.523	38993.23
623.879	38962.49
624.234	38883.4
624.589	39055.37
624.945	39044.07
625.3	39193.67
625.655	39207.91
626.01	39134.24
626.365	39133.34
626.72	39234.35
627.075	39132.43
627.43	39198.42
627.785	39093.34
628.14	39322.03
628.495	39273.9
628.85	39245.65
629.205	39043.85
629.559	39421.92
629.914	39132.88
630.269	39227.12
630.623	39177.18
630.978	39080.91
631.332	39345.31
631.687	39378.3
632.041	39211.53
632.396	39228.02
632.75	39220.79
633.104	39237.06
633.459	39158.87
633.813	39120.91
634.167	39176.95
634.521	39143.96
634.875	39197.06
635.229	39094.92
635.583	38899.67
635.937	39083.85
636.291	38924.53
636.645	39026.22
636.999	38958.2
637.352	39122.71
637.706	38773.8
638.06	38990.74
638.413	38899.9
638.767	38783.51
639.121	38934.7
639.474	38551.66
639.828	38582.39
640.181	38813.57
640.534	38572.67
640.888	38649.51
641.241	38399.8
641.594	38504.65
641.947	38650.18
642.301	38538.55
642.654	38668.49
643.007	38572.22
643.36	38456.07
643.713	38448.38
644.066	38589.62
644.419	38387.59
644.771	38165.23
645.124	37848.17
645.477	37872.58
645.83	37485.92
646.182	37347.17
646.535	37312.59
646.888	37384.68
647.24	37089.77
647.593	37381.07
647.945	37427.17
648.298	37226.27
648.65	37088.42
649.002	37037.8
649.355	37113.73
649.707	37250.67
650.059	37189.88
650.411	37572.92
650.763	37752.35
651.115	38118.9
651.467	37884.1
651.819	37967.49
652.171	37818.34
652.523	37798.46
652.875	37890.66
653.227	37610.89
653.578	37906.25
653.93	37823.77
654.282	37602.08
654.633	37664.45
654.985	37808.85
655.337	37699.47
655.688	37681.17
656.039	37850.21
656.391	37403.89
656.742	37522.76
657.094	37520.27
657.445	37696.54
657.796	37516.43
658.147	37447.5
658.498	37370.22
658.849	37537.67
659.2	37548.97
659.551	37320.5
659.902	37537.45
660.253	37555.75
660.604	37454.28
660.955	37349.43
661.306	37494.73
661.656	37328.19
662.007	37434.17
662.358	37374.74
662.708	37477.33
663.059	37373.61
663.409	37130.68
663.76	37501.97
664.11	37346.72
664.461	37523.66
664.811	37336.32
665.161	37220.39
665.511	37304.68
665.862	37240.05
666.212	37390.56
666.562	37328.64
666.912	37375.87
667.262	37281.18
667.612	37216.32
667.962	37285.7
668.312	37194.4
668.662	37451.57
669.011	37285.7
669.361	37175.87
669.711	37109.66
670.06	37151.69
670.41	37106.27
670.76	37038.93
671.109	37180.84
671.459	37200.05
671.808	36997.12
672.157	37187.85
672.507	36940.17
672.856	37064.01
673.205	37012.94
673.554	37059.72
673.904	36877.8
674.253	37010.91
674.602	36927.07
674.951	36451.37
675.3	36277.14
675.649	36837.12
675.998	36857.69
676.346	36774.75
676.695	36988.31
677.044	36692.27
677.393	36799.16
677.741	36883.68
678.09	36747.41
678.438	36561.88
678.787	36880.51
679.135	36629.22
679.484	36501.77
679.832	36680.29
680.181	36453.63
680.529	36567.53
680.877	36511.03
681.225	36405.05
681.573	36615.89
681.922	36342.22
682.27	36303.35
682.618	36201.21
682.966	36204.37
683.314	36197.37
683.661	36008.9
684.009	35926.19
684.357	35930.03
684.705	35816.36
685.053	35896.36
685.4	35875.34
685.748	35693.43
686.095	35660.43
686.443	35488.69
686.79	35515.58
687.138	35514.9
687.485	35504.05
687.832	35392.19
688.18	35279.2
688.527	35062.26
688.874	35179.77
689.221	35117.62
689.568	35010.28
689.915	34981.13
690.262	35036.95
690.609	34912.88
690.956	34848.02
691.303	34734.13
691.65	34419.56
691.997	34559.22
692.344	34353.8
692.69	34300.92
693.037	34282.39
693.383	34128.27
693.73	34259.34
694.077	33983.41
694.423	33963.98
694.769	34004.88
695.116	33802.4
695.462	33849.41
695.808	33628.17
696.155	33803.08
696.501	33504.1
696.847	33477.21
697.193	33293.94
697.539	33439.25
697.885	33107.51
698.231	33034.74
698.577	33057.79
698.923	33102.31
699.269	32825.03
699.614	32710.45
699.96	32674.52
700.306	32707.52
700.651	32524.47
700.997	32470.01
701.342	32472.27
701.688	32337.81
702.033	32221.65
702.379	32179.85
702.724	32188.21
703.069	32218.04
703.415	31764.26
703.76	31818.05
704.105	31862.11
704.45	31754.55
704.795	31636.81
705.14	31534.67
705.485	31423.26
705.83	31343.48
706.175	31487.89
706.52	31321.34
706.865	31210.38
707.209	31079.54
707.554	31037.05
707.899	31077.5
708.243	31066.88
708.588	30915.02
708.932	30696.27
709.277	30599.32
709.621	30555.71
709.966	30492.66
710.31	30477.74
710.654	30353
710.998	30249.28
711.342	30380.12
711.687	30197.3
712.031	30107.36
712.375	29931.77
712.719	30089.73
713.063	29958.89
713.407	30000.47
713.75	29772.45
714.094	29840.7
714.438	29816.29
714.782	29865.1
715.125	29572.46
715.469	29632.12
715.812	29653.36
716.156	29339.69
716.499	29419.92
716.843	29381.05
717.186	29197.78
717.53	29433.03
717.873	29231.22
718.216	29207.95
718.559	28985.13
718.902	29010.66
719.246	28965.24
719.589	28958.24
719.932	28782.87
720.275	28833.04
720.617	28728.86
720.96	28630.56
721.303	28764.79
721.646	28736.55
721.989	28529.09
722.331	28678.92
722.674	28477.57
723.016	28489.77
723.359	28525.48
723.701	28475.99
724.044	28295.88
724.386	28140.4
724.729	28199.39
725.071	28127.52
725.413	28224.02
725.755	28126.85
726.097	28075.55
726.439	27944.48
726.782	27921.43
727.124	27921.2
727.465	27901.09
727.807	27714.65
728.149	27688.44
728.491	27700.87
728.833	27715.33
729.175	27684.14
729.516	27598.05
729.858	27475.34
730.199	27492.96
730.541	27513.3
730.882	27357.6
731.224	27484.15
731.565	27410.71
731.906	27213.2
732.248	27365.96
732.589	27216.13
732.93	27082.58
733.271	27140.66
733.612	27168.9
733.953	27165.51
734.294	27013.65
734.635	26921.45
734.976	27111.05
735.317	26889.82
735.658	26866.54
735.999	26860.66
736.339	26784.51
736.68	26845.52
737.021	26791.74
737.361	26640.1
737.702	26768.46
738.042	26789.03
738.383	26603.27
738.723	26561.69
739.063	26538.41
739.404	26679.2
739.744	26483.95
740.084	26467.68
740.424	26349.94
740.764	26237.18
741.104	26421.58
741.444	26226.78
741.784	26170.51
742.124	26304.52
742.464	26177.52
742.804	26081.48
743.143	26061.36
743.483	26097.75
743.823	25875.83
744.162	26004.42
744.502	25904.98
744.841	25751.31
745.181	25887.36
745.52	25836.96
745.86	25832.22
746.199	25778.88
746.538	25667.25
746.877	25858.2
747.216	25743.41
747.556	25641.49
747.895	25515.39
748.234	25462.28
748.573	25447.82
748.911	25349.07
749.25	25402.4
749.589	25254.38
749.928	25265.68
750.267	25284.66
750.605	25295.51
750.944	25114.95
751.283	25101.61
751.621	25168.05
751.96	24987.04
752.298	25001.96
752.636	24959.24
752.975	24872.69
753.313	24673.6
753.651	24946.14
753.989	24708.63
754.327	24635.86
754.666	24547.73
755.004	24611.23
755.342	24681.06
755.679	24514.96
756.017	24462.31
756.355	24449.43
756.693	24305.48
757.031	24365.81
