Data from hue_180_FLMS001491_00024.txt Node
Date: Tue Feb 07 16:46:45 GMT 2017
User: dcchb
Spectrometer: FLMS00149
Trigger mode: 0
Integration Time (sec): 2.000000E-2
Scans to average: 10
Electric dark correction enabled: true
Nonlinearity correction enabled: false
Boxcar width: 0
XAxis mode: Wavelengths
Number of Pixels in Spectrum: 2048
>>>>>Begin Spectral Data<<<<<
341.393	-30.18
341.776	-30.18
342.16	-30.18
342.543	-62.27
342.927	-55.94
343.31	-64.31
343.693	-74.48
344.077	-56.17
344.46	-39.22
344.843	-68.83
345.226	-47.36
345.61	-24.53
345.993	-27.47
346.376	-7.13
346.759	9.59
347.142	20.21
347.525	43.94
347.908	77.16
348.291	87.78
348.674	79.19
349.057	91.62
349.44	108.8
349.823	132.07
350.206	157.16
350.588	182.92
350.971	203.71
351.354	202.13
351.737	217.49
352.119	238.51
352.502	257.27
352.884	294.78
353.267	262.24
353.65	320.09
354.032	289.36
354.414	283.48
354.797	283.26
355.179	303.82
355.562	311.5
355.944	316.7
356.326	332.75
356.709	298.85
357.091	328
357.473	323.48
357.855	320.09
358.238	346.53
358.62	332.97
359.002	346.08
359.384	314.67
359.766	329.13
360.148	311.5
360.53	323.93
360.912	337.04
361.294	352.86
361.676	332.29
362.057	302.24
362.439	338.4
362.821	316.7
363.203	310.15
363.584	346.98
363.966	311.73
364.348	325.29
364.729	306.76
365.111	307.66
365.493	296.81
365.874	320.09
366.256	319.86
366.637	315.8
367.019	321.22
367.4	302.01
367.781	308.34
368.163	304.27
368.544	308.34
368.925	319.64
369.306	291.16
369.688	306.53
370.069	311.96
370.45	291.39
370.831	312.63
371.212	309.24
371.593	314.67
371.974	297.27
372.355	308.11
372.736	298.4
373.117	298.62
373.498	298.62
373.879	315.34
374.26	317.38
374.641	314.44
375.021	299.98
375.402	309.7
375.783	325.51
376.163	312.41
376.544	311.05
376.925	323.48
377.305	314.44
377.686	311.28
378.066	294.1
378.447	315.8
378.827	317.83
379.208	320.09
379.588	347.43
379.968	347.21
380.349	330.71
380.729	331.84
381.109	323.93
381.489	330.26
381.87	332.52
382.25	332.75
382.63	334.55
383.01	346.08
383.39	323.93
383.77	316.25
384.15	343.59
384.53	330.49
384.91	334.78
385.29	323.25
385.67	343.59
386.049	335.01
386.429	334.78
386.809	348.79
387.189	353.54
387.568	342.69
387.948	349.69
388.328	344.27
388.707	353.08
389.087	330.03
389.466	349.92
389.846	346.53
390.225	329.13
390.605	346.76
390.984	362.58
391.363	340.65
391.743	387.43
392.122	344.5
392.501	380.65
392.881	370.71
393.26	351.05
393.639	375
394.018	365.51
394.397	364.38
394.776	376.13
395.155	385.17
395.534	367.77
395.913	373.87
396.292	379.52
396.671	388.34
397.05	386.76
397.429	370.71
397.808	377.49
398.186	391.05
398.565	385.85
398.944	384.5
399.323	406.42
399.701	389.69
400.08	389.02
400.458	387.66
400.837	391.95
401.215	392.63
401.594	394.21
401.972	429.47
402.351	405.51
402.729	400.54
403.107	387.89
403.486	420.88
403.864	421.78
404.242	420.2
404.62	416.81
404.999	418.62
405.377	432.63
405.755	432.63
406.133	455.45
406.511	454.32
406.889	465.17
407.267	463.36
407.645	479.86
408.023	462.46
408.401	473.53
408.779	454.32
409.156	483.02
409.534	461.78
409.912	481.89
410.29	497.49
410.667	492.74
411.045	507.43
411.422	520.99
411.8	534.55
412.178	511.05
412.555	525.73
412.933	535
413.31	537.26
413.687	548.79
414.065	547.66
414.442	556.47
414.819	584.26
415.197	567.09
415.574	586.3
415.951	598.5
416.328	607.31
416.705	599.41
417.082	603.02
417.46	623.36
417.837	637.6
418.214	638.5
418.591	616.35
418.967	645.51
419.344	664.94
419.721	623.59
420.098	676.24
420.475	681.89
420.852	680.31
421.228	679.18
421.605	717.59
421.982	734.32
422.358	713.07
422.735	726.86
423.111	746.29
423.488	774.54
423.864	795.33
424.241	778.38
424.617	786.29
424.994	807.54
425.37	799.85
425.746	814.09
426.123	838.49
426.499	826.29
426.875	846.63
427.251	882.79
427.627	870.13
428.003	888.89
428.379	884.82
428.756	924.82
429.132	925.72
429.507	930.24
429.883	925.05
430.259	922.11
430.635	939.96
431.011	923.46
431.387	996.23
431.763	989.68
432.138	1007.08
432.514	1045.27
432.89	1013.18
433.265	1027.64
433.641	1036.91
434.016	1069.45
434.392	1091.6
434.767	1141.76
435.143	1101.31
435.518	1148.77
435.894	1150.13
436.269	1174.31
436.644	1228.54
437.02	1212.5
437.395	1220.86
437.77	1222.67
438.145	1250.69
438.52	1268.99
438.895	1305.38
439.271	1310.35
439.646	1340.85
440.021	1381.08
440.395	1362.55
440.77	1375.43
441.145	1379.72
441.52	1427.86
441.895	1419.72
442.27	1449.1
442.645	1454.98
443.019	1457.01
443.394	1474.86
443.769	1482.55
444.143	1501.08
444.518	1530.91
444.892	1531.81
445.267	1547.4
445.641	1569.55
446.016	1580.85
446.39	1575.2
446.764	1582.88
447.139	1622.88
447.513	1613.39
447.887	1618.36
448.262	1638.47
448.636	1682.31
449.01	1662.88
449.384	1661.3
449.758	1709.43
450.132	1721.41
450.506	1721.64
450.88	1715.53
451.254	1770.9
451.628	1805.93
452.002	1783.78
452.376	1827.4
452.75	1834.4
453.123	1858.36
453.497	1878.92
453.871	1885.25
454.244	1942.19
454.618	1949.88
454.992	1994.62
455.365	1961.86
455.739	2008.63
456.112	2014.51
456.486	2059.25
456.859	2093.15
457.232	2113.94
457.606	2109.87
457.979	2120.04
458.352	2160.04
458.725	2214.28
459.099	2213.37
459.472	2232.81
459.845	2289.76
460.218	2282.3
460.591	2335.18
460.964	2356.87
461.337	2432.35
461.71	2450.43
462.083	2478.23
462.456	2488.17
462.829	2485.23
463.201	2487.94
463.574	2567.71
463.947	2572.01
464.32	2651.1
464.692	2701.04
465.065	2699.91
465.438	2729.74
465.81	2789.4
466.183	2792.79
466.555	2879.8
466.928	2919.12
467.3	2902.62
467.672	2919.12
468.045	3052.45
468.417	3035.05
468.789	3119.11
469.161	3127.7
469.534	3201.14
469.906	3257.64
470.278	3262.39
470.65	3350.97
471.022	3357.98
471.394	3467.13
471.766	3503.06
472.138	3519.78
472.51	3639.1
472.882	3705.99
473.253	3752.99
473.625	3808.59
473.997	3863.5
474.369	3907.34
474.74	3974.46
475.112	4028.24
475.484	4115.47
475.855	4178.75
476.227	4246.09
476.598	4352.3
476.97	4376.93
477.341	4473.65
477.713	4616.02
478.084	4624.16
478.455	4745.51
478.827	4774.66
479.198	4969.69
479.569	4967.43
479.94	5167.42
480.311	5187.08
480.682	5323.8
481.053	5437.92
481.424	5512.95
481.795	5583.45
482.166	5724.69
482.537	5766.73
482.908	5885.37
483.279	5975.53
483.65	6116.1
484.021	6276.32
484.391	6396.99
484.762	6402.42
485.133	6517.89
485.503	6576.2
485.874	6744.33
486.244	6821.39
486.615	6992.01
486.985	7069.52
487.356	7208.04
487.726	7270.19
488.097	7399.45
488.467	7477.19
488.837	7643.74
489.207	7681.25
489.578	7866.33
489.948	7914.02
490.318	8071.3
490.688	8140
491.058	8223.84
491.428	8350.84
491.798	8447.11
492.168	8631.96
492.538	8695.92
492.908	8814.33
493.278	8900.2
493.648	8942.69
494.017	9007.77
494.387	9078.28
494.757	9252.51
495.126	9284.83
495.496	9320.98
495.866	9397.82
496.235	9441.88
496.605	9616.57
496.974	9606.17
497.344	9724.59
497.713	9766.4
498.082	9836
498.452	9876.22
498.821	9978.14
499.19	9954.19
499.559	10059.5
499.928	10099.72
500.298	10162.32
500.667	10271.47
501.036	10271.02
501.405	10337.45
501.774	10394.63
502.143	10439.82
502.512	10453.84
502.88	10542.65
503.249	10523.44
503.618	10627.39
503.987	10621.29
504.356	10665.13
504.724	10779.25
505.093	10748.52
505.462	10710.78
505.83	10848.63
506.199	10886.59
506.567	10977.44
506.936	10955.29
507.304	11013.14
507.672	11058.34
508.041	11056.76
508.409	11124.33
508.777	11270.99
509.145	11247.94
509.514	11203.42
509.882	11215.17
510.25	11269.41
510.618	11402.74
510.986	11351.66
511.354	11355.96
511.722	11463.53
512.09	11455.39
512.458	11426.24
512.826	11543.98
513.193	11500.36
513.561	11548.95
513.929	11479.57
514.297	11659.45
514.664	11633.47
515.032	11705.78
515.4	11729.28
515.767	11738.32
516.135	11781.03
516.502	11673.69
516.869	11784.2
517.237	11734.25
517.604	11755.5
517.972	11791.88
518.339	11833.01
518.706	11826
519.073	11801.14
519.44	11844.76
519.808	11864.19
520.175	11859.67
520.542	11899
520.909	11977.41
521.276	11941.03
521.643	11955.04
522.009	11908.94
522.376	12019.9
522.743	12012.21
523.11	12001.14
523.477	12031.87
523.843	12082.27
524.21	12142.15
524.577	12093.57
524.943	12124.98
525.31	12208.59
525.676	12151.87
526.043	12189.38
526.409	12150.74
526.776	12187.58
527.142	12200
527.508	12261.25
527.874	12231.19
528.241	12215.37
528.607	12198.87
528.973	12189.61
529.339	12103.51
529.705	12169.04
530.071	12236.61
530.437	12266.89
530.803	12203.62
531.169	12193.45
531.535	12042.72
531.901	12105.77
532.267	12049.27
532.632	12113.23
532.998	12040.01
533.364	12068.26
533.73	11971.54
534.095	11989.84
534.461	11999.11
534.826	11985.55
535.192	11963.17
535.557	11911.2
535.923	11869.62
536.288	11862.16
536.653	11837.75
537.019	11705.78
537.384	11708.72
537.749	11720.69
538.114	11652.45
538.479	11545.56
538.845	11566.8
539.21	11500.81
539.575	11505.11
539.94	11424.88
540.305	11459.01
540.67	11318.45
541.034	11297.88
541.399	11323.87
541.764	11245.9
542.129	11223.08
542.494	11234.38
542.858	11131.33
543.223	11095.63
543.587	11090.43
543.952	11005.91
544.316	10976.99
544.681	10871.68
545.045	10884.78
545.41	10890.66
545.774	10887.72
546.138	10774.73
546.503	10756.65
546.867	10749.65
547.231	10671
547.595	10710.78
547.959	10620.16
548.324	10510.11
548.688	10518.47
549.052	10424.91
549.416	10436.21
549.779	10394.4
550.143	10325.7
550.507	10417.68
550.871	10295.87
551.235	10290.22
551.599	10239.38
551.962	10152.6
552.326	10122.77
552.689	10146.05
553.053	10113.96
553.417	9973.4
553.78	10080.29
554.143	10007.97
554.507	9903.12
554.87	10026.05
555.234	10001.64
555.597	9975.43
555.96	9844.36
556.323	9833.29
556.686	9865.6
557.05	9743.8
557.413	9807.75
557.776	9734.08
558.139	9783.8
558.502	9712.61
558.865	9669.68
559.228	9725.04
559.59	9647.75
559.953	9657.47
560.316	9710.58
560.679	9655.44
561.041	9616.57
561.404	9679.39
561.767	9629.68
562.129	9593.97
562.492	9589
562.854	9555.78
563.217	9557.14
563.579	9599.17
563.941	9581.99
564.304	9651.37
564.666	9596.91
565.028	9554.65
565.39	9636
565.753	9643.01
566.115	9530.24
566.477	9600.75
566.839	9572.28
567.201	9586.06
567.563	9614.76
567.925	9584.71
568.287	9544.03
568.648	9623.12
569.01	9633.74
569.372	9603.69
569.734	9518.27
570.095	9580.64
570.457	9546.29
570.819	9534.31
571.18	9522.56
571.542	9619.73
571.903	9575.21
572.265	9627.42
572.626	9639.85
572.987	9579.96
573.349	9645.27
573.71	9531.83
574.071	9630.35
574.432	9588.32
574.794	9654.99
575.155	9582.67
575.516	9608.21
575.877	9583.12
576.238	9539.06
576.599	9650.01
576.96	9543.35
577.32	9559.4
577.681	9602.78
578.042	9593.07
578.403	9606.85
578.763	9582.22
579.124	9555.55
579.485	9527.08
579.845	9577.25
580.206	9556.23
580.566	9485.5
580.927	9567.76
581.287	9543.35
581.648	9525.95
582.008	9581.77
582.368	9522.79
582.728	9500.41
583.089	9536.57
583.449	9461.77
583.809	9476.23
584.169	9491.83
584.529	9501.32
584.889	9536.35
585.249	9484.82
585.609	9462.9
585.969	9486.18
586.329	9339.29
586.688	9414.99
587.048	9416.12
587.408	9448.44
587.768	9454.99
588.127	9372.06
588.487	9358.27
588.846	9401.66
589.206	9321.89
589.565	9362.56
589.925	9414.31
590.284	9317.37
590.643	9304.26
591.003	9348.33
591.362	9326.18
591.721	9252.28
592.08	9320.31
592.44	9281.66
592.799	9321.21
593.158	9242.79
593.517	9332.96
593.876	9224.49
594.235	9250.25
594.593	9203.25
594.952	9241.66
595.311	9196.24
595.67	9203.92
596.029	9244.15
596.387	9277.6
596.746	9306.29
597.104	9224.04
597.463	9184.04
597.822	9227.2
598.18	9179.74
598.538	9125.51
598.897	9179.29
599.255	9160.54
599.613	9253.87
599.972	9239.86
600.33	9190.82
600.688	9132.51
601.046	9122.12
601.404	9207.99
601.762	9103.81
602.12	9151.95
602.478	9162.57
602.836	9187.88
603.194	9159.63
603.552	9108.11
603.91	9195.34
604.268	9127.77
604.625	9148.33
604.983	9095
605.341	9090.71
605.698	9135.9
606.056	9127.32
606.413	9131.61
606.771	9137.26
607.128	9099.07
607.485	9032.86
607.843	9125.06
608.2	9079.41
608.557	9219.74
608.914	9128.45
609.272	9150.82
609.629	9157.82
609.986	9156.69
610.343	9173.64
610.7	9208.67
611.057	9210.03
611.414	9168.67
611.771	9165.06
612.127	9217.48
612.484	9160.31
612.841	9164.38
613.198	9179.29
613.554	9226.52
613.911	9235.11
614.267	9137.03
614.624	9163.93
614.98	9208.44
615.337	9325.05
615.693	9304.49
616.05	9235.56
616.406	9255.45
616.762	9227.43
617.118	9265.62
617.475	9195.11
617.831	9286.18
618.187	9238.73
618.543	9278.05
618.899	9262.91
619.255	9312.62
619.611	9274.88
619.967	9325.05
620.323	9313.75
620.678	9259.52
621.034	9241.44
621.39	9288.44
621.746	9222.46
622.101	9380.19
622.457	9296.58
622.812	9275.11
623.168	9369.12
623.523	9299.52
623.879	9347.42
624.234	9202.79
624.589	9292.06
624.945	9295.22
625.3	9326.86
625.655	9302.68
626.01	9265.84
626.365	9333.19
626.72	9264.04
627.075	9299.74
627.43	9285.96
627.785	9277.14
628.14	9254.09
628.495	9255.22
628.85	9223.13
629.205	9205.05
629.559	9311.27
629.914	9238.05
630.269	9218.61
630.623	9232.85
630.978	9168.67
631.332	9149.69
631.687	9183.36
632.041	9155.34
632.396	9133.42
632.75	9179.97
633.104	9133.87
633.459	9189.91
633.813	9102.01
634.167	9101.1
634.521	9126.64
634.875	9174.32
635.229	9127.54
635.583	9080.76
635.937	9048.67
636.291	9059.97
636.645	8996.92
636.999	8970.26
637.352	9036.47
637.706	9010.26
638.06	8994.44
638.413	8972.52
638.767	9013.2
639.121	8983.37
639.474	8896.14
639.828	8929.13
640.181	8907.21
640.534	8917.83
640.888	8942.69
641.241	8879.19
641.594	8902.01
641.947	8899.3
642.301	8848
642.654	8891.39
643.007	8902.92
643.36	8919.19
643.713	8843.93
644.066	8855.46
644.419	8862.24
644.771	8850.49
645.124	8703.37
645.477	8742.02
645.83	8566.2
646.182	8602.81
646.535	8606.43
646.888	8616.82
647.24	8570.95
647.593	8623.37
647.945	8556.71
648.298	8575.92
648.65	8524.39
649.002	8528.91
649.355	8527.11
649.707	8590.83
650.059	8609.36
650.411	8709.02
650.763	8680.77
651.115	8819.3
651.467	8754.44
651.819	8721
652.171	8760.32
652.523	8730.72
652.875	8667.44
653.227	8674.45
653.578	8753.09
653.93	8711.73
654.282	8741.79
654.633	8709.25
654.985	8800.77
655.337	8731.17
655.688	8724.62
656.039	8775.69
656.391	8720.1
656.742	8770.49
657.094	8775.69
657.445	8790.6
657.796	8819.98
658.147	8686.42
658.498	8810.04
658.849	8788.12
659.2	8746.99
659.551	8846.65
659.902	8786.31
660.253	8819.3
660.604	8874.44
660.955	8721.9
661.306	8882.13
661.656	8787.89
662.007	8843.48
662.358	8815.01
662.708	8863.37
663.059	8791.73
663.409	8780.66
663.76	8835.57
664.11	8840.54
664.461	8852.3
664.811	8864.27
665.161	8866.53
665.511	8850.94
665.862	8817.04
666.212	8826.31
666.562	8810.71
666.912	8833.99
667.262	8835.35
667.612	8898.62
667.962	8873.31
668.312	8838.28
668.662	8888.45
669.011	8863.82
669.361	8855.46
669.711	8855.69
670.06	8944.04
670.41	8797.38
670.76	8830.6
671.109	8831.28
671.459	8808.45
671.808	8856.59
672.157	8881.67
672.507	8798.96
672.856	8777.72
673.205	8899.98
673.554	8814.33
673.904	8787.89
674.253	8871.5
674.602	8793.09
674.951	8667.22
675.3	8565.75
675.649	8788.34
675.998	8736.14
676.346	8753.77
676.695	8745.86
677.044	8699.31
677.393	8726.2
677.741	8716.71
678.09	8653.88
678.438	8702.69
678.787	8649.81
679.135	8680.1
679.484	8586.09
679.832	8623.6
680.181	8579.99
680.529	8634
680.877	8544.51
681.225	8504.96
681.573	8581.57
681.922	8532.98
682.27	8476.03
682.618	8482.36
682.966	8408.92
683.314	8507.45
683.661	8383.61
684.009	8397.39
684.357	8397.84
684.705	8385.42
685.053	8448.01
685.4	8332.99
685.748	8281.01
686.095	8325.98
686.443	8265.87
686.79	8212.54
687.138	8275.81
687.485	8278.98
687.832	8279.66
688.18	8212.99
688.527	8233.33
688.874	8134.35
689.221	8142.48
689.568	8150.85
689.915	8065.65
690.262	8101.13
690.609	8071.75
690.956	8030.62
691.303	7986.78
691.65	7927.12
691.997	7963.28
692.344	7871.3
692.69	7898.87
693.037	7830.85
693.383	7805.32
693.73	7770.52
694.077	7777.97
694.423	7760.8
694.769	7713.57
695.116	7694.13
695.462	7662.27
695.808	7665.21
696.155	7634.47
696.501	7568.26
696.847	7604.64
697.193	7583.63
697.539	7497.98
697.885	7395.16
698.231	7447.81
698.577	7422.73
698.923	7416.18
699.269	7325.78
699.614	7380.02
699.96	7282.62
700.306	7276.74
700.651	7290.98
700.997	7239.91
701.342	7188.84
701.688	7190.64
702.033	7115.39
702.379	7135.96
702.724	7109.97
703.069	7161.72
703.415	7075.39
703.76	7003.98
704.105	7064.55
704.45	7047.82
704.795	6985.68
705.14	6941.39
705.485	6898.9
705.83	6880.82
706.175	6833.82
706.52	6837.89
706.865	6795.17
707.209	6776.42
707.554	6792.69
707.899	6806.7
708.243	6773.03
708.588	6700.04
708.932	6696.42
709.277	6687.61
709.621	6676.53
709.966	6637.89
710.31	6639.92
710.654	6536.42
710.998	6604.44
711.342	6556.76
711.687	6571.45
712.031	6536.65
712.375	6501.62
712.719	6559.93
713.063	6497.56
713.407	6504.11
713.75	6512.7
714.094	6442.19
714.438	6447.39
714.782	6410.55
715.125	6432.25
715.469	6389.54
715.812	6365.58
716.156	6354.96
716.499	6381.17
716.843	6385.24
717.186	6353.6
717.53	6362.42
717.873	6327.16
718.216	6339.14
718.559	6271.8
718.902	6299.82
719.246	6292.36
719.589	6295.75
719.932	6272.25
720.275	6219.6
720.617	6236.32
720.96	6219.14
721.303	6215.53
721.646	6232.25
721.989	6200.61
722.331	6201.29
722.674	6225.25
723.016	6226.6
723.359	6192.03
723.701	6208.07
724.044	6179.82
724.386	6141.41
724.729	6184.12
725.071	6164.91
725.413	6191.12
725.755	6189.09
726.097	6128.75
726.439	6182.54
726.782	6140.95
727.124	6168.75
727.465	6131.69
727.807	6149.77
728.149	6135.98
728.491	6090.79
728.833	6137.11
729.175	6123.55
729.516	6094.63
729.858	6140.05
730.199	6097.11
730.541	6117.9
730.882	6093.05
731.224	6124.91
731.565	6117.9
731.906	6115.87
732.248	6122.2
732.589	6105.48
732.93	6118.13
733.271	6084.23
733.612	6092.82
733.953	6052.14
734.294	6107.96
734.635	6144.12
734.976	6152.25
735.317	6119.71
735.658	6123.78
735.999	6131.46
736.339	6157
736.68	6175.76
737.021	6145.93
737.361	6137.79
737.702	6258.92
738.042	6145.93
738.383	6152.48
738.723	6186.15
739.063	6189.54
739.404	6254.4
739.744	6183.67
740.084	6144.57
740.424	6282.65
740.764	6228.41
741.104	6288.97
741.444	6234.74
741.784	6257.56
742.124	6319.03
742.464	6320.84
742.804	6377.56
743.143	6325.13
743.483	6382.53
743.823	6334.85
744.162	6435.86
744.502	6474.73
744.841	6474.96
745.181	6514.05
745.52	6512.7
745.86	6590.21
746.199	6634.27
746.538	6611.45
746.877	6691.45
747.216	6719.47
747.556	6786.36
747.895	6834.72
748.234	6795.63
748.573	6820.71
748.911	6937.54
749.25	7051.21
749.589	7019.12
749.928	7161.49
750.267	7228.84
750.605	7266.35
750.944	7335.95
751.283	7359
751.621	7474.48
751.96	7507.02
752.298	7655.72
752.636	7747.01
752.975	7797.18
753.313	7942.26
753.651	8049.38
753.989	8130.05
754.327	8194.01
754.666	8362.36
755.004	8504.96
755.342	8563.72
755.679	8728.91
756.017	8845.74
756.355	8997.83
756.693	9164.6
757.031	9309.46
757.368	9324.6
757.706	9472.17
758.044	9619.05
758.381	9854.98
758.719	9966.62
759.056	10165.26
759.394	10272.82
759.731	10383.55
760.068	10571.35
760.405	10697.44
760.743	10914.84
761.08	11063.99
761.417	11147.38
761.754	11395.28
762.091	11549.63
762.428	11603.41
762.765	11812.44
763.102	12035.26
763.438	12154.13
763.775	12346.89
764.112	12504.85
764.449	12696.49
764.785	12783.72
765.122	12959.76
765.458	13057.16
765.795	13248.56
766.131	13496.47
