Data from hue_190_FLMS001491_00058.txt Node
Date: Tue Feb 07 16:45:29 GMT 2017
User: dcchb
Spectrometer: FLMS00149
Trigger mode: 0
Integration Time (sec): 2.000000E-2
Scans to average: 10
Electric dark correction enabled: true
Nonlinearity correction enabled: false
Boxcar width: 0
XAxis mode: Wavelengths
Number of Pixels in Spectrum: 2048
>>>>>Begin Spectral Data<<<<<
341.393	8.38
341.776	8.38
342.16	8.38
342.543	-54.67
342.927	-52.87
343.31	-81.34
343.693	-80.89
344.077	-73.2
344.46	-41.79
344.843	-46.99
345.226	-51.06
345.61	-16.03
345.993	-15.13
346.376	-23.26
346.759	22.16
347.142	16.96
347.525	43.4
347.908	66.68
348.291	59.22
348.674	102.84
349.057	118.43
349.44	107.58
349.823	151.2
350.206	185.09
350.588	206.11
350.971	217.64
351.354	208.6
351.737	253.11
352.119	247.69
352.502	259.89
352.884	261.93
353.267	278.42
353.65	284.3
354.032	310.51
354.414	312.1
354.797	320.23
355.179	308.93
355.562	312.32
355.944	313.45
356.326	328.37
356.709	339.67
357.091	325.66
357.473	331.98
357.855	347.12
358.238	354.36
358.62	334.24
359.002	323.62
359.384	337.63
359.766	337.63
360.148	335.37
360.53	351.87
360.912	324.75
361.294	339.21
361.676	324.07
362.057	318.65
362.439	312.1
362.821	318.42
363.203	310.74
363.584	323.85
363.966	322.49
364.348	322.27
364.729	327.24
365.111	324.75
365.493	338.08
365.874	315.94
366.256	322.04
366.637	296.28
367.019	305.09
367.4	290.63
367.781	320.46
368.163	330.17
368.544	316.84
368.925	303.51
369.306	309.38
369.688	303.96
370.069	306.67
370.45	322.94
370.831	329.95
371.212	325.66
371.593	289.05
371.974	320.46
372.355	319.1
372.736	303.96
373.117	295.83
373.498	301.93
373.879	331.3
374.26	315.94
374.641	314.58
375.021	306.67
375.402	335.82
375.783	312.1
376.163	293.11
376.544	315.26
376.925	324.53
377.305	345.54
377.686	311.42
378.066	326.11
378.447	323.17
378.827	323.17
379.208	341.47
379.588	340.8
379.968	310.06
380.349	336.73
380.729	334.69
381.109	329.05
381.489	319.33
381.87	330.85
382.25	318.42
382.63	311.64
383.01	337.18
383.39	323.85
383.77	332.21
384.15	346.9
384.53	338.99
384.91	329.27
385.29	333.79
385.67	339.44
386.049	341.02
386.429	342.38
386.809	341.02
387.189	356.61
387.568	353.9
387.948	340.8
388.328	359.33
388.707	331.98
389.087	346.45
389.466	329.95
389.846	364.07
390.225	356.39
390.605	371.3
390.984	360.68
391.363	360.23
391.743	342.6
392.122	376.73
392.501	353.68
392.881	364.98
393.26	363.62
393.639	364.75
394.018	392.32
394.397	384.18
394.776	365.2
395.155	372.66
395.534	384.86
395.913	383.05
396.292	390.29
396.671	385.99
397.05	397.07
397.429	365.43
397.808	369.27
398.186	375.6
398.565	397.74
398.944	400.68
399.323	405.65
399.701	374.47
400.08	392.09
400.458	411.98
400.837	411.08
401.215	420.12
401.594	407.69
401.972	417.4
402.351	412.88
402.729	414.24
403.107	409.49
403.486	422.83
403.864	416.5
404.242	454.92
404.62	447.01
404.999	445.43
405.377	421.7
405.755	442.04
406.133	435.26
406.511	450.85
406.889	453.56
407.267	463.05
407.645	490.62
408.023	461.7
408.401	489.49
408.779	494.01
409.156	486.78
409.534	491.3
409.912	497.85
410.29	511.64
410.667	505.31
411.045	523.62
411.422	533.56
411.8	538.76
412.178	546.44
412.555	566.55
412.933	560.23
413.31	555.93
413.687	582.82
414.065	571.3
414.442	589.6
414.819	581.02
415.197	616.27
415.574	628.92
415.951	625.53
416.328	638.19
416.705	641.58
417.082	656.04
417.46	638.42
417.837	640.9
418.214	679.09
418.591	678.41
418.967	681.58
419.344	693.78
419.721	708.92
420.098	688.81
420.475	715.25
420.852	733.55
421.228	763.16
421.605	746.66
421.982	762.48
422.358	774.46
422.735	782.59
423.111	799.99
423.488	837.73
423.864	836.6
424.241	833.21
424.617	839.09
424.994	857.84
425.37	862.14
425.746	892.42
426.123	890.16
426.499	905.75
426.875	932.19
427.251	928.35
427.627	912.76
428.003	959.76
428.379	988.01
428.756	957.05
429.132	994.56
429.507	1008.58
429.883	1014.45
430.259	1020.1
430.635	1041.34
431.011	1057.39
431.387	1061.23
431.763	1098.29
432.138	1091.74
432.514	1085.86
432.89	1119.53
433.265	1163.83
433.641	1190.04
434.016	1179.19
434.392	1221.9
434.767	1232.3
435.143	1242.92
435.518	1265.29
435.894	1308.23
436.269	1298.06
436.644	1338.74
437.02	1396.59
437.395	1367.21
437.77	1406.3
438.145	1437.26
438.52	1441.56
438.895	1479.98
439.271	1476.13
439.646	1512.29
440.021	1543.02
440.395	1542.12
440.77	1567.66
441.145	1566.53
441.52	1616.02
441.895	1599.75
442.27	1632.97
442.645	1668.44
443.019	1669.35
443.394	1702.57
443.769	1705.28
444.143	1710.25
444.518	1737.82
444.892	1746.63
445.267	1751.15
445.641	1805.16
446.016	1804.94
446.39	1806.52
446.764	1861.43
447.139	1855.33
447.513	1874.32
447.887	1879.06
448.262	1901.66
448.636	1899.17
449.01	1929.68
449.384	1946.18
449.758	1900.76
450.132	1997.7
450.506	1988.21
450.88	2023.46
451.254	2032.5
451.628	2053.29
452.002	2086.96
452.376	2105.04
452.75	2115.66
453.123	2120.41
453.497	2132.16
453.871	2184.82
454.244	2213.74
454.618	2242.89
454.992	2265.04
455.365	2260.07
455.739	2333.51
456.112	2371.93
456.486	2368.54
456.859	2405.83
457.232	2439.72
457.606	2425.49
457.979	2468.88
458.352	2530.34
458.725	2535.54
459.099	2567.86
459.472	2610.11
459.845	2653.05
460.218	2644.69
460.591	2695.76
460.964	2696.89
461.337	2815.31
461.71	2822.99
462.083	2880.84
462.456	2847.62
462.829	2873.16
463.201	2963.78
463.574	2937.56
463.947	2977.34
464.32	3038.8
464.692	3058.01
465.065	3153.83
465.438	3172.81
465.81	3217.1
466.183	3247.61
466.555	3300.94
466.928	3332.13
467.3	3363.54
467.672	3396.31
468.045	3454.84
468.417	3482.41
468.789	3530.54
469.161	3572.35
469.534	3634.49
469.906	3723.98
470.278	3732.35
470.65	3808.5
471.022	3862.06
471.394	3907.03
471.766	3966.46
472.138	4038.1
472.51	4056.86
472.882	4168.27
473.253	4163.75
473.625	4279.9
473.997	4401.71
474.369	4415.49
474.74	4432.67
475.112	4553.34
475.484	4640.12
475.855	4696.39
476.227	4769.38
476.598	4886.67
476.97	4907.91
477.341	5007.34
477.713	5087.56
478.084	5118.07
478.455	5284.39
478.827	5383.38
479.198	5487.55
479.569	5470.38
479.94	5673.31
480.311	5678.28
480.682	5863.59
481.053	6039.86
481.424	6087.99
481.795	6106.29
482.166	6211.6
482.537	6298.61
482.908	6475.78
483.279	6518.94
483.65	6636.68
484.021	6785.15
484.391	6863.56
484.762	6995.31
485.133	6946.27
485.503	7101.07
485.874	7222.2
486.244	7286.6
486.615	7421.29
486.985	7541.74
487.356	7734.73
487.726	7719.81
488.097	7828.73
488.467	7919.81
488.837	8071.67
489.207	8228.5
489.578	8313.69
489.948	8337.87
490.318	8455.84
490.688	8444.09
491.058	8684.31
491.428	8690.86
491.798	8808.37
492.168	9022.83
492.538	9007.91
492.908	9118.19
493.278	9173.33
493.648	9265.99
494.017	9344.85
494.387	9395.47
494.757	9519.09
495.126	9604.28
495.496	9559.31
495.866	9685.86
496.235	9748.01
496.605	9827.33
496.974	9883.37
497.344	9985.06
497.713	9962.01
498.082	10025.97
498.452	10222.12
498.821	10242.23
499.19	10171.72
499.559	10280.87
499.928	10248.33
500.298	10363.13
500.667	10392.74
501.036	10422.11
501.405	10486.97
501.774	10467.08
502.143	10550.47
502.512	10530.13
502.88	10704.82
503.249	10717.47
503.618	10719.96
503.987	10810.13
504.356	10791.59
504.724	10796.11
505.093	10849.45
505.462	10879.95
505.83	10924.92
506.199	10938.26
506.567	11103.68
506.936	10959.27
507.304	11104.13
507.672	11200.17
508.041	11209.89
508.409	11191.81
508.777	11243.33
509.145	11331.02
509.514	11235.88
509.882	11325.59
510.25	11337.12
510.618	11345.93
510.986	11354.74
511.354	11349.55
511.722	11519.71
512.09	11512.48
512.458	11505.25
512.826	11480.62
513.193	11523.33
513.561	11592.25
513.929	11540.05
514.297	11721.97
514.664	11703.66
515.032	11751.57
515.4	11755.64
515.767	11667.73
516.135	11734.62
516.502	11639.48
516.869	11722.87
517.237	11794.96
517.604	11694.4
517.972	11837.89
518.339	11840.38
518.706	11806.94
519.073	11777.56
519.44	11794.28
519.808	11873.37
520.175	11860.04
520.542	11970.09
520.909	11910.44
521.276	11858.23
521.643	11937.55
522.009	11941.17
522.376	11934.39
522.743	11944.33
523.11	12014.16
523.477	12031.56
523.843	12062.3
524.21	12104.33
524.577	12090.09
524.943	12091.45
525.31	12075.4
525.676	12069.98
526.043	12078.11
526.409	12066.82
526.776	12105.46
527.142	12141.39
527.508	12108.62
527.874	12132.12
528.241	12114.27
528.607	12104.55
528.973	12166.47
529.339	11983.88
529.705	12163.76
530.071	12101.39
530.437	12134.61
530.803	12024.1
531.169	12131.9
531.535	11924.22
531.901	11989.76
532.267	11989.98
532.632	11952.47
532.998	11875.63
533.364	11938.68
533.73	11871.57
534.095	11867.5
534.461	11785.01
534.826	11852.58
535.192	11825.24
535.557	11755.86
535.923	11657.11
536.288	11642.19
536.653	11694.17
537.019	11509.77
537.384	11498.69
537.749	11505.25
538.114	11488.07
538.479	11438.58
538.845	11389.09
539.21	11371.24
539.575	11348.64
539.94	11281.98
540.305	11266.61
540.67	11136.22
541.034	11139.83
541.399	11108.65
541.764	10998.14
542.129	11059.61
542.494	10933.96
542.858	10922.21
543.223	10875.89
543.587	10839.28
543.952	10776.45
544.316	10813.74
544.681	10673.41
545.045	10636.12
545.41	10574.43
545.774	10509.57
546.138	10514.54
546.503	10520.42
546.867	10402.9
547.231	10427.99
547.595	10389.8
547.959	10336.47
548.324	10235.9
548.688	10177.83
549.052	10172.63
549.416	10106.64
549.779	10075
550.143	10043.82
550.507	10028.45
550.871	9923.37
551.235	9862.13
551.599	9889.25
551.962	9901
552.326	9744.62
552.689	9765.63
553.053	9673.66
553.417	9587.78
553.78	9688.57
554.143	9550.5
554.507	9529.03
554.87	9578.52
555.234	9538.07
555.597	9491.74
555.96	9457.84
556.323	9437.05
556.686	9442.48
557.05	9408.35
557.413	9369.26
557.776	9330.62
558.139	9292.88
558.502	9262.6
558.865	9200.45
559.228	9280.22
559.59	9225.99
559.953	9197.29
560.316	9230.51
560.679	9196.38
561.041	9177.63
561.404	9145.54
561.767	9161.58
562.129	9071.64
562.492	9228.25
562.854	9136.72
563.217	9077.52
563.579	9079.32
563.941	9085.42
564.304	9065.31
564.666	9151.41
565.028	9077.52
565.39	9037.52
565.753	9062.15
566.115	9104.63
566.477	9064.63
566.839	8992.77
567.201	9069.61
567.563	9063.73
567.925	9028.03
568.287	9055.6
568.648	9047.23
569.01	9041.36
569.372	9044.75
569.734	8976.05
570.095	9007.91
570.457	9127.91
570.819	9064.63
571.18	9009.49
571.542	9041.36
571.903	9005.2
572.265	9069.61
572.626	9075.71
572.987	9036.84
573.349	9030.51
573.71	9063.05
574.071	9010.85
574.432	9002.72
574.794	9143.95
575.155	9070.28
575.516	9030.74
575.877	8972.89
576.238	9043.39
576.599	9011.98
576.96	8966.33
577.32	9020.34
577.681	9029.61
578.042	9045.2
578.403	9033.9
578.763	8978.31
579.124	9009.72
579.485	9037.29
579.845	9033.67
580.206	8982.83
580.566	9020.34
580.927	8934.47
581.287	9042.26
581.648	9004.07
582.008	9013.34
582.368	8972.66
582.728	8948.93
583.089	8956.84
583.449	8935.82
583.809	8931.53
584.169	8913.45
584.529	8810.4
584.889	8962.26
585.249	8873
585.609	8884.3
585.969	8910.29
586.329	8864.41
586.688	8902.6
587.048	8871.87
587.408	8869.61
587.768	8845.66
588.127	8802.27
588.487	8803.17
588.846	8866.45
589.206	8753.91
589.565	8768.6
589.925	8811.31
590.284	8729.73
590.643	8788.48
591.003	8728.82
591.362	8748.94
591.721	8804.53
592.08	8760.46
592.44	8740.8
592.799	8725.66
593.158	8742.16
593.517	8745.77
593.876	8751.42
594.235	8684.08
594.593	8718.2
594.952	8691.31
595.311	8703.74
595.67	8647.02
596.029	8706.68
596.387	8719.33
596.746	8672.33
597.104	8658.77
597.463	8579.9
597.822	8679.56
598.18	8613.35
598.538	8607.7
598.897	8607.47
599.255	8569.05
599.613	8614.25
599.972	8614.48
600.33	8580.13
600.688	8552.78
601.046	8586.23
601.404	8610.41
601.762	8602.73
602.12	8674.36
602.478	8670.52
602.836	8613.12
603.194	8629.62
603.552	8585.33
603.91	8529.06
604.268	8548.26
604.625	8566.57
604.983	8571.09
605.341	8532.9
605.698	8565.66
606.056	8576.74
606.413	8584.87
606.771	8558.66
607.128	8597.75
607.485	8539.22
607.843	8525.67
608.2	8599.34
608.557	8623.52
608.914	8571.77
609.272	8616.28
609.629	8587.58
609.986	8634.36
610.343	8644.76
610.7	8694.93
611.057	8667.36
611.414	8574.48
611.771	8635.27
612.127	8645.66
612.484	8636.85
612.841	8675.04
613.198	8677.3
613.554	8641.14
613.911	8723.17
614.267	8713.46
614.624	8662.16
614.98	8674.81
615.337	8717.98
615.693	8661.48
616.05	8727.69
616.406	8702.84
616.762	8709.84
617.118	8662.16
617.475	8715.94
617.831	8731.76
618.187	8723.85
618.543	8631.88
618.899	8752.33
619.255	8754.36
619.611	8690.86
619.967	8751.42
620.323	8796.62
620.678	8704.42
621.034	8755.49
621.39	8697.86
621.746	8757.52
622.101	8791.2
622.457	8715.04
622.812	8752.78
623.168	8771.76
623.523	8736.73
623.879	8775.38
624.234	8756.17
624.589	8669.16
624.945	8783.96
625.3	8768.15
625.655	8737.19
626.01	8727.24
626.365	8710.75
626.72	8729.95
627.075	8685.66
627.43	8666.68
627.785	8679.56
628.14	8659.45
628.495	8731.99
628.85	8654.7
629.205	8656.28
629.559	8706.9
629.914	8694.02
630.269	8631.2
630.623	8609.28
630.978	8642.05
631.332	8641.59
631.687	8622.61
632.041	8604.31
632.396	8603.4
632.75	8598.66
633.104	8589.84
633.459	8611.54
633.813	8524.76
634.167	8475.72
634.521	8617.64
634.875	8508.26
635.229	8522.05
635.583	8503.07
635.937	8486.57
636.291	8521.6
636.645	8501.03
636.999	8486.57
637.352	8412.22
637.706	8426.46
638.06	8419
638.413	8453.58
638.767	8386.69
639.121	8484.76
639.474	8384.2
639.828	8415.39
640.181	8369.29
640.534	8406.12
640.888	8328.83
641.241	8309.85
641.594	8347.14
641.947	8367.48
642.301	8336.74
642.654	8359.34
643.007	8366.57
643.36	8368.38
643.713	8319.8
644.066	8366.8
644.419	8318.67
644.771	8265.11
645.124	8175.17
645.477	8205.45
645.83	8144.66
646.182	8122.51
646.535	8126.81
646.888	8073.7
647.24	7972.91
647.593	8109.86
647.945	8037.54
648.298	8047.94
648.65	7941.73
649.002	8043.87
649.355	8039.35
649.707	8063.76
650.059	8126.58
650.411	8159.8
650.763	8162.51
651.115	8224.43
651.467	8251.77
651.819	8212.45
652.171	8233.92
652.523	8193.25
652.875	8209.06
653.227	8204.32
653.578	8224.66
653.93	8276.63
654.282	8214.49
654.633	8224.88
654.985	8205.45
655.337	8266.24
655.688	8197.76
656.039	8234.83
656.391	8139.91
656.742	8172.45
657.094	8168.84
657.445	8202.74
657.796	8226.69
658.147	8160.93
658.498	8202.96
658.849	8277.99
659.2	8191.66
659.551	8188.5
659.902	8223.53
660.253	8214.26
660.604	8306.01
660.955	8206.13
661.306	8232.79
661.656	8245
662.007	8265.79
662.358	8243.64
662.708	8235.05
663.059	8250.42
663.409	8266.92
663.76	8296.75
664.11	8339.46
664.461	8298.55
664.811	8302.17
665.161	8295.39
665.511	8225.79
665.862	8309.17
666.212	8299.23
666.562	8346.69
666.912	8317.08
667.262	8280.47
667.612	8281.6
667.962	8310.76
668.312	8280.93
668.662	8324.54
669.011	8285.9
669.361	8335.16
669.711	8227.59
670.06	8247.48
670.41	8287.71
670.76	8267.82
671.109	8234.15
671.459	8291.1
671.808	8214.49
672.157	8253.81
672.507	8218.56
672.856	8227.82
673.205	8215.84
673.554	8204.32
673.904	8191.66
674.253	8165.45
674.602	8168.16
674.951	8141.95
675.3	8070.76
675.649	8167.48
675.998	8147.14
676.346	8096.98
676.695	8185.11
677.044	8083.42
677.393	8089.07
677.741	8176.52
678.09	8133.13
678.438	8067.15
678.787	8097.65
679.135	8067.82
679.484	8065.79
679.832	7998.22
680.181	7937.66
680.529	8063.76
680.877	7974.95
681.225	7923.65
681.573	8054.49
681.922	8027.15
682.27	7862.41
682.618	7934.72
682.966	7961.16
683.314	7965.23
683.661	7913.7
684.009	7834.84
684.357	7800.49
684.705	7838.45
685.053	7849.98
685.4	7849.3
685.748	7699.7
686.095	7757.78
686.443	7725.69
686.79	7763.65
687.138	7753.03
687.485	7737.21
687.832	7657.67
688.18	7631.68
688.527	7608.63
688.874	7589.42
689.221	7553.49
689.568	7642.53
689.915	7591.45
690.262	7482.76
690.609	7483.21
690.956	7440.95
691.303	7473.04
691.65	7442.3
691.997	7427.39
692.344	7418.35
692.69	7423.32
693.037	7325.02
693.383	7257.22
693.73	7345.36
694.077	7285.47
694.423	7256.09
694.769	7247.06
695.116	7174.29
695.462	7161.63
695.808	7169.77
696.155	7171.58
696.501	7063.33
696.847	7095.42
697.193	7061.07
697.539	7010.23
697.885	6993.95
698.231	6949.21
698.577	6913.28
698.923	6933.39
699.269	6888.19
699.614	6899.72
699.96	6796.67
700.306	6897.01
700.651	6759.84
700.997	6754.86
701.342	6755.77
701.688	6705.15
702.033	6704.24
702.379	6718.26
702.724	6699.5
703.069	6729.78
703.415	6622.66
703.76	6621.31
704.105	6597.58
704.45	6563.68
704.795	6537.92
705.14	6513.06
705.485	6525.27
705.83	6497.7
706.175	6437.13
706.52	6431.03
706.865	6411.14
707.209	6322.56
707.554	6364.82
707.899	6402.33
708.243	6332.28
708.588	6286.63
708.932	6262.67
709.277	6255.67
709.621	6232.62
709.966	6220.42
710.31	6264.03
710.654	6189.91
710.998	6181.32
711.342	6189.68
711.687	6177.7
712.031	6133.41
712.375	6159.17
712.719	6126.41
713.063	6097.03
713.407	6093.41
713.75	6067.65
714.094	6068.78
714.438	6106.75
714.782	6053.87
715.125	6039.4
715.469	6033.98
715.812	5991.5
716.156	6010.25
716.499	6012.96
716.843	5940.42
717.186	5965.73
717.53	5977.03
717.873	5966.64
718.216	5926.86
718.559	5935.9
718.902	5921.44
719.246	5940.65
719.589	5907.2
719.932	5889.8
720.275	5877.15
720.617	5909.24
720.96	5873.08
721.303	5912.18
721.646	5861.33
721.989	5824.27
722.331	5893.42
722.674	5838.5
723.016	5868.33
723.359	5882.35
723.701	5859.97
724.044	5860.43
724.386	5778.85
724.729	5916.47
725.071	5821.56
725.413	5862.01
725.755	5807.32
726.097	5816.36
726.439	5771.16
726.782	5744.72
727.124	5764.61
727.465	5777.49
727.807	5773.65
728.149	5803.48
728.491	5736.81
728.833	5778.17
729.175	5782.91
729.516	5810.48
729.858	5726.64
730.199	5752.41
730.541	5767.77
730.882	5796.25
731.224	5816.58
731.565	5746.98
731.906	5725.51
732.248	5747.66
732.589	5763.03
732.93	5813.65
733.271	5774.1
733.612	5804.38
733.953	5782.01
734.294	5745.63
734.635	5812.97
734.976	5762.57
735.317	5781.56
735.658	5751.28
735.999	5735
736.339	5785.62
736.68	5785.4
737.021	5770.71
737.361	5781.11
737.702	5850.48
738.042	5775.46
738.383	5763.93
738.723	5859.75
739.063	5847.09
739.404	5837.83
739.744	5865.85
740.084	5836.02
740.424	5897.26
740.764	5918.28
741.104	5938.62
741.444	5931.16
741.784	5901.33
742.124	5946.07
742.464	5982.23
742.804	5998.73
743.143	5961.21
743.483	6029.23
743.823	6051.83
744.162	6026.3
744.502	6030.14
744.841	6036.92
745.181	6144.49
745.52	6132.96
745.86	6158.04
746.199	6219.74
746.538	6221.55
746.877	6257.25
747.216	6312.84
747.556	6384.25
747.895	6424.03
748.234	6465.83
748.573	6489.34
748.911	6610.01
749.25	6613.85
749.589	6641.42
749.928	6756.45
750.267	6804.13
750.605	6866.95
750.944	6959.83
751.283	6996.21
751.621	7148.3
751.96	7121.63
752.298	7251.35
752.636	7338.35
752.975	7405.7
753.313	7501.74
753.651	7590.1
753.989	7745.35
754.327	7828.28
754.666	7907.15
755.004	8015.17
755.342	8180.59
755.679	8277.08
756.017	8405.89
756.355	8637.75
756.693	8724.53
757.031	8892.66
757.368	8938.08
757.706	9121.58
758.044	9238.64
758.381	9397.28
758.719	9568.58
759.056	9776.71
759.394	9848.79
759.731	9999.98
760.068	10191.16
760.405	10357.03
760.743	10470.7
761.08	10709.34
761.417	10769.67
761.754	10976.67
762.091	11263.22
762.428	11315.42
762.765	11485.14
763.102	11710.21
763.438	11817.33
763.775	12022.97
764.112	12170.09
764.449	12458.44
764.785	12614.6
765.122	12714.93
765.458	12810.75
765.795	13026.56
