Data from hue_150_FLMS001491_00010.txt Node
Date: Tue Feb 07 16:53:34 GMT 2017
User: dcchb
Spectrometer: FLMS00149
Trigger mode: 0
Integration Time (sec): 2.000000E-2
Scans to average: 10
Electric dark correction enabled: true
Nonlinearity correction enabled: false
Boxcar width: 0
XAxis mode: Wavelengths
Number of Pixels in Spectrum: 2048
>>>>>Begin Spectral Data<<<<<
341.393	-1.92
341.776	-1.92
342.16	-1.92
342.543	-65.87
342.927	-51.86
343.31	-57.74
343.693	-71.75
344.077	-57.06
344.46	-79.21
344.843	-77.17
345.226	-30.39
345.61	-35.82
345.993	-11.86
346.376	-5.99
346.759	11.19
347.142	40.11
347.525	52.99
347.908	45.54
348.291	69.26
348.674	97.96
349.057	109.94
349.44	108.36
349.823	136.61
350.206	173.89
350.588	187.45
350.971	218.64
351.354	235.14
351.737	234.23
352.119	253.67
352.502	267.9
352.884	293.21
353.267	275.81
353.65	291.18
354.032	303.83
354.414	299.09
354.797	320.1
355.179	328.69
355.562	317.39
355.944	335.7
356.326	346.32
356.709	332.53
357.091	352.42
357.473	353.32
357.855	366.88
358.238	345.19
358.62	341.12
359.002	346.77
359.384	325.3
359.766	328.47
360.148	329.37
360.53	328.01
360.912	338.86
361.294	329.82
361.676	336.83
362.057	348.35
362.439	345.64
362.821	316.71
363.203	314.23
363.584	316.04
363.966	327.11
364.348	305.42
364.729	337.73
365.111	324.85
365.493	330.5
365.874	311.74
366.256	323.72
366.637	312.42
367.019	297.96
367.4	311.29
367.781	316.49
368.163	333.21
368.544	307.22
368.925	305.19
369.306	310.61
369.688	312.42
370.069	313.55
370.45	320.56
370.831	316.04
371.212	301.35
371.593	331.63
371.974	311.74
372.355	312.42
372.736	309.03
373.117	309.71
373.498	316.04
373.879	306.77
374.26	305.87
374.641	309.48
375.021	327.34
375.402	328.47
375.783	318.97
376.163	346.77
376.544	323.72
376.925	322.82
377.305	330.5
377.686	334.57
378.066	328.92
378.447	331.63
378.827	327.34
379.208	346.32
379.588	326.88
379.968	352.42
380.349	350.61
380.729	340.67
381.109	319.2
381.489	337.96
381.87	339.54
382.25	321.91
382.63	340.67
383.01	339.77
383.39	360.56
383.77	368.01
384.15	347.67
384.53	345.41
384.91	362.82
385.29	374.57
385.67	346.77
386.049	358.97
386.429	343.83
386.809	354.23
387.189	354.45
387.568	324.4
387.948	360.56
388.328	373.21
388.707	359.2
389.087	363.72
389.466	380.44
389.846	343.61
390.225	375.02
390.605	371.63
390.984	354
391.363	362.82
391.743	351.06
392.122	384.51
392.501	358.75
392.881	381.8
393.26	367.79
393.639	387.22
394.018	365.75
394.397	394.9
394.776	389.71
395.155	393.1
395.534	385.19
395.913	395.13
396.292	396.03
396.671	385.41
397.05	415.92
397.429	407.79
397.808	393.32
398.186	413.44
398.565	397.84
398.944	395.81
399.323	403.72
399.701	387.45
400.08	404.4
400.458	406.66
400.837	410.5
401.215	407.79
401.594	412.31
401.972	387.45
402.351	418.86
402.729	430.84
403.107	425.64
403.486	439.2
403.864	414.34
404.242	429.03
404.62	429.25
404.999	426.99
405.377	434.45
405.755	443.04
406.133	452.76
406.511	457.73
406.889	450.72
407.267	464.51
407.645	450.04
408.023	469.71
408.401	450.27
408.779	455.92
409.156	460.67
409.534	445.07
409.912	462.7
410.29	488.69
410.667	461.8
411.045	485.52
411.422	477.61
411.8	500.89
412.178	498.4
412.555	488.01
412.933	490.04
413.31	504.05
413.687	518.52
414.065	492.98
414.442	485.07
414.819	497.95
415.197	499.08
415.574	490.95
415.951	513.09
416.328	537.05
416.705	534.11
417.082	519.87
417.46	531.17
417.837	543.6
418.214	537.5
418.591	533.88
418.967	563.26
419.344	550.38
419.721	540.44
420.098	532.75
420.475	549.48
420.852	561.91
421.228	563.26
421.605	565.75
421.982	566.65
422.358	559.42
422.735	566.43
423.111	582.47
423.488	574.34
423.864	598.52
424.241	598.74
424.617	582.7
424.994	632.19
425.37	610.72
425.746	583.15
426.123	628.8
426.499	613.43
426.875	609.36
427.251	604.16
427.627	616.37
428.003	649.81
428.379	611.85
428.756	635.58
429.132	663.37
429.507	674.67
429.883	650.49
430.259	654.33
430.635	671.96
431.011	674.67
431.387	693.43
431.763	691.62
432.138	714.67
432.514	699.76
432.89	685.07
433.265	739.3
433.641	696.37
434.016	735.01
434.392	721.22
434.767	749.47
435.143	746.31
435.518	749.25
435.894	760.54
436.269	768.68
436.644	791.05
437.02	791.28
437.395	803.26
437.77	798.28
438.145	806.42
438.52	803.71
438.895	794.67
439.271	797.61
439.646	795.35
440.021	813.42
440.395	836.02
440.77	848.9
441.145	849.13
441.52	856.36
441.895	854.1
442.27	853.2
442.645	848.9
443.019	877.15
443.394	881.9
443.769	870.6
444.143	903.37
444.518	913.31
444.892	889.81
445.267	900.43
445.641	940.43
446.016	905.85
446.39	921.9
446.764	939.3
447.139	928.45
447.513	931.84
447.887	958.96
448.262	960.77
448.636	972.29
449.01	973.87
449.384	971.84
449.758	977.71
450.132	1004.15
450.506	1004.83
450.88	994.21
451.254	1006.64
451.628	1032.63
452.002	1042.35
452.376	1044.15
452.75	1056.58
453.123	1055.68
453.497	1078.28
453.871	1050.03
454.244	1117.15
454.618	1110.82
454.992	1112.17
455.365	1127.77
455.739	1162.12
456.112	1150.59
456.486	1181.32
456.859	1172.74
457.232	1187.88
457.606	1191.72
457.979	1205.05
458.352	1240.76
458.725	1217.26
459.099	1254.09
459.472	1292.51
459.845	1270.81
460.218	1305.62
460.591	1296.8
460.964	1321.21
461.337	1376.57
461.71	1367.08
462.083	1374.31
462.456	1372.73
462.829	1381.32
463.201	1429.45
463.574	1432.62
463.947	1452.96
464.32	1500.19
464.692	1493.18
465.065	1504.48
465.438	1548.32
465.81	1549.9
466.183	1596.23
466.555	1607.3
466.928	1627.87
467.3	1645.49
467.672	1658.15
468.045	1725.49
468.417	1732.5
468.789	1736.34
469.161	1763.91
469.534	1787.64
469.906	1861.98
470.278	1889.1
470.65	1901.76
471.022	1939.72
471.394	1978.82
471.766	1979.04
472.138	2033.28
472.51	2060.85
472.882	2093.17
473.253	2136.1
473.625	2207.29
473.997	2232.6
474.369	2290.67
474.74	2330.67
475.112	2401.18
475.484	2419.03
475.855	2517.79
476.227	2540.16
476.598	2605.02
476.97	2641.4
477.341	2751.23
477.713	2814.05
478.084	2847.5
478.455	2949.64
478.827	2978.34
479.198	3134.04
479.569	3174.04
479.94	3233.93
480.311	3302.63
480.682	3356.18
481.053	3499.91
481.424	3566.8
481.795	3659.23
482.166	3726.79
482.537	3854.93
482.908	3967.47
483.279	4034.36
483.65	4118.42
484.021	4276.16
484.391	4341.92
484.762	4414.69
485.133	4506.44
485.503	4666.2
485.874	4786.2
486.244	4855.13
486.615	5052.18
486.985	5099.87
487.356	5272.74
487.726	5357.03
488.097	5488.56
488.467	5569.68
488.837	5713.41
489.207	5888.55
489.578	6001.54
489.948	6105.94
490.318	6267.07
490.688	6340.06
491.058	6479.49
491.428	6716.09
491.798	6757.9
492.168	6979.82
492.538	6990.89
492.908	7140.94
493.278	7305.46
493.648	7383.2
494.017	7502.29
494.387	7675.62
494.757	7807.37
495.126	7979.11
495.496	8031.09
495.866	8132.1
496.235	8301.82
496.605	8387.69
496.974	8504.52
497.344	8607.8
497.713	8693.9
498.082	8845.76
498.452	9006.2
498.821	9102.25
499.19	9207.33
499.559	9234.9
499.928	9370.04
500.298	9469.69
500.667	9595.79
501.036	9636.7
501.405	9709.01
501.774	9814.09
502.143	9992.84
502.512	9982.22
502.88	10130.24
503.249	10160.3
503.618	10307.41
503.987	10351.25
504.356	10401.65
504.724	10463.57
505.093	10633.96
505.462	10644.8
505.83	10699.72
506.199	10837.34
506.567	10951.92
506.936	10944.68
507.304	11089.99
507.672	11168.63
508.041	11269.65
508.409	11300.83
508.777	11430.55
509.145	11448.85
509.514	11472.58
509.882	11542.41
510.25	11595.29
510.618	11696.3
510.986	11685.91
511.354	11750.09
511.722	11852.23
512.09	12026.46
512.458	11958.22
512.826	12034.82
513.193	12125.67
513.561	12109.17
513.929	12253.12
514.297	12253.8
514.664	12302.39
515.032	12399.33
515.4	12416.51
515.767	12469.62
516.135	12535.83
516.502	12397.75
516.869	12621.02
517.237	12661.7
517.604	12626.22
517.972	12766.11
518.339	12760.46
518.706	12702.15
519.073	12868.7
519.44	12837.06
519.808	12949.83
520.175	12874.12
520.542	12994.35
520.909	13140.56
521.276	12945.54
521.643	13082.25
522.009	13127
522.376	13151.18
522.743	13190.05
523.11	13320.67
523.477	13388.24
523.843	13414
524.21	13481.79
524.577	13523.6
524.943	13478.63
525.31	13580.09
525.676	13581.45
526.043	13621.9
526.409	13657.83
526.776	13698.28
527.142	13780.54
527.508	13739.64
527.874	13853.31
528.241	13771.95
528.607	13792.29
528.973	13861.44
529.339	13839.3
529.705	13840.43
530.071	13863.7
530.437	13886.3
530.803	13966.07
531.169	13891.05
531.535	13868.9
531.901	13957.03
532.267	13898.73
532.632	13925.4
532.998	13903.93
533.364	13974.66
533.73	13932.4
534.095	13950.03
534.461	13917.94
534.826	13970.59
535.192	14022.8
535.557	13925.17
535.923	13875.45
536.288	13880.88
536.653	13929.46
537.019	13696.02
537.384	13841.56
537.749	13772.18
538.114	13815.79
538.479	13747.1
538.845	13760.66
539.21	13668.23
539.575	13746.42
539.94	13693.76
540.305	13632.3
540.67	13631.39
541.034	13637.04
541.399	13622.81
541.764	13572.86
542.129	13548.23
542.494	13504.16
542.858	13448.12
543.223	13476.82
543.587	13467.78
543.952	13363.15
544.316	13388.24
544.681	13307.56
545.045	13407.67
545.41	13285.19
545.774	13406.31
546.138	13262.59
546.503	13286.54
546.867	13229.82
547.231	13241.12
547.595	13160.67
547.959	13214.68
548.324	13146.66
548.688	13072.09
549.052	13099.2
549.416	13003.61
549.779	13011.52
550.143	12979.88
550.507	13052.65
550.871	13023.05
551.235	12943.95
551.599	12903.05
551.962	13032.99
552.326	12928.13
552.689	12850.62
553.053	12798.65
553.417	12824.18
553.78	12960
554.143	12797.52
554.507	12777.18
554.87	12804.07
555.234	12843.84
555.597	12705.99
555.96	12762.94
556.323	12814.69
556.686	12749.61
557.05	12774.69
557.413	12766.11
557.776	12771.75
558.139	12745.54
558.502	12696.5
558.865	12643.17
559.228	12741.25
559.59	12778.53
559.953	12724.3
560.316	12791.64
560.679	12741.92
561.041	12779.21
561.404	12791.19
561.767	12852.66
562.129	12743.51
562.492	12822.83
562.854	12764.52
563.217	12781.47
563.579	12843.84
563.941	12834.58
564.304	12897.63
564.666	12898.08
565.028	12848.14
565.39	12906.67
565.753	12961.13
566.115	12899.43
566.477	12922.71
566.839	12939.66
567.201	13098.3
567.563	13072.54
567.925	13101.92
568.287	13045.87
568.648	13052.43
569.01	13091.52
569.372	13115.25
569.734	13099.43
570.095	13104.4
570.457	13208.35
570.819	13151.41
571.18	13227.79
571.542	13177.39
571.903	13204.29
572.265	13271.63
572.626	13336.71
572.987	13184.4
573.349	13272.53
573.71	13295.81
574.071	13317.05
574.432	13307.11
574.794	13347.33
575.155	13353.89
575.516	13326.99
575.877	13351.63
576.238	13279.76
576.599	13372.19
576.96	13346.2
577.32	13359.99
577.681	13397.27
578.042	13401.12
578.403	13356.6
578.763	13429.36
579.124	13382.36
579.485	13362.25
579.845	13444.28
580.206	13409.93
580.566	13373.55
580.927	13454.67
581.287	13565.41
581.648	13402.47
582.008	13480.66
582.368	13442.25
582.728	13483.15
583.089	13443.6
583.449	13403.6
583.809	13451.74
584.169	13431.62
584.529	13376.03
584.889	13434.79
585.249	13291.74
585.609	13345.98
585.969	13383.04
586.329	13289.48
586.688	13388.69
587.048	13329.25
587.408	13306.2
587.768	13317.73
588.127	13357.95
588.487	13329.93
588.846	13398.18
589.206	13274.34
589.565	13323.6
589.925	13313.44
590.284	13210.39
590.643	13224.85
591.003	13338.97
591.362	13252.87
591.721	13220.78
592.08	13244.28
592.44	13277.5
592.799	13309.37
593.158	13201.35
593.517	13283.15
593.876	13204.96
594.235	13226.88
594.593	13297.62
594.952	13265.75
595.311	13258.97
595.67	13211.52
596.029	13280.89
596.387	13258.75
596.746	13249.03
597.104	13195.7
597.463	13136.94
597.822	13231.18
598.18	13278.63
598.538	13136.26
598.897	13207.68
599.255	13083.16
599.613	13319.54
599.972	13218.07
600.33	13268.69
600.688	13115.7
601.046	13273.89
601.404	13228.01
601.762	13188.92
602.12	13202.25
602.478	13238.63
602.836	13208.13
603.194	13204.74
603.552	13224.4
603.91	13143.04
604.268	13208.13
604.625	13205.64
604.983	13298.97
605.341	13130.84
605.698	13222.14
606.056	13271.85
606.413	13292.64
606.771	13280.22
607.128	13216.26
607.485	13181.46
607.843	13186.21
608.2	13249.71
608.557	13332.19
608.914	13283.61
609.272	13392.76
609.629	13395.92
609.986	13394.79
610.343	13294
610.7	13425.07
611.057	13391.17
611.414	13361.8
611.771	13356.15
612.127	13455.35
612.484	13409.25
612.841	13456.03
613.198	13359.31
613.554	13423.26
613.911	13412.64
614.267	13496.71
614.624	13436.37
614.98	13428.91
615.337	13521.11
615.693	13489.93
616.05	13442.92
616.406	13631.17
616.762	13477.95
617.118	13461.23
617.475	13561.34
617.831	13543.71
618.187	13627.55
618.543	13592.3
618.899	13631.84
619.255	13609.7
619.611	13658.28
619.967	13687.89
620.323	13707.78
620.678	13627.33
621.034	13564.28
621.39	13661.67
621.746	13564.5
622.101	13731.28
622.457	13622.35
622.812	13612.41
623.168	13628.68
623.523	13563.82
623.879	13721.33
624.234	13607.21
624.589	13640.21
624.945	13665.52
625.3	13600.89
625.655	13644.27
626.01	13585.29
626.365	13673.2
626.72	13635.91
627.075	13555.69
627.43	13627.33
627.785	13568.57
628.14	13588.46
628.495	13588.23
628.85	13479.76
629.205	13509.81
629.559	13615.57
629.914	13579.19
630.269	13582.58
630.623	13515.24
630.978	13584.39
631.332	13638.85
631.687	13576.71
632.041	13508.68
632.396	13500.32
632.75	13462.58
633.104	13461.91
633.459	13422.58
633.813	13444.96
634.167	13356.15
634.521	13419.2
634.875	13409.7
635.229	13392.08
635.583	13240.44
635.937	13291.74
636.291	13362.25
636.645	13237.51
636.999	13283.83
637.352	13312.98
637.706	13216.04
638.06	13272.98
638.413	13227.79
638.767	13216.71
639.121	13148.92
639.474	13139.65
639.828	13214
640.181	13190.5
640.534	13161.57
640.888	13152.54
641.241	13062.82
641.594	13094.91
641.947	13132.42
642.301	13071.63
642.654	13118.86
643.007	13169.71
643.36	13075.7
643.713	13032.54
644.066	13046.1
644.419	12997.06
644.771	12895.37
645.124	12805.2
645.477	12780.57
645.83	12683.62
646.182	12658.99
646.535	12594.36
646.888	12678.42
647.24	12610.85
647.593	12633
647.945	12600.46
648.298	12610.63
648.65	12498.77
649.002	12546
649.355	12555.49
649.707	12697.41
650.059	12632.78
650.411	12829.15
650.763	12794.58
651.115	12946.21
651.467	12811.98
651.819	12819.89
652.171	12846.78
652.523	12792.32
652.875	12839.55
653.227	12791.64
653.578	12867.8
653.93	12820.34
654.282	12854.46
654.633	12755.26
654.985	12833.45
655.337	12798.19
655.688	12827.12
656.039	12855.59
656.391	12729.27
656.742	12771.98
657.094	12799.32
657.445	12876.84
657.796	12811.08
658.147	12798.65
658.498	12783.05
658.849	12855.59
659.2	12847.68
659.551	12843.62
659.902	12881.58
660.253	12826.67
660.604	12790.51
660.955	12802.04
661.306	12851.3
661.656	12774.69
662.007	12901.92
662.358	12847.68
662.708	12857.63
663.059	12823.05
663.409	12802.49
663.76	12954.35
664.11	12876.84
664.461	12908.25
664.811	12948.7
665.161	12899.43
665.511	12896.72
665.862	12833
666.212	12894.46
666.562	12862.83
666.912	12889.49
667.262	12778.08
667.612	12840.23
667.962	12853.79
668.312	12897.63
668.662	12903.28
669.011	12922.03
669.361	12816.5
669.711	12777.18
670.06	12788.48
670.41	12822.6
670.76	12778.76
671.109	12807.01
671.459	12792.09
671.808	12785.77
672.157	12887.91
672.507	12744.86
672.856	12710.29
673.205	12774.24
673.554	12816.95
673.904	12687.24
674.253	12750.51
674.602	12772.66
674.951	12540.57
675.3	12515.04
675.649	12690.4
675.998	12696.05
676.346	12681.14
676.695	12650.18
677.044	12587.58
677.393	12606.79
677.741	12611.53
678.09	12589.39
678.438	12582.61
678.787	12678.65
679.135	12565.88
679.484	12419.45
679.832	12601.82
680.181	12508.94
680.529	12528.6
680.877	12398.21
681.225	12384.19
681.573	12541.25
681.922	12390.97
682.27	12316.63
682.618	12436.62
682.966	12359.11
683.314	12324.31
683.661	12378.54
684.009	12256.29
684.357	12204.54
684.705	12213.13
685.053	12243.18
685.4	12257.64
685.748	12108.27
686.095	12160.47
686.443	12060.59
686.79	12096.52
687.138	12063.07
687.485	12090.19
687.832	11973.58
688.18	12061.94
688.527	11941.72
688.874	11925.22
689.221	11876.41
689.568	11874.6
689.915	11797.99
690.262	11839.58
690.609	11729.75
690.956	11724.55
691.303	11760.93
691.65	11649.75
691.997	11576.76
692.344	11563.2
692.69	11585.8
693.037	11474.84
693.383	11419.47
693.73	11394.16
694.077	11378.8
694.423	11344
694.769	11307.16
695.116	11356.88
695.462	11281.17
695.808	11160.72
696.155	11249.31
696.501	11176.77
696.847	11118.24
697.193	11053.61
697.539	11080.73
697.885	11031.91
698.231	10979.03
698.577	10931.58
698.923	10848.64
699.269	10876.66
699.614	10776.33
699.96	10735.42
700.306	10805.48
700.651	10639.61
700.997	10644.35
701.342	10637.12
701.688	10664.92
702.033	10580.63
702.379	10572.72
702.724	10488.65
703.069	10519.61
703.415	10369.11
703.76	10452.72
704.105	10346.06
704.45	10345.6
704.795	10285.04
705.14	10235.55
705.485	10217.25
705.83	10190.13
706.175	10252.05
706.52	10153.74
706.865	10123.01
707.209	10120.75
707.554	10047.98
707.899	10135.67
708.243	9992.84
708.588	9939.51
708.932	9872.17
709.277	9921.66
709.621	9930.7
709.966	9846.86
710.31	9936.57
710.654	9805.05
710.998	9824.71
711.342	9820.19
711.687	9776.13
712.031	9689.35
712.375	9739.07
712.719	9670.14
713.063	9760.31
713.407	9700.65
713.75	9669.24
714.094	9689.58
714.438	9605.51
714.782	9617.71
715.125	9524.83
715.469	9537.94
715.812	9491.39
716.156	9387.44
716.499	9480.54
716.843	9503.82
717.186	9441.9
717.53	9487.77
717.873	9456.59
718.216	9407.32
718.559	9399.64
718.902	9317.16
719.246	9349.92
719.589	9343.82
719.932	9251.17
720.275	9337.95
720.617	9315.12
720.96	9276.25
721.303	9254.11
721.646	9271.96
721.989	9270.6
722.331	9293.88
722.674	9193.32
723.016	9208.68
723.359	9125.97
723.701	9190.38
724.044	9096.37
724.386	9060.89
724.729	9126.88
725.071	9072.87
725.413	9119.65
725.755	9075.81
726.097	9075.13
726.439	9040.55
726.782	9086.88
727.124	9152.19
727.465	9079.65
727.807	9021.57
728.149	9035.13
728.491	8998.07
728.833	9022.47
729.175	9032.42
729.516	9015.7
729.858	9008.69
730.199	9027.22
730.541	9027.67
730.882	9015.7
731.224	9020.67
731.565	8928.47
731.906	8962.59
732.248	9043.72
732.589	8925.08
732.93	8914.23
733.271	8937.28
733.612	9019.99
733.953	9000.1
734.294	8934.79
734.635	8924.85
734.976	8961.46
735.317	8887.34
735.658	8959.88
735.999	9007.56
736.339	8924.62
736.68	8949.48
737.021	8898.41
737.361	8866.55
737.702	8946.09
738.042	8944.74
738.383	8949.71
738.723	8982.7
739.063	8967.79
739.404	8966.43
739.744	8951.29
740.084	8932.99
740.424	8990.16
740.764	8972.76
741.104	9066.09
741.444	9048.46
741.784	9038.29
742.124	9133.21
742.464	9045.52
742.804	9069.25
743.143	9055.47
743.483	9120.78
743.823	9171.17
744.162	9184.5
744.502	9186.99
744.841	9188.8
745.181	9214.56
745.52	9192.87
745.86	9319.64
746.199	9343.14
746.538	9303.82
746.877	9369.36
747.216	9421.56
747.556	9422.69
747.895	9497.04
748.234	9498.39
748.573	9614.55
748.911	9648.67
749.25	9698.39
749.589	9659.29
749.928	9779.06
750.267	9861.77
750.605	9937.03
750.944	10020.87
751.283	9993.3
751.621	10137.93
751.96	10139.28
752.298	10255.66
752.636	10313.74
752.975	10387.64
753.313	10465.15
753.651	10614.3
753.989	10594.86
754.327	10789.43
754.666	10827.17
755.004	10994.63
755.342	11065.36
755.679	11154.17
756.017	11291.34
756.355	11459.47
756.693	11496.08
757.031	11655.4
757.368	11774.49
757.706	11877.54
758.044	12039.34
758.381	12220.81
758.719	12302.16
759.056	12459.22
