Data from hue_100_FLMS001491_00042.txt Node
Date: Tue Feb 07 17:03:13 GMT 2017
User: dcchb
Spectrometer: FLMS00149
Trigger mode: 0
Integration Time (sec): 2.000000E-2
Scans to average: 10
Electric dark correction enabled: true
Nonlinearity correction enabled: false
Boxcar width: 0
XAxis mode: Wavelengths
Number of Pixels in Spectrum: 2048
>>>>>Begin Spectral Data<<<<<
341.393	10.2
341.776	10.2
342.16	10.2
342.543	-44.72
342.927	-65.51
343.31	-67.77
343.693	-75.45
344.077	-64.83
344.46	-62.79
344.843	-61.21
345.226	-53.76
345.61	-42.68
345.993	-30.03
346.376	3.64
346.759	13.81
347.142	42.51
347.525	26.02
347.908	71.44
348.291	80.93
348.674	117.77
349.057	102.4
349.44	140.14
349.823	146.47
350.206	167.03
350.588	200.47
350.971	217.65
351.354	217.42
351.737	259.23
352.119	260.36
352.502	263.3
352.884	266.24
353.267	280.92
353.65	285.9
354.032	307.59
354.414	323.64
354.797	320.92
355.179	324.09
355.562	335.61
355.944	352.34
356.326	339.23
356.709	331.77
357.091	329.51
357.473	336.52
357.855	343.07
358.238	335.16
358.62	330.87
359.002	341.94
359.384	348.27
359.766	338.78
360.148	356.63
360.53	357.31
360.912	364.99
361.294	344.65
361.676	341.94
362.057	346.23
362.439	354.6
362.821	325.22
363.203	329.29
363.584	321.15
363.966	361.83
364.348	329.29
364.729	308.49
365.111	330.19
365.493	332.45
365.874	318.66
366.256	324.09
366.637	333.35
367.019	299.46
367.4	340.58
367.781	325.9
368.163	326.12
368.544	339.68
368.925	332.67
369.306	321.38
369.688	336.06
370.069	341.26
370.45	308.95
370.831	333.13
371.212	336.74
371.593	313.47
371.974	326.8
372.355	322.28
372.736	353.47
373.117	329.51
373.498	318.21
373.879	322.73
374.26	305.33
374.641	314.37
375.021	309.17
375.402	328.83
375.783	337.87
376.163	346.46
376.544	350.75
376.925	340.36
377.305	342.17
377.686	332
378.066	324.99
378.447	342.17
378.827	344.65
379.208	352.79
379.588	363.41
379.968	362.96
380.349	338.1
380.729	343.52
381.109	345.1
381.489	337.65
381.87	362.05
382.25	345.78
382.63	358.66
383.01	346.46
383.39	350.75
383.77	353.47
384.15	352.56
384.53	358.21
384.91	358.66
385.29	361.37
385.67	369.06
386.049	371.32
386.429	378.32
386.809	376.97
387.189	378.78
387.568	361.83
387.948	397.76
388.328	370.41
388.707	369.51
389.087	368.38
389.466	397.08
389.846	382.39
390.225	390.07
390.605	398.44
390.984	379.45
391.363	395.27
391.743	400.47
392.122	396.63
392.501	386.23
392.881	400.24
393.26	376.29
393.639	412.9
394.018	423.07
394.397	390.53
394.776	405.22
395.155	413.35
395.534	406.57
395.913	413.8
396.292	404.99
396.671	421.03
397.05	428.04
397.429	410.41
397.808	422.16
398.186	442.73
398.565	428.49
398.944	436.63
399.323	413.8
399.701	423.75
400.08	429.17
400.458	447.47
400.837	442.5
401.215	450.86
401.594	435.27
401.972	438.43
402.351	445.89
402.729	452.22
403.107	447.47
403.486	434.14
403.864	435.5
404.242	453.35
404.62	475.72
404.999	454.71
405.377	467.59
405.755	473.24
406.133	465.78
406.511	480.69
406.889	456.51
407.267	455.61
407.645	489.51
408.023	473.01
408.401	474.37
408.779	499.68
409.156	498.32
409.534	484.99
409.912	514.82
410.29	509.85
410.667	499.9
411.045	509.62
411.422	511.2
411.8	518.43
412.178	521.14
412.555	509.39
412.933	528.83
413.31	545.32
413.687	561.14
414.065	543.52
414.442	571.54
414.819	543.74
415.197	556.4
415.574	545.32
415.951	548.49
416.328	575.61
416.705	578.32
417.082	562.95
417.46	565.44
417.837	578.32
418.214	554.36
418.591	583.74
418.967	592.56
419.344	609.96
419.721	590.3
420.098	600.69
420.475	618.09
420.852	598.43
421.228	615.15
421.605	607.24
421.982	632.1
422.358	600.92
422.735	630.52
423.111	649.73
423.488	632.55
423.864	627.81
424.241	652.44
424.617	630.75
424.994	654.02
425.37	669.84
425.746	655.6
426.123	675.72
426.499	668.49
426.875	686.34
427.251	685.89
427.627	708.26
428.003	710.29
428.379	720.91
428.756	694.25
429.132	711.42
429.507	699.67
429.883	726.34
430.259	749.61
430.635	751.42
431.011	748.26
431.387	749.39
431.763	765.21
432.138	753.91
432.514	770.63
432.89	809.5
433.265	803.17
433.641	808.82
434.016	786.9
434.392	792.78
434.767	828.48
435.143	800.91
435.518	841.81
435.894	832.55
436.269	870.06
436.644	866.67
437.02	866.9
437.395	874.81
437.77	875.49
438.145	907.12
438.52	906.45
438.895	892.43
439.271	901.93
439.646	924.52
440.021	915.48
440.395	935.82
440.77	918.87
441.145	940.12
441.52	940.57
441.895	974.24
442.27	950.51
442.645	976.73
443.019	1007.23
443.394	950.51
443.769	1000.91
444.143	1014.24
444.518	982.15
444.892	986.67
445.267	991.19
445.641	1008.59
446.016	1014.01
446.39	1012.88
446.764	1031.87
447.139	1058.31
447.513	1063.28
447.887	1040
448.262	1074.8
448.636	1060.79
449.01	1086.78
449.384	1100.34
449.758	1100.34
450.132	1119.32
450.506	1103.73
450.88	1116.38
451.254	1123.61
451.628	1148.47
452.002	1155.93
452.376	1166.78
452.75	1183.73
453.123	1193.9
453.497	1197.74
453.871	1217.4
454.244	1212.43
454.618	1225.76
454.992	1254.01
455.365	1201.35
455.739	1317.73
456.112	1300.79
456.486	1303.27
456.859	1306.43
457.232	1346.66
457.606	1328.13
457.979	1345.76
458.352	1378.98
458.725	1406.77
459.099	1430.27
459.472	1452.87
459.845	1452.65
460.218	1474.11
460.591	1489.03
460.964	1483.38
461.337	1522.7
461.71	1560.89
462.083	1569.03
462.456	1562.93
462.829	1588.69
463.201	1603.6
463.574	1627.33
463.947	1639.99
464.32	1674.79
464.692	1717.27
465.065	1698.97
465.438	1724.5
465.81	1767.21
466.183	1791.17
466.555	1843.82
466.928	1857.15
467.3	1874.78
467.672	1896.7
468.045	1954.1
468.417	1955.23
468.789	2014.44
469.161	1983.25
469.534	2049.01
469.906	2091.27
470.278	2064.83
470.65	2138.28
471.022	2204.04
471.394	2238.84
471.766	2270.48
472.138	2299.4
472.51	2373.53
472.882	2437.48
473.253	2473.86
473.625	2492.17
473.997	2580.07
474.369	2601.99
474.74	2641.31
475.112	2711.37
475.484	2765.15
475.855	2841.99
476.227	2875.66
476.598	2978.03
476.97	2992.72
477.341	3144.13
477.713	3220.51
478.084	3267.29
478.455	3345.25
478.827	3414.85
479.198	3534.17
479.569	3599.93
479.94	3714.05
480.311	3774.84
480.682	3911.79
481.053	4030.43
481.424	4146.81
481.795	4209.86
482.166	4297.99
482.537	4415.96
482.908	4569.85
483.279	4696.18
483.65	4785.44
484.021	4931.88
484.391	5031.53
484.762	5127.13
485.133	5228.59
485.503	5329.15
485.874	5527.34
486.244	5700.44
486.615	5782.48
486.985	5965.52
487.356	6136.14
487.726	6226.08
488.097	6459.97
488.467	6513.98
488.837	6744.26
489.207	6870.81
489.578	7062.89
489.948	7149.9
490.318	7318.25
490.688	7435.09
491.058	7603.22
491.428	7873.72
491.798	7937.22
492.168	8161.17
492.538	8270.09
492.908	8464.89
493.278	8604.77
493.648	8734.04
494.017	8958.66
494.387	9080.02
494.757	9207.92
495.126	9372.66
495.496	9540.57
495.866	9614.01
496.235	9817.62
496.605	9910.28
496.974	10047
497.344	10227.56
497.713	10332.64
498.082	10379.64
498.452	10625.74
498.821	10676.58
499.19	10779.86
499.559	11010.36
499.928	11112.05
500.298	11241.09
500.667	11354.76
501.036	11403.34
501.405	11550.68
501.774	11611.25
502.143	11796.55
502.512	11896.44
502.88	12085.36
503.249	11993.39
503.618	12246.03
503.987	12206.49
504.356	12430.66
504.724	12529.42
505.093	12570.55
505.462	12598.57
505.83	12801.27
506.199	12951.55
506.567	13161.26
506.936	13130.53
507.304	13244.2
507.672	13247.59
508.041	13373.46
508.409	13585.43
508.777	13633.12
509.145	13714.24
509.514	13710.4
509.882	13919.89
510.25	13921.47
510.618	13980.68
510.986	14028.59
511.354	14125.53
511.722	14276.94
512.09	14366.2
512.458	14360.1
512.826	14459.31
513.193	14553.09
513.561	14598.74
513.929	14650.72
514.297	14767.55
514.664	14795.12
515.032	14819.75
515.4	14947.21
515.767	15000.76
516.135	15110.37
516.502	14922.12
516.869	15098.39
517.237	15240.31
517.604	15144.71
517.972	15372.05
518.339	15409.11
518.706	15437.81
519.073	15464.71
519.44	15499.06
519.808	15677.13
520.175	15602.33
520.542	15775.43
520.909	15801.42
521.276	15796.45
521.643	15943.11
522.009	15931.13
522.376	15939.27
522.743	16059.49
523.11	16097.23
523.477	16207.74
523.843	16252.26
524.21	16475.98
524.577	16471.23
524.943	16513.49
525.31	16489.31
525.676	16645.24
526.043	16654.28
526.409	16703.54
526.776	16824.67
527.142	16838.46
527.508	16806.82
527.874	16938.11
528.241	16965.68
528.607	16866.25
528.973	17103.31
529.339	16935.4
529.705	17091.56
530.071	17111.89
530.437	17106.92
530.803	17113.02
531.169	17181.72
531.535	17095.62
531.901	17047.04
532.267	17136.75
532.632	17162.97
532.998	17241.61
533.364	17255.39
533.73	17154.38
534.095	17208.84
534.461	17270.99
534.826	17391.21
535.192	17293.81
535.557	17297.43
535.923	17197.32
536.288	17200.71
536.653	17227.37
537.019	17061.5
537.384	17174.27
537.749	17188.5
538.114	17217.65
538.479	17179.92
538.845	17190.31
539.21	17082.74
539.575	17095.62
539.94	17085.23
540.305	17200.25
540.67	17041.39
541.034	17066.02
541.399	17045.68
541.764	17034.16
542.129	16943.54
542.494	17041.61
542.858	16964.1
543.223	16988.06
543.587	16989.19
543.952	16903.09
544.316	16827.61
544.681	16793.26
545.045	16882.52
545.41	16892.92
545.774	16908.96
546.138	16788.97
546.503	16791.23
546.867	16628.74
547.231	16726.14
547.595	16685.92
547.959	16685.92
548.324	16636.88
548.688	16532.93
549.052	16576.99
549.416	16649.99
549.779	16523.89
550.143	16449.77
550.507	16547.39
550.871	16524.34
551.235	16468.52
551.599	16546.49
551.962	16504.91
552.326	16510.78
552.689	16528.18
553.053	16381.74
553.417	16388.52
553.78	16441.63
554.143	16377.45
554.507	16366.15
554.87	16477.79
555.234	16493.61
555.597	16341.29
555.96	16361.41
556.323	16299.03
556.686	16333.38
557.05	16390.56
557.413	16387.39
557.776	16423.55
558.139	16364.57
558.502	16375.64
558.865	16324.57
559.228	16457.67
559.59	16389.2
559.953	16322.76
560.316	16501.52
560.679	16456.32
561.041	16460.39
561.404	16402.99
561.767	16489.76
562.129	16474.85
562.492	16576.54
562.854	16499.03
563.217	16514.4
563.579	16583.55
563.941	16614.05
564.304	16566.6
564.666	16657.44
565.028	16656.09
565.39	16651.12
565.753	16779.93
566.115	16798.46
566.477	16826.7
566.839	16862.86
567.201	16836.2
567.563	16859.25
567.925	16899.47
568.287	16911.22
568.648	16843.65
569.01	16996.87
569.372	17043.65
569.734	16919.36
570.095	16955.51
570.457	17017.43
570.819	16964.33
571.18	16978.34
571.542	17070.99
571.903	17064.66
572.265	17237.32
572.626	17256.3
572.987	17242.96
573.349	17287.71
573.71	17172.01
574.071	17223.98
574.432	17219.24
574.794	17315.96
575.155	17413.58
575.516	17292.68
575.877	17285
576.238	17359.57
576.599	17408.61
576.96	17382.85
577.32	17375.39
577.681	17367.48
578.042	17387.82
578.403	17337.88
578.763	17380.14
579.124	17372.9
579.485	17443.41
579.845	17466.24
580.206	17450.87
580.566	17482.05
580.927	17427.59
581.287	17480.47
581.648	17458.78
582.008	17427.82
582.368	17390.08
582.728	17430.3
583.089	17461.49
583.449	17395.05
583.809	17447.93
584.169	17499.91
584.529	17328.61
584.889	17491.32
585.249	17358.67
585.609	17305.34
585.969	17471.21
586.329	17337.88
586.688	17343.75
587.048	17329.29
587.408	17306.01
587.768	17333.13
588.127	17337.65
588.487	17336.75
588.846	17400.02
589.206	17258.56
589.565	17195.28
589.925	17396.86
590.284	17258.33
590.643	17289.07
591.003	17289.29
591.362	17383.07
591.721	17293.13
592.08	17292.23
592.44	17259.69
592.799	17307.14
593.158	17263.53
593.517	17293.81
593.876	17169.97
594.235	17191.44
594.593	17097.88
594.952	17226.69
595.311	17153.7
595.67	17141.5
596.029	17321.38
596.387	17334.26
596.746	17268.73
597.104	17205.45
597.463	17184.21
597.822	17185.11
598.18	17160.03
598.538	17155.06
598.897	17238.9
599.255	17038.22
599.613	17307.14
599.972	17160.93
600.33	17158.9
600.688	17099.69
601.046	17234.6
601.404	17290.65
601.762	17263.53
602.12	17281.61
602.478	17306.01
602.836	17288.84
603.194	17215.17
603.552	17200.25
603.91	17160.48
604.268	17207.49
604.625	17096.3
604.983	17325.45
605.341	17112.35
605.698	17277.77
606.056	17246.35
606.413	17225.56
606.771	17301.27
607.128	17229.18
607.485	17210.65
607.843	17248.16
608.2	17393.47
608.557	17312.57
608.914	17225.79
609.272	17355.73
609.629	17410.42
609.986	17404.77
610.343	17336.52
610.7	17497.87
611.057	17466.24
611.414	17461.72
611.771	17416.52
612.127	17576.52
612.484	17524.09
612.841	17542.62
613.198	17541.49
613.554	17523.41
613.911	17553.92
614.267	17560.92
614.624	17499.23
614.98	17576.06
615.337	17618.1
615.693	17571.77
616.05	17563.18
616.406	17606.12
616.762	17654.93
617.118	17576.74
617.475	17577.65
617.831	17651.99
618.187	17694.7
618.543	17750.3
618.899	17797.07
619.255	17803.4
619.611	17762.73
619.967	17847.69
620.323	17872.1
620.678	17777.19
621.034	17725.89
621.39	17761.6
621.746	17649.73
622.101	17950.74
622.457	17732.22
622.812	17844.08
623.168	17892.67
623.523	17896.28
623.879	17853.8
624.234	17719.11
624.589	17856.28
624.945	17754.14
625.3	17797.98
625.655	17859.22
626.01	17727.02
626.365	17939.9
626.72	17775.38
627.075	17794.59
627.43	17771.99
627.785	17742.39
628.14	17746.45
628.495	17849.95
628.85	17713.69
629.205	17719.56
629.559	17797.53
629.914	17731.77
630.269	17794.36
630.623	17693.12
630.978	17636.4
631.332	17707.13
631.687	17683.86
632.041	17599.11
632.396	17600.24
632.75	17644.54
633.104	17527.93
633.459	17519.79
633.813	17512.34
634.167	17525.9
634.521	17512.11
634.875	17585.78
635.229	17472.79
635.583	17466.69
635.937	17454.26
636.291	17442.51
636.645	17458.78
636.999	17365.22
637.352	17436.41
637.706	17372.23
638.06	17373.36
638.413	17366.35
638.767	17166.58
639.121	17244.77
639.474	17225.11
639.828	17174.04
640.181	17191.67
640.534	17215.85
640.888	17160.03
641.241	17019.69
641.594	17052.91
641.947	17149.18
642.301	17036.87
642.654	17078.22
643.007	17177.2
643.36	17116.64
643.713	17098.79
644.066	17154.83
644.419	16994.61
644.771	17019.24
645.124	16711.23
645.477	16750.1
645.83	16692.92
646.182	16536.54
646.535	16520.27
646.888	16528.63
647.24	16434.17
647.593	16535.41
647.945	16456.77
648.298	16489.31
648.65	16355.76
649.002	16304.91
649.355	16562.98
649.707	16464.23
650.059	16483.66
650.411	16651.79
650.763	16786.03
651.115	16895.63
651.467	16840.94
651.819	16716.2
652.171	16790.1
652.523	16792.36
652.875	16876.19
653.227	16703.77
653.578	16800.49
653.93	16870.32
654.282	16751.9
654.633	16689.98
654.985	16733.37
655.337	16703.54
655.688	16750.77
656.039	16871
656.391	16737.44
656.742	16717.33
657.094	16827.16
657.445	16799.59
657.796	16728.85
658.147	16794.84
658.498	16744.9
658.849	16899.7
659.2	16689.08
659.551	16674.62
659.902	16827.38
660.253	16682.75
660.604	16694.73
660.955	16677.1
661.306	16772.92
661.656	16751.68
662.007	16737.89
662.358	16829.64
662.708	16737.67
663.059	16832.13
663.409	16700.38
663.76	16863.99
664.11	16717.33
664.461	16871.9
664.811	16823.99
665.161	16899.7
665.511	16762.75
665.862	16845.01
666.212	16931.11
666.562	16862.41
666.912	16838.91
667.262	16833.71
667.612	16803.65
667.962	16823.54
668.312	16777.67
668.662	16903.76
669.011	16782.64
669.361	16869.64
669.711	16866.7
670.06	16769.53
670.41	16701.51
670.76	16723.43
671.109	16850.21
671.459	16724.79
671.808	16791
672.157	16705.35
672.507	16613.6
672.856	16676.88
673.205	16588.74
673.554	16668.29
673.904	16648.86
674.253	16697.22
674.602	16632.13
674.951	16342.42
675.3	16395.08
675.649	16539.71
675.998	16556.88
676.346	16541.74
676.695	16623.55
677.044	16497.45
677.393	16537.45
677.741	16491.35
678.09	16528.41
678.438	16456.09
678.787	16431.46
679.135	16514.62
679.484	16410.67
679.832	16322.54
680.181	16311.46
680.529	16261.52
680.877	16293.39
681.225	16269.43
681.573	16317.79
681.922	16172.71
682.27	16181.3
682.618	16160.96
682.966	16117.8
683.314	16215.87
683.661	16028.76
684.009	15968.65
684.357	15984.47
684.705	15984.47
685.053	15966.84
685.4	15913.51
685.748	15766.17
686.095	15838.71
686.443	15753.06
686.79	15762.55
687.138	15745.83
687.485	15815.66
687.832	15609.34
688.18	15697.69
688.527	15601.2
688.874	15577.92
689.221	15530.69
689.568	15403.47
689.915	15475.33
690.262	15429.68
690.609	15413.18
690.956	15401.88
691.303	15387.87
691.65	15216.35
691.997	15268.33
692.344	15179.29
692.69	15033.31
693.037	15073.98
693.383	14904.5
693.73	15049.8
694.077	14965.51
694.423	14869.24
694.769	14934.55
695.116	14796.7
695.462	14805.97
695.808	14691.39
696.155	14691.85
696.501	14602.36
696.847	14615.01
697.193	14467.22
697.539	14509.48
697.885	14391.74
698.231	14362.36
698.577	14304.96
698.923	14289.14
699.269	14213.21
699.614	14115.14
699.96	14092.99
700.306	14140.67
700.651	13970.73
700.997	13977.51
701.342	14008.47
701.688	13917.4
702.033	13897.06
702.379	13770.51
702.724	13710.18
703.069	13815.26
703.415	13611.42
703.76	13743.85
704.105	13541.59
704.45	13522.84
704.795	13466.79
705.14	13446.23
705.485	13473.57
705.83	13388.6
706.175	13361.26
706.52	13335.27
706.865	13207.82
707.209	13232.22
707.554	13188.83
707.899	13166.91
708.243	13038.56
708.588	13015.05
708.932	13004.21
709.277	12982.29
709.621	12952
709.966	12906.58
710.31	12944.55
710.654	12775.74
710.998	12742.29
711.342	12810.31
711.687	12709.07
712.031	12645.57
712.375	12606.7
712.719	12690.32
713.063	12563.77
713.407	12719.24
713.75	12531.22
714.094	12530.32
714.438	12555.63
714.782	12548.17
715.125	12445.35
715.469	12394.5
715.812	12375.97
716.156	12321.74
716.499	12298.46
716.843	12332.59
717.186	12300.5
717.53	12328.29
717.873	12329.87
718.216	12271.34
718.559	12249.88
718.902	12121.29
719.246	12263.43
719.589	12181.85
719.932	12153.16
720.275	12151.35
720.617	12115.87
720.96	12079.71
721.303	12127.62
721.646	12079.71
721.989	11978.47
722.331	12131.46
722.674	12095.98
723.016	12013.05
723.359	12027.28
723.701	12005.36
724.044	11985.02
724.386	11895.76
724.729	11963.1
725.071	11973.95
725.413	11925.14
725.755	11968.3
726.097	11865.7
726.439	11789.77
726.782	11814.18
727.124	11881.52
727.465	11768.08
727.807	11813.5
728.149	11796.78
728.491	11728.31
728.833	11783.45
729.175	11799.94
729.516	11743.45
729.858	11696.22
730.199	11725.82
730.541	11757.69
730.882	11750.45
731.224	11784.35
731.565	11662.55
731.906	11694.64
732.248	11773.5
732.589	11713.84
732.93	11619.16
733.271	11686.27
733.612	11649.21
733.953	11689.44
734.294	11630
734.635	11655.77
734.976	11672.49
735.317	11666.84
735.658	11592.27
735.999	11678.82
736.339	11573.74
736.68	11652.6
737.021	11633.39
737.361	11572.15
737.702	11640.4
738.042	11687.63
738.383	11657.12
738.723	11646.95
739.063	11613.06
739.404	11656.44
739.744	11614.64
740.084	11675.88
740.424	11757.46
740.764	11639.5
741.104	11772.83
741.444	11665.94
741.784	11681.75
742.124	11774.41
742.464	11682.21
742.804	11737.8
743.143	11762.2
743.483	11782.32
743.823	11767.4
744.162	11783.45
744.502	11829.1
744.841	11881.07
745.181	11897.12
745.52	11982.54
745.86	12044.91
746.199	12097.56
746.538	12079.71
746.877	12155.41
747.216	12190.22
747.556	12205.81
747.895	12328.07
748.234	12387.05
748.573	12352.92
748.911	12432.02
749.25	12413.94
749.589	12503.43
749.928	12629.3
750.267	12665.46
750.605	12724.21
750.944	12781.39
751.283	12845.57
751.621	12944.77
751.96	12982.51
752.298	13095.05
752.636	13160.59
752.975	13316.06
753.313	13352.67
753.651	13556.51
753.989	13612.78
754.327	13754.02
754.666	13775.49
755.004	13912.88
755.342	14160.56
755.679	14235.36
