Data from hue_70_FLMS001491_56.txt Node
Date: Mon Feb 06 15:21:07 GMT 2017
User: dcchb
Spectrometer: FLMS00149
Trigger mode: 0
Integration Time (sec): 2.000000E-2
Scans to average: 10
Electric dark correction enabled: true
Nonlinearity correction enabled: false
Boxcar width: 0
XAxis mode: Wavelengths
Number of Pixels in Spectrum: 2048
>>>>>Begin Spectral Data<<<<<
341.393	-9.28
341.776	-9.28
342.16	-9.28
342.543	-58.77
342.927	-62.39
343.31	-56.96
343.693	-81.82
344.077	-61.48
344.46	-47.7
344.843	-47.7
345.226	-37.75
345.61	-27.36
345.993	-8.83
346.376	0.66
346.759	-1.6
347.142	-1.6
347.525	37.72
347.908	64.62
348.291	77.05
348.674	100.55
349.057	92.19
349.44	128.34
349.823	125.18
350.206	161.34
350.588	195.23
350.971	218.29
351.354	218.74
351.737	231.84
352.119	246.08
352.502	279.53
352.884	289.7
353.267	270.71
353.65	286.53
354.032	298.96
354.414	299.41
354.797	315.23
355.179	327.43
355.562	311.62
355.944	325.63
356.326	321.79
356.709	315.68
357.091	314.78
357.473	329.69
357.855	322.69
358.238	330.37
358.62	343.71
359.002	349.58
359.384	334.21
359.766	336.47
360.148	322.01
360.53	335.8
360.912	348.45
361.294	326.08
361.676	323.59
362.057	331.28
362.439	318.62
362.821	316.81
363.203	330.37
363.584	301.22
363.966	325.63
364.348	328.34
364.729	330.82
365.111	306.19
365.493	323.82
365.874	321.33
366.256	328.11
366.637	341.22
367.019	318.85
367.4	310.03
367.781	323.14
368.163	324.72
368.544	302.12
368.925	331.28
369.306	326.3
369.688	305.74
370.069	297.15
370.45	306.64
370.831	308.23
371.212	298.96
371.593	306.19
371.974	315.91
372.355	303.71
372.736	303.25
373.117	302.35
373.498	319.3
373.879	317.49
374.26	322.01
374.641	315.01
375.021	324.05
375.402	320.88
375.783	315.23
376.163	322.01
376.544	333.31
376.925	313.65
377.305	355.91
377.686	319.53
378.066	312.52
378.447	319.53
378.827	314.1
379.208	333.99
379.588	309.36
379.968	322.46
380.349	307.55
380.729	323.59
381.109	332.63
381.489	337.38
381.87	320.88
382.25	350.26
382.63	317.72
383.01	340.32
383.39	333.54
383.77	327.21
384.15	346.64
384.53	325.4
384.91	323.59
385.29	329.47
385.67	331.05
386.049	341.22
386.429	337.6
386.809	348
387.189	345.06
387.568	329.47
387.948	350.71
388.328	336.7
388.707	345.29
389.087	353.87
389.466	357.94
389.846	350.03
390.225	337.38
390.605	350.03
390.984	347.1
391.363	337.38
391.743	351.39
392.122	353.65
392.501	363.14
392.881	346.87
393.26	371.28
393.639	363.14
394.018	353.87
394.397	376.7
394.776	355.91
395.155	382.8
395.534	370.6
395.913	379.86
396.292	356.81
396.671	345.74
397.05	381.22
397.429	391.16
397.808	350.03
398.186	380.54
398.565	371.05
398.944	379.64
399.323	378.28
399.701	382.12
400.08	402.01
400.458	382.35
400.837	378.06
401.215	371.73
401.594	392.07
401.972	398.85
402.351	397.26
402.729	394.33
403.107	392.97
403.486	381.22
403.864	406.75
404.242	393.87
404.62	379.64
404.999	407.88
405.377	396.13
405.755	387.55
406.133	403.59
406.511	410.37
406.889	395
407.267	404.04
407.645	400.65
408.023	408.11
408.401	401.33
408.779	411.95
409.156	419.18
409.534	423.25
409.912	424.38
410.29	427.32
410.667	421.22
411.045	441.33
411.422	455.34
411.8	437.49
412.178	442.01
412.555	445.85
412.933	438.84
413.31	449.24
413.687	439.97
414.065	446.53
414.442	456.92
414.819	457.37
415.197	452.86
415.574	458.05
415.951	449.24
416.328	480.65
416.705	489.69
417.082	468.9
417.46	470.03
417.837	466.87
418.214	467.32
418.591	501.44
418.967	484.04
419.344	472.29
419.721	483.81
420.098	473.87
420.475	475.45
420.852	483.36
421.228	486.07
421.605	484.72
421.982	510.93
422.358	509.13
422.735	509.58
423.111	506.64
423.488	503.25
423.864	505.28
424.241	531.72
424.617	517.49
424.994	525.85
425.37	530.59
425.746	538.73
426.123	526.98
426.499	536.47
426.875	533.31
427.251	560.2
427.627	537.15
428.003	545.28
428.379	547.32
428.756	521.78
429.132	552.06
429.507	565.17
429.883	557.71
430.259	563.36
430.635	579.63
431.011	543.02
431.387	593.42
431.763	573.3
432.138	587.99
432.514	597.48
432.89	567.2
433.265	579.41
433.641	578.95
434.016	604.49
434.392	600.65
434.767	625.73
435.143	630.7
435.518	616.47
435.894	612.85
436.269	621.44
436.644	620.08
437.02	640.65
437.395	667.31
437.77	650.82
438.145	652.17
438.52	641.1
438.895	668.22
439.271	661.21
439.646	661.66
440.021	669.12
440.395	673.87
440.77	699.4
441.145	678.39
441.52	665.96
441.895	686.75
442.27	691.04
442.645	679.06
443.019	710.93
443.394	683.13
443.769	690.82
444.143	722.23
444.518	720.42
444.892	693.98
445.267	716.35
445.641	739.4
446.016	738.72
446.39	730.81
446.764	740.08
447.139	710.93
447.513	751.83
447.887	757.93
448.262	758.16
448.636	743.24
449.01	766.07
449.384	755.67
449.758	775.56
450.132	781.21
450.506	778.95
450.88	780.76
451.254	786.41
451.628	805.39
452.002	823.69
452.376	806.07
452.75	816.24
453.123	783.47
453.497	811.94
453.871	836.8
454.244	848.1
454.618	853.07
454.992	845.16
455.365	822.56
455.739	888.1
456.112	890.36
456.486	878.15
456.859	894.2
457.232	887.42
457.606	900.3
457.979	916.57
458.352	912.5
458.725	929.23
459.099	941.88
459.472	972.16
459.845	977.59
460.218	955.67
460.591	984.82
460.964	982.33
461.337	1015.33
461.71	1032.05
462.083	1049.9
462.456	1048.77
462.829	1040.18
463.201	1068.88
463.574	1078.83
463.947	1102.78
464.32	1111.14
464.692	1103.01
465.065	1111.82
465.438	1168.32
465.81	1197.02
466.183	1177.81
466.555	1199.5
466.928	1195.66
467.3	1216
467.672	1266.17
468.045	1293.29
468.417	1257.81
468.789	1287.41
469.161	1310.69
469.534	1333.96
469.906	1375.32
470.278	1388.42
470.65	1397.24
471.022	1392.27
471.394	1438.82
471.766	1466.16
472.138	1468.42
472.51	1526.73
472.882	1591.36
473.253	1586.61
473.625	1629.32
473.997	1647.17
474.369	1685.59
474.74	1742.99
475.112	1761.52
475.484	1789.32
475.855	1856.66
476.227	1886.26
476.598	1927.17
476.97	1971.69
477.341	2057.33
477.713	2098.01
478.084	2090.33
478.455	2201.74
478.827	2239.25
479.198	2355.18
479.569	2361.51
479.94	2469.53
480.311	2512.91
480.682	2588.39
481.053	2677.2
481.424	2754.72
481.795	2808.73
482.166	2859.12
482.537	2989.96
482.908	3085.55
483.279	3152.22
483.65	3215.27
484.021	3354.93
484.391	3408.48
484.762	3533.23
485.133	3587.24
485.503	3665.88
485.874	3806.21
486.244	3884.63
486.615	4022.03
486.985	4126.88
487.356	4257.73
487.726	4359.19
488.097	4497.04
488.467	4585.85
488.837	4712.86
489.207	4822.46
489.578	4970.93
489.948	5085.05
490.318	5241.88
490.688	5357.13
491.058	5483.23
491.428	5651.36
491.798	5730.46
492.168	5987.4
492.538	5992.82
492.908	6143.1
493.278	6325.02
493.648	6419.7
494.017	6614.73
494.387	6731.33
494.757	6842.97
495.126	7007.71
495.496	7038.44
495.866	7190.98
496.235	7347.82
496.605	7520.47
496.974	7693.79
497.344	7773.11
497.713	7943.51
498.082	8081.13
498.452	8128.36
498.821	8309.82
499.19	8466.43
499.559	8601.12
499.928	8695.12
500.298	8838.17
500.667	9000.88
501.036	9040.43
501.405	9241.55
501.774	9233.64
502.143	9337.14
502.512	9552.96
502.88	9664.36
503.249	9742.1
503.618	9885.38
503.987	10054.18
504.356	10092.83
504.724	10240.62
505.093	10291.69
505.462	10451.46
505.83	10574.4
506.199	10688.74
506.567	10848.29
506.936	10913.6
507.304	11036.08
507.672	11189.97
508.041	11301.38
508.409	11362.85
508.777	11403.53
509.145	11641.49
509.514	11684.65
509.882	11825.89
510.25	11883.52
510.618	12029.73
510.986	12083.96
511.354	12211.42
511.722	12295.71
512.09	12495.48
512.458	12480.34
512.826	12680.56
513.193	12719.2
513.561	12740.89
513.929	12908.57
514.297	13005.75
514.664	13068.79
515.032	13145.85
515.4	13304.04
515.767	13432.18
516.135	13452.97
516.502	13437.6
516.869	13735.67
517.237	13678.27
517.604	13689.8
517.972	13875.33
518.339	13972.05
518.706	14028.09
519.073	14082.1
519.44	14226.5
519.808	14368.87
520.175	14406.39
520.542	14563.44
520.909	14602.99
521.276	14641.18
521.643	14794.63
522.009	14836.21
522.376	14911.91
522.743	15023.77
523.11	15150.55
523.477	15301.96
523.843	15334.05
524.21	15555.74
524.577	15612.23
524.943	15595.96
525.31	15768.16
525.676	15928.83
526.043	15972.22
526.409	15988.94
526.776	16119.79
527.142	16186.68
527.508	16215.83
527.874	16343.28
528.241	16515.26
528.607	16492.21
528.973	16672.32
529.339	16563.17
529.705	16698.76
530.071	16842.25
530.437	16916.38
530.803	16976.49
531.169	17008.35
531.535	16953.44
531.901	17093.32
532.267	17124.51
532.632	17209.48
532.998	17181.91
533.364	17313.2
533.73	17270.94
534.095	17459.87
534.461	17514.55
534.826	17515.91
535.192	17522.69
535.557	17650.82
535.923	17545.29
536.288	17770.14
536.653	17777.6
537.019	17641.33
537.384	17789.12
537.749	17823.92
538.114	17816.69
538.479	17858.05
538.845	17902.34
539.21	17820.08
539.575	17897.59
539.94	17873.87
540.305	18023.69
540.67	17967.42
541.034	17985.73
541.399	18135.1
541.764	17976.69
542.129	18131.26
542.494	18088.55
542.858	18133.07
543.223	18177.81
543.587	18301.43
543.952	18205.38
544.316	18244.48
544.681	18222.78
545.045	18194.31
545.41	18274.53
545.774	18320.41
546.138	18361.31
546.503	18254.42
546.867	18282.89
547.231	18512.49
547.595	18417.58
547.959	18502.78
548.324	18452.83
548.688	18393.17
549.052	18461.42
549.416	18512.95
549.779	18454.19
550.143	18576.45
550.507	18662.77
550.871	18650.12
551.235	18588.2
551.599	18776.67
551.962	18707.52
552.326	18714.52
552.689	18701.19
553.053	18681.53
553.417	18747.06
553.78	18971.92
554.143	18872.26
554.507	18882.65
554.87	18947.96
555.234	18978.02
555.597	18895.53
555.96	18910.22
556.323	18994.06
556.686	19114.74
557.05	19201.74
557.413	19151.35
557.776	19218.24
558.139	19224.34
558.502	19304.34
558.865	19396.54
559.228	19411.68
559.59	19489.87
559.953	19458.68
560.316	19672.69
560.679	19563.54
561.041	19683.54
561.404	19764.21
561.767	19800.37
562.129	19697.77
562.492	19912.91
562.854	19940.93
563.217	19907.49
563.579	19919.01
563.941	20213.69
564.304	20263.41
564.666	20209.85
565.028	20230.19
565.39	20276.29
565.753	20316.97
566.115	20449.39
566.477	20413.46
566.839	20534.59
567.201	20596.05
567.563	20563.06
567.925	20747.46
568.287	20711.76
568.648	20792.89
569.01	20832.88
569.372	21010.51
569.734	20893.67
570.095	21023.16
570.457	21096.15
570.819	21068.13
571.18	21054.12
571.542	21179.54
571.903	21250.5
572.265	21321.01
572.626	21375.24
572.987	21315.13
573.349	21427.22
573.71	21374.57
574.071	21533.66
574.432	21592.64
574.794	21675.35
575.155	21588.12
575.516	21594.67
575.877	21709.47
576.238	21691.84
576.599	21880.54
576.96	21749.7
577.32	21785.4
577.681	21877.6
578.042	21815.68
578.403	21915.34
578.763	21968.45
579.124	21955.11
579.485	21957.37
579.845	22091.61
580.206	22059.97
580.566	21989.69
580.927	22071.95
581.287	22175.45
581.648	22080.31
582.008	22133.64
582.368	22100.42
582.728	22209.12
583.089	22061.78
583.449	22018.39
583.809	22183.81
584.169	22147.65
584.529	22168.44
584.889	22273.98
585.249	22146.97
585.609	22173.41
585.969	22193.98
586.329	22097.94
586.688	22266.29
587.048	22148.1
587.408	22091.38
587.768	22184.71
588.127	22206.63
588.487	22083.47
588.846	22152.62
589.206	22128.22
589.565	22085.28
589.925	22255.67
590.284	22169.12
590.643	22116.24
591.003	22219.74
591.362	22234.88
591.721	22180.42
592.08	22228.78
592.44	22283.47
592.799	22170.25
593.158	22242.56
593.517	22250.93
593.876	22209.35
594.235	22117.82
594.593	22154.88
594.952	22331.6
595.311	22209.12
595.67	22294.09
596.029	22293.64
596.387	22310.81
596.746	22324.14
597.104	22268.78
597.463	22260.87
597.822	22324.14
598.18	22221.32
598.538	22252.51
598.897	22370.92
599.255	22196.46
599.613	22446.63
599.972	22282.11
600.33	22356.46
600.688	22279.17
601.046	22405.27
601.404	22433.07
601.762	22402.11
602.12	22454.76
602.478	22452.73
602.836	22589.22
603.194	22566.85
603.552	22590.35
603.91	22368.89
604.268	22640.52
604.625	22536.34
604.983	22491.37
605.341	22452.73
605.698	22568.21
606.056	22561.88
606.413	22556.68
606.771	22715.77
607.128	22686.62
607.485	22685.94
607.843	22562.56
608.2	22696.11
608.557	22887.07
608.914	22727.98
609.272	22842.78
609.629	22927.97
609.986	22971.59
610.343	22839.61
610.7	22992.15
611.057	22829.89
611.414	22944.02
611.771	23032.6
612.127	23119.15
612.484	23110.79
612.841	23169.32
613.198	22956.67
613.554	23109.43
613.911	23180.62
614.267	23186.95
614.624	23120.73
614.98	23321.18
615.337	23462.65
615.693	23375.42
616.05	23344.23
616.406	23491.12
616.762	23347.39
617.118	23373.83
617.475	23411.8
617.831	23490.67
618.187	23483.89
618.543	23485.24
618.899	23664
619.255	23565.24
619.611	23574.96
619.967	23543.55
620.323	23703.09
620.678	23652.25
621.034	23508.07
621.39	23617.67
621.746	23569.31
622.101	23841.17
622.457	23673.26
622.812	23721.17
623.168	23718.01
623.523	23824.44
623.879	23864.44
624.234	23736.99
624.589	23826.93
624.945	23843.88
625.3	23869.19
625.655	23818.79
626.01	23843.88
626.365	23860.15
626.72	23786.03
627.075	23718.46
627.43	23736.76
627.785	23757.55
628.14	23764.56
628.495	23810.66
628.85	23698.8
629.205	23670.55
629.559	23853.82
629.914	23682.75
630.269	23918.68
630.623	23615.41
630.978	23672.13
631.332	23796.87
631.687	23820.15
632.041	23738.8
632.396	23785.12
632.75	23684.79
633.104	23693.83
633.459	23589.2
633.813	23597.78
634.167	23649.76
634.521	23515.75
634.875	23606.14
635.229	23598.24
635.583	23414.74
635.937	23522.31
636.291	23517.56
636.645	23489.31
636.999	23388.98
637.352	23504.9
637.706	23338.58
638.06	23352.82
638.413	23413.16
638.767	23336.77
639.121	23306.04
639.474	23288.19
639.828	23260.84
640.181	23238.02
640.534	23297.45
640.888	23049.78
641.241	23155.54
641.594	23128.42
641.947	23217.45
642.301	23154.63
642.654	23173.16
643.007	23266.94
643.36	23124.35
643.713	23120.28
644.066	23193.5
644.419	23041.41
644.771	22907.63
645.124	22741.31
645.477	22599.62
645.83	22548.32
646.182	22453.41
646.535	22346.74
646.888	22344.26
647.24	22309
647.593	22382.9
647.945	22329.79
648.298	22282.79
648.65	22236.46
649.002	22148.56
649.355	22279.85
649.707	22250.02
650.059	22314.65
650.411	22567.75
650.763	22545.83
651.115	22894.07
651.467	22772.04
651.819	22828.31
652.171	22807.52
652.523	22807.97
652.875	22726.17
653.227	22527.76
653.578	22830.8
653.93	22764.81
654.282	22614.98
654.633	22542.67
654.985	22588.32
655.337	22615.66
655.688	22697.02
656.039	22729.11
656.391	22527.08
656.742	22561.43
657.094	22612.72
657.445	22732.27
657.796	22666.51
658.147	22527.98
658.498	22511.48
658.849	22669.9
659.2	22576.34
659.551	22548.32
659.902	22727.98
660.253	22624.93
660.604	22610.69
660.955	22621.09
661.306	22562.1
661.656	22585.61
662.007	22594.42
662.358	22683.23
662.708	22741.99
663.059	22671.48
663.409	22433.75
663.76	22625.38
664.11	22626.51
664.461	22696.11
664.811	22661.08
665.161	22578.6
665.511	22538.6
665.862	22567.98
666.212	22717.13
666.562	22645.72
666.912	22612.95
667.262	22506.06
667.612	22611.37
667.962	22684.14
668.312	22649.11
668.662	22657.47
669.011	22621.54
669.361	22651.59
669.711	22509.45
670.06	22555.55
670.41	22437.14
670.76	22485.27
671.109	22539.73
671.459	22422.22
671.808	22492.05
672.157	22532.73
672.507	22343.13
672.856	22418.15
673.205	22289.12
673.554	22426.74
673.904	22385.39
674.253	22508.55
674.602	22404.82
674.951	22123.92
675.3	21965.28
675.649	22299.06
675.998	22314.43
676.346	22269.91
676.695	22372.28
677.044	22114.21
677.393	22218.16
677.741	22304.71
678.09	22195.11
678.438	22115.11
678.787	22226.97
679.135	22260.87
679.484	21967.09
679.832	22069.01
680.181	21998.28
680.529	22098.84
680.877	21960.76
681.225	22070.14
681.573	22094.77
681.922	21935.68
682.27	21860.65
682.618	21876.02
682.966	21840.09
683.314	21805.74
683.661	21813.2
684.009	21694.56
684.357	21580.66
684.705	21474.9
685.053	21702.92
685.4	21685.74
685.748	21495.24
686.095	21397.62
686.443	21309.03
686.79	21329.59
687.138	21280.78
687.485	21343.61
687.832	21308.58
688.18	21274.45
688.527	21204.4
688.874	21213.21
689.221	21097.96
689.568	21028.13
689.915	21000.56
690.262	20900.45
690.609	20904.29
690.956	20803.96
691.303	20801.92
691.65	20747.24
691.997	20799.21
692.344	20601.03
692.69	20648.93
693.037	20644.87
693.383	20443.06
693.73	20519.22
694.077	20308.6
694.423	20288.27
694.769	20180.25
695.116	20200.13
695.462	20075.84
695.808	20039.91
696.155	20133.02
696.501	19822.06
696.847	19905.45
697.193	19738.45
697.539	19857.99
697.885	19650.77
698.231	19604.22
698.577	19633.14
698.923	19532.81
699.269	19448.97
699.614	19370.78
699.96	19318.8
700.306	19353.15
700.651	19119.94
700.997	19127.17
701.342	19074.51
701.688	19064.57
702.033	19006.49
702.379	18999.49
702.724	18944.8
703.069	18912.26
703.415	18734.86
703.76	18743.45
704.105	18721.75
704.45	18673.39
704.795	18560.18
705.14	18562.66
705.485	18557.24
705.83	18491.03
706.175	18390.01
706.52	18349.11
706.865	18322.67
707.209	18267.08
707.554	18228.66
707.899	18191.37
708.243	18085.61
708.588	18117.25
708.932	17973.75
709.277	17900.98
709.621	17970.36
709.966	17800.87
710.31	17844.71
710.654	17669.13
710.998	17714.32
711.342	17761.33
711.687	17709.35
712.031	17603.82
712.375	17534.44
712.719	17540.99
713.063	17410.38
713.407	17521.56
713.75	17398.17
714.094	17467.1
714.438	17302.58
714.782	17391.84
715.125	17226.65
715.469	17357.72
715.812	17150.72
716.156	17142.59
716.499	17168.8
716.843	17176.94
717.186	17036.15
717.53	17207.67
717.873	17154.79
718.216	17104.17
718.559	16940.56
718.902	16915.25
719.246	16937.17
719.589	16861.01
719.932	16796.15
720.275	16818.98
720.617	16826.44
720.96	16762.03
721.303	16843.16
721.646	16756.16
721.989	16701.47
722.331	16686.78
722.674	16661.92
723.016	16701.24
723.359	16634.12
723.701	16559.78
724.044	16529.49
724.386	16369.95
724.729	16510.29
725.071	16430.51
725.413	16409.72
725.755	16431.19
726.097	16374.47
726.439	16282.27
726.782	16369.72
727.124	16455.82
727.465	16278.88
727.807	16289.28
728.149	16319.56
728.491	16231.88
728.833	16335.38
729.175	16324.53
729.516	16161.14
729.858	16213.12
730.199	16265.32
730.541	16142.39
730.882	16216.51
731.224	16218.54
731.565	16106.46
731.906	16148.26
732.248	16106.23
732.589	16021.94
732.93	16011.09
733.271	16026.46
733.612	16091.09
733.953	16131.77
734.294	15936.06
734.635	15998.89
734.976	16059.68
735.317	15915.73
735.658	15962.05
735.999	15924.76
736.339	15967.25
736.68	15995.27
737.021	15964.31
737.361	15940.36
737.702	15962.28
738.042	15921.83
738.383	15927.25
738.723	15896.07
739.063	15963.86
739.404	15930.19
739.744	15887.93
740.084	15849.74
740.424	15855.39
740.764	15846.35
741.104	15939.23
741.444	15763.41
741.784	15811.32
742.124	15863.75
742.464	15884.31
742.804	15859.68
743.143	15848.61
743.483	15887.48
743.823	15876.86
744.162	15831.89
744.502	15949.85
744.841	15796.63
745.181	15921.6
745.52	15876.4
745.86	15987.14
746.199	16004.54
746.538	15930.19
746.877	16060.13
747.216	16095.16
747.556	16021.71
747.895	16142.39
748.234	16105.55
748.573	16113.69
748.911	16021.71
749.25	16171.31
749.589	16153.46
749.928	16250.86
750.267	16300.8
750.605	16208.83
750.944	16360.91
751.283	16338.31
751.621	16504.18
751.96	16377.18
752.298	16489.04
752.636	16564.97
752.975	16539.21
753.313	16548.7
753.651	16690.62
753.989	16738.3
754.327	16795.93
754.666	16798.64
755.004	16945.98
755.342	17035.24
755.679	17043.38
756.017	16999.76
756.355	17299.64
