Data from hue_160_FLMS001491_00027.txt Node
Date: Tue Feb 07 16:50:58 GMT 2017
User: dcchb
Spectrometer: FLMS00149
Trigger mode: 0
Integration Time (sec): 2.000000E-2
Scans to average: 10
Electric dark correction enabled: true
Nonlinearity correction enabled: false
Boxcar width: 0
XAxis mode: Wavelengths
Number of Pixels in Spectrum: 2048
>>>>>Begin Spectral Data<<<<<
341.393	-21.95
341.776	-21.95
342.16	-21.95
342.543	-75.51
342.927	-70.76
343.31	-57.2
343.693	-72.79
344.077	-80.93
344.46	-60.82
344.843	-51.78
345.226	-43.64
345.61	-35.73
345.993	-29.18
346.376	-7.03
346.759	6.07
347.142	32.29
347.525	45.85
347.908	79.29
348.291	75.22
348.674	91.95
349.057	108.44
349.44	110.48
349.823	151.83
350.206	136.69
350.588	206.29
350.971	187.31
351.354	237.03
351.737	232.51
352.119	256.24
352.502	243.81
352.884	266.63
353.267	281.77
353.65	280.87
354.032	294.88
354.414	325.39
354.797	300.08
355.179	320.64
355.562	325.39
355.944	323.58
356.326	332.62
356.709	323.58
357.091	333.07
357.473	334.2
357.855	329
358.238	358.61
358.62	322.45
359.002	346.63
359.384	346.4
359.766	332.62
360.148	344.82
360.53	323.35
360.912	335.33
361.294	308.44
361.676	331.04
362.057	324.93
362.439	327.42
362.821	306.18
363.203	309.79
363.584	321.77
363.966	319.06
364.348	324.03
364.729	308.89
365.111	319.51
365.493	300.98
365.874	300.75
366.256	323.13
366.637	312.05
367.019	303.24
367.4	324.03
367.781	321.77
368.163	327.42
368.544	302.79
368.925	319.51
369.306	298.27
369.688	315.67
370.069	310.02
370.45	315.9
370.831	300.08
371.212	308.66
371.593	294.88
371.974	317.03
372.355	299.4
372.736	298.04
373.117	314.31
373.498	299.17
373.879	317.25
374.26	322.68
374.641	336.23
375.021	324.26
375.402	315.67
375.783	310.92
376.163	332.84
376.544	314.77
376.925	319.51
377.305	340.3
377.686	303.92
378.066	314.77
378.447	333.07
378.827	309.57
379.208	326.97
379.588	318.61
379.968	337.36
380.349	317.48
380.729	318.38
381.109	327.65
381.489	332.62
381.87	345.05
382.25	339.17
382.63	357.25
383.01	345.27
383.39	336.91
383.77	340.53
384.15	354.31
384.53	338.49
384.91	333.07
385.29	350.7
385.67	350.02
386.049	344.82
386.429	334.65
386.809	347.08
387.189	367.19
387.568	343.01
387.948	338.04
388.328	341.43
388.707	344.37
389.087	361.32
389.466	353.63
389.846	361.32
390.225	360.64
390.605	370.36
390.984	368.1
391.363	345.5
391.743	365.16
392.122	360.19
392.501	360.19
392.881	382.11
393.26	377.59
393.639	365.61
394.018	366.29
394.397	352.5
394.776	371.26
395.155	346.4
395.534	376.69
395.913	372.17
396.292	365.61
396.671	380.98
397.05	379.62
397.429	389.79
397.808	401.77
398.186	396.12
398.565	362.67
398.944	374.2
399.323	380.53
399.701	403.35
400.08	383.01
400.458	385.72
400.837	382.56
401.215	402.9
401.594	411.94
401.972	398.15
402.351	409.9
402.729	397.48
403.107	394.31
403.486	395.89
403.864	429.11
404.242	404.48
404.62	402
404.999	415.1
405.377	421.43
405.755	409.68
406.133	411.26
406.511	404.71
406.889	440.64
407.267	426.63
407.645	426.4
408.023	443.8
408.401	440.86
408.779	431.37
409.156	454.2
409.534	418.04
409.912	445.16
410.29	435.89
410.667	477.02
411.045	442.45
411.422	449.9
411.8	462.78
412.178	490.35
412.555	482.9
412.933	467.53
413.31	470.47
413.687	481.54
414.065	493.52
414.442	500.52
414.819	471.37
415.197	508.21
415.574	492.16
415.951	500.75
416.328	498.49
416.705	498.26
417.082	501.65
417.46	504.82
417.837	525.38
418.214	521.31
418.591	513.63
418.967	512.27
419.344	521.99
419.721	511.6
420.098	545.72
420.475	539.62
420.852	540.97
421.228	551.14
421.605	541.88
421.982	557.25
422.358	573.29
422.735	549.79
423.111	539.39
423.488	553.4
423.864	573.74
424.241	595.21
424.617	553.86
424.994	580.07
425.37	588.88
425.746	569.45
426.123	584.82
426.499	613.06
426.875	604.02
427.251	612.84
427.627	622.55
428.003	618.94
428.379	614.19
428.756	628.2
429.132	623.23
429.507	636.34
429.883	644.02
430.259	666.62
430.635	641.31
431.011	621.2
431.387	658.26
431.763	664.81
432.138	673.4
432.514	656.45
432.89	648.99
433.265	695.09
433.641	691.93
434.016	717.47
434.392	720.18
434.767	743.68
435.143	731.93
435.518	730.35
435.894	748.43
436.269	732.61
436.644	748.43
437.02	755.43
437.395	769.9
437.77	780.06
438.145	776
438.52	791.82
438.895	798.14
439.271	816
439.646	809.22
440.021	813.96
440.395	805.15
440.77	817.58
441.145	840.63
441.52	825.26
441.895	836.79
442.27	839.5
442.645	869.33
443.019	840.85
443.394	839.27
443.769	861.64
444.143	864.36
444.518	904.58
444.892	881.3
445.267	888.76
445.641	898.71
446.016	906.16
446.39	903.22
446.764	911.81
447.139	897.58
447.513	927.63
447.887	928.53
448.262	898.48
448.636	944.13
449.01	943.9
449.384	949.1
449.758	968.31
450.132	972.83
450.506	1004.92
450.88	998.14
451.254	999.72
451.628	1004.92
452.002	1039.94
452.376	1026.84
452.75	1041.53
453.123	1019.38
453.497	1035.88
453.871	1051.7
454.244	1083.79
454.618	1090.56
454.992	1129.43
455.365	1105.03
455.739	1125.82
456.112	1134.41
456.486	1103.22
456.859	1131.47
457.232	1183.22
457.606	1184.57
457.979	1204.23
458.352	1205.36
458.725	1225.48
459.099	1249.66
459.472	1237.68
459.845	1278.58
460.218	1264.8
460.591	1279.49
460.964	1326.04
461.337	1352.48
461.71	1352.7
462.083	1375.98
462.456	1398.13
462.829	1406.04
463.201	1377.11
463.574	1401.52
463.947	1463.44
464.32	1484.23
464.692	1490.1
465.065	1497.11
465.438	1524
465.81	1527.16
466.183	1565.13
466.555	1613.04
466.928	1616.43
467.3	1639.02
467.672	1649.42
468.045	1703.66
468.417	1709.08
468.789	1718.57
469.161	1781.62
469.534	1806.93
469.906	1864.33
470.278	1871.33
470.65	1900.94
471.022	1939.81
471.394	1976.19
471.766	1964.44
472.138	2031.56
472.51	2078.11
472.882	2113.36
473.253	2200.82
473.625	2179.8
473.997	2250.76
474.369	2301.61
474.74	2322.17
475.112	2420.47
475.484	2484.2
475.855	2502.73
476.227	2526.01
476.598	2619.11
476.97	2660.24
477.341	2758.54
477.713	2810.07
478.084	2880.12
478.455	2971.42
478.827	2988.37
479.198	3134.35
479.569	3161.02
479.94	3235.37
480.311	3330.05
480.682	3445.53
481.053	3520.56
481.424	3586.09
481.795	3732.3
482.166	3774.34
482.537	3889.59
482.908	4049.13
483.279	4101.33
483.65	4200.09
484.021	4295.23
484.391	4372.06
484.762	4486.86
485.133	4556.01
485.503	4687.98
485.874	4802.78
486.244	4894.08
486.615	5061.53
486.985	5117.35
487.356	5309.89
487.726	5391.24
488.097	5542.2
488.467	5634.17
488.837	5847.73
489.207	5880.95
489.578	6013.6
489.948	6080.49
490.318	6258.11
490.688	6350.77
491.058	6557.99
491.428	6659.01
491.798	6803.41
492.168	6994.36
492.538	7047.92
492.908	7148.03
493.278	7318.65
493.648	7376.05
494.017	7480.9
494.387	7674.8
494.757	7761.8
495.126	7873.21
495.496	7972.64
495.866	8110.27
496.235	8220.77
496.605	8314.56
496.974	8361.33
497.344	8544.15
497.713	8623.7
498.082	8750.02
498.452	8857.37
498.821	9031.15
499.19	9030.92
499.559	9126.51
499.928	9190.46
500.298	9267.75
500.667	9404.24
501.036	9550.68
501.405	9606.72
501.774	9627.74
502.143	9776.66
502.512	9832.48
502.88	9869.77
503.249	9931.01
503.618	10039.93
503.987	10041.29
504.356	10161.51
504.724	10208.74
505.093	10257.56
505.462	10348.85
505.83	10442.18
506.199	10478.34
506.567	10589.52
506.936	10632.69
507.304	10825.22
507.672	10769.18
508.041	10838.33
508.409	10906.8
508.777	10971.66
509.145	11108.38
509.514	11052.79
509.882	11172.79
510.25	11210.07
510.618	11227.93
510.986	11312.89
511.354	11406
511.722	11439.22
512.09	11461.14
512.458	11497.07
512.826	11593.57
513.193	11537.97
513.561	11586.33
513.929	11655.94
514.297	11747.23
514.664	11803.73
515.032	11812.77
515.4	11855.25
515.767	11859.32
516.135	11888.47
516.502	11826.33
516.869	12035.36
517.237	11931.18
517.604	11987.45
517.972	12069.71
518.339	12134.79
518.706	12076.26
519.073	12081.01
519.44	12137.73
519.808	12216.83
520.175	12196.71
520.542	12267.9
520.909	12304.96
521.276	12279.42
521.643	12375.92
522.009	12422.24
522.376	12438.06
522.743	12439.87
523.11	12532.98
523.477	12623.82
523.843	12625.63
524.21	12657.49
524.577	12675.34
524.943	12711.28
525.31	12713.99
525.676	12795.79
526.043	12797.38
526.409	12798.96
526.776	12925.51
527.142	12877.37
527.508	12817.94
527.874	12890.03
528.241	12910.37
528.607	12866.98
528.973	12859.75
529.339	12885.96
529.705	12957.37
530.071	13034.43
530.437	13032.4
530.803	13037.14
531.169	12959.63
531.535	12966.41
531.901	12885.51
532.267	12929.12
532.632	12971.38
532.998	12920.54
533.364	12953.76
533.73	12848.67
534.095	12938.61
534.461	12909.01
534.826	12932.06
535.192	12843.02
535.557	12931.16
535.923	12787.21
536.288	12796.92
536.653	12821.1
537.019	12714.67
537.384	12770.26
537.749	12730.03
538.114	12653.42
538.479	12643.26
538.845	12644.84
539.21	12543.14
539.575	12603.03
539.94	12553.99
540.305	12582.01
540.67	12465.63
541.034	12437.38
541.399	12473.09
541.764	12425.18
542.129	12396.48
542.494	12336.82
542.858	12396.71
543.223	12261.12
543.587	12269.03
543.952	12227.67
544.316	12246.43
544.681	12225.41
545.045	12180.22
545.41	12164.62
545.774	12114.23
546.138	11991.29
546.503	12088.69
546.867	11983.16
547.231	12071.07
547.595	12003.27
547.959	11963.05
548.324	11887.12
548.688	11826.55
549.052	11788.14
549.416	11816.16
549.779	11755.37
550.143	11743.17
550.507	11712.43
550.871	11687.8
551.235	11680.34
551.599	11650.29
551.962	11666.11
552.326	11630.63
552.689	11649.61
553.053	11473.57
553.417	11552.66
553.78	11650.74
554.143	11427.92
554.507	11477.64
554.87	11520.12
555.234	11513.57
555.597	11386.34
555.96	11404.64
556.323	11415.72
556.686	11380.01
557.05	11362.84
557.413	11308.6
557.776	11317.87
558.139	11367.58
558.502	11272.67
558.865	11315.61
559.228	11387.24
559.59	11349.05
559.953	11299.56
560.316	11390.41
560.679	11328.26
561.041	11376.85
561.404	11389.73
561.767	11377.53
562.129	11280.58
562.492	11393.57
562.854	11331.2
563.217	11295.72
563.579	11355.15
563.941	11332.78
564.304	11366.23
564.666	11377.75
565.028	11369.39
565.39	11436.51
565.753	11405.1
566.115	11410.52
566.477	11389.28
566.839	11410.29
567.201	11500.91
567.563	11474.92
567.925	11509.5
568.287	11483.06
568.648	11400.8
569.01	11514.7
569.372	11476.51
569.734	11510.63
570.095	11521.48
570.457	11556.96
570.819	11584.53
571.18	11535.26
571.542	11594.24
571.903	11524.87
572.265	11634.02
572.626	11624.52
572.987	11566.67
573.349	11682.15
573.71	11688.48
574.071	11595.6
574.432	11656.39
574.794	11721.02
575.155	11668.82
575.516	11591.31
575.877	11667.69
576.238	11663.62
576.599	11685.99
576.96	11702.04
577.32	11716.05
577.681	11735.26
578.042	11732.09
578.403	11728.93
578.763	11708.82
579.124	11658.65
579.485	11763.05
579.845	11771.87
580.206	11727.8
580.566	11679.66
580.927	11692.09
581.287	11721.92
581.648	11652.32
582.008	11737.52
582.368	11628.14
582.728	11663.85
583.089	11705.43
583.449	11716.27
583.809	11685.54
584.169	11704.3
584.529	11617.07
584.889	11681.02
585.249	11552.66
585.609	11643.96
585.969	11631.98
586.329	11590.4
586.688	11614.81
587.048	11528.48
587.408	11539.78
587.768	11584.07
588.127	11574.81
588.487	11552.89
588.846	11636.05
589.206	11541.82
589.565	11504.98
589.925	11515.83
590.284	11537.97
590.643	11591.76
591.003	11534.13
591.362	11551.76
591.721	11544.98
592.08	11536.62
592.44	11549.72
592.799	11541.36
593.158	11509.5
593.517	11474.7
593.876	11484.64
594.235	11477.86
594.593	11500.01
594.952	11511.53
595.311	11454.13
595.67	11460.01
596.029	11528.48
596.387	11457.75
596.746	11475.83
597.104	11401.25
597.463	11379.56
597.822	11425.21
598.18	11349.5
598.538	11464.08
598.897	11436.28
599.255	11298.43
599.613	11509.05
599.972	11416.85
600.33	11444.42
600.688	11347.02
601.046	11480.8
601.404	11448.26
601.762	11429.5
602.12	11383.63
602.478	11485.77
602.836	11428.6
603.194	11435.38
603.552	11421.82
603.91	11375.72
604.268	11479.44
604.625	11386.34
604.983	11481.03
605.341	11397.64
605.698	11411.2
606.056	11415.94
606.413	11430.18
606.771	11469.73
607.128	11465.43
607.485	11413.68
607.843	11437.41
608.2	11467.69
608.557	11513.12
608.914	11480.12
609.272	11478.77
609.629	11450.74
609.986	11504.3
610.343	11438.32
610.7	11593.79
611.057	11454.36
611.414	11497.75
611.771	11481.25
612.127	11567.8
612.484	11556.05
612.841	11558.09
613.198	11587.92
613.554	11486.68
613.911	11634.02
614.267	11589.72
614.624	11565.09
614.98	11633.34
615.337	11670.4
615.693	11671.3
616.05	11612.77
616.406	11727.57
616.762	11624.75
617.118	11649.16
617.475	11626.33
617.831	11711.53
618.187	11729.61
618.543	11696.61
618.899	11753.11
619.255	11714.69
619.611	11772.77
619.967	11684.64
620.323	11828.36
620.678	11714.92
621.034	11764.86
621.39	11698.87
621.746	11709.95
622.101	11867.23
622.457	11734.13
622.812	11749.95
623.168	11774.8
623.523	11756.5
623.879	11780.23
624.234	11678.99
624.589	11763.28
624.945	11705.65
625.3	11781.81
625.655	11711.75
626.01	11699.55
626.365	11804.18
626.72	11766.44
627.075	11738.87
627.43	11677.18
627.785	11732.32
628.14	11772.54
628.495	11681.92
628.85	11710.62
629.205	11663.17
629.559	11795.82
629.914	11679.89
630.269	11714.92
630.623	11686.22
630.978	11665.88
631.332	11688.48
631.687	11640.8
632.041	11636.73
632.396	11634.92
632.75	11548.59
633.104	11620.68
633.459	11605.99
633.813	11531.19
634.167	11552.89
634.521	11629.04
634.875	11533.23
635.229	11536.39
635.583	11501.36
635.937	11448.03
636.291	11528.03
636.645	11493.45
636.999	11417.07
637.352	11499.78
637.706	11373.68
638.06	11442.61
638.413	11395.6
638.767	11410.29
639.121	11412.33
639.474	11316.06
639.828	11364.42
640.181	11359
640.534	11313.12
640.888	11292.56
641.241	11284.65
641.594	11315.61
641.947	11270.18
642.301	11249.85
642.654	11297.53
643.007	11265.44
643.36	11280.81
643.713	11272.67
644.066	11256.4
644.419	11210.3
644.771	11091.43
645.124	11082.39
645.477	11097.53
645.83	11020.02
646.182	10972.56
646.535	10912.68
646.888	10935.28
647.24	10812.79
647.593	10903.41
647.945	10836.75
648.298	10847.37
648.65	10857.99
649.002	10870.87
649.355	10848.73
649.707	10827.94
650.059	10946.12
650.411	11016.63
650.763	11089.62
651.115	11161.94
651.467	11115.61
651.819	11080.81
652.171	11090.75
652.523	11056.4
652.875	11110.64
653.227	11037.65
653.578	11193.35
653.93	11100.7
654.282	11069.96
654.633	11045.78
654.985	11094.6
655.337	11071.55
655.688	11089.4
656.039	11216.63
656.391	10993.36
656.742	11063.86
657.094	11086.23
657.445	11128.94
657.796	11106.35
658.147	11025.44
658.498	11095.73
658.849	11053.47
659.2	11142.28
659.551	11058.44
659.902	11095.5
660.253	11129.62
660.604	11099.79
660.955	11071.09
661.306	11155.84
661.656	11154.48
662.007	11078.78
662.358	11160.13
662.708	11112.67
663.059	11159.68
663.409	11145.67
663.76	11154.93
664.11	11148.61
664.461	11169.62
664.811	11107.7
665.161	11146.35
665.511	11147.25
665.862	11087.36
666.212	11175.5
666.562	11189.28
666.912	11132.56
667.262	11198.1
667.612	11145.89
667.962	11150.86
668.312	11123.97
668.662	11172.56
669.011	11137.31
669.361	11158.1
669.711	11134.59
670.06	11123.07
670.41	11124.43
670.76	11094.37
671.109	11166.23
671.459	11128.94
671.808	11093.24
672.157	11133.24
672.507	11099.11
672.856	11119.23
673.205	11134.37
673.554	11060.92
673.904	11043.07
674.253	11196.06
674.602	11065.9
674.951	10905
675.3	10859.8
675.649	11003.75
675.998	10990.42
676.346	10955.62
676.695	11081.26
677.044	10947.71
677.393	11010.76
677.741	10982.51
678.09	10947.71
678.438	10947.48
678.787	10902.06
679.135	10949.74
679.484	10889.85
679.832	10915.84
680.181	10860.7
680.529	10883.08
680.877	10814.83
681.225	10802.63
681.573	10854.6
681.922	10711.33
682.27	10778.9
682.618	10761.04
682.966	10716.07
683.314	10754.72
683.661	10760.82
684.009	10693.93
684.357	10649.86
684.705	10658.45
685.053	10647.38
685.4	10608.73
685.748	10567.83
686.095	10480.15
686.443	10516.31
686.79	10440.6
687.138	10505.68
687.485	10454.16
687.832	10458
688.18	10428.17
688.527	10388.63
688.874	10399.92
689.221	10324.67
689.568	10293.94
689.915	10279.7
690.262	10321.51
690.609	10248.52
690.956	10158.57
691.303	10177.56
691.65	10114.06
691.997	10036.32
692.344	10055.07
692.69	10002.42
693.037	10019.14
693.383	9923.55
693.73	9968.98
694.077	9916.77
694.423	9871.12
694.769	9858.02
695.116	9813.27
695.462	9836.32
695.808	9810.56
696.155	9714.07
696.501	9655.09
696.847	9719.04
697.193	9621.19
697.539	9606.5
697.885	9564.92
698.231	9528.99
698.577	9535.54
698.923	9487.86
699.269	9444.47
699.614	9385.71
699.96	9371.48
700.306	9340.74
700.651	9316.34
700.997	9202.89
701.342	9277.02
701.688	9239.28
702.033	9174.42
702.379	9144.36
702.724	9143.23
703.069	9136.91
703.415	9041.09
703.76	9014.2
704.105	8983.24
704.45	8973.07
704.795	8920.19
705.14	8914.31
705.485	8880.19
705.83	8869.34
706.175	8796.12
706.52	8783.24
706.865	8747.76
707.209	8712.29
707.554	8657.15
707.899	8722.23
708.243	8656.24
708.588	8642.91
708.932	8588.22
709.277	8622.34
709.621	8626.64
709.966	8533.76
710.31	8566.3
710.654	8510.93
710.998	8504.38
711.342	8442.01
711.687	8415.57
712.031	8443.82
712.375	8413.31
712.719	8452.4
713.063	8395.01
713.407	8409.47
713.75	8361.56
714.094	8336.25
714.438	8306.19
714.782	8313.65
715.125	8336.48
715.469	8261.68
715.812	8302.13
716.156	8270.71
716.499	8250.83
716.843	8237.95
717.186	8209.47
717.53	8234.11
717.873	8188.23
718.216	8201.79
718.559	8199.08
718.902	8117.27
719.246	8077.95
719.589	8138.97
719.932	8131.51
720.275	8139.64
720.617	8123.15
720.96	8060.55
721.303	8095.13
721.646	8104.17
721.989	8016.71
722.331	8033.66
722.674	7981.46
723.016	8028.91
723.359	8048.8
723.701	8034.34
724.044	8013.32
724.386	7938.29
724.729	7985.52
725.071	8041.79
725.413	8023.72
725.755	7918.86
726.097	7932.19
726.439	7943.72
726.782	7923.83
727.124	7930.61
727.465	7913.66
727.807	7905.07
728.149	7842.03
728.491	7901.23
728.833	7944.85
729.175	7858.75
729.516	7859.65
729.858	7905.3
730.199	7845.42
730.541	7901.68
730.882	7851.29
731.224	7864.17
731.565	7860.78
731.906	7844.96
732.248	7854.23
732.589	7817.17
732.93	7855.13
733.271	7922.25
733.612	7849.48
733.953	7906.2
734.294	7814.46
734.635	7794.34
734.976	7878.41
735.317	7851.74
735.658	7803.61
735.999	7840.44
736.339	7822.59
736.68	7882.7
737.021	7885.41
737.361	7855.81
737.702	7853.1
738.042	7858.3
738.383	7838.18
738.723	7886.09
739.063	7887
739.404	7912.08
739.744	7922.02
740.084	7874.79
740.424	7913.66
740.764	7959.31
741.104	7971.97
741.444	7959.99
741.784	7992.76
742.124	8007.44
742.464	8014.9
742.804	8060.1
743.143	8070.04
743.483	8081.12
743.823	8017.61
744.162	8036.37
744.502	8111.62
744.841	8121.11
745.181	8166.76
745.52	8187.33
745.86	8258.74
746.199	8262.81
746.538	8313.65
746.877	8357.49
747.216	8366.98
747.556	8403.82
747.895	8495.79
748.234	8492.18
748.573	8580.54
748.911	8599.29
749.25	8672.29
749.589	8712.74
749.928	8761.55
750.267	8844.94
750.605	8947.31
750.944	8921.09
751.283	8973.75
751.621	9155.66
751.96	9190.46
752.298	9220.97
752.636	9397.01
752.975	9401.98
753.313	9472.94
753.651	9637.91
753.989	9722.88
754.327	9830.45
754.666	9927.17
755.004	10060.05
755.342	10203.09
755.679	10328.74
756.017	10330.1
756.355	10501.84
756.693	10604.66
757.031	10809.41
757.368	10888.72
757.706	11040.13
758.044	11109.74
758.381	11353.35
758.719	11419.78
759.056	11614.58
759.394	11725.77
759.731	11833.33
