Data from hue_180_FLMS001491_00045.txt Node
Date: Tue Feb 07 16:47:02 GMT 2017
User: dcchb
Spectrometer: FLMS00149
Trigger mode: 0
Integration Time (sec): 2.000000E-2
Scans to average: 10
Electric dark correction enabled: true
Nonlinearity correction enabled: false
Boxcar width: 0
XAxis mode: Wavelengths
Number of Pixels in Spectrum: 2048
>>>>>Begin Spectral Data<<<<<
341.393	-9.29
341.776	-9.29
342.16	-9.29
342.543	-61.5
342.927	-85.45
343.31	-73.7
343.693	-82.06
344.077	-67.6
344.46	-40.48
344.843	-58.56
345.226	-45.68
345.61	-27.15
345.993	-21.72
346.376	15.11
346.759	6.3
347.142	31.38
347.525	45.17
347.908	58.95
348.291	69.12
348.674	75.45
349.057	115.45
349.44	115.9
349.823	154.77
350.206	148.89
350.588	194.54
350.971	200.42
351.354	222.11
351.737	209.23
352.119	258.72
352.502	237.93
352.884	276.8
353.267	265.73
353.65	275.9
354.032	281.77
354.414	321.09
354.797	293.52
355.179	297.82
355.562	333.75
355.944	337.82
356.326	326.97
356.709	326.97
357.091	333.52
357.473	323.13
357.855	329.68
358.238	326.97
358.62	342.11
359.002	336.69
359.384	348.44
359.766	345.73
360.148	335.1
360.53	336.69
360.912	334.43
361.294	324.71
361.676	338.72
362.057	320.87
362.439	314.99
362.821	319.74
363.203	289.68
363.584	311.6
363.966	307.76
364.348	317.25
364.729	313.86
365.111	322.22
365.493	298.49
365.874	286.29
366.256	300.08
366.637	293.52
367.019	310.92
367.4	312.96
367.781	319.74
368.163	300.53
368.544	313.86
368.925	294.65
369.306	290.59
369.688	300.53
370.069	304.37
370.45	293.75
370.831	300.75
371.212	317.25
371.593	308.66
371.974	312.96
372.355	321.55
372.736	315.9
373.117	315.9
373.498	329.91
373.879	315.67
374.26	299.62
374.641	296.01
375.021	300.53
375.402	312.51
375.783	301.21
376.163	309.57
376.544	338.04
376.925	316.35
377.305	325.16
377.686	317.7
378.066	297.59
378.447	331.04
378.827	321.32
379.208	322.45
379.588	324.71
379.968	310.92
380.349	316.8
380.729	323.81
381.109	334.88
381.489	305.27
381.87	307.99
382.25	321.09
382.63	339.4
383.01	345.73
383.39	336.91
383.77	328.32
384.15	325.16
384.53	353.41
384.91	339.17
385.29	336.46
385.67	339.62
386.049	353.86
386.429	331.49
386.809	333.97
387.189	356.12
387.568	343.92
387.948	347.08
388.328	352.5
388.707	347.76
389.087	339.85
389.466	363.35
389.846	350.92
390.225	373.75
390.605	356.8
390.984	357.25
391.363	367.19
391.743	348.44
392.122	381.66
392.501	372.62
392.881	386.18
393.26	372.84
393.639	356.12
394.018	367.65
394.397	396.57
394.776	372.84
395.155	379.4
395.534	393.63
395.913	360.41
396.292	393.18
396.671	397.7
397.05	388.44
397.429	378.72
397.808	388.66
398.186	385.95
398.565	376.91
398.944	388.44
399.323	375.1
399.701	381.66
400.08	400.19
400.458	397.7
400.837	386.85
401.215	404.71
401.594	388.89
401.972	381.66
402.351	417.14
402.729	409.68
403.107	424.82
403.486	432.05
403.864	408.32
404.242	427.76
404.62	426.4
404.999	446.97
405.377	431.6
405.755	442.9
406.133	439.28
406.511	424.14
406.889	468.21
407.267	465.27
407.645	466.85
408.023	473.86
408.401	449.23
408.779	464.59
409.156	474.76
409.534	485.38
409.912	494.65
410.29	496
410.667	508.66
411.045	500.3
411.422	521.31
411.8	521.09
412.178	518.38
412.555	547.98
412.933	539.84
413.31	563.8
413.687	557.92
414.065	570.58
414.442	586.17
414.819	599.5
415.197	597.92
415.574	587.75
415.951	610.35
416.328	594.53
416.705	626.62
417.082	593.4
417.46	603.35
417.837	635.44
418.214	626.62
418.591	657.13
418.967	646.96
419.344	674.98
419.721	655.32
420.098	652.84
420.475	688.32
420.852	673.85
421.228	696.68
421.605	681.76
421.982	692.83
422.358	720.4
422.735	731.93
423.111	759.27
423.488	756.79
423.864	774.41
424.241	780.97
424.617	798.82
424.994	797.24
425.37	817.35
425.746	816
426.123	824.58
426.499	847.18
426.875	832.49
427.251	863.9
427.627	847.86
428.003	874.98
428.379	909.78
428.756	880.17
429.132	897.58
429.507	920.63
429.883	939.83
430.259	947.74
430.635	974.64
431.011	942.32
431.387	982.54
431.763	979.16
432.138	1020.51
432.514	984.35
432.89	1026.84
433.265	1027.52
433.641	1055.99
434.016	1071.58
434.392	1077.68
434.767	1133.95
435.143	1140.05
435.518	1131.69
435.894	1129.21
436.269	1152.48
436.644	1215.08
437.02	1196.55
437.395	1229.77
437.77	1255.53
438.145	1262.76
438.52	1282.2
438.895	1321.29
439.271	1318.58
439.646	1358.58
440.021	1327.85
440.395	1344.12
440.77	1357.22
441.145	1388.18
441.52	1407.17
441.895	1421.63
442.27	1436.32
442.645	1444.91
443.019	1479.93
443.394	1464.11
443.769	1500.72
444.143	1497.11
444.518	1530.1
444.892	1521.06
445.267	1564.68
445.641	1555.64
446.016	1560.38
446.39	1546.82
446.764	1565.13
447.139	1597.9
447.513	1628.18
447.887	1646.03
448.262	1672.92
448.636	1630.89
449.01	1668.18
449.384	1693.26
449.758	1714.95
450.132	1730.77
450.506	1718.12
450.88	1742.07
451.254	1734.16
451.628	1749.76
452.002	1797.21
452.376	1803.77
452.75	1839.02
453.123	1841.28
453.497	1860.94
453.871	1859.58
454.244	1913.59
454.618	1944.1
454.992	1927.15
455.365	1975.06
455.739	1990.43
456.112	2044.66
456.486	2069.52
456.859	2067.26
457.232	2097.09
457.606	2108.84
457.979	2130.99
458.352	2213.92
458.725	2219.12
459.099	2203.76
459.472	2239.69
459.845	2298.67
460.218	2313.13
460.591	2317.65
460.964	2313.81
461.337	2419.57
461.71	2431.32
462.083	2517.19
462.456	2474.03
462.829	2488.95
463.201	2507.7
463.574	2568.49
463.947	2617.98
464.32	2674.7
464.692	2702.73
465.065	2697.3
465.438	2734.82
465.81	2789.5
466.183	2823.4
466.555	2858.88
466.928	2891.2
467.3	2874.47
467.672	2976.62
468.045	3063.39
468.417	3003.73
468.789	3101.13
469.161	3123.73
469.534	3130.96
469.906	3234.46
470.278	3229.72
470.65	3282.82
471.022	3389.94
471.394	3438.07
471.766	3504.51
472.138	3519.2
472.51	3610.5
472.882	3706.99
473.253	3703.6
473.625	3758.97
473.997	3904.95
474.369	3879.64
474.74	3963.48
475.112	4016.14
475.484	4129.13
475.855	4140.65
476.227	4195.57
476.598	4298.16
476.97	4356.69
477.341	4509.01
477.713	4589.46
478.084	4606.86
478.455	4746.74
478.827	4787.64
479.198	4956.23
479.569	4964.81
479.94	5083.91
480.311	5174.52
480.682	5266.95
481.053	5387.85
481.424	5446.16
481.795	5549.88
482.166	5637.79
482.537	5780.38
482.908	5916.43
483.279	5934.73
483.65	6099.7
484.021	6189.19
484.391	6332.91
484.762	6371.33
485.133	6413.36
485.503	6545.11
485.874	6700.59
486.244	6787.36
486.615	6907.36
486.985	7005.66
487.356	7115.72
487.726	7193.68
488.097	7373.56
488.467	7330.4
488.837	7569.26
489.207	7725.64
489.578	7801.35
489.948	7871.4
490.318	8032.3
490.688	8015.81
491.058	8143.03
491.428	8346.42
491.798	8388.68
492.168	8563.59
492.538	8549.35
492.908	8670.48
493.278	8762.23
493.648	8777.37
494.017	8970.36
494.387	9006.06
494.757	9102.78
495.126	9222.33
495.496	9192.27
495.866	9261.42
496.235	9335.32
496.605	9409.89
496.974	9444.7
497.344	9602.88
497.713	9619.61
498.082	9693.95
498.452	9839.49
498.821	9843.1
499.19	9852.37
499.559	9972.59
499.928	10010.56
500.298	10109.76
500.667	10065.24
501.036	10091.68
501.405	10196.09
501.774	10160.38
502.143	10340.72
502.512	10290.55
502.88	10419.13
503.249	10441.05
503.618	10404.67
503.987	10502.29
504.356	10543.42
504.724	10603.31
505.093	10681.05
505.462	10605.79
505.83	10682.63
506.199	10791.78
506.567	10955.39
506.936	10855.96
507.304	10879.01
507.672	10953.58
508.041	10992
508.409	11080.13
508.777	11063.18
509.145	11120.36
509.514	11124.2
509.882	11138.44
510.25	11267.47
510.618	11233.57
510.986	11206.68
511.354	11304.08
511.722	11305.66
512.09	11438.77
512.458	11352.22
512.826	11451.65
513.193	11518.54
513.561	11417.07
513.929	11463.4
514.297	11538.2
514.664	11601.25
515.032	11606.22
515.4	11598.76
515.767	11675.6
516.135	11644.86
516.502	11567.58
516.869	11714.69
517.237	11721.25
517.604	11700.23
517.972	11804.63
518.339	11793.79
518.706	11732.54
519.073	11759.66
519.44	11803.5
519.808	11835.37
520.175	11735.03
520.542	11860.68
520.909	11913.33
521.276	11926.21
521.643	11920.34
522.009	11971.18
522.376	12013.89
522.743	12031.97
523.11	12113.55
523.477	12113.1
523.843	12130.05
524.21	12148.58
524.577	12142.93
524.943	12096.15
525.31	12141.12
525.676	12170.27
526.043	12179.09
526.409	12224.96
526.776	12312.19
527.142	12265.19
527.508	12256.15
527.874	12324.39
528.241	12134.57
528.607	12276.49
528.973	12320.33
529.339	12147
529.705	12246.88
530.071	12309.7
530.437	12230.61
530.803	12222.93
531.169	12278.07
531.535	12247.11
531.901	12120.33
532.267	12074
532.632	12161.01
532.998	12153.78
533.364	12085.3
533.73	12086.66
534.095	12108.81
534.461	12022.93
534.826	12068.81
535.192	12085.3
535.557	12045.76
535.923	11925.08
536.288	11858.64
536.653	11990.16
537.019	11863.61
537.384	11774.35
537.749	11763.5
538.114	11776.61
538.479	11624.52
538.845	11682.83
539.21	11660.23
539.575	11583.62
539.94	11566.67
540.305	11579.1
540.67	11473.34
541.034	11453.23
541.399	11393.12
541.764	11391.08
542.129	11363.51
542.494	11311.76
542.858	11247.36
543.223	11245.78
543.587	11264.53
543.952	11065.9
544.316	11125.33
544.681	11014.82
545.045	11013.02
545.41	10991.55
545.774	10965.79
546.138	10957.2
546.503	10847.37
546.867	10788.61
547.231	10869.06
547.595	10741.16
547.959	10725.11
548.324	10677.43
548.688	10486.02
549.052	10593.59
549.416	10547.27
549.779	10509.07
550.143	10442.41
550.507	10440.83
550.871	10458
551.235	10348.4
551.599	10323.99
551.962	10331.23
552.326	10198.8
552.689	10249.87
553.053	10097.79
553.417	10133.49
553.78	10169.87
554.143	10140.95
554.507	10097.33
554.87	10063.44
555.234	10121.29
555.597	9967.17
555.96	9955.64
556.323	10017.34
556.686	9966.04
557.05	9909.32
557.413	9850.56
557.776	9806.72
558.139	9828.64
558.502	9802.43
558.865	9841.52
559.228	9849.66
559.59	9838.13
559.953	9725.59
560.316	9771.92
560.679	9735.76
561.041	9701.64
561.404	9752.71
561.767	9785.03
562.129	9740.96
562.492	9725.82
562.854	9667.74
563.217	9673.62
563.579	9664.35
563.941	9643.33
564.304	9687.85
564.666	9643.79
565.028	9712.03
565.39	9628.19
565.753	9701.19
566.115	9702.54
566.477	9616.67
566.839	9634.97
567.201	9649.21
567.563	9637.68
567.925	9631.13
568.287	9652.6
568.648	9651.02
569.01	9691.92
569.372	9641.07
569.734	9625.93
570.095	9643.11
570.457	9648.76
570.819	9615.31
571.18	9609.66
571.542	9713.61
571.903	9659.38
572.265	9668.64
572.626	9631.13
572.987	9688.76
573.349	9691.92
573.71	9634.97
574.071	9711.81
574.432	9669.55
574.794	9715.65
575.155	9669.77
575.516	9719.26
575.877	9606.72
576.238	9651.47
576.599	9719.72
576.96	9718.36
577.32	9676.78
577.681	9652.83
578.042	9609.66
578.403	9727.17
578.763	9754.07
579.124	9644.01
579.485	9734.63
579.845	9716.1
580.206	9639.72
580.566	9691.24
580.927	9635.42
581.287	9652.83
581.648	9573.28
582.008	9635.88
582.368	9623.9
582.728	9650.57
583.089	9640.4
583.449	9616.89
583.809	9573.51
584.169	9593.62
584.529	9460.51
584.889	9629.1
585.249	9517.91
585.609	9556.33
585.969	9546.16
586.329	9473.85
586.688	9554.97
587.048	9490.8
587.408	9472.49
587.768	9448.76
588.127	9445.37
588.487	9387.3
588.846	9506.84
589.206	9475.88
589.565	9460.06
589.925	9436.11
590.284	9405.83
590.643	9442.89
591.003	9432.94
591.362	9416.45
591.721	9401.08
592.08	9431.36
592.44	9386.39
592.799	9356.56
593.158	9387.97
593.517	9335.32
593.876	9300.29
594.235	9307.52
594.593	9382.78
594.952	9381.65
595.311	9270.69
595.67	9357.92
596.029	9376.22
596.387	9400.18
596.746	9388.43
597.104	9323.34
597.463	9283.34
597.822	9336.9
598.18	9332.61
598.538	9259.84
598.897	9340.74
599.255	9227.98
599.613	9317.47
599.972	9258.26
600.33	9250.58
600.688	9259.16
601.046	9309.56
601.404	9326.73
601.762	9302.1
602.12	9294.19
602.478	9277.47
602.836	9241.76
603.194	9218.94
603.552	9226.85
603.91	9205.15
604.268	9299.39
604.625	9213.06
604.983	9259.84
605.341	9223.91
605.698	9211.93
606.056	9261.42
606.413	9247.19
606.771	9262.33
607.128	9252.38
607.485	9196.34
607.843	9218.49
608.2	9224.59
608.557	9273.85
608.914	9244.25
609.272	9291.7
609.629	9203.8
609.986	9331.25
610.343	9292.83
610.7	9292.61
611.057	9299.39
611.414	9213.29
611.771	9333.06
612.127	9319.5
612.484	9318.82
612.841	9335.32
613.198	9275.66
613.554	9307.98
613.911	9372.61
614.267	9387.97
614.624	9354.08
614.98	9331.7
615.337	9378.48
615.693	9394.98
616.05	9379.84
616.406	9412.83
616.762	9337.13
617.118	9312.04
617.475	9343.45
617.831	9340.97
618.187	9460.74
618.543	9421.87
618.899	9396.56
619.255	9402.21
619.611	9382.55
619.967	9458.03
620.323	9536.22
620.678	9506.61
621.034	9427.97
621.39	9415.32
621.746	9401.53
622.101	9477.46
622.457	9402.66
622.812	9458.48
623.168	9409.44
623.523	9420.97
623.879	9457.12
624.234	9390.46
624.589	9404.92
624.945	9401.76
625.3	9424.58
625.655	9437.24
626.01	9447.41
626.365	9509.55
626.72	9381.42
627.075	9373.96
627.43	9473.62
627.785	9380.52
628.14	9387.52
628.495	9383.45
628.85	9427.29
629.205	9401.08
629.559	9426.39
629.914	9382.55
630.269	9428.88
630.623	9322.66
630.978	9339.61
631.332	9381.19
631.687	9361.08
632.041	9281.08
632.396	9352.72
632.75	9284.93
633.104	9302.1
633.459	9195.89
633.813	9292.38
634.167	9218.71
634.521	9255.55
634.875	9265.94
635.229	9214.87
635.583	9179.84
635.937	9201.09
636.291	9238.37
636.645	9208.09
636.999	9099.85
637.352	9149.11
637.706	9053.29
638.06	9114.99
638.413	9066.17
638.767	9100.3
639.121	9110.47
639.474	9017.14
639.828	9077.47
640.181	9057.81
640.534	9081.09
640.888	9103.24
641.241	8984.14
641.594	9055.78
641.947	9085.16
642.301	9082.67
642.654	8990.24
643.007	9059.85
643.36	9068.89
643.713	8966.29
644.066	9026.63
644.419	8977.59
644.771	8892.39
645.124	8846.07
645.477	8884.48
645.83	8832.51
646.182	8746.63
646.535	8676.81
646.888	8728.78
647.24	8686.97
647.593	8741.21
647.945	8654.89
648.298	8653.08
648.65	8660.99
649.002	8631.16
649.355	8675
649.707	8652.85
650.059	8749.12
650.411	8813.3
650.763	8842.68
651.115	8906.63
651.467	8888.33
651.819	8903.47
652.171	8959.74
652.523	8845.61
652.875	8855.56
653.227	8844.94
653.578	8945.5
653.93	8913.64
654.282	8848.78
654.633	8893.98
654.985	8856.24
655.337	8848.78
655.688	8943.69
656.039	8893.3
656.391	8864.6
656.742	8856.01
657.094	8898.04
657.445	8962.45
657.796	8886.52
658.147	8901.43
658.498	8841.32
658.849	8876.35
659.2	8922.67
659.551	8901.66
659.902	8947.76
660.253	8915.67
660.604	8901.88
660.955	8867.99
661.306	8889.68
661.656	8919.74
662.007	8987.08
662.358	8929.45
662.708	8976.01
663.059	8912.28
663.409	8916.35
663.76	8930.81
664.11	8939.85
664.461	8954.76
664.811	8986.63
665.161	9007.42
665.511	8991.15
665.862	8967.19
666.212	9016.68
666.562	8993.41
666.912	9052.84
667.262	8976.68
667.612	8917.25
667.962	9005.16
668.312	8925.61
668.662	8978.49
669.011	9010.58
669.361	8991.6
669.711	8979.85
670.06	8964.71
670.41	8889.46
670.76	8953.18
671.109	8922.67
671.459	8857.14
671.808	8905.95
672.157	8987.31
672.507	8839.29
672.856	8885.39
673.205	8872.73
673.554	8931.26
673.904	8850.13
674.253	8960.19
674.602	8880.42
674.951	8683.81
675.3	8757.48
675.649	8870.92
675.998	8833.19
676.346	8888.55
676.695	8899.17
677.044	8767.65
677.393	8797.48
677.741	8823.92
678.09	8811.94
678.438	8750.48
678.787	8759.52
679.135	8753.87
679.484	8716.8
679.832	8792.51
680.181	8687.43
680.529	8743.02
680.877	8679.29
681.225	8602.46
681.573	8709.35
681.922	8662.12
682.27	8606.98
682.618	8555.68
682.966	8598.39
683.314	8557.49
683.661	8586.64
684.009	8535.79
684.357	8565.4
684.705	8519.52
685.053	8484.49
685.4	8431.16
685.748	8450.37
686.095	8399.75
686.443	8417.6
686.79	8370.6
687.138	8410.37
687.485	8342.35
687.832	8407.89
688.18	8349.58
688.527	8355.68
688.874	8279.98
689.221	8301
689.568	8220.77
689.915	8204.5
690.262	8138.97
690.609	8157.95
690.956	8148.23
691.303	8089.48
691.65	8085.41
691.997	8089.02
692.344	8019.42
692.69	8005.41
693.037	8001.12
693.383	7905.75
693.73	7906.88
694.077	7875.92
694.423	7863.95
694.769	7819.2
695.116	7779.88
695.462	7745.08
695.808	7751.41
696.155	7779.88
696.501	7677.96
696.847	7671.86
697.193	7615.82
697.539	7610.17
697.885	7578.76
698.231	7497.63
698.577	7485.2
698.923	7540.34
699.269	7501.02
699.614	7436.16
699.96	7346.67
700.306	7428.03
700.651	7421.02
700.997	7329.72
701.342	7343.06
701.688	7273.45
702.033	7253.79
702.379	7290.63
702.724	7238.43
703.069	7248.14
703.415	7135.6
703.76	7159.11
704.105	7106.45
704.45	7135.15
704.795	7034.82
705.14	7042.95
705.485	7042.5
705.83	7001.14
706.175	6946
706.52	6934.93
706.865	6932.44
707.209	6931.99
707.554	6930.19
707.899	6878.21
708.243	6802.28
708.588	6839.79
708.932	6769.96
709.277	6799.57
709.621	6754.14
709.966	6731.55
710.31	6745.33
710.654	6705.11
710.998	6718.89
711.342	6677.99
711.687	6679.34
712.031	6674.6
712.375	6608.16
712.719	6596.18
713.063	6593.24
713.407	6656.29
713.75	6564.54
714.094	6581.95
714.438	6538.56
714.782	6577.43
715.125	6483.19
715.469	6574.26
715.812	6475.28
716.156	6459.01
716.499	6420.37
716.843	6507.82
717.186	6456.98
717.53	6482.06
717.873	6457.2
718.216	6439.35
718.559	6394.83
718.902	6393.48
719.246	6402.06
719.589	6411.1
719.932	6405
720.275	6364.55
720.617	6299.02
720.96	6330.88
721.303	6384.89
721.646	6358.67
721.989	6278.45
722.331	6347.15
722.674	6333.14
723.016	6279.13
723.359	6312.57
723.701	6320.94
724.044	6313.25
724.386	6262.41
724.729	6283.87
725.071	6301.05
725.413	6251.56
725.755	6264.67
726.097	6224.44
726.439	6209.98
726.782	6196.64
727.124	6267.83
727.465	6189.87
727.807	6238.9
728.149	6225.8
728.491	6225.34
728.833	6167.04
729.175	6234.84
729.516	6213.14
729.858	6184.44
730.199	6268.96
730.541	6198.9
730.882	6182.18
731.224	6266.02
731.565	6234.16
731.906	6197.77
732.248	6254.27
732.589	6185.12
732.93	6203.2
733.271	6188.51
733.612	6193.48
733.953	6199.58
734.294	6209.75
734.635	6215.85
734.976	6252.24
735.317	6234.61
735.658	6255.17
735.999	6247.72
736.339	6197.32
736.68	6262.86
737.021	6191
737.361	6281.61
737.702	6275.74
738.042	6198.9
738.383	6245.23
738.723	6246.81
739.063	6239.36
739.404	6305.12
739.744	6312.57
740.084	6277.09
740.424	6318.9
740.764	6347.15
741.104	6322.74
741.444	6349.18
741.784	6375.4
742.124	6362.52
742.464	6369.3
742.804	6435.51
743.143	6440.93
743.483	6437.77
743.823	6461.04
744.162	6449.07
744.502	6574.94
744.841	6523.87
745.181	6579.46
745.52	6556.41
745.86	6638.22
746.199	6639.35
746.538	6680.25
746.877	6720.47
747.216	6826.68
747.556	6852.45
747.895	6885.89
748.234	6936.96
748.573	7020.35
748.911	7034.36
749.25	7053.57
749.589	7130.63
749.928	7174.7
750.267	7296.05
750.605	7331.53
750.944	7398.42
751.283	7446.33
751.621	7582.6
751.96	7617.17
752.298	7708.24
752.636	7839.99
752.975	7849.26
753.313	7993.43
753.651	8173.99
753.989	8201.79
754.327	8331.05
754.666	8410.82
755.004	8544.38
755.342	8653.3
755.679	8731.95
756.017	8912.96
756.355	9032.28
756.693	9122.9
757.031	9319.5
757.368	9368.09
757.706	9565.14
758.044	9750.9
758.381	9944.57
758.719	9991.8
759.056	10193.38
759.394	10226.14
759.731	10372.81
760.068	10557.66
760.405	10752.46
760.743	10872.45
761.08	11068.61
761.417	11183.86
761.754	11368.26
762.091	11587.46
762.428	11758.76
762.765	11836.95
763.102	12038.3
763.438	12222.7
763.775	12310.38
764.112	12589.02
764.449	12842.35
764.785	12874.21
765.122	13028.56
765.458	13163.69
765.795	13272.17
766.131	13488.43
766.467	13658.82
