Data from hue_80_FLMS001491_44.txt Node
Date: Mon Feb 06 15:23:03 GMT 2017
User: dcchb
Spectrometer: FLMS00149
Trigger mode: 0
Integration Time (sec): 2.000000E-2
Scans to average: 10
Electric dark correction enabled: true
Nonlinearity correction enabled: false
Boxcar width: 0
XAxis mode: Wavelengths
Number of Pixels in Spectrum: 2048
>>>>>Begin Spectral Data<<<<<
341.393	-16.19
341.776	-16.19
342.16	-16.19
342.543	-65
342.927	-82.62
343.31	-65.9
343.693	-71.78
344.077	-84.43
344.46	-56.18
344.843	-64.77
345.226	-57.31
345.61	-37.2
345.993	-15.06
346.376	-2.18
346.759	17.49
347.142	42.12
347.525	27.65
347.908	65.62
348.291	85.51
348.674	101.78
349.057	114.66
349.44	147.2
349.823	122.57
350.206	159.63
350.588	186.52
350.971	210.93
351.354	222.68
351.737	230.59
352.119	269.23
352.502	263.35
352.884	264.48
353.267	288.44
353.65	293.18
354.032	289.57
354.414	300.42
354.797	307.2
355.179	320.75
355.562	326.86
355.944	318.49
356.326	327.31
356.709	338.83
357.091	328.89
357.473	331.38
357.855	340.41
358.238	347.42
358.62	361.21
359.002	338.83
359.384	330.92
359.766	336.8
360.148	326.86
360.53	337.93
360.912	336.57
361.294	327.53
361.676	335.44
362.057	326.63
362.439	343.13
362.821	319.17
363.203	321.66
363.584	317.59
363.966	331.83
364.348	322.11
364.729	305.61
365.111	308.33
365.493	327.99
365.874	300.87
366.256	310.13
366.637	296.8
367.019	309.91
367.4	334.99
367.781	304.26
368.163	331.6
368.544	291.6
368.925	319.17
369.306	328.66
369.688	314.65
370.069	276.69
370.45	292.73
370.831	308.33
371.212	314.88
371.593	321.66
371.974	337.25
372.355	313.07
372.736	320.3
373.117	327.31
373.498	321.66
373.879	307.2
374.26	308.33
374.641	309
375.021	317.14
375.402	332.51
375.783	307.2
376.163	341.32
376.544	338.83
376.925	332.51
377.305	324.82
377.686	322.79
378.066	312.17
378.447	314.43
378.827	329.57
379.208	317.59
379.588	325.05
379.968	325.73
380.349	370.47
380.729	345.16
381.109	318.95
381.489	337.48
381.87	340.64
382.25	332.51
382.63	337.48
383.01	356.91
383.39	345.61
383.77	345.39
384.15	336.57
384.53	354.88
384.91	337.48
385.29	349.23
385.67	366.63
386.049	341.77
386.429	336.57
386.809	358.72
387.189	329.79
387.568	343.8
387.948	365.27
388.328	371.6
388.707	362.79
389.087	360.75
389.466	344.26
389.846	343.35
390.225	366.4
390.605	374.99
390.984	347.42
391.363	370.47
391.743	371.83
392.122	361.66
392.501	380.87
392.881	341.32
393.26	363.47
393.639	372.73
394.018	345.16
394.397	386.97
394.776	387.65
395.155	366.63
395.534	374.76
395.913	361.43
396.292	394.65
396.671	360.75
397.05	386.29
397.429	379.96
397.808	372.05
398.186	357.36
398.565	367.53
398.944	381.32
399.323	404.37
399.701	392.62
400.08	382.67
400.458	404.14
400.837	400.75
401.215	405.95
401.594	406.18
401.972	384.48
402.351	399.62
402.729	411.15
403.107	406.18
403.486	422.67
403.864	423.8
404.242	397.14
404.62	422.45
404.999	398.49
405.377	422.45
405.755	431.71
406.133	417.02
406.511	444.14
406.889	397.36
407.267	408.21
407.645	416.57
408.023	434.88
408.401	433.29
408.779	441.66
409.156	441.43
409.534	438.94
409.912	445.72
410.29	445.04
410.667	463.12
411.045	454.08
411.422	470.81
411.8	456.34
412.178	473.52
412.555	455.89
412.933	454.31
413.31	430.13
413.687	478.04
414.065	484.59
414.442	462.22
414.819	454.54
415.197	486.63
415.574	490.47
415.951	492.5
416.328	501.54
416.705	468.77
417.082	497.25
417.46	485.95
417.837	498.6
418.214	496.12
418.591	500.64
418.967	524.36
419.344	509
419.721	506.96
420.098	512.39
420.475	497.92
420.852	519.17
421.228	537.02
421.605	529.11
421.982	519.62
422.358	502.44
422.735	537.7
423.111	547.64
423.488	549.22
423.864	539.28
424.241	569.79
424.617	557.58
424.994	558.04
425.37	546.96
425.746	574.08
426.123	558.04
426.499	545.61
426.875	576.79
427.251	574.76
427.627	617.47
428.003	597.36
428.379	599.39
428.756	588.54
429.132	608.66
429.507	613.4
429.883	625.38
430.259	608.2
430.635	612.5
431.011	625.83
431.387	641.65
431.763	634.19
432.138	645.04
432.514	671.48
432.89	646.4
433.265	671.25
433.641	650.92
434.016	683
434.392	676.45
434.767	687.3
435.143	685.94
435.518	683.68
435.894	694.53
436.269	717.81
436.644	713.74
437.02	694.53
437.395	715.32
437.77	715.32
438.145	732.27
438.52	740.63
438.895	756.45
439.271	756
439.646	738.37
440.021	747.86
440.395	753.51
440.77	782.21
441.145	758.26
441.52	768.65
441.895	771.14
442.27	776.34
442.645	787.86
443.019	791.93
443.394	778.37
443.769	805.71
444.143	795.32
444.518	808.65
444.892	804.13
445.267	819.72
445.641	838.93
446.016	827.63
446.39	813.62
446.764	828.31
447.139	843.23
447.513	853.85
447.887	880.74
448.262	845.94
448.636	869.67
449.01	892.94
449.384	868.08
449.758	865.15
450.132	871.47
450.506	886.62
450.88	895.43
451.254	887.52
451.628	911.7
452.002	921.19
452.376	913.06
452.75	928.2
453.123	946.05
453.497	954.86
453.871	940.85
454.244	967.06
454.618	1011.13
454.992	957.8
455.365	999.38
455.739	986.95
456.112	1007.74
456.486	1006.39
456.859	1040.74
457.232	1067.85
457.606	1044.35
457.979	1054.75
458.352	1090.23
458.725	1066.5
459.099	1090.45
459.472	1118.7
459.845	1130.45
460.218	1128.87
460.591	1156.66
460.964	1143.56
461.337	1185.36
461.71	1205.93
462.083	1215.19
462.456	1213.61
462.829	1224.46
463.201	1272.37
463.574	1265.14
463.947	1269.66
464.32	1302.65
464.692	1347.85
465.065	1298.36
465.438	1336.32
465.81	1360.73
466.183	1376.55
466.555	1412.93
466.928	1402.31
467.3	1408.64
467.672	1442.53
468.045	1466.26
468.417	1482.31
468.789	1545.58
469.161	1571.34
469.534	1561.4
469.906	1583.09
470.278	1628.06
470.65	1660.61
471.022	1686.59
471.394	1725.69
471.766	1714.16
472.138	1790.09
472.51	1826.25
472.882	1857.44
473.253	1909.64
473.625	1912.8
473.997	1975.63
474.369	2021.05
474.74	2063.76
475.112	2093.82
475.484	2131.78
475.855	2160.03
476.227	2229.63
476.598	2280.02
476.97	2319.35
477.341	2393.24
477.713	2455.84
478.084	2506.91
478.455	2597.98
478.827	2569.96
479.198	2735.61
479.569	2801.14
479.94	2835.72
480.311	2935.37
480.682	2997.52
481.053	3085.43
481.424	3186.89
481.795	3229.38
482.166	3360.9
482.537	3460.33
482.908	3535.59
483.279	3636.15
483.65	3712.76
484.021	3802.7
484.391	3974.67
484.762	3995.23
485.133	4098.06
485.503	4225.28
485.874	4322.91
486.244	4416.92
486.615	4579.17
486.985	4712.73
487.356	4811.48
487.726	4935.1
488.097	5058.26
488.467	5183
488.837	5334.63
489.207	5450.79
489.578	5612.14
489.948	5700.95
490.318	5837.22
490.688	5906.6
491.058	6067.72
491.428	6190.43
491.798	6348.84
492.168	6591.32
492.538	6646.01
492.908	6811.43
493.278	6971.65
493.648	6975.27
494.017	7177.52
494.387	7266.79
494.757	7513.79
495.126	7627
495.496	7692.76
495.866	7815.02
496.235	8010.27
496.605	8144.28
496.974	8224.73
497.344	8376.36
497.713	8501.56
498.082	8633.53
498.452	8797.37
498.821	8878.04
499.19	8986.06
499.559	9077.81
499.928	9166.4
500.298	9336.79
500.667	9473.06
501.036	9482.77
501.405	9664.92
501.774	9674.41
502.143	9873.95
502.512	9999.6
502.88	10118.69
503.249	10154.85
503.618	10259.25
503.987	10353.71
504.356	10486.81
504.724	10559.13
505.093	10694.94
505.462	10802.29
505.83	10851.32
506.199	10999.12
506.567	11129.28
506.936	11177.42
507.304	11364.53
507.672	11463.29
508.041	11506
508.409	11675.48
508.777	11725.43
509.145	11769.94
509.514	11795.25
509.882	11947.79
510.25	12058.52
510.618	12214.45
510.986	12200.67
511.354	12322.47
511.722	12402.92
512.09	12563.6
512.458	12496.03
512.826	12695.34
513.193	12742.12
513.561	12783.25
513.929	12910.48
514.297	13010.59
514.664	13057.37
515.032	13098.5
515.4	13251.71
515.767	13340.07
516.135	13399.28
516.502	13278.15
516.869	13544.36
517.237	13607.18
517.604	13533.06
517.972	13676.79
518.339	13797.24
518.706	13836.56
519.073	13864.13
519.44	13950.23
519.808	14027.96
520.175	14080.39
520.542	14262.99
520.909	14238.13
521.276	14223.67
521.643	14317.45
522.009	14540.95
522.376	14461.85
522.743	14624.33
523.11	14823.88
523.477	14820.49
523.843	14888.73
524.21	14955.17
524.577	15054.15
524.943	15025
525.31	15133.02
525.676	15232.45
526.043	15279.46
526.409	15381.38
526.776	15468.15
527.142	15456.4
527.508	15506.57
527.874	15637.64
528.241	15708.15
528.607	15648.71
528.973	15806.45
529.339	15695.72
529.705	15812.55
530.071	16095.25
530.437	15981.36
530.803	16042.83
531.169	16113.33
531.535	16130.28
531.901	16030.17
532.267	16090.96
532.632	16245.76
532.998	16186.33
533.364	16261.35
533.73	16270.39
534.095	16369.6
534.461	16361.24
534.826	16412.31
535.192	16379.77
535.557	16529.14
535.923	16470.39
536.288	16436.94
536.653	16517.62
537.019	16372.54
537.384	16552.42
537.749	16443.95
538.114	16482.14
538.479	16536.37
538.845	16575.02
539.21	16484.85
539.575	16589.93
539.94	16501.12
540.305	16622.47
540.67	16542.47
541.034	16551.06
541.399	16554.9
541.764	16537.05
542.129	16603.94
542.494	16539.08
542.858	16605.07
543.223	16643.26
543.587	16657.27
543.952	16655.01
544.316	16584.96
544.681	16507.22
545.045	16593.55
545.41	16637.39
545.774	16653.88
546.138	16526.66
546.503	16581.8
546.867	16460.44
547.231	16681.91
547.595	16759.42
547.959	16590.83
548.324	16563.27
548.688	16579.76
549.052	16593.55
549.416	16631.51
549.779	16607.78
550.143	16542.7
550.507	16664.28
550.871	16673.09
551.235	16629.48
551.599	16611.17
551.962	16659.99
552.326	16710.83
552.689	16711.28
553.053	16538.63
553.417	16709.02
553.78	16889.13
554.143	16640.78
554.507	16790.38
554.87	16789.93
555.234	16881.9
555.597	16751.06
555.96	16651.85
556.323	16743.15
556.686	16680.32
557.05	16951.28
557.413	16787.67
557.776	16801.68
558.139	16901.34
558.502	16844.84
558.865	16874.22
559.228	16978.4
559.59	17007.55
559.953	17032.18
560.316	17073.76
560.679	17055.91
561.041	17191.5
561.404	17233.76
561.767	17344.26
562.129	17142.91
562.492	17317.37
562.854	17285.05
563.217	17185.17
563.579	17312.4
563.941	17404.82
564.304	17456.12
564.666	17443.24
565.028	17396.24
565.39	17475.33
565.753	17567.53
566.115	17619.51
566.477	17604.59
566.839	17585.16
567.201	17776.79
567.563	17762.56
567.925	17797.13
568.287	17800.97
568.648	17878.26
569.01	17870.8
569.372	17946.51
569.734	17824.93
570.095	17965.26
570.457	18063.56
570.819	18049.1
571.18	18037.58
571.542	18100.63
571.903	18155.77
572.265	18140.17
572.626	18227.85
572.987	18251.13
573.349	18278.93
573.71	18189.21
574.071	18254.29
574.432	18265.59
574.794	18500.16
575.155	18359.6
575.516	18324.57
575.877	18435.98
576.238	18356.21
576.599	18480.73
576.96	18451.35
577.32	18393.95
577.681	18537.68
578.042	18473.05
578.403	18607.73
578.763	18508.75
579.124	18591.46
579.485	18573.83
579.845	18598.24
580.206	18584.23
580.566	18564.57
580.927	18514.17
581.287	18685.02
581.648	18545.59
582.008	18658.35
582.368	18515.76
582.728	18755.52
583.089	18640.27
583.449	18550.11
583.809	18618.13
584.169	18612.02
584.529	18603.89
584.889	18675.07
585.249	18579.03
585.609	18534.06
585.969	18610.89
586.329	18619.03
586.688	18675.53
587.048	18582.87
587.408	18438.7
587.768	18534.96
588.127	18518.69
588.487	18519.82
588.846	18572.93
589.206	18462.65
589.565	18481.63
589.925	18549.88
590.284	18564.57
590.643	18593.49
591.003	18526.38
591.362	18624.91
591.721	18480.73
592.08	18552.37
592.44	18523.67
592.799	18582.87
593.158	18534.96
593.517	18536.55
593.876	18481.18
594.235	18447.96
594.593	18589.65
594.952	18527.73
595.311	18541.29
595.67	18491.58
596.029	18515.08
596.387	18629.2
596.746	18573.38
597.104	18481.18
597.463	18438.02
597.822	18472.59
598.18	18504.46
598.538	18561.86
598.897	18557.56
599.255	18480.05
599.613	18764.34
599.972	18553.72
600.33	18512.37
600.688	18483.44
601.046	18525.7
601.404	18666.71
601.762	18574.29
602.12	18742.19
602.478	18682.08
602.836	18723.43
603.194	18488.19
603.552	18650.22
603.91	18523.21
604.268	18706.94
604.625	18561.18
604.983	18537.22
605.341	18589.65
605.698	18712.14
606.056	18692.02
606.413	18732.02
606.771	18731.57
607.128	18750.1
607.485	18652.48
607.843	18653.61
608.2	18663.1
608.557	18829.87
608.914	18724.79
609.272	18847.05
609.629	18885.69
609.986	18906.48
610.343	18846.37
610.7	18995.52
611.057	18940.38
611.414	18921.17
611.771	18893.37
612.127	18980.15
612.484	18962.52
612.841	19047.95
613.198	18900.83
613.554	18990.09
613.911	19094.72
614.267	19096.31
614.624	19023.99
614.98	19139.02
615.337	19233.25
615.693	19149.86
616.05	19153.03
616.406	19228.05
616.762	19101.5
617.118	19110.32
617.475	19169.75
617.831	19194.83
618.187	19247.49
618.543	19270.76
618.899	19411.33
619.255	19300.82
619.611	19299.69
619.967	19412.68
620.323	19390.31
620.678	19342.63
621.034	19341.95
621.39	19282.06
621.746	19255.62
622.101	19559.8
622.457	19349.41
622.812	19383.76
623.168	19420.82
623.523	19439.12
623.879	19493.13
624.234	19392.57
624.589	19432.57
624.945	19469.86
625.3	19409.52
625.655	19463.98
626.01	19448.61
626.365	19511.44
626.72	19514.37
627.075	19511.66
627.43	19383.76
627.785	19443.87
628.14	19372
628.495	19368.39
628.85	19408.39
629.205	19291.33
629.559	19567.93
629.914	19301.05
630.269	19367.94
630.623	19381.27
630.978	19254.27
631.332	19368.16
631.687	19344.89
632.041	19276.41
632.396	19432.34
632.75	19226.7
633.104	19275.96
633.459	19179.69
633.813	19166.81
634.167	19195.96
634.521	19130.88
634.875	19187.83
635.229	19121.84
635.583	19025.35
635.937	19133.82
636.291	19074.16
636.645	19103.31
636.999	19068.51
637.352	19046.36
637.706	18951.45
638.06	19076.65
638.413	18942.64
638.767	18985.35
639.121	18930.21
639.474	18937.89
639.828	18918.68
640.181	18889.76
640.534	18923.43
640.888	18807.05
641.241	18751.91
641.594	18809.53
641.947	18833.71
642.301	18745.13
642.654	18841.62
643.007	18691.34
643.36	18713.72
643.713	18725.02
644.066	18725.47
644.419	18679.82
644.771	18527.06
645.124	18344.91
645.477	18375.42
645.83	18305.37
646.182	18232.37
646.535	18116.9
646.888	18244.8
647.24	18126.16
647.593	18226.5
647.945	18055.66
648.298	18024.7
648.65	18054.98
649.002	18036.45
649.355	18051.81
649.707	18073.51
650.059	18197.35
650.411	18324.35
650.763	18451.35
651.115	18521.18
651.467	18495.19
651.819	18508.98
652.171	18506.49
652.523	18403.44
652.875	18464.46
653.227	18420.84
653.578	18528.86
653.93	18390.34
654.282	18392.14
654.633	18389.88
654.985	18413.39
655.337	18403.67
655.688	18531.12
656.039	18532.03
656.391	18387.85
656.742	18415.42
657.094	18395.76
657.445	18466.27
657.796	18433.72
658.147	18386.27
658.498	18309.89
658.849	18527.96
659.2	18371.81
659.551	18329.55
659.902	18418.58
660.253	18455.87
660.604	18549.65
660.955	18420.84
661.306	18425.36
661.656	18411.13
662.007	18471.92
662.358	18382.43
662.708	18470.79
663.059	18430.33
663.409	18413.61
663.76	18426.72
664.11	18454.51
664.461	18499.71
664.811	18495.87
665.161	18473.72
665.511	18446.15
665.862	18429.66
666.212	18439.15
666.562	18513.5
666.912	18520.05
667.262	18544.68
667.612	18477.57
667.962	18481.18
668.312	18473.05
668.662	18584.68
669.011	18514.4
669.361	18497.23
669.711	18452.71
670.06	18449.54
670.41	18371.35
670.76	18454.06
671.109	18386.27
671.459	18354.86
671.808	18410.9
672.157	18347.62
672.507	18256.1
672.856	18295.65
673.205	18263.56
673.554	18406.38
673.904	18127.97
674.253	18268.3
674.602	18315.76
674.951	17934.53
675.3	18000.97
675.649	18267.4
675.998	18215.2
676.346	18255.65
676.695	18284.35
677.044	18080.51
677.393	18166.16
677.741	18206.16
678.09	18068.31
678.438	18103.34
678.787	18093.85
679.135	18066.05
679.484	17960.29
679.832	18085.94
680.181	17908.31
680.529	17982.21
680.877	18018.37
681.225	17952.61
681.573	18005.26
681.922	17887.52
682.27	17811.59
682.618	17741.77
682.966	17763.69
683.314	17758.04
683.661	17711.94
684.009	17570.7
684.357	17623.12
684.705	17588.1
685.053	17531.15
685.4	17505.39
685.748	17418.61
686.095	17457.93
686.443	17404.82
686.79	17206.19
687.138	17342.91
687.485	17313.98
687.832	17269.46
688.18	17300.87
688.527	17133.19
688.874	17168.67
689.221	17101.78
689.568	17148.11
689.915	17032.18
690.262	17029.02
690.609	16919.64
690.956	16891.39
691.303	16923.71
691.65	16768.23
691.997	16763.49
692.344	16649.82
692.69	16669.02
693.037	16590.38
693.383	16503.83
693.73	16551.29
694.077	16406.88
694.423	16417.05
694.769	16326.44
695.116	16276.49
695.462	16246.66
695.808	16214.57
696.155	16231.75
696.501	16072.2
696.847	16101.36
697.193	15980
697.539	16050.51
697.885	15769.84
698.231	15790.4
698.577	15846
698.923	15749.5
699.269	15635.15
699.614	15614.82
699.96	15624.31
700.306	15538.66
700.651	15493.24
700.997	15442.62
701.342	15391.32
701.688	15409.62
702.033	15304.77
702.379	15191.1
702.724	15196.52
703.069	15205.33
703.415	15070.87
703.76	15006.92
704.105	14982.06
704.45	14941.61
704.795	14821.16
705.14	14839.24
705.485	14750.43
705.83	14791.11
706.175	14782.07
706.52	14693.71
706.865	14603.54
707.209	14597.67
707.554	14568.06
707.899	14637.89
708.243	14484
708.588	14465.02
708.932	14388.18
709.277	14328.52
709.621	14322.65
709.966	14314.96
710.31	14289.43
710.654	14240.39
710.998	14247.62
711.342	14108.64
711.687	14107.51
712.031	14056.89
712.375	14028.42
712.719	14044.24
713.063	13990.45
713.407	14015.54
713.75	13899.83
714.094	13929.21
714.438	13846.73
714.782	13869.78
715.125	13769.89
715.469	13836.33
715.812	13703.23
716.156	13579.61
716.499	13785.48
716.843	13704.36
717.186	13619.84
717.53	13632.49
717.873	13662.55
718.216	13619.39
718.559	13548.88
718.902	13419.17
719.246	13546.17
719.589	13405.16
719.932	13460.07
720.275	13472.95
720.617	13398.38
720.96	13406.74
721.303	13364.25
721.646	13323.58
721.989	13228.21
722.331	13404.93
722.674	13279.28
723.016	13325.61
723.359	13258.95
723.701	13289.9
724.044	13197.48
724.386	13167.2
724.729	13176.46
725.071	13168.1
725.413	13252.17
725.755	13206.29
726.097	13197.25
726.439	13066.41
726.782	13077.03
727.124	13118.16
727.465	13045.17
727.807	13092.85
728.149	13027.31
728.491	13081.1
728.833	13096.69
729.175	13005.39
729.516	12917.49
729.858	12931.5
730.199	12981.21
730.541	13009.01
730.882	12973.98
731.224	12979.18
731.565	12890.14
731.906	12908.45
732.248	12958.16
732.589	12895.79
732.93	12825.74
733.271	12926.07
733.612	12838.62
733.953	13019.18
734.294	12817.15
734.635	12826.19
734.976	12901.67
735.317	12874.55
735.658	12848.79
735.999	12919.52
736.339	12861.22
736.68	12947.09
737.021	12809.01
737.361	12827.77
737.702	12906.41
738.042	12925.85
738.383	12831.16
738.723	12930.37
739.063	12838.84
739.404	12981.21
739.744	12843.14
740.084	12900.54
740.424	12886.75
740.764	12868.67
741.104	12938.95
741.444	13009.69
741.784	12927.88
742.124	13001.78
742.464	12905.28
742.804	12997.48
743.143	12982.12
743.483	12965.17
743.823	12942.57
744.162	13036.58
744.502	13003.13
744.841	13004.26
745.181	13168.33
745.52	13065.05
745.86	13104.82
746.199	13116.35
746.538	13163.58
746.877	13305.72
747.216	13298.04
747.556	13282
747.895	13381.2
748.234	13279.74
748.573	13358.6
748.911	13415.1
749.25	13467.98
749.589	13483.8
749.928	13526.28
750.267	13733.28
750.605	13671.59
750.944	13721.76
751.283	13775.54
751.621	13933.28
751.96	13921.3
752.298	14037.68
752.636	14090.11
752.975	14117.45
753.313	14218.92
753.651	14409.88
753.989	14417.11
754.327	14493.71
754.666	14580.27
755.004	14659.81
755.342	14780.49
755.679	14851.22
756.017	14825.91
756.355	15095.51
