Data from hue_190_FLMS001491_00031.txt Node
Date: Tue Feb 07 16:45:11 GMT 2017
User: dcchb
Spectrometer: FLMS00149
Trigger mode: 0
Integration Time (sec): 2.000000E-2
Scans to average: 10
Electric dark correction enabled: true
Nonlinearity correction enabled: false
Boxcar width: 0
XAxis mode: Wavelengths
Number of Pixels in Spectrum: 2048
>>>>>Begin Spectral Data<<<<<
341.393	2.66
341.776	2.66
342.16	2.66
342.543	-67.17
342.927	-62.65
343.31	-74.18
343.693	-72.6
344.077	-59.49
344.46	-51.13
344.843	-47.74
345.226	-38.25
345.61	-36.67
345.993	-31.24
346.376	-12.49
346.759	6.5
347.142	16.44
347.525	54.63
347.908	67.51
348.291	66.61
348.674	83.11
349.057	128.98
349.44	136.44
349.823	124.69
350.206	159.49
350.588	191.35
350.971	201.97
351.354	224.8
351.737	230.67
352.119	237.45
352.502	253.27
352.884	268.64
353.267	283.1
353.65	287.62
354.032	309.31
354.414	271.57
354.797	295.3
355.179	299.14
355.562	336.21
355.944	326.26
356.326	314.29
356.709	329.2
357.091	311.12
357.473	327.39
357.855	324
358.238	321.07
358.62	332.59
359.002	336.66
359.384	294.4
359.766	346.15
360.148	322.42
360.53	332.14
360.912	343.66
361.294	312.93
361.676	306.6
362.057	328.3
362.439	330.1
362.821	331.69
363.203	312.48
363.584	309.54
363.966	308.86
364.348	337.11
364.729	335.3
365.111	310.44
365.493	303.66
365.874	302.08
366.256	321.29
366.637	314.29
367.019	310.44
367.4	281.74
367.781	289.43
368.163	288.07
368.544	285.13
368.925	327.17
369.306	314.06
369.688	330.1
370.069	306.38
370.45	305.25
370.831	287.17
371.212	310.44
371.593	295.3
371.974	288.75
372.355	298.69
372.736	304.12
373.117	314.74
373.498	304.57
373.879	298.92
374.26	327.62
374.641	335.08
375.021	310.9
375.402	311.35
375.783	299.6
376.163	310.22
376.544	329.88
376.925	303.66
377.305	316.77
377.686	329.43
378.066	309.54
378.447	321.07
378.827	322.65
379.208	320.16
379.588	336.43
379.968	326.49
380.349	292.82
380.729	326.49
381.109	311.8
381.489	331.69
381.87	323.32
382.25	329.88
382.63	314.51
383.01	317.68
383.39	330.78
383.77	339.14
384.15	339.82
384.53	361.52
384.91	337.79
385.29	334.17
385.67	324
386.049	318.35
386.429	340.5
386.809	335.75
387.189	330.56
387.568	357.9
387.948	323.32
388.328	336.21
388.707	345.7
389.087	333.27
389.466	347.05
389.846	339.6
390.225	339.14
390.605	364.91
390.984	346.83
391.363	361.97
391.743	356.32
392.122	356.09
392.501	358.58
392.881	376.2
393.26	349.99
393.639	375.98
394.018	371.69
394.397	379.82
394.776	362.19
395.155	376.2
395.534	356.32
395.913	361.52
396.292	387.73
396.671	367.39
397.05	369.43
397.429	378.92
397.808	378.92
398.186	399.48
398.565	373.49
398.944	391.35
399.323	373.04
399.701	382.76
400.08	380.27
400.458	363.78
400.837	371.46
401.215	395.64
401.594	399.93
401.972	393.61
402.351	416.88
402.729	391.57
403.107	412.14
403.486	419.14
403.864	413.72
404.242	424.79
404.62	425.7
404.999	434.73
405.377	444.23
405.755	439.71
406.133	427.05
406.511	444.68
406.889	448.97
407.267	439.71
407.645	453.72
408.023	470.89
408.401	446.94
408.779	497.56
409.156	473.38
409.534	484.22
409.912	465.69
410.29	492.81
410.667	500.95
411.045	501.17
411.422	506.37
411.8	508.18
412.178	533.04
412.555	547.05
412.933	513.38
413.31	533.71
413.687	576.88
414.065	538.91
414.442	544.79
414.819	570.55
415.197	588.4
415.574	594.96
415.951	606.26
416.328	615.52
416.705	626.14
417.082	626.59
417.46	607.39
417.837	648.51
418.214	643.54
418.591	648.74
418.967	658.68
419.344	662.98
419.721	676.76
420.098	693.48
420.475	685.12
420.852	702.07
421.228	697.78
421.605	714.95
421.982	728.29
422.358	749.3
422.735	765.12
423.111	767.15
423.488	770.09
423.864	782.07
424.241	804.22
424.617	826.81
424.994	849.41
425.37	820.49
425.746	836.76
426.123	863.2
426.499	855.51
426.875	890.32
427.251	910.65
427.627	906.36
428.003	942.07
428.379	933.48
428.756	938
429.132	956.98
429.507	955.4
429.883	979.13
430.259	1006.24
430.635	987.71
431.011	1020.71
431.387	1028.39
431.763	1043.76
432.138	1049.41
432.514	1095.28
432.89	1059.35
433.265	1111.1
433.641	1107.03
434.016	1162.62
434.392	1155.62
434.767	1188.16
435.143	1211.66
435.518	1229.52
435.894	1243.3
436.269	1255.96
436.644	1279.46
437.02	1322.62
437.395	1341.6
437.77	1368.5
438.145	1373.69
438.52	1392.22
438.895	1410.08
439.271	1401.71
439.646	1487.14
440.021	1471.32
440.395	1519.9
440.77	1513.35
441.145	1533.46
441.52	1519.45
441.895	1549.96
442.27	1582.73
442.645	1588.6
443.019	1617.08
443.394	1640.13
443.769	1659.11
444.143	1637.19
444.518	1687.36
444.892	1678.54
445.267	1714.25
445.641	1733.68
446.016	1757.86
446.39	1725.32
446.764	1766.45
447.139	1761.48
447.513	1803.06
447.887	1800.8
448.262	1788.37
448.636	1812.78
449.01	1862.72
449.384	1845.77
449.758	1869.05
450.132	1963.96
450.506	1907.01
450.88	1963.06
451.254	1928.03
451.628	1951.76
452.002	1997.86
452.376	2019.33
452.75	2059.55
453.123	2015.03
453.497	2057.29
453.871	2083.05
454.244	2126.89
454.618	2139.55
454.992	2167.57
455.365	2180.9
455.739	2222.03
456.112	2260
456.486	2266.1
456.859	2289.6
457.232	2372.08
457.606	2335.48
457.979	2365.98
458.352	2442.14
458.725	2451.4
459.099	2432.65
459.472	2514.68
459.845	2557.39
460.218	2600.78
460.591	2581.8
460.964	2596.94
461.337	2674
461.71	2726.88
462.083	2721
462.456	2723.04
462.829	2760.77
463.201	2803.26
463.574	2833.32
463.947	2855.91
464.32	2929.13
464.692	2942.69
465.065	2985.18
465.438	3042.8
465.81	3101.33
466.183	3141.33
466.555	3163.93
466.928	3179.97
467.3	3206.64
467.672	3282.12
468.045	3320.53
468.417	3340.65
468.789	3306.52
469.161	3405.05
469.534	3485.73
469.906	3560.75
470.278	3568.21
470.65	3606.63
471.022	3667.87
471.394	3790.35
471.766	3817.47
472.138	3880.07
472.51	3926.62
472.882	3959.84
473.253	4011.82
473.625	4109.21
473.997	4155.09
474.369	4219.49
474.74	4231.92
475.112	4312.37
475.484	4415.19
475.855	4501.97
476.227	4527.51
476.598	4665.13
476.97	4704.23
477.341	4842.08
477.713	4862.87
478.084	4944.45
478.455	5078.91
478.827	5092.69
479.198	5252.91
479.569	5272.12
479.94	5420.37
480.311	5495.39
480.682	5582.62
481.053	5720.7
481.424	5820.81
481.795	5871.2
482.166	6022.16
482.537	6025.55
482.908	6189.61
483.279	6244.07
483.65	6332.21
484.021	6494.24
484.391	6573.56
484.762	6590.28
485.133	6652.88
485.503	6790.05
485.874	6862.59
486.244	6954.79
486.615	7147.1
486.985	7203.82
487.356	7373.76
487.726	7432.97
488.097	7539.86
488.467	7546.41
488.837	7773.07
489.207	7842.45
489.578	7880.19
489.948	8023.69
490.318	8048.32
490.688	8145.04
491.058	8243.34
491.428	8308.65
491.798	8425.94
492.168	8608.3
492.538	8599.27
492.908	8701.86
493.278	8823.44
493.648	8793.61
494.017	8945.7
494.387	9014.62
494.757	9073.83
495.126	9119.03
495.496	9159.7
495.866	9264.78
496.235	9264.33
496.605	9429.53
496.974	9424.33
497.344	9481.73
497.713	9507.04
498.082	9621.84
498.452	9732.12
498.821	9698.45
499.19	9686.69
499.559	9805.56
499.928	9864.09
500.298	9888.95
500.667	10004.43
501.036	9974.37
501.405	10037.42
501.774	10058.66
502.143	10126.68
502.512	10151.77
502.88	10239.9
503.249	10175.5
503.618	10290.52
503.987	10277.19
504.356	10326.9
504.724	10318.09
505.093	10295.04
505.462	10397.64
505.83	10470.18
506.199	10459.56
506.567	10574.81
506.936	10530.74
507.304	10627.91
507.672	10575.48
508.041	10614.81
508.409	10617.97
508.777	10684.18
509.145	10767.8
509.514	10726.89
509.882	10812.99
510.25	10756.95
510.618	10818.42
510.986	10843.73
511.354	10894.35
511.722	10897.51
512.09	10971.86
512.458	10929.6
512.826	10995.59
513.193	10950.62
513.561	10914.01
513.929	10989.03
514.297	11021.8
514.664	11062.48
515.032	11081.01
515.4	11102.48
515.767	11127.79
516.135	11083.27
516.502	10996.94
516.869	11139.99
517.237	11158.97
517.604	11067.45
517.972	11200.33
518.339	11184.51
518.706	11191.06
519.073	11162.81
519.44	11150.16
519.808	11270.83
520.175	11154.9
520.542	11292.98
520.909	11282.13
521.276	11282.58
521.643	11314.9
522.009	11215.92
522.376	11262.02
522.743	11314
523.11	11324.39
523.477	11409.36
523.843	11394.9
524.21	11374.33
524.577	11364.62
524.943	11380.21
525.31	11346.54
525.676	11329.59
526.043	11359.64
526.409	11359.19
526.776	11394.9
527.142	11349.93
527.508	11399.64
527.874	11434.67
528.241	11332.07
528.607	11366.2
528.973	11434.9
529.339	11283.26
529.705	11392.19
530.071	11308.12
530.437	11270.16
530.803	11308.35
531.169	11327.78
531.535	11176.82
531.901	11177.28
532.267	11139.54
532.632	11176.37
532.998	11154
533.364	11138.18
533.73	11099.31
534.095	11095.24
534.461	11009.6
534.826	10995.81
535.192	10956.04
535.557	10931.63
535.923	10886.21
536.288	10782.48
536.653	10789.94
537.019	10727.8
537.384	10714.92
537.749	10684.41
538.114	10548.37
538.479	10632.21
538.845	10558.31
539.21	10556.05
539.575	10455.26
539.94	10449.61
540.305	10462.95
540.67	10316.28
541.034	10328.71
541.399	10244.42
541.764	10175.04
542.129	10147.25
542.494	10069.74
542.858	10087.59
543.223	10007.59
543.587	10027.7
543.952	9868.16
544.316	9862.51
544.681	9766.92
545.045	9823.41
545.41	9729.41
545.774	9679.69
546.138	9672.68
546.503	9576.41
546.867	9559.69
547.231	9552.46
547.595	9504.33
547.959	9425.23
548.324	9425.46
548.688	9267.5
549.052	9270.66
549.416	9255.29
549.779	9155.41
550.143	9131.91
550.507	9158.12
550.871	9092.59
551.235	8999.71
551.599	9043.55
551.962	9003.1
552.326	8857.79
552.689	8901.63
553.053	8811.69
553.417	8778.47
553.78	8782.76
554.143	8732.37
554.507	8676.78
554.87	8636.1
555.234	8650.79
555.597	8592.26
555.96	8538.93
556.323	8569.89
556.686	8521.08
557.05	8531.92
557.413	8462.09
557.776	8433.85
558.139	8415.32
558.502	8356.11
558.865	8350.68
559.228	8364.02
559.59	8311.59
559.953	8251.7
560.316	8393.17
560.679	8223.23
561.041	8263.68
561.404	8244.7
561.767	8242.66
562.129	8237.02
562.492	8218.26
562.854	8240.63
563.217	8106.4
563.579	8159.05
563.941	8172.16
564.304	8181.2
564.666	8146.17
565.028	8128.54
565.39	8093.29
565.753	8140.52
566.115	8147.3
566.477	8122.22
566.839	8119.73
567.201	8099.17
567.563	8033.18
567.925	8094.42
568.287	8090.58
568.648	8090.13
569.01	8077.02
569.372	8084.7
569.734	8056
570.095	8139.62
570.457	8143.01
570.819	8125.83
571.18	8050.58
571.542	8052.84
571.903	8077.02
572.265	8105.49
572.626	8052.16
572.987	8140.29
573.349	8077.47
573.71	8059.84
574.071	8081.54
574.432	8080.86
574.794	8078.15
575.155	8070.24
575.516	8057.36
575.877	8043.8
576.238	8043.8
576.599	8085.38
576.96	8073.86
577.32	8006.74
577.681	8062.1
578.042	8033.63
578.403	8045.61
578.763	8071.6
579.124	8032.05
579.485	8028.66
579.845	8107.07
580.206	7998.83
580.566	7977.13
580.927	7995.44
581.287	8063.69
581.648	7943.01
582.008	8040.18
582.368	7944.59
582.728	7914.76
583.089	7927.19
583.449	7960.64
583.809	7932.16
584.169	7985.72
584.529	7914.99
584.889	8003.35
585.249	7811.94
585.609	7846.06
585.969	7921.77
586.329	7785.28
586.688	7872.96
587.048	7886.74
587.408	7862.34
587.768	7784.6
588.127	7863.24
588.487	7812.39
588.846	7820.08
589.206	7818.95
589.565	7841.55
589.925	7855.33
590.284	7804.03
590.643	7774.65
591.003	7814.65
591.362	7831.15
591.721	7823.01
592.08	7756.12
592.44	7799.29
592.799	7744.37
593.158	7774.2
593.517	7728.1
593.876	7711.38
594.235	7740.98
594.593	7710.48
594.952	7686.97
595.311	7691.94
595.67	7642.23
596.029	7748.67
596.387	7671.61
596.746	7685.62
597.104	7670.02
597.463	7597.48
597.822	7680.42
598.18	7650.14
598.538	7648.33
598.897	7708.89
599.255	7602.23
599.613	7660.08
599.972	7634.55
600.33	7654.88
600.688	7606.75
601.046	7596.35
601.404	7682
601.762	7604.94
602.12	7651.27
602.478	7664.6
602.836	7609.46
603.194	7603.36
603.552	7612.17
603.91	7539.18
604.268	7628.9
604.625	7541.21
604.983	7544.38
605.341	7556.13
605.698	7615.56
606.056	7509.58
606.413	7567.65
606.771	7570.14
607.128	7572.85
607.485	7634.77
607.843	7622.34
608.2	7575.34
608.557	7610.36
608.914	7557.26
609.272	7595.45
609.629	7638.84
609.986	7623.25
610.343	7536.02
610.7	7665.5
611.057	7649.23
611.414	7637.93
611.771	7587.54
612.127	7645.84
612.484	7650.59
612.841	7686.97
613.198	7708.89
613.554	7640.42
613.911	7712.06
614.267	7694.2
614.624	7679.29
614.98	7653.3
615.337	7735.79
615.693	7657.14
616.05	7690.59
616.406	7716.12
616.762	7703.47
617.118	7664.37
617.475	7644.26
617.831	7785.28
618.187	7729.46
618.543	7743.69
618.899	7789.12
619.255	7787.76
619.611	7644.94
619.967	7817.59
620.323	7758.61
620.678	7778.04
621.034	7737.14
621.39	7733.98
621.746	7718.61
622.101	7827.99
622.457	7652.85
622.812	7738.72
623.168	7763.13
623.523	7693.07
623.879	7766.97
624.234	7733.98
624.589	7715.45
624.945	7744.6
625.3	7795.67
625.655	7714.32
626.01	7718.38
626.365	7753.64
626.72	7724.03
627.075	7697.59
627.43	7752.96
627.785	7711.15
628.14	7670.25
628.495	7716.8
628.85	7726.07
629.205	7703.7
629.559	7665.73
629.914	7649.23
630.269	7697.82
630.623	7646.75
630.978	7624.6
631.332	7672.28
631.687	7612.4
632.041	7587.99
632.396	7642.23
632.75	7622.34
633.104	7582.12
633.459	7625.05
633.813	7551.61
634.167	7556.13
634.521	7590.7
634.875	7573.76
635.229	7544.15
635.583	7522.46
635.937	7458.73
636.291	7506.41
636.645	7545.28
636.999	7515.9
637.352	7491.5
637.706	7552.51
638.06	7493.76
638.413	7460.31
638.767	7424.83
639.121	7449.69
639.474	7419.64
639.828	7409.69
640.181	7395
640.534	7397.49
640.888	7385.74
641.241	7390.26
641.594	7394.55
641.947	7389.13
642.301	7371.73
642.654	7383.48
643.007	7349.81
643.36	7352.29
643.713	7372.86
644.066	7367.43
644.419	7334.44
644.771	7268.9
645.124	7206.76
645.477	7225.29
645.83	7187.33
646.182	7146.2
646.535	7106.65
646.888	7094.45
647.24	7079.76
647.593	7164.05
647.945	7086.08
648.298	7060.32
648.65	7082.02
649.002	7089.93
649.355	7122.47
649.707	7078.18
650.059	7174.67
650.411	7197.49
650.763	7261.45
651.115	7268.23
651.467	7259.41
651.819	7265.06
652.171	7316.36
652.523	7251.96
652.875	7257.61
653.227	7284.72
653.578	7292.41
653.93	7257.38
654.282	7216.93
654.633	7211.51
654.985	7196.82
655.337	7269.58
655.688	7246.76
656.039	7281.79
656.391	7230.04
656.742	7244.5
657.094	7311.84
657.445	7288.34
657.796	7293.76
658.147	7248.79
658.498	7297.83
658.849	7245.63
659.2	7328.34
659.551	7290.37
659.902	7295.12
660.253	7290.6
660.604	7381.9
660.955	7306.19
661.306	7342.58
661.656	7317.27
662.007	7294.89
662.358	7333.31
662.708	7341.9
663.059	7333.99
663.409	7276.36
663.76	7331.5
664.11	7334.44
664.461	7339.19
664.811	7355.68
665.161	7397.94
665.511	7349.13
665.862	7320.88
666.212	7383.93
666.562	7395.46
666.912	7327.89
667.262	7377.38
667.612	7357.94
667.962	7333.08
668.312	7361.11
668.662	7379.64
669.011	7335.12
669.361	7309.81
669.711	7344.16
670.06	7308.23
670.41	7335.8
670.76	7369.69
671.109	7298.51
671.459	7308
671.808	7279.07
672.157	7326.98
672.507	7312.75
672.856	7246.76
673.205	7248.34
673.554	7271.84
673.904	7264.16
674.253	7259.87
674.602	7268.9
674.951	7156.82
675.3	7123.6
675.649	7266.19
675.998	7253.76
676.346	7228
676.695	7271.16
677.044	7186.2
677.393	7163.14
677.741	7240.43
678.09	7206.08
678.438	7168.12
678.787	7177.61
679.135	7131.96
679.484	7130.6
679.832	7115.01
680.181	7134.67
680.529	7164.5
680.877	7086.08
681.225	7093.54
681.573	7159.98
681.922	7053.77
682.27	7057.39
682.618	6991.4
682.966	7070.04
683.314	7038.63
683.661	6954.79
684.009	6992.53
684.357	6900.78
684.705	6868.46
685.053	6913.66
685.4	7002.02
685.748	6910.72
686.095	6888.12
686.443	6868.69
686.79	6828.01
687.138	6867.79
687.485	6866.66
687.832	6808.58
688.18	6794.12
688.527	6746.21
688.874	6727.68
689.221	6752.08
689.568	6717.06
689.915	6708.69
690.262	6654.46
690.609	6698.3
690.956	6651.07
691.303	6655.36
691.65	6561.13
691.997	6573.56
692.344	6530.17
692.69	6566.1
693.037	6483.16
693.383	6484.74
693.73	6476.16
694.077	6424.41
694.423	6424.41
694.769	6421.24
695.116	6354.13
695.462	6316.39
695.808	6316.39
696.155	6313
696.501	6280.23
696.847	6320
697.193	6228.93
697.539	6192.55
697.885	6217.41
698.231	6208.59
698.577	6221.7
698.923	6148.71
699.269	6099.67
699.614	6121.36
699.96	6067.81
700.306	6072.78
700.651	6089.95
700.997	5990.75
701.342	5995.49
701.688	5958.43
702.033	5975.38
702.379	5900.35
702.724	5903.97
703.069	5872.11
703.415	5829.62
703.76	5819.68
704.105	5812.9
704.45	5821.49
704.795	5817.87
705.14	5740.13
705.485	5737.42
705.83	5687.7
706.175	5746.69
706.52	5707.14
706.865	5662.85
707.209	5674.14
707.554	5652
707.899	5670.3
708.243	5603.41
708.588	5602.96
708.932	5608.16
709.277	5583.3
709.621	5526.35
709.966	5502.17
710.31	5549.63
710.654	5463.3
710.998	5494.49
711.342	5492.68
711.687	5459.91
712.031	5466.24
712.375	5433.25
712.719	5442.74
713.063	5385.34
713.407	5445
713.75	5374.72
714.094	5398.9
714.438	5378.56
714.782	5357.99
715.125	5314.83
715.469	5370.2
715.812	5340.82
716.156	5325.91
716.499	5283.87
716.843	5301.95
717.186	5271.67
717.53	5299.69
717.873	5305.57
718.216	5259.47
718.559	5280.03
718.902	5220.82
719.246	5267.6
719.589	5269.86
719.932	5224.66
720.275	5279.13
720.617	5248.39
720.96	5231.22
721.303	5188.06
721.646	5217.66
721.989	5169.75
722.331	5203.65
722.674	5175.63
723.016	5226.47
723.359	5188.73
723.701	5194.38
724.044	5171.11
724.386	5214.95
724.729	5208.17
725.071	5185.12
725.413	5143.99
725.755	5206.36
726.097	5109.87
726.439	5124.78
726.782	5135.85
727.124	5159.13
727.465	5137.89
727.807	5116.19
728.149	5113.03
728.491	5111.67
728.833	5103.09
729.175	5147.6
729.516	5167.94
729.858	5118
730.199	5158
730.541	5123.88
730.882	5173.82
731.224	5121.16
731.565	5118
731.906	5146.25
732.248	5080.49
732.589	5117.32
732.93	5107.83
733.271	5108.28
733.612	5145.57
733.953	5169.98
734.294	5101.5
734.635	5147.6
734.976	5124.55
735.317	5102.18
735.658	5135.4
735.999	5124.1
736.339	5198.22
736.68	5188.51
737.021	5193.03
737.361	5156.19
737.702	5186.47
738.042	5187.6
738.383	5210.2
738.723	5247.26
739.063	5210.88
739.404	5202.29
739.744	5256.98
740.084	5235.96
740.424	5232.57
740.764	5226.47
741.104	5274.38
741.444	5241.84
741.784	5337.88
742.124	5321.84
742.464	5330.42
742.804	5372.01
743.143	5355.51
743.483	5372.68
743.823	5341.72
744.162	5418.11
744.502	5448.84
744.841	5434.15
745.181	5509.4
745.52	5500.59
745.86	5540.59
746.199	5584.43
746.538	5630.98
746.877	5703.75
747.216	5706.46
747.556	5727.7
747.895	5746.91
748.234	5773.8
748.573	5848.15
748.911	5858.32
749.25	5941.93
749.589	5957.08
749.928	6074.13
750.267	6161.14
750.605	6199.55
750.944	6268.25
751.283	6247.69
751.621	6382.15
751.96	6467.12
752.298	6581.92
752.636	6691.97
752.975	6714.8
753.313	6811.52
753.651	7010.61
753.989	7002.7
754.327	7152.98
754.666	7211.73
755.004	7323.37
755.342	7530.14
755.679	7579.18
756.017	7697.82
756.355	7866.86
756.693	7950.24
757.031	8173.51
757.368	8276.34
757.706	8403.11
758.044	8510.45
758.381	8735.08
758.719	8859.82
759.056	9033.15
759.394	9139.82
759.731	9287.38
760.068	9540.48
760.405	9658.67
760.743	9778.9
761.08	9950.19
761.417	10061.83
761.754	10255.04
762.091	10493.9
762.428	10564.64
762.765	10743.62
763.102	10955.81
763.438	11092.99
763.775	11329.59
764.112	11495.91
764.449	11695.46
764.785	11794.21
765.122	11888.67
765.458	12122.56
765.795	12266.97
766.131	12466.96
766.467	12564.13
766.804	12765.26
767.14	12780.85
767.476	13003.44
767.812	13203.44
