Data from hue_130_FLMS001491_00015.txt Node
Date: Tue Feb 07 16:57:14 GMT 2017
User: dcchb
Spectrometer: FLMS00149
Trigger mode: 0
Integration Time (sec): 2.000000E-2
Scans to average: 10
Electric dark correction enabled: true
Nonlinearity correction enabled: false
Boxcar width: 0
XAxis mode: Wavelengths
Number of Pixels in Spectrum: 2048
>>>>>Begin Spectral Data<<<<<
341.393	-16.91
341.776	-16.91
342.16	-16.91
342.543	-52.84
342.927	-65.94
343.31	-55.1
343.693	-57.58
344.077	-57.36
344.46	-66.4
344.843	-64.59
345.226	-48.54
345.61	-16.68
345.993	-7.19
346.376	-3.8
346.759	23.32
347.142	9.31
347.525	36.65
347.908	53.83
348.291	62.41
348.674	91.34
349.057	100.38
349.44	123.88
349.823	132.47
350.206	176.99
350.588	193.94
350.971	213.14
351.354	209.53
351.737	229.87
352.119	247.95
352.502	271.67
352.884	289.3
353.267	274.61
353.65	280.04
354.032	288.4
354.414	296.53
354.797	314.16
355.179	318
355.562	322.97
355.944	316.64
356.326	333.37
356.709	329.3
357.091	332.24
357.473	334.04
357.855	336.76
358.238	326.36
358.62	327.04
359.002	345.8
359.384	347.83
359.766	340.37
360.148	337.43
360.53	321.84
360.912	336.53
361.294	324.33
361.676	345.34
362.057	336.53
362.439	332.24
362.821	335.63
363.203	351.9
363.584	329.75
363.966	339.24
364.348	313.03
364.729	321.39
365.111	321.39
365.493	323.88
365.874	294.05
366.256	308.96
366.637	311.45
367.019	300.83
367.4	328.62
367.781	315.74
368.163	309.86
368.544	298.11
368.925	303.54
369.306	315.29
369.688	316.87
370.069	306.93
370.45	311.45
370.831	322.52
371.212	322.07
371.593	311.9
371.974	308.51
372.355	341.73
372.736	312.35
373.117	298.11
373.498	340.15
373.879	310.99
374.26	320.26
374.641	309.41
375.021	315.74
375.402	296.53
375.783	310.32
376.163	318.9
376.544	320.94
376.925	332.46
377.305	319.13
377.686	325.46
378.066	320.26
378.447	324.33
378.827	316.19
379.208	336.98
379.588	317.55
379.968	323.2
380.349	329.98
380.729	341.95
381.109	359.35
381.489	359.35
381.87	337.89
382.25	323.2
382.63	341.28
383.01	360.26
383.39	345.57
383.77	363.65
384.15	338.56
384.53	339.47
384.91	335.4
385.29	324.55
385.67	351.9
386.049	348.51
386.429	350.77
386.809	353.71
387.189	357.77
387.568	357.55
387.948	367.94
388.328	347.83
388.707	351.45
389.087	359.81
389.466	344.44
389.846	354.38
390.225	370.2
390.605	370.2
390.984	360.71
391.363	341.95
391.743	374.5
392.122	373.14
392.501	358.45
392.881	362.29
393.26	374.5
393.639	381.5
394.018	373.59
394.397	381.05
394.776	386.02
395.155	374.72
395.534	381.73
395.913	376.08
396.292	364.1
396.671	382.41
397.05	383.54
397.429	392.8
397.808	394.83
398.186	376.3
398.565	403.2
398.944	354.84
399.323	400.48
399.701	408.85
400.08	382.63
400.458	408.85
400.837	404.33
401.215	398.68
401.594	400.03
401.972	408.62
402.351	404.1
402.729	397.55
403.107	405.46
403.486	411.56
403.864	402.97
404.242	429.86
404.62	430.09
404.999	408.39
405.377	397.55
405.755	422.86
406.133	427.38
406.511	441.61
406.889	406.81
407.267	426.92
407.645	438.22
408.023	421.05
408.401	418.79
408.779	445.45
409.156	453.36
409.534	454.04
409.912	436.87
410.29	452.69
410.667	464.66
411.045	460.82
411.422	456.53
411.8	489.3
412.178	481.39
412.555	467.83
412.933	468.28
413.31	491.33
413.687	475.74
414.065	489.52
414.442	476.87
414.819	481.16
415.197	482.06
415.574	496.3
415.951	491.55
416.328	482.06
416.705	503.08
417.082	499.46
417.46	513.25
417.837	511.22
418.214	506.24
418.591	504.21
418.967	540.37
419.344	522.06
419.721	516.41
420.098	526.36
420.475	538.56
420.852	534.72
421.228	527.71
421.605	531.55
421.982	552.12
422.358	557.32
422.735	556.86
423.111	549.18
423.488	553.02
423.864	563.19
424.241	561.38
424.617	546.47
424.994	578.11
425.37	569.74
425.746	575.85
426.123	550.08
426.499	571.33
426.875	585.34
427.251	578.33
427.627	588.5
428.003	597.54
428.379	599.8
428.756	607.26
429.132	601.38
429.507	620.59
429.883	608.16
430.259	617.2
430.635	633.92
431.011	626.92
431.387	646.13
431.763	642.96
432.138	626.01
432.514	651.78
432.89	675.5
433.265	683.87
433.641	690.87
434.016	705.11
434.392	664.43
434.767	703.07
435.143	704.66
435.518	709.4
435.894	691.1
436.269	705.11
436.644	713.92
437.02	727.93
437.395	742.85
437.77	718.67
438.145	733.58
438.52	734.49
438.895	748.72
439.271	760.93
439.646	764.77
440.021	757.99
440.395	796.41
440.77	774.94
441.145	772.9
441.52	763.86
441.895	800.7
442.27	802.06
442.645	787.82
443.019	803.19
443.394	791.89
443.769	843.64
444.143	814.26
444.518	819.91
444.892	825.33
445.267	858.1
445.641	844.54
446.016	838.66
446.39	856.74
446.764	863.07
447.139	864.43
447.513	866.23
447.887	862.84
448.262	879.79
448.636	901.49
449.01	893.8
449.384	898.55
449.758	925.22
450.132	909.85
450.506	929.06
450.88	915.27
451.254	925.89
451.628	936.29
452.002	956.18
452.376	958.89
452.75	965.89
453.123	964.76
453.497	977.19
453.871	981.94
454.244	996.85
454.618	1000.24
454.992	1003.41
455.365	1018.77
455.739	1030.98
456.112	1041.14
456.486	1064.42
456.859	1083.86
457.232	1079.56
457.606	1088.6
457.979	1092.22
458.352	1096.74
458.725	1146.9
459.099	1152.1
459.472	1159.11
459.845	1128.15
460.218	1172.67
460.591	1193.23
460.964	1204.76
461.337	1215.38
461.71	1240.01
462.083	1234.59
462.456	1269.61
462.829	1263.29
463.201	1282.04
463.574	1311.42
463.947	1310.74
464.32	1334.92
464.692	1387.12
465.065	1369.05
465.438	1398.42
465.81	1422.15
466.183	1447.46
466.555	1461.25
466.928	1489.72
467.3	1447.01
467.672	1491.53
468.045	1542.83
468.417	1568.14
468.789	1574.92
469.161	1591.64
469.534	1622.37
469.906	1644.97
470.278	1680.9
470.65	1693.56
471.022	1772.43
471.394	1787.11
471.766	1811.75
472.138	1870.28
472.51	1877.51
472.882	1935.58
473.253	1970.61
473.625	1942.36
473.997	2069.82
474.369	2093.32
474.74	2140.1
475.112	2127.22
475.484	2236.37
475.855	2264.84
476.227	2315.24
476.598	2404.95
476.97	2398.85
477.341	2543.7
477.713	2561.78
478.084	2591.61
478.455	2692.17
478.827	2743.25
479.198	2833.41
479.569	2889.46
479.94	3037.02
480.311	3074.54
480.682	3131.26
481.053	3255.1
481.424	3345.49
481.795	3407.18
482.166	3489.67
482.537	3582.1
482.908	3695.99
483.279	3745.03
483.65	3909.77
484.021	3991.35
484.391	4100.27
484.762	4156.32
485.133	4218.46
485.503	4367.16
485.874	4499.81
486.244	4665.46
486.615	4748.17
486.985	4890.54
487.356	4948.61
487.726	5109.74
488.097	5217.98
488.467	5346.57
488.837	5516.73
489.207	5628.59
489.578	5760.57
489.948	5854.13
490.318	6020.22
490.688	6127.11
491.058	6254.34
491.428	6379.08
491.798	6541.34
492.168	6719.64
492.538	6810.71
492.908	7003.02
493.278	7154.43
493.648	7174.77
494.017	7328.66
494.387	7498.15
494.757	7554.19
495.126	7779.05
495.496	7827.86
495.866	7970
496.235	8148.75
496.605	8252.25
496.974	8382.42
497.344	8458.8
497.713	8598.23
498.082	8737.21
498.452	8850.66
498.821	8917.77
499.19	8969.98
499.559	9173.13
499.928	9240.25
500.298	9366.35
500.667	9438.89
501.036	9503.3
501.405	9635.04
501.774	9684.08
502.143	9842.27
502.512	9942.61
502.88	10016.28
503.249	10101.7
503.618	10167.23
503.987	10311.18
504.356	10340.11
504.724	10394.35
505.093	10544.62
505.462	10465.3
505.83	10690.61
506.199	10707.56
506.567	10915.91
506.936	10963.82
507.304	10962.47
507.672	11091.95
508.041	11140.31
508.409	11249.01
508.777	11284.72
509.145	11409.91
509.514	11516.8
509.882	11547.99
510.25	11632.73
510.618	11563.35
510.986	11671.6
511.354	11796.79
511.722	11795.89
512.09	11919.05
512.458	11908.2
512.826	11941.2
513.193	12109.33
513.561	12049.9
513.929	12129.67
514.297	12209.66
514.664	12293.05
515.032	12317.23
515.4	12476.55
515.767	12401.3
516.135	12475.42
516.502	12372.15
516.869	12636.32
517.237	12654.85
517.604	12545.48
517.972	12671.12
518.339	12644.68
518.706	12688.07
519.073	12786.82
519.44	12817.78
519.808	12835.19
520.175	12847.39
520.542	12967.16
520.909	12971.23
521.276	12943.43
521.643	13172.8
522.009	13113.37
522.376	13159.92
522.743	13140.49
523.11	13208.28
523.477	13304.78
523.843	13335.51
524.21	13372.35
524.577	13468.61
524.943	13450.54
525.31	13438.33
525.676	13520.82
526.043	13616.41
526.409	13617.99
526.776	13718.78
527.142	13647.59
527.508	13660.25
527.874	13745.9
528.241	13707.25
528.607	13597.65
528.973	13769.62
529.339	13675.39
529.705	13815.72
530.071	13756.74
530.437	13775.5
530.803	13826.35
531.169	13879.45
531.535	13799.68
531.901	13815.05
532.267	13802.62
532.632	13801.94
532.998	13836.74
533.364	13893.46
533.73	13834.93
534.095	13794.48
534.461	13869.28
534.826	13864.99
535.192	13767.82
535.557	13779.79
535.923	13813.01
536.288	13729.85
536.653	13726.46
537.019	13740.02
537.384	13733.69
537.749	13670.87
538.114	13660.47
538.479	13625.22
538.845	13660.93
539.21	13549.29
539.575	13543.87
539.94	13460.93
540.305	13607.82
540.67	13444.66
541.034	13532.34
541.399	13493.02
541.764	13459.58
542.129	13432.68
542.494	13343.19
542.858	13363.98
543.223	13303.65
543.587	13297.77
543.952	13258.9
544.316	13259.81
544.681	13185.68
545.045	13231.11
545.41	13258.22
545.774	13174.39
546.138	13103.88
546.503	13083.54
546.867	13066.82
547.231	13072.69
547.595	13082.64
547.959	12996.08
548.324	13039.02
548.688	13047.61
549.052	12920.83
549.416	12894.62
549.779	12900.04
550.143	12846.48
550.507	12876.77
550.871	12737.56
551.235	12691.01
551.599	12810.33
551.962	12758.8
552.326	12684.45
552.689	12735.98
553.053	12595.64
553.417	12587.51
553.78	12695.3
554.143	12539.15
554.507	12582.54
554.87	12624.34
555.234	12636.55
555.597	12557
555.96	12522.88
556.323	12474.06
556.686	12536.89
557.05	12498.92
557.413	12441.52
557.776	12396.33
558.139	12466.38
558.502	12531.46
558.865	12369.21
559.228	12457.12
559.59	12425.48
559.953	12377.57
560.316	12452.82
560.679	12503.44
561.041	12415.54
561.404	12493.05
561.767	12531.69
562.129	12416.44
562.492	12535.76
562.854	12457.57
563.217	12552.71
563.579	12490.34
563.941	12484.01
564.304	12577.11
564.666	12657.11
565.028	12538.47
565.39	12605.36
565.753	12612.14
566.115	12566.94
566.477	12601.29
566.839	12595.87
567.201	12686.04
567.563	12627.73
567.925	12728.52
568.287	12635.42
568.648	12665.7
569.01	12741.85
569.372	12775.3
569.734	12689.2
570.095	12775.3
570.457	12826.6
570.819	12730.1
571.18	12746.15
571.542	12850.55
571.903	12808.52
572.265	12811.46
572.626	12828.63
572.987	12849.65
573.349	12841.96
573.71	12846.03
574.071	12804.23
574.432	12909.99
574.794	12912.7
575.155	12928.29
575.516	12957.67
575.877	12896.65
576.238	12925.8
576.599	12992.24
576.96	12925.13
577.32	12947.72
577.681	12924.45
578.042	12983.66
578.403	13038.57
578.763	12905.24
579.124	12947.72
579.485	13032.92
579.845	13059.81
580.206	13055.74
580.566	13001.06
580.927	12961.06
581.287	12983.43
581.648	12947.27
582.008	13023.65
582.368	12994.73
582.728	12927.39
583.089	12978.01
583.449	12916.99
583.809	12978.91
584.169	12864.56
584.529	12911.57
584.889	13009.87
585.249	12999.25
585.609	12837.22
585.969	12964.9
586.329	12852.13
586.688	12858.24
587.048	12835.64
587.408	12792.25
587.768	12947.05
588.127	12856.65
588.487	12811.23
588.846	12827.05
589.206	12738.24
589.565	12738.24
589.925	12852.36
590.284	12808.29
590.643	12834.51
591.003	12871.57
591.362	12786.15
591.721	12860.27
592.08	12799.71
592.44	12838.12
592.799	12863.21
593.158	12750.44
593.517	12772.36
593.876	12769.2
594.235	12710.89
594.593	12692.36
594.952	12742.31
595.311	12681.97
595.67	12707.28
596.029	12786.37
596.387	12690.33
596.746	12818.01
597.104	12698.01
597.463	12720.39
597.822	12830.89
598.18	12688.07
598.538	12714.28
598.897	12777.33
599.255	12615.76
599.613	12809.65
599.972	12712.02
600.33	12719.71
600.688	12716.77
601.046	12721.97
601.404	12771.91
601.762	12661.4
602.12	12728.07
602.478	12679.48
602.836	12767.84
603.194	12695.3
603.552	12702.53
603.91	12685.58
604.268	12675.19
604.625	12684
604.983	12681.06
605.341	12672.93
605.698	12801.29
606.056	12791.57
606.413	12708.63
606.771	12737.11
607.128	12842.19
607.485	12653.72
607.843	12720.84
608.2	12788.86
608.557	12856.88
608.914	12797.9
609.272	12860.95
609.629	12825.24
609.986	12807.62
610.343	12802.19
610.7	12879.03
611.057	12898.91
611.414	12862.53
611.771	12839.48
612.127	12858.69
612.484	12896.43
612.841	12891.91
613.198	12954.28
613.554	12821.17
613.911	12967.16
614.267	12959.7
614.624	12983.66
614.98	13028.85
615.337	13045.8
615.693	12995.86
616.05	12923.54
616.406	13022.75
616.762	12995.18
617.118	12981.62
617.475	12986.37
617.831	13118.12
618.187	13075.86
618.543	13089.87
618.899	13014.39
619.255	13025.46
619.611	12991.57
619.967	13154.95
620.323	13119.7
620.678	13054.61
621.034	13125.8
621.39	13067.95
621.746	13009.64
622.101	13113.82
622.457	13059.36
622.812	13143.88
623.168	13161.5
623.523	13177.1
623.879	13154.5
624.234	13129.64
624.589	13098.68
624.945	13157.89
625.3	13108.62
625.655	13075.86
626.01	13174.16
626.365	13132.35
626.72	13077.44
627.075	13128.96
627.43	13121.28
627.785	13035.18
628.14	13196.31
628.495	13108.17
628.85	13180.03
629.205	12994.28
629.559	13152.46
629.914	13073.37
630.269	13057.33
630.623	13088.51
630.978	13015.97
631.332	13020.04
631.687	13063.88
632.041	12975.75
632.396	13036.76
632.75	13055.74
633.104	12944.11
633.459	12858.69
633.813	12976.42
634.167	12883.55
634.521	12933.71
634.875	12977.33
635.229	12900.72
635.583	12837.9
635.937	12828.63
636.291	12791.12
636.645	12803.1
636.999	12728.3
637.352	12789.76
637.706	12730.56
638.06	12756.09
638.413	12699.14
638.767	12710.22
639.121	12716.32
639.474	12661.63
639.828	12624.8
640.181	12710.22
640.534	12646.04
640.888	12676.32
641.241	12597.23
641.594	12595.19
641.947	12637.45
642.301	12642.42
642.654	12492.82
643.007	12673.16
643.36	12571.46
643.713	12533.5
644.066	12567.17
644.419	12514.52
644.771	12545.7
645.124	12339.6
645.477	12382.77
645.83	12272.49
646.182	12225.48
646.535	12235.65
646.888	12268.65
647.24	12148.42
647.593	12217.12
647.945	12166.28
648.298	12104.81
648.65	12100.97
649.002	12090.12
649.355	12201.53
649.707	12145.26
650.059	12153.4
650.411	12377.34
650.763	12378.02
651.115	12487.85
651.467	12408.3
651.819	12352.49
652.171	12384.8
652.523	12400.62
652.875	12422.99
653.227	12357.01
653.578	12470.45
653.93	12425.25
654.282	12355.2
654.633	12306.84
654.985	12297.35
655.337	12362.66
655.688	12412.6
656.039	12441.98
656.391	12340.06
656.742	12368.76
657.094	12392.94
657.445	12452.6
657.796	12359.94
658.147	12298.02
658.498	12333.28
658.849	12425.93
659.2	12393.16
659.551	12408.98
659.902	12429.09
660.253	12354.07
660.604	12406.95
660.955	12323.56
661.306	12468.64
661.656	12393.84
662.007	12471.58
662.358	12430
662.708	12442.2
663.059	12450.11
663.409	12345.93
663.76	12434.97
664.11	12524.01
664.461	12474.29
664.811	12403.11
665.161	12410.56
665.511	12453.27
665.862	12455.31
666.212	12476.1
666.562	12452.6
666.912	12446.49
667.262	12456.89
667.612	12400.17
667.962	12548.19
668.312	12425.25
668.662	12447.85
669.011	12445.14
669.361	12434.07
669.711	12390.45
670.06	12442.88
670.41	12453.5
670.76	12394.97
671.109	12414.63
671.459	12399.26
671.808	12426.16
672.157	12420.05
672.507	12282.88
672.856	12217.12
673.205	12306.84
673.554	12385.03
673.904	12318.36
674.253	12397.68
674.602	12274.75
674.951	12189.33
675.3	12123.57
675.649	12345.48
675.998	12254.18
676.346	12277.01
676.695	12324.69
677.044	12202.43
677.393	12222.55
677.741	12282.66
678.09	12171.93
678.438	12150.23
678.787	12214.18
679.135	12134.86
679.484	12058.03
679.832	12170.57
680.181	12034.3
680.529	12079.05
680.877	11990.01
681.225	12008.77
681.573	12049.9
681.922	11951.82
682.27	11941.88
682.618	11880.18
682.966	11944.36
683.314	11875.66
683.661	11924.93
684.009	11781.65
684.357	11776.46
684.705	11803.35
685.053	11767.64
685.4	11804.03
685.748	11641.54
686.095	11681.09
686.443	11707.98
686.79	11630.02
687.138	11607.87
687.485	11684.93
687.832	11675.89
688.18	11646.06
688.527	11559.74
688.874	11540.3
689.221	11544.82
689.568	11458.05
689.915	11427.09
690.262	11415.56
690.609	11378.95
690.956	11357.26
691.303	11319.52
691.65	11286.53
691.997	11275.9
692.344	11188.9
692.69	11151.84
693.037	11158.62
693.383	11032.97
693.73	11096.47
694.077	10997.49
694.423	11015.12
694.769	10936.7
695.116	10921.34
695.462	10875.91
695.808	10926.99
696.155	10884.28
696.501	10774.45
696.847	10724.73
697.193	10613.55
697.539	10710.04
697.885	10662.36
698.231	10557.05
698.577	10583.04
698.923	10568.58
699.269	10469.6
699.614	10421.92
699.96	10439.99
700.306	10422.37
700.651	10344.4
700.997	10332.43
701.342	10306.89
701.688	10289.72
702.033	10228.25
702.379	10155.93
702.724	10238.19
703.069	10124.52
703.415	10037.07
703.76	10028.25
704.105	10003.17
704.45	10023.51
704.795	9943.74
705.14	9956.62
705.485	9912.55
705.83	9896.28
706.175	9838.43
706.52	9750.52
706.865	9779.45
707.209	9715.72
707.554	9705.32
707.899	9776.28
708.243	9711.2
708.588	9622.39
708.932	9589.17
709.277	9573.12
709.621	9576.06
709.966	9486.8
710.31	9415.84
710.654	9372.23
710.998	9419
711.342	9425.56
711.687	9414.71
712.031	9402.28
712.375	9355.73
712.719	9332.68
713.063	9326.12
713.407	9306.46
713.75	9285.45
714.094	9300.81
714.438	9205
714.782	9235.73
715.125	9139.69
715.469	9173.13
715.812	9108.05
716.156	9151.67
716.499	9105.34
716.843	9161.16
717.186	9040.03
717.53	9160.71
717.873	9114.83
718.216	9077.77
718.559	9070.99
718.902	9003.42
719.246	9031.67
719.589	8935.4
719.932	8950.99
720.275	8999.35
720.617	8930.2
720.96	8917.32
721.303	8933.37
721.646	8954.38
721.989	8874.16
722.331	8939.47
722.674	8895.4
723.016	8888.17
723.359	8910.77
723.701	8875.06
724.044	8846.82
724.386	8808.17
724.729	8822.86
725.071	8811.34
725.413	8800.04
725.755	8831.22
726.097	8741.73
726.439	8760.72
726.782	8783.09
727.124	8781.73
727.465	8694.05
727.807	8739.02
728.149	8739.93
728.491	8732.24
728.833	8741.06
729.175	8744.9
729.516	8721.39
729.858	8682.07
730.199	8715.52
730.541	8713.49
730.882	8675.75
731.224	8735.18
731.565	8735.41
731.906	8671
732.248	8753.48
732.589	8650.44
732.93	8639.82
733.271	8695.63
733.612	8666.03
733.953	8618.12
734.294	8712.36
734.635	8692.92
734.976	8731.34
735.317	8645.92
735.658	8744.45
735.999	8705.12
736.339	8666.71
736.68	8726.14
737.021	8666.48
737.361	8689.31
737.702	8748.29
738.042	8707.38
738.383	8657.44
738.723	8675.29
739.063	8630.1
739.404	8721.85
739.744	8693.83
740.084	8670.55
740.424	8773.15
740.764	8694.95
741.104	8767.95
741.444	8724.33
741.784	8766.37
742.124	8779.25
742.464	8849.3
742.804	8839.13
743.143	8855.85
743.483	8835.97
743.823	8765.91
744.162	8883.2
744.502	8933.37
744.841	8977.89
745.181	9018.11
745.52	9016.08
745.86	9033.25
746.199	9062.18
746.538	9120.71
746.877	9153.93
747.216	9203.42
747.556	9223.53
747.895	9296.75
748.234	9303.53
748.573	9362.28
748.911	9387.37
749.25	9515.72
749.589	9554.59
749.928	9641.6
750.267	9649.05
750.605	9698.09
750.944	9789.39
751.283	9806.34
751.621	9976.05
751.96	10048.37
752.298	10040.91
752.636	10295.14
752.975	10224.41
753.313	10294.69
753.651	10591.18
753.989	10568.58
754.327	10683.6
754.666	10774.22
755.004	10931.96
755.342	11060.99
755.679	11189.13
756.017	11187.09
756.355	11441.78
756.693	11490.14
757.031	11613.97
757.368	11788.88
757.706	11923.8
758.044	12109.78
758.381	12291.7
758.719	12344.58
759.056	12547.51
759.394	12683.1
