Data from hue_00_FLMS001491_80.txt Node
Date: Mon Feb 06 15:30:13 GMT 2017
User: dcchb
Spectrometer: FLMS00149
Trigger mode: 0
Integration Time (sec): 2.000000E-2
Scans to average: 10
Electric dark correction enabled: true
Nonlinearity correction enabled: false
Boxcar width: 0
XAxis mode: Wavelengths
Number of Pixels in Spectrum: 2048
>>>>>Begin Spectral Data<<<<<
341.393	-28.12
341.776	-28.12
342.16	-28.12
342.543	-38.97
342.927	-60.66
343.31	-54.11
343.693	-64.28
344.077	-53.43
344.46	-72.19
344.843	-50.49
345.226	-49.36
345.61	-44.84
345.993	-22.02
346.376	-16.37
346.759	18.66
347.142	18.66
347.525	34.02
347.908	64.53
348.291	80.35
348.674	91.88
349.057	118.99
349.44	137.98
349.823	141.82
350.206	158.99
350.588	194.25
350.971	206.68
351.354	215.49
351.737	241.02
352.119	243.74
352.502	266.79
352.884	280.35
353.267	283.74
353.65	303.85
354.032	319.89
354.414	295.26
354.797	326.45
355.179	330.29
355.562	335.03
355.944	317.18
356.326	317.18
356.709	337.52
357.091	318.31
357.473	309.95
357.855	328.48
358.238	350.63
358.62	348.82
359.002	370.96
359.384	343.39
359.766	344.52
360.148	345.65
360.53	317.41
360.912	319.89
361.294	334.58
361.676	335.26
362.057	318.76
362.439	321.7
362.821	318.54
363.203	329.61
363.584	321.47
363.966	306.56
364.348	315.83
364.729	307.92
365.111	303.17
365.493	318.99
365.874	309.27
366.256	302.04
366.637	326.67
367.019	308.37
367.4	288.48
367.781	287.13
368.163	334.36
368.544	307.01
368.925	304.53
369.306	315.83
369.688	308.14
370.069	299.55
370.45	306.33
370.831	281.02
371.212	307.92
371.593	307.92
371.974	307.69
372.355	294.58
372.736	328.48
373.117	298.88
373.498	301.81
373.879	298.88
374.26	321.93
374.641	318.08
375.021	303.85
375.402	317.86
375.783	298.88
376.163	302.27
376.544	332.1
376.925	315.15
377.305	319.44
377.686	341.81
378.066	329.84
378.447	345.43
378.827	323.73
379.208	338.65
379.588	330.29
379.968	323.96
380.349	319.67
380.729	328.03
381.109	332.1
381.489	314.02
381.87	329.16
382.25	320.8
382.63	323.73
383.01	332.32
383.39	315.15
383.77	316.5
384.15	321.25
384.53	344.3
384.91	338.88
385.29	323.73
385.67	341.81
386.049	342.94
386.429	344.3
386.809	335.71
387.189	328.71
387.568	333.9
387.948	342.04
388.328	347.91
388.707	316.5
389.087	364.41
389.466	355.82
389.846	368.25
390.225	374.58
390.605	356.28
390.984	342.49
391.363	375.71
391.743	370.06
392.122	360.34
392.501	340.68
392.881	365.54
393.26	368.7
393.639	355.6
394.018	378.2
394.397	377.97
394.776	356.05
395.155	370.06
395.534	351.53
395.913	362.15
396.292	353.11
396.671	368.25
397.05	371.42
397.429	363.73
397.808	364.64
398.186	362.83
398.565	349.72
398.944	379.33
399.323	375.26
399.701	369.61
400.08	360.12
400.458	384.07
400.837	384.07
401.215	379.78
401.594	370.96
401.972	393.34
402.351	354.02
402.729	375.03
403.107	383.85
403.486	383.39
403.864	383.17
404.242	384.98
404.62	410.29
404.999	412.77
405.377	398.53
405.755	424.75
406.133	405.54
406.511	398.31
406.889	390.63
407.267	390.85
407.645	389.95
408.023	395.14
408.401	382.72
408.779	392.21
409.156	413.68
409.534	408.03
409.912	415.48
410.29	427.01
410.667	406.9
411.045	420.91
411.422	431.3
411.8	421.36
412.178	442.6
412.555	413
412.933	427.01
413.31	427.91
413.687	450.28
414.065	450.74
414.442	419.55
414.819	453.67
415.197	451.41
415.574	460
415.951	443.28
416.328	458.42
416.705	444.41
417.082	448.02
417.46	468.36
417.837	469.72
418.214	470.4
418.591	470.85
418.967	488.93
419.344	479.66
419.721	494.35
420.098	479.66
420.475	480.11
420.852	488.48
421.228	495.26
421.605	479.89
421.982	509.27
422.358	507.91
422.735	512.88
423.111	487.12
423.488	521.92
423.864	512.43
424.241	526.67
424.617	515.14
424.994	504.29
425.37	515.14
425.746	543.84
426.123	545.65
426.499	523.73
426.875	546.78
427.251	533.22
427.627	545.88
428.003	551.07
428.379	533.67
428.756	551.07
429.132	555.14
429.507	571.64
429.883	550.4
430.259	528.02
430.635	570.96
431.011	550.62
431.387	594.01
431.763	573.22
432.138	601.69
432.514	606.44
432.89	601.69
433.265	584.07
433.641	606.89
434.016	616.38
434.392	609.6
434.767	607.57
435.143	601.47
435.518	600.11
435.894	628.36
436.269	640.34
436.644	628.81
437.02	658.87
437.395	634.23
437.77	652.77
438.145	639.88
438.52	650.05
438.895	669.26
439.271	673.33
439.646	676.27
440.021	684.85
440.395	658.64
440.77	664.74
441.145	663.61
441.52	678.98
441.895	677.62
442.27	699.09
442.645	690.05
443.019	690.96
443.394	686.21
443.769	709.71
444.143	707.91
444.518	746.77
444.892	707.23
445.267	735.7
445.641	707.23
446.016	721.46
446.39	723.72
446.764	730.05
447.139	697.28
447.513	740.9
447.887	739.54
448.262	729.37
448.636	731.63
449.01	761.46
449.384	746.77
449.758	769.82
450.132	750.16
450.506	772.76
450.88	783.16
451.254	747
451.628	747.45
452.002	770.95
452.376	789.48
452.75	777.06
453.123	767.79
453.497	805.76
453.871	801.24
454.244	810.73
454.618	802.59
454.992	806.66
455.365	824.29
455.739	845.75
456.112	824.51
456.486	834
456.859	842.36
457.232	860.44
457.606	853.66
457.979	891.18
458.352	880.56
458.725	878.07
459.099	909.71
459.472	899.54
459.845	913.1
460.218	909.93
460.591	925.75
460.964	912.42
461.337	947.9
461.71	961.01
462.083	955.36
462.456	975.47
462.829	949.71
463.201	969.14
463.574	979.54
463.947	1002.36
464.32	1035.81
464.692	1015.92
465.065	1034
465.438	1038.07
465.81	1039.42
466.183	1067.22
466.555	1069.7
466.928	1083.94
467.3	1070.38
467.672	1101.12
468.045	1119.87
468.417	1114
468.789	1122.36
469.161	1118.52
469.534	1145.41
469.906	1147.22
470.278	1170.72
470.65	1163.94
471.022	1213.2
471.394	1238.29
471.766	1213.2
472.138	1251.39
472.51	1258.17
472.882	1297.49
473.253	1286.87
473.625	1304.95
473.997	1342.92
474.369	1357.15
474.74	1378.17
475.112	1416.36
475.484	1419.3
475.855	1409.58
476.227	1470.14
476.598	1499.97
476.97	1505.17
477.341	1511.5
477.713	1524.38
478.084	1563.48
478.455	1621.1
478.827	1628.56
479.198	1675.11
479.569	1668.56
479.94	1724.83
480.311	1730.48
480.682	1776.8
481.053	1814.54
481.424	1862.45
481.795	1884.6
482.166	1926.63
482.537	1917.59
482.908	1966.18
483.279	1982.22
483.65	2026.51
484.021	2064.03
484.391	2087.3
484.762	2149
485.133	2106.06
485.503	2163.46
485.874	2216.11
486.244	2219.28
486.615	2238.03
486.985	2355.55
487.356	2363.45
487.726	2341.76
488.097	2425.83
488.467	2454.53
488.837	2492.49
489.207	2543.56
489.578	2573.17
489.948	2561.19
490.318	2607.06
490.688	2655.88
491.058	2682.77
491.428	2718.25
491.798	2754.4
492.168	2802.99
492.538	2833.72
492.908	2847.96
493.278	2918.02
493.648	2916.89
494.017	2948.07
494.387	3007.73
494.757	3017.9
495.126	3043.44
495.496	3056.32
495.866	3106.71
496.235	3128.86
496.605	3152.36
496.974	3166.82
497.344	3191.68
497.713	3230.55
498.082	3213.6
498.452	3306.93
498.821	3318.91
499.19	3324.79
499.559	3353.71
499.928	3398
500.298	3375.41
500.667	3433.94
501.036	3390.77
501.405	3422.64
501.774	3451.79
502.143	3500.83
502.512	3502.18
502.88	3517.55
503.249	3543.99
503.618	3573.59
503.987	3567.26
504.356	3623.99
504.724	3655.4
505.093	3601.39
505.462	3635.29
505.83	3643.42
506.199	3702.4
506.567	3725.68
506.936	3721.39
507.304	3733.36
507.672	3805.45
508.041	3808.39
508.409	3806.58
508.777	3817.65
509.145	3850.42
509.514	3837.54
509.882	3880.48
510.25	3875.51
510.618	3912.34
510.986	3894.04
511.354	3935.62
511.722	3929.52
512.09	3980.14
512.458	3995.05
512.826	3957.99
513.193	4002.51
513.561	4023.98
513.929	4042.73
514.297	4063.07
514.664	4077.31
515.032	4098.78
515.4	4091.09
515.767	4134.48
516.135	4132.22
516.502	4148.27
516.869	4171.77
517.237	4160.92
517.604	4182.39
517.972	4193.46
518.339	4199.11
518.706	4233.91
519.073	4219.68
519.44	4211.99
519.808	4251.31
520.175	4241.6
520.542	4293.57
520.909	4269.39
521.276	4295.83
521.643	4338.09
522.009	4379.45
522.376	4363.85
522.743	4409.5
523.11	4423.51
523.477	4425.32
523.843	4409.28
524.21	4491.31
524.577	4529.5
524.943	4540.35
525.31	4549.84
525.676	4612.21
526.043	4583.06
526.409	4627.58
526.776	4647.24
527.142	4644.52
527.508	4702.6
527.874	4739.66
528.241	4735.14
528.607	4756.84
528.973	4759.78
529.339	4794.13
529.705	4814.69
530.071	4819.66
530.437	4876.61
530.803	4891.75
531.169	4883.39
531.535	4825.31
531.901	4911.41
532.267	4890.39
532.632	4973.33
532.998	4958.64
533.364	5019.88
533.73	5048.58
534.095	5050.62
534.461	5068.92
534.826	5122.48
535.192	5110.95
535.557	5138.98
535.923	5136.04
536.288	5132.42
536.653	5222.59
537.019	5171.74
537.384	5247.67
537.749	5231.63
538.114	5231.85
538.479	5320.89
538.845	5310.04
539.21	5296.26
539.575	5328.12
539.94	5371.06
540.305	5405.86
540.67	5340.78
541.034	5384.62
541.399	5408.12
541.764	5418.97
542.129	5487.21
542.494	5505.75
542.858	5535.12
543.223	5479.53
543.587	5576.93
543.952	5578.29
544.316	5602.01
544.681	5569.7
545.045	5658.28
545.41	5703.48
545.774	5737.38
546.138	5723.82
546.503	5731.5
546.867	5711.39
547.231	5799.07
547.595	5857.6
547.959	5849.46
548.324	5841.56
548.688	5847.21
549.052	5910.03
549.416	5928.11
549.779	5896.92
550.143	5946.19
550.507	5984.6
550.871	5933.53
551.235	5947.54
551.599	6028.67
551.962	6006.97
552.326	6007.65
552.689	6066.41
553.053	6136.01
553.417	6110.02
553.78	6173.07
554.143	6160.87
554.507	6172.17
554.87	6148.44
555.234	6208.55
555.597	6257.59
555.96	6238.38
556.323	6283.8
556.686	6280.64
557.05	6333.07
557.413	6344.14
557.776	6314.09
558.139	6386.85
558.502	6393.63
558.865	6400.41
559.228	6438.83
559.59	6454.42
559.953	6463.46
560.316	6536
560.679	6496.45
561.041	6551.14
561.404	6617.58
561.767	6604.25
562.129	6576.68
562.492	6606.28
562.854	6573.74
563.217	6630.24
563.579	6609.67
563.941	6669.33
564.304	6786.16
564.666	6733.96
565.028	6757.24
565.39	6778.48
565.753	6794.07
566.115	6854.64
566.477	6856.67
566.839	6877.23
567.201	6851.47
567.563	6916.78
567.925	6962.43
568.287	6968.08
568.648	7024.58
569.01	7040.85
569.372	7068.64
569.734	7095.31
570.095	7108.41
570.457	7179.6
570.819	7154.97
571.18	7183.44
571.542	7206.49
571.903	7250.78
572.265	7302.53
572.626	7415.53
572.987	7358.8
573.349	7413.72
573.71	7493.26
574.071	7460.04
574.432	7547.05
574.794	7628.85
575.155	7618.01
575.516	7734.61
575.877	7762.41
576.238	7848.96
576.599	7885.8
576.96	7947.71
577.32	8034.04
577.681	8125.79
578.042	8180.93
578.403	8288.95
578.763	8338.44
579.124	8384.09
579.485	8509.51
579.845	8606
580.206	8653.68
580.566	8773.46
580.927	8858.2
581.287	9086.89
581.648	9139.32
582.008	9288.92
582.368	9377.06
582.728	9564.17
583.089	9617.73
583.449	9803.71
583.809	9913.76
584.169	10085.29
584.529	10215.23
584.889	10488.44
585.249	10628.77
585.609	10699.51
585.969	10956.68
586.329	11153.73
586.688	11478.02
587.048	11498.81
587.408	11725.47
587.768	11962.75
588.127	12233.7
588.487	12366.36
588.846	12693.13
589.206	12864.65
589.565	13099.22
589.925	13444.29
590.284	13596.15
590.643	13825.3
591.003	14083.15
591.362	14514.1
591.721	14679.29
592.08	14847.87
592.44	15143.91
592.799	15381.19
593.158	15634.74
593.517	16028.86
593.876	16256.42
594.235	16615.51
594.593	16799.46
594.952	17032.22
595.311	17328.49
595.67	17706.1
596.029	18048.92
596.387	18274.45
596.746	18615.23
597.104	18833.98
597.463	19028.55
597.822	19427.86
598.18	19661.76
598.538	19995.76
598.897	20325.24
599.255	20340.84
599.613	21003.64
599.972	21157.99
600.33	21462.84
600.688	21741.93
601.046	21992.32
601.404	22313.66
601.762	22507.33
602.12	22972.18
602.478	23134.43
602.836	23367.87
603.194	23526.51
603.552	23919.05
603.91	24057.12
604.268	24490.33
604.625	24644.22
604.983	24875.41
605.341	25096.64
605.698	25362.17
606.056	25627.7
606.413	25857.53
606.771	26129.84
607.128	26427.68
607.485	26407.12
607.843	26823.6
608.2	27027.44
608.557	27364.15
608.914	27402.8
609.272	27758.27
609.629	28046.62
609.986	28259.27
610.343	28441.41
610.7	28705.36
611.057	28797.34
611.414	28963.43
611.771	29118.91
612.127	29440.03
612.484	29543.98
612.841	29789.4
613.198	29873.92
613.554	30181.71
613.911	30371.08
614.267	30519.32
614.624	30606.55
614.98	30825.98
615.337	31078.18
615.693	31226.42
616.05	31332.18
616.406	31531.73
616.762	31562.91
617.118	31780.99
617.475	31846.97
617.831	32082
618.187	32182.11
618.543	32351.59
618.899	32595.65
619.255	32663.22
619.611	32759.04
619.967	33079.03
620.323	33166.94
620.678	33083.33
621.034	33096.66
621.39	33398.57
621.746	33276.99
622.101	33774.61
622.457	33658.45
622.812	33777.54
623.168	33881.04
623.523	33975.5
623.879	34186.8
624.234	33995.84
624.589	34188.83
624.945	34394.25
625.3	34399.9
625.655	34433.35
626.01	34575.72
626.365	34623.62
626.72	34721.25
627.075	34740.23
627.43	34714.47
627.785	34647.13
628.14	34861.81
628.495	34958.08
628.85	34886.89
629.205	34748.82
629.559	35040.79
629.914	35135.47
630.269	35153.1
630.623	35037.62
630.978	34942.71
631.332	35210.73
631.687	35314.23
632.041	35224.51
632.396	35308.13
632.75	35268.35
633.104	35405.3
633.459	35221.8
633.813	35219.31
634.167	35278.3
634.521	35353.77
634.875	35364.17
635.229	35408.01
635.583	35187.45
635.937	35271.52
636.291	35269.71
636.645	35368.91
636.999	35176.15
637.352	35349.25
637.706	35185.19
638.06	35322.36
638.413	35322.14
638.767	35255.02
639.121	35446.2
639.474	35176.15
639.828	35209.37
640.181	35207.11
640.534	35380.67
640.888	35209.6
641.241	34958.76
641.594	35194.91
641.947	35224.06
642.301	35166.66
642.654	35142.48
643.007	35282.36
643.36	35244.85
643.713	35135.02
644.066	35181.57
644.419	35025.87
644.771	34792.43
645.124	34511.76
645.477	34560.8
645.83	34239.45
646.182	34220.7
646.535	34118.78
646.888	34109.96
647.24	33986.58
647.593	34226.57
647.945	34121.26
648.298	34138.21
648.65	33867.49
649.002	33732.35
649.355	33989.74
649.707	33955.39
650.059	34081.04
650.411	34570.07
650.763	34535.26
651.115	34886.89
651.467	34857.74
651.819	34837.63
652.171	34808.03
652.523	34539.33
652.875	34665.88
653.227	34457.98
653.578	34853.22
653.93	34777.52
654.282	34579.56
654.633	34555.38
654.985	34516.28
655.337	34649.84
655.688	34552.89
656.039	34677.41
656.391	34344.31
656.742	34417.08
657.094	34558.54
657.445	34630.85
657.796	34446
658.147	34410.07
658.498	34380.24
658.849	34419.11
659.2	34521.03
659.551	34347.7
659.902	34456.85
660.253	34316.74
660.604	34528.48
660.955	34271.54
661.306	34534.59
661.656	34286.68
662.007	34262.28
662.358	34377.53
662.708	34327.36
663.059	34323.52
663.409	34195.61
663.76	34455.49
664.11	34405.55
664.461	34323.97
664.811	34396.06
665.161	34192.67
665.511	34181.83
665.862	34369.62
666.212	34403.97
666.562	34329.39
666.912	34360.13
667.262	34255.05
667.612	34439.67
667.962	34309.73
668.312	34264.08
668.662	34431.31
669.011	34319.68
669.361	34227.93
669.711	34183.86
670.06	34177.08
670.41	34209.85
670.76	34048.27
671.109	34241.26
671.459	34117.87
671.808	34165.78
672.157	34112.22
672.507	33907.71
672.856	33977.54
673.205	34034.26
673.554	34089.4
673.904	34018.44
674.253	34079.46
674.602	34148.38
674.951	33527.16
675.3	33438.34
675.649	33980.93
675.998	33938.22
676.346	33957.88
676.695	34076.52
677.044	33655.74
677.393	33911.78
677.741	33823.64
678.09	33857.77
678.438	33650.77
678.787	33823.87
679.135	33825
679.484	33579.36
679.832	33759.01
680.181	33535.06
680.529	33621.62
680.877	33550.21
681.225	33478.12
681.573	33755.85
681.922	33398.12
682.27	33278.57
682.618	33326.26
682.966	33234.73
683.314	33402.41
683.661	33237.45
684.009	33097.79
684.357	33077.45
684.705	32928.98
685.053	33102.08
685.4	32945.93
685.748	32751.36
686.095	32980.73
686.443	32681.53
686.79	32738.93
687.138	32789.77
687.485	32718.14
687.832	32508.42
688.18	32520.63
688.527	32419.61
688.874	32516.79
689.221	32387.07
689.568	32199.73
689.915	32267.08
690.262	32126.97
690.609	32004.03
690.956	31979.85
691.303	31987.76
691.65	31788.67
691.997	31794.09
692.344	31637.49
692.69	31588.68
693.037	31797.71
693.383	31406.31
693.73	31616.24
694.077	31285.18
694.423	31220.78
694.769	31217.16
695.116	31159.99
695.462	31084.06
695.808	31038.18
696.155	31079.31
696.501	30822.59
696.847	30830.28
697.193	30563.17
697.539	30708.7
697.885	30447.01
698.231	30381.7
698.577	30277.98
698.923	30455.82
699.269	30249.5
699.614	30103.74
699.96	30071.2
700.306	30048.83
700.651	29934.26
700.997	29869.4
701.342	29850.19
701.688	29761.6
702.033	29664.21
702.379	29692.91
702.724	29523.87
703.069	29533.14
703.415	29231
703.76	29273.26
704.105	29269.64
704.45	29143.32
704.795	29058.35
705.14	28871.23
705.485	28935.86
705.83	28885.02
706.175	28917.33
706.52	28781.52
706.865	28640.5
707.209	28646.38
707.554	28426.5
707.899	28617.68
708.243	28464.01
708.588	28392.37
708.932	28218.82
709.277	28167.07
709.621	28209.1
709.966	28057.69
710.31	28014.31
710.654	27910.81
710.998	27894.53
711.342	27807.98
711.687	27838.94
712.031	27709.23
712.375	27554.43
712.719	27704.94
713.063	27603.47
713.407	27641.66
713.75	27405.06
714.094	27488.9
714.438	27392.85
714.782	27379.97
715.125	27243.03
715.469	27197.38
715.812	27068.12
716.156	27046.42
716.499	27057.27
716.843	26986.99
717.186	26768.46
717.53	26981.79
717.873	26964.84
718.216	26788.12
718.559	26811.17
718.902	26598.07
719.246	26649.37
719.589	26579.32
719.932	26424.74
720.275	26496.38
720.617	26518.3
720.96	26392.65
721.303	26393.33
721.646	26435.36
721.989	26248.7
722.331	26192.66
722.674	26170.29
723.016	26272.2
723.359	26075.37
723.701	26053.23
724.044	25971.87
724.386	25876.73
724.729	26039.22
725.071	25888.26
725.413	25898.66
725.755	25801.71
726.097	25742.95
726.439	25663.41
726.782	25674.03
727.124	25746.34
727.465	25526.01
727.807	25713.58
728.149	25514.48
728.491	25490.53
728.833	25444.43
729.175	25483.52
729.516	25411.21
729.858	25405.56
730.199	25299.57
730.541	25257.77
730.882	25191.56
731.224	25311.1
731.565	25050.99
731.906	25128.73
732.248	25152.91
732.589	25016.42
732.93	24989.98
733.271	24937.1
733.612	24948.85
733.953	24971
734.294	24944.78
734.635	24769.42
734.976	24857.33
735.317	24763.54
735.658	24645.81
735.999	24672.25
736.339	24535.3
736.68	24725.58
737.021	24686.26
737.361	24486.26
737.702	24577.11
738.042	24553.38
738.383	24520.39
738.723	24516.32
739.063	24397
739.404	24480.39
739.744	24329.43
740.084	24246.04
740.424	24302.76
740.764	24213.5
741.104	24340.05
741.444	24181.64
741.784	24100.74
742.124	24122.43
742.464	24018.25
742.804	24125.59
743.143	24013.73
743.483	23973.51
743.823	23778.94
744.162	23842.89
744.502	23807.86
744.841	23787.75
745.181	23859.61
745.52	23735.55
745.86	23836.56
746.199	23720.86
746.538	23684.93
746.877	23720.41
747.216	23622.78
747.556	23580.07
747.895	23629.34
748.234	23546.4
748.573	23569.22
748.911	23381.66
749.25	23391.83
749.589	23326.75
749.928	23314.99
750.267	23347.31
750.605	23242.68
750.944	23254.66
751.283	23127.2
751.621	23360.42
751.96	23001.78
752.298	23130.59
752.636	23107.32
752.975	23003.36
753.313	22937.83
753.651	23008.34
753.989	22842.92
754.327	22816.25
754.666	22738.96
755.004	22651.73
755.342	22701.68
755.679	22597.05
756.017	22556.82
756.355	22589.82
756.693	22526.09
757.031	22518.63
757.368	22444.06
757.706	22342.36
758.044	22321.35
758.381	22359.09
758.719	22300.56
759.056	22215.36
759.394	22228.92
759.731	22085.2
760.068	22004.97
760.405	21999.77
760.743	21918.87
761.08	21839.1
761.417	21753.68
