Data from hue_270_FLMS001491_00055.txt Node
Date: Tue Feb 07 15:57:23 GMT 2017
User: dcchb
Spectrometer: FLMS00149
Trigger mode: 0
Integration Time (sec): 2.000000E-2
Scans to average: 10
Electric dark correction enabled: true
Nonlinearity correction enabled: false
Boxcar width: 0
XAxis mode: Wavelengths
Number of Pixels in Spectrum: 2048
>>>>>Begin Spectral Data<<<<<
341.393	-13.87
341.776	-13.87
342.16	-13.87
342.543	-54.09
342.927	-67.2
343.31	-55.68
343.693	-54.09
344.077	-57.48
344.46	-56.81
344.843	-57.03
345.226	-44.6
345.61	-29.24
345.993	0.37
346.376	-17.94
346.759	11.89
347.142	19.35
347.525	29.97
347.908	55.28
348.291	77.2
348.674	95.51
349.057	83.3
349.44	133.25
349.823	134.37
350.206	160.36
350.588	215.05
350.971	207.82
351.354	230.19
351.737	218.67
352.119	238.55
352.502	255.95
352.884	246.46
353.267	243.75
353.65	306.12
354.032	287.37
354.414	308.16
354.797	307.25
355.179	301.38
355.562	312.22
355.944	322.62
356.326	337.99
356.709	315.39
357.091	336.63
357.473	339.34
357.855	346.12
358.238	316.74
358.62	334.6
359.002	333.47
359.384	351.32
359.766	310.64
360.148	324.88
360.53	315.39
360.912	336.18
361.294	325.56
361.676	327.82
362.057	324.88
362.439	321.49
362.821	334.14
363.203	319.68
363.584	307.25
363.966	325.78
364.348	329.4
364.729	339.79
365.111	312.22
365.493	308.61
365.874	310.87
366.256	327.59
366.637	323.97
367.019	310.19
367.4	342.05
367.781	298.89
368.163	295.05
368.544	316.74
368.925	299.34
369.306	317.42
369.688	339.57
370.069	300.25
370.45	308.61
370.831	309.51
371.212	286.91
371.593	316.97
371.974	320.58
372.355	305.22
372.736	329.62
373.117	323.52
373.498	317.2
373.879	319.91
374.26	324.43
374.641	311.32
375.021	322.62
375.402	312
375.783	315.84
376.163	356.29
376.544	315.61
376.925	304.99
377.305	310.87
377.686	339.12
378.066	336.4
378.447	319.91
378.827	327.36
379.208	322.39
379.588	326.46
379.968	344.99
380.349	348.61
380.729	323.3
381.109	332.56
381.489	343.64
381.87	352.22
382.25	334.14
382.63	350.64
383.01	366.91
383.39	332.11
383.77	334.6
384.15	343.41
384.53	368.95
384.91	326.69
385.29	345.67
385.67	368.04
386.049	363.3
386.429	344.09
386.809	366.01
387.189	363.75
387.568	371.43
387.948	360.81
388.328	356.97
388.707	355.16
389.087	357.87
389.466	354.03
389.846	361.49
390.225	378.66
390.605	382.05
390.984	362.62
391.363	382.05
391.743	382.96
392.122	357.19
392.501	378.21
392.881	382.5
393.26	387.02
393.639	394.03
394.018	391.32
394.397	390.41
394.776	387.93
395.155	394.26
395.534	357.87
395.913	403.29
396.292	414.59
396.671	385.89
397.05	411.66
397.429	423.63
397.808	406.46
398.186	407.14
398.565	401.26
398.944	416.63
399.323	409.62
399.701	414.14
400.08	416.18
400.458	421.6
400.837	422.28
401.215	416.63
401.594	444.65
401.972	459.56
402.351	423.18
402.729	440.36
403.107	451.65
403.486	438.55
403.864	446.01
404.242	443.29
404.62	455.5
404.999	445.1
405.377	450.75
405.755	465.89
406.133	456.17
406.511	476.29
406.889	484.2
407.267	471.99
407.645	489.62
408.023	474.25
408.401	493.46
408.779	490.07
409.156	502.95
409.534	499.79
409.912	517.42
410.29	523.52
410.667	523.52
411.045	514.03
411.422	533.91
411.8	536.85
412.178	558.77
412.555	588.15
412.933	568.26
413.31	560.8
413.687	570.52
414.065	595.61
414.442	589.05
414.819	588.6
415.197	613.91
415.574	627.7
415.951	621.59
416.328	614.14
416.705	618.88
417.082	643.51
417.46	617.07
417.837	626.34
418.214	669.95
418.591	670.86
418.967	681.71
419.344	683.51
419.721	722.61
420.098	688.48
420.475	714.02
420.852	730.29
421.228	732.78
421.605	718.31
421.982	728.94
422.358	774.81
422.735	771.19
423.111	767.35
423.488	760.35
423.864	789.72
424.241	774.13
424.617	809.61
424.994	796.05
425.37	828.14
425.746	836.73
426.123	843.06
426.499	847.12
426.875	859.55
427.251	874.24
427.627	894.81
428.003	899.1
428.379	921.02
428.756	929.83
429.132	959.44
429.507	921.92
429.883	922.15
430.259	982.04
430.635	975.26
431.011	982.49
431.387	1029.04
431.763	1010.96
432.138	1020.91
432.514	1052.54
432.89	1029.04
433.265	1054.8
433.641	1074.01
434.016	1081.92
434.392	1128.02
434.767	1123.5
435.143	1131.86
435.518	1166.89
435.894	1165.76
436.269	1210.5
436.644	1225.42
437.02	1242.14
437.395	1234.01
437.77	1278.98
438.145	1291.63
438.52	1289.82
438.895	1297.96
439.271	1334.34
439.646	1359.43
440.021	1365.76
440.395	1339.54
440.77	1362.59
441.145	1398.3
441.52	1401.91
441.895	1433.78
442.27	1432.19
442.645	1469.26
443.019	1455.02
443.394	1471.29
443.769	1478.29
444.143	1469.93
444.518	1484.62
444.892	1505.64
445.267	1495.92
445.641	1547.9
446.016	1563.94
446.39	1552.64
446.764	1548.58
447.139	1593.09
447.513	1631.74
447.887	1579.53
448.262	1605.75
448.636	1597.84
449.01	1622.02
449.384	1659.08
449.758	1664.5
450.132	1655.69
450.506	1652.3
450.88	1678.97
451.254	1679.42
451.628	1669.25
452.002	1721.45
452.376	1694.33
452.75	1711.73
453.123	1767.78
453.497	1784.5
453.871	1787.89
454.244	1796.03
454.618	1830.6
454.992	1881.67
455.365	1869.92
455.739	1909.47
456.112	1881.22
456.486	1937.49
456.859	1925.74
457.232	1949.24
457.606	1960.99
457.979	1944.04
458.352	2005.51
458.725	2033.76
459.099	2020.2
459.472	2062.91
459.845	2098.17
460.218	2133.19
460.591	2122.8
460.964	2117.37
461.337	2168.67
461.71	2191.27
462.083	2224.26
462.456	2203.47
462.829	2235.79
463.201	2268.56
463.574	2287.09
463.947	2297.48
464.32	2360.08
464.692	2368.89
465.065	2358.72
465.438	2411.83
465.81	2416.57
466.183	2441.21
466.555	2496.35
466.928	2496.57
467.3	2486.86
467.672	2522.33
468.045	2603.91
468.417	2611.82
468.789	2622.45
469.161	2638.72
469.534	2719.62
469.906	2707.87
470.278	2714.19
470.65	2765.94
471.022	2800.52
471.394	2871.25
471.766	2870.35
472.138	2875.09
472.51	2929.33
472.882	2977.92
473.253	2943.79
473.625	3009.78
473.997	3122.77
474.369	3082.09
474.74	3132.94
475.112	3170
475.484	3239.6
475.855	3290
476.227	3300.39
476.598	3367.74
476.97	3381.75
477.341	3430.33
477.713	3464.91
478.084	3482.31
478.455	3563.21
478.827	3608.18
479.198	3704.22
479.569	3689.99
479.94	3765.69
480.311	3758.46
480.682	3832.81
481.053	3922.98
481.424	3974.95
481.795	3962.75
482.166	4054.27
482.537	4103.76
482.908	4095.85
483.279	4198.45
483.65	4276.19
484.021	4306.92
484.391	4360.25
484.762	4401.38
485.133	4364.09
485.503	4447.93
485.874	4522.28
486.244	4610.19
486.615	4648.83
486.985	4672.33
487.356	4746.01
487.726	4750.3
488.097	4851.54
488.467	4820.58
488.837	4906.9
489.207	4982.84
489.578	5039.33
489.948	5085.66
490.318	5112.78
490.688	5188.03
491.058	5223.96
491.428	5280.68
491.798	5293.56
492.168	5417.63
492.538	5408.59
492.908	5475.93
493.278	5516.83
493.648	5546.89
494.017	5581.46
494.387	5608.58
494.757	5619.88
495.126	5727.67
495.496	5709.37
495.866	5694.91
496.235	5766.32
496.605	5865.98
496.974	5879.76
497.344	5894.68
497.713	5919.76
498.082	5944.39
498.452	6022.13
498.821	6086.99
499.19	6027.78
499.559	6050.15
499.928	6068.68
500.298	6098.51
500.667	6143.93
501.036	6162.24
501.405	6225.06
501.774	6268.23
502.143	6232.29
502.512	6318.85
502.88	6285.17
503.249	6341.67
503.618	6371.73
503.987	6355
504.356	6397.26
504.724	6429.8
505.093	6431.84
505.462	6452.63
505.83	6467.09
506.199	6509.57
506.567	6555.68
506.936	6579.63
507.304	6615.56
507.672	6573.3
508.041	6627.31
508.409	6661.21
508.777	6688.33
509.145	6790.7
509.514	6721.09
509.882	6787.99
510.25	6722
510.618	6769.23
510.986	6850.13
511.354	6863.01
511.722	6829.57
512.09	6926.51
512.458	6854.88
512.826	6921.99
513.193	6924.03
513.561	6920.64
513.929	6972.61
514.297	7047.87
514.664	7022.1
515.032	7080.86
515.4	7095.55
515.767	7097.58
516.135	7112.72
516.502	7084.93
516.869	7100.52
517.237	7193.17
517.604	7139.39
517.972	7214.41
518.339	7159.05
518.706	7149.78
519.073	7227.07
519.44	7173.96
519.808	7256
520.175	7281.98
520.542	7358.37
520.909	7374.41
521.276	7354.98
521.643	7459.38
522.009	7423.45
522.376	7477.68
522.743	7515.42
523.11	7567.4
523.477	7590.9
523.843	7597
524.21	7663.22
524.577	7654.18
524.943	7670.45
525.31	7712.71
525.676	7698.02
526.043	7713.61
526.409	7740.5
526.776	7815.3
527.142	7821.63
527.508	7826.6
527.874	7907.05
528.241	7874.74
528.607	7889.43
528.973	7930.55
529.339	7983.66
529.705	7973.72
530.071	7970.55
530.437	8047.39
530.803	8019.14
531.169	8096.2
531.535	8037.9
531.901	8092.13
532.267	8105.01
532.632	8116.31
532.998	8229.98
533.364	8223.2
533.73	8173.26
534.095	8222.3
534.461	8235.4
534.826	8291
535.192	8249.19
535.557	8279.25
535.923	8259.59
536.288	8322.18
536.653	8328.28
537.019	8268.17
537.384	8272.24
537.749	8340.71
538.114	8370.99
538.479	8292.13
538.845	8383.65
539.21	8309.75
539.575	8328.74
539.94	8420.71
540.305	8460.03
540.67	8449.64
541.034	8394.72
541.399	8413.03
541.764	8465.68
542.129	8512.23
542.494	8406.02
542.858	8510.2
543.223	8502.97
543.587	8479.24
543.952	8449.18
544.316	8511.56
544.681	8463.65
545.045	8524.89
545.41	8648.95
545.774	8504.78
546.138	8558.56
546.503	8589.97
546.867	8554.27
547.231	8643.53
547.595	8643.76
547.959	8654.15
548.324	8644.89
548.688	8600.14
549.052	8648.5
549.416	8672.23
549.779	8631.33
550.143	8660.03
550.507	8703.19
550.871	8766.92
551.235	8722.17
551.599	8719.69
551.962	8727.82
552.326	8731.89
552.689	8794.03
553.053	8751.55
553.417	8706.58
553.78	8858.44
554.143	8812.56
554.507	8811.66
554.87	8805.33
555.234	8887.37
555.597	8790.64
555.96	8854.82
556.323	8886.91
556.686	8915.61
557.05	8992
557.413	8919.68
557.776	8938.44
558.139	8939.57
558.502	8972.11
558.865	9024.31
559.228	9065.21
559.59	9102.73
559.953	9134.36
560.316	9139.79
560.679	9164.19
561.041	9199
561.404	9271.99
561.767	9217.98
562.129	9284.64
562.492	9394.7
562.854	9276.28
563.217	9277.64
563.579	9409.61
563.941	9391.08
564.304	9406.67
564.666	9482.38
565.028	9539.78
565.39	9421.36
565.753	9518.54
566.115	9582.49
566.477	9568.48
566.839	9552.21
567.201	9653.45
567.563	9708.59
567.925	9700.23
568.287	9791.75
568.648	9706.33
569.01	9793.56
569.372	9885.53
569.734	9773.22
570.095	9853.44
570.457	9998.52
570.819	9970.73
571.18	9958.75
571.542	10005.53
571.903	10004.17
572.265	10084.85
572.626	10058.41
572.987	10138.41
573.349	10138.63
573.71	10196.71
574.071	10201.45
574.432	10252.53
574.794	10320.77
575.155	10311.06
575.516	10325.97
575.877	10361.9
576.238	10443.93
576.599	10440.77
576.96	10438.74
577.32	10478.96
577.681	10578.62
578.042	10588.34
578.403	10528
578.763	10593.99
579.124	10605.29
579.485	10645.29
579.845	10770.25
580.206	10708.33
580.566	10791.04
580.927	10812.29
581.287	10822.68
581.648	10847.99
582.008	10876.24
582.368	10857.93
582.728	10876.69
583.089	10941.32
583.449	10946.75
583.809	10973.64
584.169	11036.01
584.529	11089.79
584.889	11113.75
585.249	11100.41
585.609	11134.09
585.969	11191.94
586.329	11152.84
586.688	11203.69
587.048	11242.33
587.408	11219.28
587.768	11233.07
588.127	11247.98
588.487	11333.63
588.846	11416.56
589.206	11347.41
589.565	11446.85
589.925	11490.01
590.284	11432.83
590.643	11526.62
591.003	11485.71
591.362	11547.86
591.721	11524.81
592.08	11641.42
592.44	11578.14
592.799	11650.23
593.158	11616.11
593.517	11674.64
593.876	11753.28
594.235	11690.91
594.593	11748.76
594.952	11775.65
595.311	11753.73
595.67	11796.67
596.029	11796.44
596.387	11885.7
596.746	11934.52
597.104	11885.7
597.463	11930.22
597.822	11887.74
598.18	11868.98
598.538	11943.33
598.897	12013.38
599.255	11906.27
599.613	12150.1
599.972	12031.01
600.33	12086.38
600.688	12021.52
601.046	12093.16
601.404	12079.37
601.762	12049.32
602.12	12144.91
602.478	12126.6
602.836	12118.24
603.194	12127.96
603.552	12198.46
603.91	12132.48
604.268	12186.71
604.625	12173.15
604.983	12299.48
605.341	12221.29
605.698	12209.09
606.056	12360.72
606.413	12320.04
606.771	12309.65
607.128	12413.83
607.485	12299.93
607.843	12328.18
608.2	12451.34
608.557	12396.2
608.914	12353.26
609.272	12446.82
609.629	12422.41
609.986	12515.52
610.343	12361.4
610.7	12532.24
611.057	12421.06
611.414	12475.52
611.771	12568.85
612.127	12579.02
612.484	12601.17
612.841	12657.44
613.198	12543.99
613.554	12615.85
613.911	12604.1
614.267	12622.18
614.624	12629.87
614.98	12642.07
615.337	12684.1
615.693	12602.52
616.05	12747.6
616.406	12752.57
616.762	12664.22
617.118	12681.62
617.475	12722.29
617.831	12763.87
618.187	12737.21
618.543	12756.64
618.899	12908.95
619.255	12807.49
619.611	12763.87
619.967	12804.78
620.323	12823.08
620.678	12859.69
621.034	12766.81
621.39	12808.39
621.746	12812.23
622.101	12941.04
622.457	12769.75
622.812	12873.7
623.168	12875.06
623.523	12938.11
623.879	12979.23
624.234	12832.8
624.589	12859.46
624.945	12929.29
625.3	12935.62
625.655	12902.85
626.01	12849.75
626.365	12874.6
626.72	12931.1
627.075	12814.72
627.43	12858.79
627.785	12864.89
628.14	12840.03
628.495	12875.96
628.85	12748.51
629.205	12864.89
629.559	12952.34
629.914	12756.87
630.269	12857.2
630.623	12779.69
630.978	12761.61
631.332	12819.24
631.687	12760.94
632.041	12775.4
632.396	12765.23
632.75	12740.15
633.104	12766.81
633.459	12668.51
633.813	12607.04
634.167	12723.65
634.521	12600.94
634.875	12620.37
635.229	12647.72
635.583	12677.32
635.937	12647.27
636.291	12545.12
636.645	12677.77
636.999	12514.39
637.352	12568.62
637.706	12482.52
638.06	12538.79
638.413	12570.88
638.767	12498.34
639.121	12523.88
639.474	12388.06
639.828	12436.88
640.181	12528.17
640.534	12485.01
640.888	12387.39
641.241	12368.4
641.594	12355.52
641.947	12384.45
642.301	12343.32
642.654	12374.96
643.007	12386.93
643.36	12378.35
643.713	12353.71
644.066	12372.47
644.419	12314.17
644.771	12215.19
645.124	12152.36
645.477	12138.35
645.83	11974.74
646.182	12000.96
646.535	11906.95
646.888	11945.82
647.24	11886.38
647.593	11928.19
647.945	11884.12
648.298	11844.8
648.65	11939.26
649.002	11882.77
649.355	11923.44
649.707	11876.89
650.059	11922.09
650.411	12067.39
650.763	12093.38
651.115	12153.49
651.467	12173.15
651.819	12188.52
652.171	12181.74
652.523	12118.24
652.875	12069.65
653.227	12103.1
653.578	12088.18
653.93	12098.58
654.282	12007.28
654.633	11975.65
654.985	12102.87
655.337	12067.39
655.688	12108.3
656.039	12098.58
656.391	12028.75
656.742	12117.11
657.094	12105.81
657.445	12109.88
657.796	12121.63
658.147	12109.2
658.498	12099.03
658.849	12104
659.2	12075.98
659.551	12075.3
659.902	12121.4
660.253	12087.96
660.604	12168.18
660.955	12048.41
661.306	12092.03
661.656	12136.09
662.007	12100.84
662.358	12064.68
662.708	12083.89
663.059	12094.06
663.409	12043.21
663.76	12068.98
664.11	12070.33
664.461	12152.14
664.811	12118.01
665.161	12082.08
665.511	12026.72
665.862	12101.07
666.212	12118.47
666.562	12095.42
666.912	12081.63
667.262	12089.77
667.612	12078.92
667.962	12098.35
668.312	11995.31
668.662	12104.23
669.011	12096.77
669.361	12056.1
669.711	12061.97
670.06	12067.62
670.41	12007.96
670.76	12029.88
671.109	11970.9
671.459	12064.23
671.808	12065.81
672.157	12078.24
672.507	11913.5
672.856	11915.53
673.205	11973.61
673.554	12026.04
673.904	11974.97
674.253	12034.4
674.602	12032.14
674.951	11888.64
675.3	11743.56
675.649	11969.77
675.998	11923.67
676.346	11926.38
676.695	11920.28
677.044	11870.11
677.393	11865.59
677.741	11893.61
678.09	11912.6
678.438	11850
678.787	11845.03
679.135	11799.6
679.484	11797.8
679.832	11796.89
680.181	11659.95
680.529	11777.91
680.877	11705.6
681.225	11661.98
681.573	11774.75
681.922	11638.25
682.27	11628.76
682.618	11614.98
682.966	11649.55
683.314	11614.98
683.661	11551.48
684.009	11461.53
684.357	11470.57
684.705	11439.39
685.053	11505.83
685.4	11473.96
685.748	11352.84
686.095	11429.9
686.443	11391.48
686.79	11315.78
687.138	11297.47
687.485	11285.27
687.832	11263.35
688.18	11257.47
688.527	11209.56
688.874	11210.24
689.221	11102.9
689.568	11175.21
689.915	11122.56
690.262	11029.46
690.609	11036.91
690.956	11019.96
691.303	11057.93
691.65	10970.47
691.997	10901.1
692.344	10810.93
692.69	10826.3
693.037	10855.45
693.383	10787.65
693.73	10816.81
694.077	10638.96
694.423	10671.73
694.769	10701.1
695.116	10547.89
695.462	10566.42
695.808	10565.29
696.155	10539.53
696.501	10501.11
696.847	10457.49
697.193	10368.91
697.539	10433.09
697.885	10392.64
698.231	10305.18
698.577	10262.24
698.923	10312.86
699.269	10215.24
699.614	10146.54
699.96	10186.09
700.306	10056.6
700.651	10103.6
700.997	10012.53
701.342	10062.02
701.688	10009.14
702.033	9973.66
702.379	9968.01
702.724	9848.92
703.069	9929.6
703.415	9748.13
703.76	9752.2
704.105	9804.63
704.45	9764.4
704.795	9658.19
705.14	9701.58
705.485	9650.06
705.83	9587.46
706.175	9563.51
706.52	9564.18
706.865	9550.4
707.209	9549.49
707.554	9471.53
707.899	9511.53
708.243	9388.59
708.588	9490.29
708.932	9325.32
709.277	9353.34
709.621	9333.46
709.966	9303.17
710.31	9277.64
710.654	9239.67
710.998	9270.86
711.342	9267.47
711.687	9163.29
712.031	9167.58
712.375	9187.92
712.719	9211.42
713.063	9109.28
713.407	9145.66
713.75	9075.16
714.094	9128.26
714.438	9078.55
714.782	9063.18
715.125	8989.51
715.469	9016.18
715.812	9003.07
716.156	8927.82
716.499	8946.12
716.843	8989.06
717.186	8970.98
717.53	9003.52
717.873	8929.62
718.216	8921.04
718.559	8822.96
718.902	8819.8
719.246	8865.22
719.589	8765.11
719.932	8761.27
720.275	8838.33
720.617	8759.91
720.96	8764.66
721.303	8761.04
721.646	8771.21
721.989	8717.2
722.331	8709.97
722.674	8746.8
723.016	8704.77
723.359	8724.21
723.701	8735.73
724.044	8694.38
724.386	8603.53
724.729	8704.55
725.071	8652.34
725.413	8563.98
725.755	8562.18
726.097	8553.14
726.439	8550.2
726.782	8507.94
727.124	8613.93
727.465	8591.1
727.807	8593.36
728.149	8530.99
728.491	8519.24
728.833	8477.88
729.175	8484.66
729.516	8462.97
729.858	8526.7
730.199	8448.51
730.541	8457.77
730.882	8519.69
731.224	8457.77
731.565	8454.83
731.906	8467.49
732.248	8432.69
732.589	8444.89
732.93	8384.1
733.271	8382.07
733.612	8455.51
733.953	8482.18
734.294	8418.68
734.635	8414.38
734.976	8483.08
735.317	8409.64
735.658	8445.57
735.999	8455.74
736.339	8394.04
736.68	8442.41
737.021	8439.24
737.361	8452.57
737.702	8387.49
738.042	8445.12
738.383	8445.57
738.723	8437.89
739.063	8460.03
739.404	8470.88
739.744	8480.82
740.084	8528.5
740.424	8506.13
740.764	8481.95
741.104	8508.84
741.444	8510.43
741.784	8516.75
742.124	8574.15
742.464	8518.56
742.804	8487.38
743.143	8425
743.483	8511.56
743.823	8485.79
744.162	8549.75
744.502	8633.13
744.841	8537.77
745.181	8595.17
745.52	8623.42
745.86	8707.71
746.199	8742.06
746.538	8690.31
746.877	8727.82
747.216	8807.37
747.556	8796.75
747.895	8868.83
748.234	8879.91
748.573	8963.07
748.911	8987.93
749.25	9048.72
749.589	9054.37
749.928	9128.71
750.267	9191.99
750.605	9261.14
750.944	9333.68
751.283	9366.67
751.621	9418.88
751.96	9479.89
752.298	9526.9
752.636	9609.38
752.975	9699.77
753.313	9760.56
753.651	9878.53
753.989	9868.58
754.327	10008.01
754.666	10122.36
755.004	10131.85
755.342	10384.27
755.679	10451.39
756.017	10537.49
756.355	10750.14
756.693	10742.01
757.031	10911.72
757.368	10975.22
757.706	11132.73
758.044	11223.35
758.381	11351.26
758.719	11556
759.056	11723
759.394	11783.79
759.731	11924.35
760.068	12095.19
760.405	12157.56
760.743	12337.22
761.08	12538.12
761.417	12611.34
761.754	12760.94
762.091	12889.29
