Data from hue_280_FLMS001491_00079.txt Node
Date: Tue Feb 07 15:55:45 GMT 2017
User: dcchb
Spectrometer: FLMS00149
Trigger mode: 0
Integration Time (sec): 2.000000E-2
Scans to average: 10
Electric dark correction enabled: true
Nonlinearity correction enabled: false
Boxcar width: 0
XAxis mode: Wavelengths
Number of Pixels in Spectrum: 2048
>>>>>Begin Spectral Data<<<<<
341.393	-10.32
341.776	-10.32
342.16	-10.32
342.543	-62.53
342.927	-63.88
343.31	-71.79
343.693	-52.36
344.077	-83.77
344.46	-52.58
344.843	-46.71
345.226	-61.62
345.61	-23.21
345.993	-29.53
346.376	-1.74
346.759	13.63
347.142	31.03
347.525	45.49
347.908	49.11
348.291	82.1
348.674	86.85
349.057	115.1
349.44	121.88
349.823	133.63
350.206	158.48
350.588	192.61
350.971	218.82
351.354	226.96
351.737	236.67
352.119	212.49
352.502	231.25
352.884	282.1
353.267	274.87
353.65	307.18
354.032	281.42
354.414	310.8
354.797	319.61
355.179	336.78
355.562	309.89
355.944	311.47
356.326	328.65
356.709	335.2
357.091	342.21
357.473	351.02
357.855	336.11
358.238	344.47
358.62	331.59
359.002	323.68
359.384	339.5
359.766	344.02
360.148	339.5
360.53	325.26
360.912	354.41
361.294	343.56
361.676	328.88
362.057	342.89
362.439	353.06
362.821	305.6
363.203	308.76
363.584	329.1
363.966	332.04
364.348	313.96
364.729	307.63
365.111	322.55
365.493	329.33
365.874	316.45
366.256	287.29
366.637	318.03
367.019	333.4
367.4	320.97
367.781	297.24
368.163	305.6
368.544	322.1
368.925	315.99
369.306	331.59
369.688	323.9
370.069	319.38
370.45	308.31
370.831	332.04
371.212	315.54
371.593	300.63
371.974	314.86
372.355	334.98
372.736	333.17
373.117	328.65
373.498	323.9
373.879	307.18
374.26	331.81
374.641	304.92
375.021	310.8
375.402	299.72
375.783	312.83
376.163	320.29
376.544	325.03
376.925	325.03
377.305	306.96
377.686	319.16
378.066	317.12
378.447	308.76
378.827	341.3
379.208	333.85
379.588	320.97
379.968	334.75
380.349	342.43
380.729	351.47
381.109	337.91
381.489	358.48
381.87	340.85
382.25	355.77
382.63	344.69
383.01	353.73
383.39	347.41
383.77	319.84
384.15	343.56
384.53	337.46
384.91	357.8
385.29	338.82
385.67	341.76
386.049	359.16
386.429	338.14
386.809	351.02
387.189	356.45
387.568	364.13
387.948	365.03
388.328	337.69
388.707	358.25
389.087	345.82
389.466	364.58
389.846	362.09
390.225	358.93
390.605	367.52
390.984	367.07
391.363	360.29
391.743	370.23
392.122	354.64
392.501	368.87
392.881	390.79
393.26	378.14
393.639	379.72
394.018	386.5
394.397	384.47
394.776	387.86
395.155	387.86
395.534	388.53
395.913	397.8
396.292	379.95
396.671	400.06
397.05	403.45
397.429	396.44
397.808	388.31
398.186	410
398.565	385.37
398.944	406.84
399.323	434.18
399.701	424.69
400.08	421.98
400.458	434.41
400.837	431.92
401.215	414.07
401.594	432.83
401.972	414.75
402.351	416.78
402.729	431.47
403.107	453.17
403.486	435.54
403.864	434.18
404.242	449.1
404.62	447.06
404.999	455.2
405.377	468.31
405.755	448.42
406.133	471.24
406.511	456.1
406.889	466.95
407.267	466.27
407.645	476.89
408.023	493.39
408.401	478.25
408.779	500.85
409.156	496.55
409.534	479.61
409.912	498.59
410.29	511.02
410.667	550.79
411.045	512.37
411.422	526.38
411.8	542.88
412.178	539.94
412.555	544.46
412.933	559.6
413.31	568.64
413.687	572.26
414.065	564.8
414.442	582.65
414.819	621.75
415.197	601.86
415.574	594.18
415.951	617.23
416.328	621.98
416.705	612.94
417.082	638.47
417.46	662.43
417.837	641.18
418.214	638.02
418.591	680.96
418.967	655.87
419.344	670.34
419.721	691.8
420.098	665.82
420.475	699.49
420.852	681.41
421.228	695.42
421.605	705.14
421.982	736.32
422.358	755.76
422.735	758.69
423.111	742.2
423.488	750.11
423.864	771.12
424.241	774.51
424.617	768.41
424.994	786.94
425.37	780.39
425.746	814.51
426.123	835.75
426.499	820.61
426.875	847.28
427.251	875.98
427.627	871.91
428.003	873.04
428.379	887.05
428.756	897.22
429.132	911.46
429.507	922.98
429.883	918.01
430.259	950.55
430.635	955.07
431.011	937.9
431.387	990.55
431.763	995.75
432.138	1000.27
432.514	1004.79
432.89	1010.67
433.265	1005.47
433.641	1061.51
434.016	1071
434.392	1072.81
434.767	1077.78
435.143	1086.6
435.518	1116.2
435.894	1107.39
436.269	1124.33
436.644	1130.44
437.02	1190.32
437.395	1192.13
437.77	1199.14
438.145	1214.73
438.52	1211.34
438.895	1237.33
439.271	1255.4
439.646	1274.16
440.021	1284.33
440.395	1289.3
440.77	1292.69
441.145	1269.87
441.52	1319.81
441.895	1308.96
442.27	1362.75
442.645	1362.97
443.019	1360.26
443.394	1367.72
443.769	1369.75
444.143	1392.12
444.518	1400.71
444.892	1399.36
445.267	1410.65
445.641	1411.78
446.016	1380.15
446.39	1421.73
446.764	1449.07
447.139	1431.9
447.513	1416.76
447.887	1446.13
448.262	1457.89
448.636	1448.39
449.01	1503.99
449.384	1463.31
449.758	1463.53
450.132	1492.69
450.506	1522.74
450.88	1506.47
451.254	1550.76
451.628	1573.14
452.002	1572.68
452.376	1553.48
452.75	1579.01
453.123	1591.44
453.497	1629.18
453.871	1586.47
454.244	1609.07
454.618	1652
454.992	1666.92
455.365	1656.98
455.739	1693.36
456.112	1678.22
456.486	1680.48
456.859	1674.38
457.232	1714.15
457.606	1729.97
457.979	1754.15
458.352	1800.93
458.725	1807.48
459.099	1832.11
459.472	1847.71
459.845	1856.74
460.218	1887.03
460.591	1860.59
460.964	1901.26
461.337	1927.7
461.71	1910.53
462.083	1962.05
462.456	1946.01
462.829	1970.64
463.201	1975.84
463.574	1987.14
463.947	1981.94
464.32	2071.65
464.692	2047.25
465.065	2040.02
465.438	2081.82
465.81	2118.43
466.183	2140.13
466.555	2168.38
466.928	2157.3
467.3	2113.01
467.672	2160.47
468.045	2273.68
468.417	2249.5
468.789	2245.89
469.161	2288.37
469.534	2260.12
469.906	2353.46
470.278	2352.1
470.65	2350.29
471.022	2421.02
471.394	2448.82
471.766	2454.02
472.138	2480.23
472.51	2494.69
472.882	2571.98
473.253	2529.27
473.625	2600.68
473.997	2642.71
474.369	2650.85
474.74	2636.84
475.112	2707.57
475.484	2716.61
475.855	2790.05
476.227	2754.8
476.598	2836.38
476.97	2904.63
477.341	2923.38
477.713	2922.48
478.084	2930.39
478.455	3035.7
478.827	3011.52
479.198	3088.8
479.569	3107.56
479.94	3159.76
480.311	3156.82
480.682	3225.75
481.053	3296.93
481.424	3322.02
481.795	3382.13
482.166	3414.67
482.537	3414.44
482.908	3452.86
483.279	3481.11
483.65	3543.48
484.021	3572.63
484.391	3626.64
484.762	3636.36
485.133	3662.8
485.503	3651.27
485.874	3722.46
486.244	3756.58
486.615	3818.28
486.985	3838.39
487.356	3891.95
487.726	3914.77
488.097	4006.07
488.467	3966.07
488.837	4056.91
489.207	4086.29
489.578	4165.84
489.948	4152.05
490.318	4195.21
490.688	4200.64
491.058	4263.91
491.428	4332.39
491.798	4362.44
492.168	4404.7
492.538	4377.13
492.908	4449.67
493.278	4490.35
493.648	4470.46
494.017	4540.52
494.387	4586.62
494.757	4649.44
495.126	4636.33
495.496	4651.7
495.866	4670.68
496.235	4710.68
496.605	4726.5
496.974	4735.77
497.344	4781.41
497.713	4781.19
498.082	4843.33
498.452	4883.33
498.821	4873.39
499.19	4917.91
499.559	4930.11
499.928	4936.21
500.298	4994.29
500.667	5012.14
501.036	4975.98
501.405	5016.89
501.774	4993.39
502.143	5076.32
502.512	5082.65
502.88	5138.69
503.249	5102.99
503.618	5084.46
503.987	5141.86
504.356	5133.95
504.724	5187.73
505.093	5215.53
505.462	5210.33
505.83	5258.92
506.199	5265.24
506.567	5326.94
506.936	5333.49
507.304	5313.6
507.672	5370.32
508.041	5348.4
508.409	5355.18
508.777	5429.98
509.145	5418.91
509.514	5452.36
509.882	5462.07
510.25	5485.35
510.618	5523.54
510.986	5481.96
511.354	5533.26
511.722	5534.16
512.09	5584.33
512.458	5583.2
512.826	5639.7
513.193	5607.83
513.561	5615.97
513.929	5654.16
514.297	5695.51
514.664	5698.23
515.032	5693.71
515.4	5740.26
515.767	5753.82
516.135	5761.5
516.502	5699.58
516.869	5842.4
517.237	5806.25
517.604	5780.48
517.972	5851.89
518.339	5824.78
518.706	5847.6
519.073	5866.81
519.44	5868.16
519.808	5870.65
520.175	5888.73
520.542	6010.76
520.909	5974.6
521.276	5940.03
521.643	5999.91
522.009	6034.04
522.376	6043.53
522.743	6063.41
523.11	6170.76
523.477	6123.07
523.843	6143.86
524.21	6186.8
524.577	6274.93
524.943	6196.29
525.31	6240.13
525.676	6294.37
526.043	6306.57
526.409	6316.51
526.776	6423.86
527.142	6398.32
527.508	6456.17
527.874	6458.43
528.241	6421.14
528.607	6466.34
528.973	6535.72
529.339	6515.61
529.705	6589.05
530.071	6586.11
530.437	6603.51
530.803	6569.84
531.169	6630.86
531.535	6610.74
531.901	6608.48
532.267	6694.13
532.632	6713.79
532.998	6748.14
533.364	6730.06
533.73	6739.55
534.095	6789.27
534.461	6792.43
534.826	6871.3
535.192	6839.44
535.557	6864.3
535.923	6881.25
536.288	6906.1
536.653	6893.9
537.019	6869.27
537.384	6879.66
537.749	6939.55
538.114	6940.91
538.479	6991.53
538.845	7024.07
539.21	6998.98
539.575	7000.79
539.94	6950.85
540.305	7024.74
540.67	7008.93
541.034	7036.04
541.399	7097.74
541.764	7027
542.129	7176.61
542.494	7166.66
542.858	7118.08
543.223	7078.08
543.587	7207.34
543.952	7237.17
544.316	7147.45
544.681	7212.08
545.045	7219.32
545.41	7261.8
545.774	7233.1
546.138	7256.38
546.503	7272.65
546.867	7314.91
547.231	7329.14
547.595	7353.1
547.959	7378.63
548.324	7384.06
548.688	7342.93
549.052	7413.21
549.416	7370.27
549.779	7310.84
550.143	7391.29
550.507	7467.9
550.871	7438.97
551.235	7399.42
551.599	7464.51
551.962	7505.41
552.326	7446.2
552.689	7484.62
553.053	7491.85
553.417	7546.76
553.78	7586.76
554.143	7569.82
554.507	7573.43
554.87	7585.63
555.234	7651.17
555.597	7642.58
555.96	7710.83
556.323	7645.97
556.686	7651.39
557.05	7771.62
557.413	7744.05
557.776	7729.36
558.139	7765.74
558.502	7729.36
558.865	7795.12
559.228	7822.46
559.59	7814.55
559.953	7836.47
560.316	7878.28
560.679	7948.34
561.041	7942.23
561.404	7969.58
561.767	8020.88
562.129	7990.37
562.492	8116.69
562.854	8035.57
563.217	8056.58
563.579	8105.39
563.941	8125.28
564.304	8170.7
564.666	8214.09
565.028	8174.32
565.39	8194.43
565.753	8234.88
566.115	8259.97
566.477	8312.62
566.839	8362.79
567.201	8374.09
567.563	8398.95
567.925	8439.62
568.287	8413.86
568.648	8458.38
569.01	8494.08
569.372	8548.77
569.734	8523.24
570.095	8602.78
570.457	8666.51
570.819	8674.64
571.18	8676.45
571.542	8756.22
571.903	8714.42
572.265	8809.78
572.626	8770.46
572.987	8831.48
573.349	8810.69
573.71	8874.64
574.071	8859.95
574.432	8955.32
574.794	9000.29
575.155	9039.38
575.516	8941.53
575.877	9085.71
576.238	9096.1
576.599	9142.43
576.96	9220.17
577.32	9203.9
577.681	9232.82
578.042	9298.36
578.403	9332.71
578.763	9420.16
579.124	9409.31
579.485	9476.88
579.845	9527.73
580.206	9535.41
580.566	9536.54
580.927	9546.26
581.287	9674.62
581.648	9719.59
582.008	9795.29
582.368	9809.76
582.728	9845.01
583.089	9886.59
583.449	9926.14
583.809	10009.98
584.169	9992.12
584.529	10100.6
584.889	10236.19
585.249	10230.31
585.609	10236.41
585.969	10379.68
586.329	10385.56
586.688	10426.46
587.048	10427.82
587.408	10570.87
587.768	10645.89
588.127	10694.7
588.487	10723.18
588.846	10836.17
589.206	10837.07
589.565	10936.05
589.925	10987.13
590.284	11112.77
590.643	11202.49
591.003	11256.95
591.362	11365.2
591.721	11385.76
592.08	11439.77
592.44	11591.86
592.799	11589.37
593.158	11633.44
593.517	11750.27
593.876	11773.77
594.235	11830.72
594.593	11882.7
594.952	12046.31
595.311	12110.26
595.67	12061.67
596.029	12246.98
596.387	12230.94
596.746	12305.06
597.104	12395.9
597.463	12453.3
597.822	12537.37
598.18	12472.74
598.538	12596.35
598.897	12773.75
599.255	12644.26
599.613	12898.71
599.972	12835.89
600.33	12979.16
600.688	12864.82
601.046	12997.69
601.404	13118.82
601.762	13143.91
602.12	13192.49
602.478	13249.67
602.836	13343.67
603.194	13297.8
603.552	13362.21
603.91	13304.35
604.268	13538.47
604.625	13430.23
604.983	13592.48
605.341	13516.78
605.698	13673.16
606.056	13738.69
606.413	13701.86
606.771	13787.05
607.128	13845.58
607.485	13797.45
607.843	13901.17
608.2	13942.98
608.557	13971.45
608.914	13991.79
609.272	14120.15
609.629	14074.73
609.986	14171.22
610.343	14095.52
610.7	14343.87
611.057	14312.24
611.414	14347.04
611.771	14426.13
612.127	14445.79
612.484	14422.74
612.841	14414.61
613.198	14441.5
613.554	14505.9
613.911	14526.24
614.267	14585
614.624	14635.84
614.98	14613.47
615.337	14659.57
615.693	14649.18
616.05	14715.16
616.406	14805.78
616.762	14757.65
617.118	14807.59
617.475	14776.18
617.831	14732.56
618.187	14866.57
618.543	14869.74
618.899	14987.02
619.255	14936.18
619.611	14937.76
619.967	14926.68
620.323	15052.78
620.678	14985.89
621.034	14990.86
621.39	15025.89
621.746	14977.98
622.101	15262.04
622.457	15043.29
622.812	15110.86
623.168	15185.89
623.523	15155.83
623.879	15186.34
624.234	15040.58
624.589	15116.74
624.945	15084.87
625.3	15109.28
625.655	15056.4
626.01	15243.96
626.365	15136.17
626.72	15153.8
627.075	15237.41
627.43	15126.45
627.785	15170.29
628.14	15221.14
628.495	15208.71
628.85	15227.92
629.205	15181.59
629.559	15225.88
629.914	15137.98
630.269	15192.89
630.623	15110.86
630.978	15150.41
631.332	15271.76
631.687	15175.04
632.041	15121.48
632.396	15155.83
632.75	15147.69
633.104	15227.47
633.459	15110.18
633.813	15064.76
634.167	15111.99
634.521	15093.46
634.875	15060.01
635.229	15047.36
635.583	14953.8
635.937	15077.41
636.291	15015.5
636.645	15000.35
636.999	15087.58
637.352	14969.39
637.706	14998.32
638.06	15029.05
638.413	15056.4
638.767	14950.64
639.121	14918.55
639.474	14817.53
639.828	14859.11
640.181	14948.38
640.534	14923.52
640.888	14875.61
641.241	14848.27
641.594	14776.18
641.947	14796.07
642.301	14855.95
642.654	14872.45
643.007	14737.99
643.36	14751.1
643.713	14752.68
644.066	14842.17
644.419	14697.76
644.771	14599.46
645.124	14488.5
645.477	14524.43
645.83	14382.07
646.182	14359.47
646.535	14240.6
646.888	14328.28
647.24	14290.77
647.593	14275.85
647.945	14340.71
648.298	14219.81
648.65	14255.06
649.002	14251.45
649.355	14254.84
649.707	14249.41
650.059	14398.11
650.411	14513.36
650.763	14579.57
651.115	14728.95
651.467	14626.8
651.819	14636.97
652.171	14656.18
652.523	14577.09
652.875	14584.55
653.227	14521.72
653.578	14672.45
653.93	14652.34
654.282	14585.22
654.633	14565.34
654.985	14629.97
655.337	14718.1
655.688	14578.22
656.039	14732.11
656.391	14625.9
656.742	14709.74
657.094	14636.97
657.445	14674.94
657.796	14663.19
658.147	14676.07
658.498	14641.95
658.849	14616.86
659.2	14660.7
659.551	14631.32
659.902	14623.19
660.253	14651.66
660.604	14702.28
660.955	14652.79
661.306	14727.14
661.656	14650.31
662.007	14697.54
662.358	14680.59
662.708	14710.19
663.059	14660.7
663.409	14679.91
663.76	14689.63
664.11	14804.43
664.461	14719.46
664.811	14648.72
665.161	14722.4
665.511	14767.37
665.862	14688.05
666.212	14738.89
666.562	14717.42
666.912	14737.08
667.262	14679.01
667.612	14780.47
667.962	14853.24
668.312	14801.26
668.662	14679.01
669.011	14784.99
669.361	14713.13
669.711	14645.34
670.06	14670.65
670.41	14715.62
670.76	14672.23
671.109	14709.29
671.459	14645.11
671.808	14682.4
672.157	14712.9
672.507	14641.49
672.856	14593.59
673.205	14631.78
673.554	14602.4
673.904	14690.76
674.253	14723.75
674.602	14582.74
674.951	14392.46
675.3	14282.63
675.649	14538.22
675.998	14497.77
676.346	14521.27
676.695	14631.32
677.044	14414.83
677.393	14334.16
677.741	14425.68
678.09	14459.8
678.438	14438.11
678.787	14414.61
679.135	14415.74
679.484	14294.38
679.832	14436.98
680.181	14328.51
680.529	14332.8
680.877	14368.05
681.225	14249.64
681.573	14331.67
681.922	14207.61
682.27	14149.76
682.618	14235.4
682.966	14137.33
683.314	14188.17
683.661	14140.04
684.009	13978.69
684.357	13993.6
684.705	14026.37
685.053	14009.87
685.4	13988.63
685.748	13949.99
686.095	13932.59
686.443	13886.26
686.79	13837.9
687.138	13936.2
687.485	13880.38
687.832	13793.83
688.18	13758.13
688.527	13717.68
688.874	13668.86
689.221	13655.3
689.568	13538.92
689.915	13543.9
690.262	13614.85
690.609	13486.72
690.956	13487.4
691.303	13443.11
691.65	13374.86
691.997	13301.42
692.344	13251.7
692.69	13318.82
693.037	13273.17
693.383	13191.81
693.73	13141.65
694.077	13028.88
694.423	13096.9
694.769	13037.69
695.116	12967.64
695.462	12951.59
695.808	12892.16
696.155	12866.4
696.501	12840.86
696.847	12784.37
697.193	12648.33
697.539	12776.23
697.885	12599.97
698.231	12572.4
698.577	12533.75
698.923	12542.34
699.269	12437.26
699.614	12391.16
699.96	12326.53
700.306	12361.1
700.651	12291.72
700.997	12251.5
701.342	12188.45
701.688	12124.05
702.033	12106.19
702.379	12116.59
702.724	12076.59
703.069	12099.19
703.415	12005.4
703.76	11919.98
704.105	11938.51
704.45	11964.05
704.795	11826.2
705.14	11739.65
705.485	11738.75
705.83	11676.37
706.175	11699.65
706.52	11732.19
706.865	11632.53
707.209	11610.16
707.554	11595.7
707.899	11538.75
708.243	11489.71
708.588	11443.16
708.932	11364.97
709.277	11381.69
709.621	11377.85
709.966	11261.02
710.31	11278.64
710.654	11220.57
710.998	11251.98
711.342	11211.98
711.687	11191.64
712.031	11124.75
712.375	11130.63
712.719	11060.8
713.063	11046.56
713.407	11106.67
713.75	11070.97
714.094	10946.68
714.438	10992.1
714.782	10971.31
715.125	10961.36
715.469	11002.72
715.812	10866.68
716.156	10817.87
716.499	10875.26
716.843	10836.62
717.186	10809.28
717.53	10877.3
717.873	10858.32
718.216	10880.91
718.559	10701.03
718.902	10748.71
719.246	10684.31
719.589	10708.04
719.932	10630.98
720.275	10680.02
720.617	10703.74
720.96	10608.83
721.303	10600.92
721.646	10617.87
721.989	10534.93
722.331	10671.88
722.674	10559.34
723.016	10593.69
723.359	10557.08
723.701	10645.21
724.044	10493.13
724.386	10519.12
724.729	10482.73
725.071	10466.69
725.413	10472.34
725.755	10492
726.097	10436.63
726.439	10389.85
726.782	10436.18
727.124	10403.41
727.465	10377.65
727.807	10386.24
728.149	10430.08
728.491	10385.56
728.833	10452.9
729.175	10382.4
729.516	10345.11
729.858	10354.83
730.199	10350.53
730.541	10408.16
730.882	10300.59
731.224	10351.66
731.565	10290.42
731.906	10352.11
732.248	10351.44
732.589	10279.12
732.93	10350.08
733.271	10276.86
733.612	10280.48
733.953	10300.36
734.294	10261.95
734.635	10303.98
734.976	10307.37
735.317	10262.85
735.658	10298.78
735.999	10274.6
736.339	10308.05
736.68	10329.29
737.021	10351.44
737.361	10241.84
737.702	10317.09
738.042	10288.16
738.383	10361.15
738.723	10355.5
739.063	10345.11
739.404	10432.56
739.744	10333.36
740.084	10374.71
740.424	10389.85
740.764	10299.23
741.104	10427.14
741.444	10379.68
741.784	10524.31
742.124	10430.3
742.464	10451.32
742.804	10510.3
743.143	10459
743.483	10489.29
743.823	10472.34
744.162	10547.59
744.502	10598.44
744.841	10567.48
745.181	10735.83
745.52	10648.15
745.86	10698.77
746.199	10628.27
746.538	10833.01
746.877	10833.91
747.216	10836.17
747.556	10918.65
747.895	10974.7
748.234	11017.18
748.573	11019.22
748.911	11096.28
749.25	11158.87
749.589	11223.5
749.928	11253.56
750.267	11356.38
750.605	11427.11
750.944	11546.66
751.283	11508.24
751.621	11647.9
751.96	11661.23
752.298	11785.52
752.636	11847.44
752.975	11884.73
753.313	11981.22
753.651	12247.21
753.989	12306.87
754.327	12434.77
754.666	12408.11
755.004	12623.02
755.342	12752.28
755.679	12923.57
756.017	12920.41
756.355	13105.04
756.693	13187.52
757.031	13369.89
757.368	13473.84
757.706	13632.48
758.044	13742.99
758.381	13853.72
758.719	13935.3
759.056	14231.56
759.394	14294.38
759.731	14373.93
