Data from hue_350_FLMS001491_85.txt Node
Date: Mon Feb 06 15:38:38 GMT 2017
User: dcchb
Spectrometer: FLMS00149
Trigger mode: 0
Integration Time (sec): 2.000000E-2
Scans to average: 10
Electric dark correction enabled: true
Nonlinearity correction enabled: false
Boxcar width: 0
XAxis mode: Wavelengths
Number of Pixels in Spectrum: 2048
>>>>>Begin Spectral Data<<<<<
341.393	-15.06
341.776	-15.06
342.16	-15.06
342.543	-65
342.927	-76.3
343.31	-62.74
343.693	-78.78
344.077	-83.53
344.46	-59.35
344.843	-47.37
345.226	-42.85
345.61	-27.71
345.993	-16.64
346.376	-21.16
346.759	15.68
347.142	38.95
347.525	41.67
347.908	64.26
348.291	90.7
348.674	86.64
349.057	102.23
349.44	146.07
349.823	142.23
350.206	163.47
350.588	193.3
350.971	203.47
351.354	229.68
351.737	229.68
352.119	234.2
352.502	250.25
352.884	272.17
353.267	278.04
353.65	297.25
354.032	302.68
354.414	303.13
354.797	289.12
355.179	325.27
355.562	323.01
355.944	332.51
356.326	330.92
356.709	310.59
357.091	318.72
357.473	339.74
357.855	339.06
358.238	349.68
358.62	338.15
359.002	329.12
359.384	359.85
359.766	337.25
360.148	327.31
360.53	338.83
360.912	316.46
361.294	343.35
361.676	355.1
362.057	315.33
362.439	312.84
362.821	349
363.203	313.52
363.584	312.62
363.966	332.05
364.348	322.56
364.729	299.29
365.111	331.83
365.493	333.64
365.874	327.31
366.256	324.82
366.637	325.05
367.019	300.64
367.4	289.12
367.781	318.27
368.163	296.35
368.544	324.37
368.925	303.35
369.306	306.74
369.688	307.42
370.069	298.16
370.45	306.07
370.831	314.65
371.212	302
371.593	294.09
371.974	314.2
372.355	309.68
372.736	300.42
373.117	299.74
373.498	292.96
373.879	339.51
374.26	323.92
374.641	322.79
375.021	304.03
375.402	309
375.783	309.46
376.163	323.01
376.544	342.67
376.925	321.21
377.305	308.55
377.686	315.78
378.066	309.68
378.447	320.08
378.827	314.65
379.208	307.2
379.588	324.14
379.968	330.92
380.349	323.92
380.729	328.44
381.109	341.09
381.489	312.17
381.87	343.35
382.25	310.13
382.63	327.76
383.01	346.52
383.39	331.83
383.77	346.97
384.15	356.23
384.53	331.6
384.91	329.57
385.29	339.74
385.67	346.97
386.049	338.61
386.429	336.35
386.809	354.88
387.189	352.62
387.568	325.05
387.948	333.41
388.328	351.04
388.707	355.56
389.087	332.73
389.466	362.56
389.846	350.58
390.225	345.61
390.605	360.75
390.984	345.39
391.363	366.85
391.743	365.05
392.122	368.89
392.501	336.35
392.881	368.89
393.26	363.47
393.639	359.4
394.018	360.98
394.397	373.63
394.776	373.86
395.155	371.6
395.534	386.29
395.913	380.41
396.292	396.01
396.671	355.78
397.05	378.83
397.429	382.45
397.808	374.31
398.186	381.32
398.565	383.8
398.944	375.44
399.323	403.24
399.701	381.77
400.08	378.38
400.458	374.54
400.837	386.06
401.215	386.52
401.594	378.61
401.972	401.66
402.351	392.84
402.729	383.8
403.107	399.4
403.486	409.57
403.864	399.85
404.242	396.91
404.62	390.81
404.999	399.62
405.377	400.98
405.755	421.54
406.133	424.71
406.511	405.5
406.889	428.77
407.267	435.33
407.645	418.6
408.023	440.3
408.401	425.84
408.779	435.78
409.156	438.94
409.534	436.91
409.912	459.51
410.29	441.66
410.667	435.1
411.045	447.53
411.422	443.24
411.8	454.99
412.178	454.76
412.555	456.12
412.933	470.13
413.31	485.04
413.687	456.8
414.065	454.99
414.442	469.68
414.819	491.15
415.197	477.59
415.574	488.21
415.951	480.3
416.328	496.79
416.705	485.27
417.082	484.82
417.46	495.21
417.837	504.03
418.214	504.93
418.591	513.74
418.967	488.43
419.344	534.31
419.721	518.94
420.098	498.83
420.475	527.3
420.852	536.12
421.228	531.14
421.605	527.3
421.982	542.9
422.358	518.04
422.735	534.53
423.111	543.12
423.488	558.04
423.864	540.86
424.241	565.72
424.617	553.74
424.994	542.9
425.37	567.08
425.746	577.7
426.123	580.41
426.499	570.47
426.875	564.82
427.251	584.48
427.627	586.06
428.003	600.29
428.379	601.88
428.756	599.39
429.132	617.7
429.507	595.32
429.883	603.23
430.259	623.12
430.635	654.76
431.011	631.71
431.387	637.36
431.763	630.58
432.138	656.11
432.514	662.44
432.89	668.54
433.265	673.06
433.641	670.58
434.016	674.19
434.392	672.84
434.767	696.56
435.143	680.29
435.518	693.17
435.894	690.69
436.269	716.45
436.644	684.36
437.02	715.09
437.395	711.03
437.77	724.13
438.145	740.86
438.52	749.67
438.895	760.74
439.271	737.92
439.646	778.82
440.021	767.52
440.395	787.18
440.77	736.34
441.145	765.04
441.52	790.12
441.895	771.36
442.27	799.16
442.645	790.12
443.019	813.17
443.394	790.12
443.769	776.34
444.143	799.39
444.518	793.06
444.892	803.23
445.267	804.81
445.641	823.34
446.016	794.41
446.39	802.55
446.764	825.83
447.139	840.06
447.513	838.03
447.887	810.91
448.262	842.77
448.636	845.03
449.01	856.79
449.384	848.42
449.758	844.81
450.132	855.66
450.506	857.46
450.88	901.53
451.254	863.34
451.628	883.45
452.002	886.84
452.376	895.88
452.75	894.07
453.123	899.04
453.497	928.65
453.871	925.48
454.244	956.9
454.618	944.01
454.992	956.44
455.365	943.11
455.739	952.83
456.112	959.83
456.486	948.08
456.859	956.44
457.232	987.63
457.606	1002.54
457.979	1002.54
458.352	1016.56
458.725	1014.52
459.099	1040.06
459.472	1033.96
459.845	1047.74
460.218	1064.46
460.591	1060.17
460.964	1065.82
461.337	1041.64
461.71	1104.24
462.083	1084.35
462.456	1098.13
462.829	1109.89
463.201	1127.29
463.574	1119.6
463.947	1163.44
464.32	1184.23
464.692	1184.01
465.065	1204.8
465.438	1200.51
465.81	1216.32
466.183	1214.74
466.555	1239.15
466.928	1230.33
467.3	1258.13
467.672	1241.63
468.045	1296.77
468.417	1298.36
468.789	1304.68
469.161	1339.48
469.534	1369.99
469.906	1359.6
470.278	1380.61
470.65	1383.78
471.022	1406.6
471.394	1440.27
471.766	1459.03
472.138	1488.41
472.51	1480.95
472.882	1508.29
473.253	1511.91
473.625	1554.17
473.997	1550.78
474.369	1562.76
474.74	1633.94
475.112	1614.73
475.484	1636.43
475.855	1694.5
476.227	1685.69
476.598	1715.97
476.97	1733.37
477.341	1780.38
477.713	1809.75
478.084	1826.03
478.455	1870.54
478.827	1863.99
479.198	1942.86
479.569	1958.68
479.94	1959.36
480.311	1995.74
480.682	2079.8
481.053	2079.8
481.424	2092.01
481.795	2133.59
482.166	2148.95
482.537	2183.08
482.908	2255.39
483.279	2280.7
483.65	2308.95
484.021	2330.64
484.391	2390.76
484.762	2455.84
485.133	2445.44
485.503	2447.03
485.874	2521.15
486.244	2543.52
486.615	2590.75
486.985	2626.23
487.356	2653.57
487.726	2681.82
488.097	2746.45
488.467	2760.01
488.837	2794.81
489.207	2829.84
489.578	2913.68
489.948	2928.6
490.318	2980.12
490.688	2916.17
491.058	3047.69
491.428	3045.43
491.798	3058.54
492.168	3146.22
492.538	3130.4
492.908	3200.68
493.278	3221.47
493.648	3246.55
494.017	3298.53
494.387	3340.79
494.757	3355.7
495.126	3384.85
495.496	3387.57
495.866	3389.83
496.235	3485.42
496.605	3451.75
496.974	3519.31
497.344	3533.55
497.713	3566.77
498.082	3559.54
498.452	3623.04
498.821	3622.59
499.19	3634.34
499.559	3689.93
499.928	3712.3
500.298	3701.46
500.667	3795.47
501.036	3741.91
501.405	3770.38
501.774	3765.18
502.143	3854.9
502.512	3869.14
502.88	3868.91
503.249	3871.4
503.618	3926.76
503.987	3936.25
504.356	3931.73
504.724	3953.2
505.093	3922.69
505.462	4013.99
505.83	4008.11
506.199	4049.02
506.567	4051.73
506.936	4102.12
507.304	4147.32
507.672	4088.34
508.041	4139.18
508.409	4171.27
508.777	4169.01
509.145	4261.22
509.514	4254.44
509.882	4204.04
510.25	4290.82
510.618	4266.19
510.986	4326.75
511.354	4315
511.722	4382.79
512.09	4377.6
512.458	4371.5
512.826	4387.31
513.193	4357.71
513.561	4404.26
513.929	4434.32
514.297	4465.96
514.664	4449.23
515.032	4488.78
515.4	4571.72
515.767	4552.96
516.135	4535.78
516.502	4529.01
516.869	4579.4
517.237	4570.13
517.604	4553.41
517.972	4582.11
518.339	4663.92
518.706	4652.39
519.073	4678.83
519.44	4658.04
519.808	4686.29
520.175	4689.23
520.542	4736.46
520.909	4748.21
521.276	4818.72
521.643	4783.69
522.009	4805.16
522.376	4880.41
522.743	4866.4
523.11	4892.16
523.477	4924.02
523.843	4941.88
524.21	4994.98
524.577	4979.39
524.943	5039.5
525.31	5050.12
525.676	5088.54
526.043	5088.09
526.409	5091.02
526.776	5185.26
527.142	5213.73
527.508	5201.98
527.874	5225.03
528.241	5251.25
528.607	5283.56
528.973	5319.94
529.339	5310.23
529.705	5347.29
530.071	5367.4
530.437	5411.47
530.803	5426.16
531.169	5463.44
531.535	5431.35
531.901	5483.56
532.267	5512.71
532.632	5522.65
532.998	5540.5
533.364	5595.19
533.73	5598.58
534.095	5602.2
534.461	5665.92
534.826	5685.13
535.192	5714.06
535.557	5748.18
535.923	5737.11
536.288	5749.31
536.653	5752.7
537.019	5872.25
537.384	5849.87
537.749	5858.69
538.114	5879.48
538.479	5897.56
538.845	5924.45
539.21	5956.09
539.575	5984.33
539.94	5994.73
540.305	6008.29
540.67	6029.53
541.034	6050.32
541.399	6116.53
541.764	6118.57
542.129	6137.32
542.494	6162.18
542.858	6166.7
543.223	6180.26
543.587	6243.76
543.952	6227.04
544.316	6284.89
544.681	6241.95
545.045	6306.13
545.41	6297.77
545.774	6332.57
546.138	6403.31
546.503	6437.88
546.867	6472.68
547.231	6471.78
547.595	6527.14
547.959	6457.32
548.324	6534.15
548.688	6577.76
549.052	6586.35
549.416	6618.22
549.779	6556.07
550.143	6670.19
550.507	6678.1
550.871	6695.95
551.235	6663.64
551.599	6743.86
551.962	6730.76
552.326	6780.47
552.689	6827.7
553.053	6796.06
553.417	6802.17
553.78	6881.71
554.143	6848.04
554.507	6923.97
554.87	6919.9
555.234	6961.71
555.597	6899.34
555.96	6963.74
556.323	7022.05
556.686	6986.79
557.05	7038.09
557.413	7039.22
557.776	7112.44
558.139	7216.62
558.502	7161.03
558.865	7173.68
559.228	7211.65
559.59	7200.35
559.953	7231.31
560.316	7307.92
560.679	7287.58
561.041	7386.11
561.404	7354.69
561.767	7407.8
562.129	7406.67
562.492	7469.27
562.854	7453.45
563.217	7464.75
563.579	7517.18
563.941	7539.55
564.304	7546.55
564.666	7597.63
565.028	7608.02
565.39	7612.31
565.753	7681.01
566.115	7677.85
566.477	7754.01
566.839	7688.02
567.201	7856.38
567.563	7789.94
567.925	7848.01
568.287	7900.22
568.648	7793.55
569.01	7904.06
569.372	7975.47
569.734	7925.53
570.095	8014.34
570.457	8088.91
570.819	8117.61
571.18	8094.34
571.542	8177.72
571.903	8133.66
572.265	8282.58
572.626	8241
572.987	8323.03
573.349	8406.64
573.71	8371.39
574.071	8458.62
574.432	8495.23
574.794	8549.92
575.155	8607.99
575.516	8616.36
575.877	8676.69
576.238	8683.02
576.599	8819.51
576.96	8878.72
577.32	8949
577.681	9010.24
578.042	9056.8
578.403	9138.15
578.763	9267.86
579.124	9296.34
579.485	9455.66
579.845	9477.35
580.206	9598.02
580.566	9694.97
580.927	9769.09
581.287	9935.19
581.648	9954.17
582.008	10199.36
582.368	10319.14
582.728	10406.82
583.089	10541.28
583.449	10674.83
583.809	10858.56
584.169	11006.58
584.529	11145.55
584.889	11369.05
585.249	11466.9
585.609	11611.76
585.969	11812.43
586.329	11961.8
586.688	12188.92
587.048	12425.75
587.408	12587.78
587.768	12753.65
588.127	13031.15
588.487	13160.42
588.846	13513.4
589.206	13600.86
589.565	13851.92
589.925	14177.11
590.284	14483.77
590.643	14617.55
591.003	14951.1
591.362	15227.48
591.721	15467.25
592.08	15696.4
592.44	16036.27
592.799	16331.41
593.158	16504.06
593.517	16818.63
593.876	17122.57
594.235	17333.64
594.593	17523.47
594.952	17870.58
595.311	18161.64
595.67	18518.47
596.029	18808.63
596.387	19216.08
596.746	19462.4
597.104	19604.99
597.463	19975.38
597.822	20290.62
598.18	20487.68
598.538	20816.94
598.897	21193.65
599.255	21343.25
599.613	21913.41
599.972	21973.52
600.33	22291.48
600.688	22516.78
601.046	22881.52
601.404	23163.54
601.762	23428.62
602.12	23800.14
602.478	23898.21
602.836	24353.12
603.194	24454.36
603.552	24764.63
603.91	24945.87
604.268	25330.27
604.625	25534.33
604.983	25874.88
605.341	25960.31
605.698	26350.13
606.056	26691.13
606.413	26792.37
606.771	27200.5
607.128	27389.87
607.485	27399.82
607.843	27695.18
608.2	28235.05
608.557	28375.61
608.914	28480.01
609.272	28814.69
609.629	29062.82
609.986	29371.52
610.343	29499.87
610.7	29801.79
611.057	30051.27
611.414	30141.89
611.771	30301.66
612.127	30624.14
612.484	30820.29
612.841	31080.4
613.198	31149.77
613.554	31229.77
613.911	31596.32
614.267	31782.53
614.624	31931
614.98	32151.33
615.337	32416.63
615.693	32447.14
616.05	32531.43
616.406	32902.95
616.762	32777.53
617.118	33096.16
617.475	33162.15
617.831	33516.04
618.187	33725.53
618.543	33754.9
618.899	34025.63
619.255	34047.1
619.611	34105.18
619.967	34418.16
620.323	34558.05
620.678	34535.45
621.034	34563.92
621.39	34699.51
621.746	34782.45
622.101	35312.38
622.457	35125.94
622.812	35305.15
623.168	35429.89
623.523	35410.45
623.879	35632.82
624.234	35580.84
624.589	35706.04
624.945	35859.93
625.3	35933.6
625.655	35880.95
626.01	36079.14
626.365	36200.71
626.72	36169.08
627.075	36309.64
627.43	36350.99
627.785	36164.56
628.14	36504.89
628.495	36527.71
628.85	36522.06
629.205	36534.94
629.559	36765.22
629.914	36626.69
630.269	36859.23
630.623	36740.81
630.978	36715.28
631.332	36928.83
631.687	37092.67
632.041	36807.48
632.396	37085.44
632.75	36979
633.104	37050.86
633.459	36883.41
633.813	36848.61
634.167	36995.5
634.521	36946.91
634.875	37117.98
635.229	36990.3
635.583	36976.97
635.937	36999.56
636.291	37087.25
636.645	37098.09
636.999	36902.62
637.352	37091.54
637.706	36917.53
638.06	37113.69
638.413	37144.64
638.767	36886.57
639.121	37029.39
639.474	36859.23
639.828	36877.99
640.181	36977.64
640.534	37053.57
640.888	36971.77
641.241	36886.12
641.594	36853.8
641.947	37023.29
642.301	36937.87
642.654	36887.93
643.007	37011.09
643.36	36929.28
643.713	36830.53
644.066	36920.24
644.419	36823.3
644.771	36504.89
645.124	36282.97
645.477	36237.78
645.83	36061.74
646.182	35916.43
646.535	35816.09
646.888	35893.38
647.24	35701.29
647.593	35944.22
647.945	35915.52
648.298	35764.79
648.65	35659.26
649.002	35480.73
649.355	35616.1
649.707	35813.15
650.059	35889.76
650.411	36236.87
650.763	36339.69
651.115	36619.91
651.467	36555.73
651.819	36534.94
652.171	36462.85
652.523	36418.11
652.875	36503.76
653.227	36381.05
653.578	36535.62
653.93	36460.82
654.282	36285.46
654.633	36201.17
654.985	36344.67
655.337	36290.2
655.688	36446.81
656.039	36521.16
656.391	36075.97
656.742	36280.94
657.094	36350.99
657.445	36409.97
657.796	36325.68
658.147	36350.77
658.498	36181.51
658.849	36332.69
659.2	36290.2
659.551	36228.96
659.902	36374.72
660.253	36046.14
660.604	36253.82
660.955	36100.6
661.306	36395.29
661.656	36096.99
662.007	36189.87
662.358	36135.41
662.708	36138.57
663.059	36129.3
663.409	35936.77
663.76	36313.25
664.11	36207.27
664.461	36134.05
664.811	36197.55
665.161	36261.96
665.511	35984.9
665.862	36166.37
666.212	36179.92
666.562	36032.58
666.912	36084.79
667.262	36185.12
667.612	36140.83
667.962	36153.03
668.312	36129.08
668.662	36304.67
669.011	36183.54
669.361	36087.95
669.711	36170.89
670.06	35936.09
670.41	35949.65
670.76	35908.97
671.109	36118.01
671.459	36007.27
671.808	35912.81
672.157	36028.52
672.507	35752.59
672.856	35734.06
673.205	35968.18
673.554	36049.98
673.904	35764.57
674.253	36028.52
674.602	35910.1
674.951	35326.16
675.3	35181.08
675.649	35828.52
675.998	35761.63
676.346	35775.42
676.695	35967.05
677.044	35633.27
677.393	35730.44
677.741	35642.09
678.09	35565.93
678.438	35633.05
678.787	35604.12
679.135	35626.72
679.484	35281.42
679.832	35535.65
680.181	35337.91
680.529	35462.2
680.877	35289.1
681.225	35300.17
681.573	35435.54
681.922	35296.33
682.27	35100.63
682.618	35155.54
682.966	35062.89
683.314	34960.52
683.661	35001.65
684.009	34843.69
684.357	34808.21
684.705	34793.97
685.053	34782.9
685.4	34719.4
685.748	34566.63
686.095	34565.05
686.443	34563.92
686.79	34507.65
687.138	34515.11
687.485	34474.66
687.832	34349.69
688.18	34226.76
688.527	34239.18
688.874	34127.55
689.221	34151.73
689.568	34092.52
689.915	33930.49
690.262	33944.95
690.609	33854.11
690.956	33628.81
691.303	33713.1
691.65	33500.45
691.997	33570.5
692.344	33249.83
692.69	33451.86
693.037	33373.67
693.383	33062.94
693.73	33170.96
694.077	33056.62
694.423	33040.57
694.769	32993.12
695.116	32864.76
695.462	32930.74
695.808	32713.57
696.155	32641.71
696.501	32561.49
696.847	32562.62
697.193	32329.18
697.539	32305.9
697.885	32210.31
698.231	32153.82
698.577	32109.07
698.923	32026.14
699.269	31978
699.614	31712.02
699.96	31610.78
700.306	31705.47
700.651	31649.87
700.997	31410.33
701.342	31413.95
701.688	31469.54
702.033	31315.42
702.379	31320.84
702.724	31169.43
703.069	31194.97
703.415	30790.24
703.76	30872.49
704.105	30869.1
704.45	30837.92
704.795	30707.98
705.14	30648.77
705.485	30479.74
705.83	30463.69
706.175	30441.77
706.52	30305.28
706.865	30294.2
707.209	30267.76
707.554	30185.28
707.899	30148.67
708.243	30025.96
708.588	30022.8
708.932	29719.76
709.277	29824.61
709.621	29858.96
709.966	29547.1
710.31	29693.99
710.654	29471.85
710.998	29395.7
711.342	29524.05
711.687	29405.19
712.031	29285.64
712.375	29126.78
712.719	29198.87
713.063	29062.37
713.407	29196.61
713.75	29023.73
714.094	28945.09
714.438	28960.45
714.782	28887.23
715.125	28680.46
715.469	28889.49
715.812	28650.86
716.156	28530.86
716.499	28442.95
716.843	28557.07
717.186	28374.03
717.53	28505.32
717.873	28530.18
718.216	28315.72
718.559	28268.95
718.902	28080.48
719.246	28258.32
719.589	28037.31
719.932	27978.78
720.275	27936.98
720.617	27878
720.96	27905.79
721.303	27849.75
721.646	27904.44
721.989	27673.03
722.331	27792.57
722.674	27609.3
723.016	27667.38
723.359	27542.64
723.701	27657.44
724.044	27495.63
724.386	27273.49
724.729	27531.34
725.071	27316.2
725.413	27352.13
725.755	27446.82
726.097	27278.69
726.439	27149.43
726.782	27079.37
727.124	27294.73
727.465	27055.87
727.807	27065.81
728.149	26966.16
728.491	26941.75
728.833	26985.36
729.175	26859.94
729.516	26781.98
729.858	26760.51
730.199	26830.34
730.541	26732.04
730.882	26622.89
731.224	26680.51
731.565	26532.49
731.906	26534.53
732.248	26566.84
732.589	26550.12
732.93	26405.94
733.271	26380.63
733.612	26335.89
733.953	26350.58
734.294	26195.33
734.635	26272.39
734.976	26261.77
735.317	26096.8
735.658	26138.83
735.999	26130.47
736.339	26094.09
736.68	26226.97
737.021	26028.78
737.361	25918.5
737.702	26027.42
738.042	25868.33
738.383	25824.94
738.723	25884.6
739.063	25848.9
739.404	25786.07
739.744	25743.14
740.084	25729.8
740.424	25671.73
740.764	25663.82
741.104	25737.94
741.444	25540.66
741.784	25455.46
742.124	25539.3
742.464	25417.27
742.804	25343.83
743.143	25318.29
743.483	25421.34
743.823	25234.45
744.162	25188.8
744.502	25244.84
744.841	25179.08
745.181	25147.9
745.52	25178.41
745.86	25125.07
746.199	25079.88
746.538	25040.1
746.877	25073.1
747.216	25035.58
747.556	24979.77
747.895	25024.29
748.234	24888.47
748.573	24926.66
748.911	24749.04
749.25	24810.96
749.589	24717.17
749.928	24715.14
750.267	24743.61
750.605	24660.91
750.944	24555.15
751.283	24524.41
751.621	24601.02
751.96	24406.67
752.298	24372.78
752.636	24428.37
752.975	24302.04
753.313	24295.49
753.651	24385.43
753.989	24062.95
754.327	24215.27
754.666	24082.39
755.004	24002.17
755.342	24051.66
755.679	23959.68
756.017	23824.54
756.355	23831.55
756.693	23790.65
757.031	23885.56
757.368	23512.46
757.706	23547.26
758.044	23547.49
758.381	23609.63
758.719	23533.25
759.056	23503.65
759.394	23493.25
759.731	23255.07
760.068	23286.93
760.405	23131.23
760.743	23035.19
