Data from hue_280_FLMS001491_00075.txt Node
Date: Tue Feb 07 15:55:45 GMT 2017
User: dcchb
Spectrometer: FLMS00149
Trigger mode: 0
Integration Time (sec): 2.000000E-2
Scans to average: 10
Electric dark correction enabled: true
Nonlinearity correction enabled: false
Boxcar width: 0
XAxis mode: Wavelengths
Number of Pixels in Spectrum: 2048
>>>>>Begin Spectral Data<<<<<
341.393	-7.57
341.776	-7.57
342.16	-7.57
342.543	-56.61
342.927	-46.67
343.31	-67.46
343.693	-71.75
344.077	-58.64
344.46	-65.2
344.843	-31.98
345.226	-45.54
345.61	-18.19
345.993	-11.64
346.376	-16.84
346.759	-2.15
347.142	15.93
347.525	45.31
347.908	52.54
348.291	87.57
348.674	85.76
349.057	102.26
349.44	135.02
349.823	140.45
350.206	157.85
350.588	202.14
350.971	203.05
351.354	219.99
351.737	234.68
352.119	247.34
352.502	259.54
352.884	259.32
353.267	281.91
353.65	289.6
354.032	302.25
354.414	293.66
354.797	343.15
355.179	320.56
355.562	324.4
355.944	329.14
356.326	309.03
356.709	338.18
357.091	324.17
357.473	337.51
357.855	346.09
358.238	328.92
358.62	334.34
359.002	345.87
359.384	339.99
359.766	349.48
360.148	336.15
360.53	325.75
360.912	321.01
361.294	326.88
361.676	333.21
362.057	361.69
362.439	345.64
362.821	335.25
363.203	321.01
363.584	335.47
363.966	330.27
364.348	332.08
364.729	305.19
365.111	331.4
365.493	295.02
365.874	322.14
366.256	322.36
366.637	323.72
367.019	331.18
367.4	323.72
367.781	293.89
368.163	311.52
368.544	300.67
368.925	312.87
369.306	322.14
369.688	293.44
370.069	322.36
370.45	312.65
370.831	320.1
371.212	321.91
371.593	318.07
371.974	329.14
372.355	325.75
372.736	330.95
373.117	322.59
373.498	307
373.879	309.03
374.26	312.42
374.641	310.39
375.021	313.78
375.402	308.13
375.783	321.23
376.163	314.46
376.544	311.52
376.925	312.65
377.305	317.17
377.686	339.09
378.066	337.05
378.447	328.01
378.827	330.27
379.208	325.3
379.588	332.08
379.968	332.99
380.349	329.82
380.729	342.25
381.109	339.99
381.489	340.89
381.87	330.5
382.25	357.62
382.63	344.06
383.01	373.44
383.39	345.87
383.77	335.47
384.15	336.15
384.53	357.62
384.91	353.55
385.29	361.46
385.67	358.75
386.049	345.19
386.429	345.19
386.809	352.42
387.189	351.29
387.568	378.18
387.948	346.54
388.328	337.05
388.707	360.56
389.087	348.13
389.466	357.62
389.846	377.96
390.225	384.06
390.605	367.79
390.984	351.97
391.363	348.8
391.743	386.77
392.122	386.77
392.501	385.64
392.881	384.96
393.26	365.08
393.639	394.9
394.018	382.93
394.397	401.91
394.776	393.1
395.155	367.79
395.534	376.6
395.913	365.98
396.292	389.93
396.671	417.73
397.05	403.49
397.429	381.57
397.808	394.68
398.186	412.31
398.565	407.79
398.944	412.31
399.323	391.52
399.701	415.7
400.08	415.24
400.458	415.24
400.837	415.47
401.215	422.02
401.594	431.97
401.972	441.68
402.351	432.19
402.729	426.32
403.107	431.51
403.486	429.48
403.864	445.98
404.242	435.13
404.62	449.14
404.999	448.69
405.377	446.43
405.755	463.38
406.133	471.74
406.511	442.14
406.889	486.2
407.267	485.3
407.645	475.35
408.023	486.88
408.401	480.55
408.779	479.2
409.156	494.56
409.534	499.31
409.912	500.21
410.29	532.3
410.667	511.29
411.045	508.12
411.422	524.39
411.8	548.57
412.178	567.33
412.555	578.85
412.933	563.26
413.31	558.97
413.687	544.05
414.065	573.66
414.442	591.51
414.819	594.45
415.197	591.28
415.574	613.2
415.951	622.47
416.328	625.63
416.705	631.51
417.082	633.77
417.46	625.41
417.837	655.01
418.214	665.86
418.591	656.37
418.967	651.85
419.344	667.67
419.721	681.23
420.098	666.31
420.475	717.61
420.852	729.59
421.228	731.85
421.605	735.01
421.982	724.39
422.358	741.11
422.735	757.83
423.111	755.35
423.488	766.87
423.864	782.24
424.241	786.31
424.617	786.76
424.994	791.96
425.37	798.96
425.746	828.11
426.123	846.42
426.499	821.11
426.875	848.9
427.251	852.75
427.627	875.34
428.003	896.59
428.379	878.96
428.756	882.8
429.132	938.17
429.507	922.35
429.883	937.49
430.259	941.56
430.635	935.68
431.011	940.65
431.387	975.91
431.763	983.82
432.138	969.81
432.514	996.24
432.89	1017.71
433.265	1064.49
433.641	1068.33
434.016	1051.38
434.392	1080.31
434.767	1099.97
435.143	1147.43
435.518	1123.02
435.894	1121.67
436.269	1155.79
436.644	1165.05
437.02	1200.53
437.395	1170.03
437.77	1209.35
438.145	1243.24
438.52	1249.35
438.895	1254.32
439.271	1239.63
439.646	1292.96
440.021	1286.41
440.395	1285.5
440.77	1295.22
441.145	1319.63
441.52	1342
441.895	1309.91
442.27	1316.69
442.645	1352.17
443.019	1347.2
443.394	1364.14
443.769	1384.48
444.143	1361.21
444.518	1375.44
444.892	1408.66
445.267	1395.33
445.641	1435.1
446.016	1415.89
446.39	1391.26
446.764	1410.7
447.139	1458.15
447.513	1432.62
447.887	1440.98
448.262	1441.66
448.636	1474.88
449.01	1502.67
449.384	1474.88
449.758	1490.92
450.132	1506.06
450.506	1516.46
450.88	1501.09
451.254	1525.5
451.628	1548.32
452.002	1566.63
452.376	1565.5
452.75	1562.78
453.123	1586.96
453.497	1614.53
453.871	1622.9
454.244	1652.72
454.618	1627.87
454.992	1668.09
455.365	1641.65
455.739	1691.82
456.112	1717.81
456.486	1683.68
456.859	1725.27
457.232	1755.55
457.606	1744.25
457.979	1758.71
458.352	1783.12
458.725	1796
459.099	1824.7
459.472	1833.06
459.845	1865.83
460.218	1879.16
460.591	1900.63
460.964	1873.28
461.337	1898.14
461.71	1936.79
462.083	1955.54
462.456	1928.2
462.829	1969.33
463.201	2001.64
463.574	1954.41
463.947	1992.38
464.32	2045.03
464.692	2071.7
465.065	2076.22
465.438	2111.24
465.81	2106.95
466.183	2132.71
466.555	2185.59
466.928	2167.74
467.3	2187.85
467.672	2178.13
468.045	2235.99
468.417	2232.82
468.789	2250.9
469.161	2284.35
469.534	2291.35
469.906	2351.92
470.278	2357.34
470.65	2370.67
471.022	2408.86
471.394	2430.56
471.766	2445.02
472.138	2456.32
472.51	2500.61
472.882	2527.05
473.253	2568.18
473.625	2608.41
473.997	2631.68
474.369	2630.33
474.74	2672.59
475.112	2686.6
475.484	2740.61
475.855	2744.45
476.227	2780.38
476.598	2827.61
476.97	2830.55
477.341	2916.87
477.713	2936.08
478.084	2965.46
478.455	3024.67
478.827	3026.02
479.198	3093.59
479.569	3096.3
479.94	3165.68
480.311	3176.3
480.682	3285.68
481.053	3290.42
481.424	3308.5
481.795	3325.68
482.166	3364.09
482.537	3394.83
482.908	3450.64
483.279	3502.39
483.65	3571.77
484.021	3594.37
484.391	3605.44
484.762	3628.94
485.133	3615.39
485.503	3687.02
485.874	3787.36
486.244	3781.71
486.615	3861.71
486.985	3854.25
487.356	3956.62
487.726	3950.29
488.097	3989.84
488.467	4024.19
488.837	4101.47
489.207	4107.8
489.578	4162.72
489.948	4201.58
490.318	4241.13
490.688	4207.69
491.058	4296.95
491.428	4316.61
491.798	4327.68
492.168	4446.32
492.538	4491.07
492.908	4461.92
493.278	4484.51
493.648	4489.94
494.017	4571.29
494.387	4595.92
494.757	4606.09
495.126	4643.38
495.496	4627.56
495.866	4694
496.235	4687.67
496.605	4801.79
496.974	4752.53
497.344	4835.47
497.713	4833.43
498.082	4816.26
498.452	4881.11
498.821	4898.06
499.19	4892.41
499.559	4985.97
499.928	5021.45
500.298	4966.31
500.667	4988.68
501.036	5000.43
501.405	5031.85
501.774	5012.86
502.143	5099.87
502.512	5070.26
502.88	5173.99
503.249	5122.24
503.618	5153.2
503.987	5194.1
504.356	5171.73
504.724	5209.02
505.093	5237.94
505.462	5244.95
505.83	5251.73
506.199	5308.67
506.567	5325.4
506.936	5360.65
507.304	5356.36
507.672	5365.17
508.041	5353.42
508.409	5381.21
508.777	5457.82
509.145	5450.37
509.514	5439.29
509.882	5484.71
510.25	5469.57
510.618	5531.04
510.986	5498.73
511.354	5574.2
511.722	5589.57
512.09	5582.34
512.458	5659.17
512.826	5641.55
513.193	5630.02
513.561	5633.19
513.929	5651.49
514.297	5767.64
514.664	5713.64
515.032	5706.86
515.4	5753.18
515.767	5767.42
516.135	5799.06
516.502	5737.14
516.869	5805.84
517.237	5792.96
517.604	5769.9
517.972	5864.82
518.339	5831.82
518.706	5811.71
519.073	5880.86
519.44	5903.69
519.808	5914.53
520.175	5902.56
520.542	5946.85
520.909	5990.69
521.276	6040.63
521.643	5967.87
522.009	6050.35
522.376	6047.86
522.743	6143.91
523.11	6142.32
523.477	6161.53
523.843	6182.78
524.21	6213.96
524.577	6201.98
524.943	6201.31
525.31	6280.17
525.676	6300.96
526.043	6310
526.409	6321.08
526.776	6390
527.142	6377.35
527.508	6449.43
527.874	6447.4
528.241	6480.62
528.607	6504.35
528.973	6547.29
529.339	6540.05
529.705	6573.95
530.071	6600.39
530.437	6615.76
530.803	6624.12
531.169	6638.13
531.535	6682.88
531.901	6672.25
532.267	6725.36
532.632	6710.9
532.998	6727.85
533.364	6771.91
533.73	6763.55
534.095	6776.43
534.461	6798.13
534.826	6863.89
535.192	6900.04
535.557	6897.33
535.923	6834.06
536.288	6865.02
536.653	6915.64
537.019	6975.07
537.384	6944.56
537.749	6980.95
538.114	6915.64
538.479	7031.79
538.845	7013.04
539.21	6989.76
539.575	6999.7
539.94	7025.92
540.305	7024.34
540.67	7038.35
541.034	7097.1
541.399	7088.51
541.764	7134.84
542.129	7138.91
542.494	7090.77
542.858	7170.77
543.223	7150.66
543.587	7171.9
543.952	7182.97
544.316	7189.08
544.681	7235.18
545.045	7236.76
545.41	7280.15
545.774	7293.93
546.138	7323.76
546.503	7309.98
546.867	7313.14
547.231	7398.11
547.595	7353.82
547.959	7405.57
548.324	7395.62
548.688	7338.23
549.052	7401.5
549.416	7366.02
549.779	7460.71
550.143	7419.13
550.507	7403.99
550.871	7476.53
551.235	7414.83
551.599	7506.36
551.962	7493.02
552.326	7532.34
552.689	7588.84
553.053	7498.45
553.417	7514.04
553.78	7647.6
554.143	7626.13
554.507	7583.42
554.87	7632.45
555.234	7692.11
555.597	7654.83
555.96	7680.36
556.323	7676.75
556.686	7682.62
557.05	7773.24
557.413	7785.67
557.776	7678.33
558.139	7801.72
558.502	7792.68
558.865	7807.59
559.228	7906.35
559.59	7820.92
559.953	7893.24
560.316	7963.52
560.679	7964.65
561.041	7938.66
561.404	8003.97
561.767	8000.13
562.129	8063.18
562.492	8080.35
562.854	8104.76
563.217	8093.23
563.579	8047.13
563.941	8145.21
564.304	8159.22
564.666	8208.26
565.028	8243.96
565.39	8250.97
565.753	8276.96
566.115	8256.39
566.477	8343.85
566.839	8331.87
567.201	8377.75
567.563	8421.13
567.925	8401.7
568.287	8484.86
568.648	8466.11
569.01	8538.19
569.372	8545.43
569.734	8521.47
570.095	8638.98
570.457	8681.69
570.819	8714.01
571.18	8690.05
571.542	8762.37
571.903	8813.89
572.265	8756.72
572.626	8802.14
572.987	8885.3
573.349	8850.73
573.71	8862.48
574.071	8991.06
574.432	8963.04
574.794	9043.49
575.155	9037.62
575.516	9034.23
575.877	9150.61
576.238	9116.03
576.599	9208.01
576.96	9259.3
577.32	9243.49
577.681	9287.55
578.042	9323.94
578.403	9377.49
578.763	9422.46
579.124	9478.96
579.485	9556.92
579.845	9497.04
580.206	9504.95
580.566	9551.27
580.927	9607.77
581.287	9731.16
581.648	9701.55
582.008	9825.17
582.368	9836.24
582.728	9989
583.089	9889.34
583.449	10003.92
583.809	10034.88
584.169	10027.42
584.529	10124.59
584.889	10315.32
585.249	10289.79
585.609	10246.4
585.969	10381.53
586.329	10417.92
586.688	10539.95
587.048	10577.69
587.408	10567.29
587.768	10671.7
588.127	10778.59
588.487	10792.15
588.846	10875.99
589.206	10856.32
589.565	11013.61
589.925	11049.09
590.284	11119.37
590.643	11234.85
591.003	11242.98
591.362	11343.32
591.721	11489.53
592.08	11491.34
592.44	11528.17
592.799	11589.41
593.158	11725.45
593.517	11740.37
593.876	11821.72
594.235	11835.73
594.593	11878.22
594.952	12015.84
595.311	12032.34
595.67	12111.88
596.029	12299.45
596.387	12391.65
596.746	12332.67
597.104	12444.31
597.463	12435.27
597.822	12543.74
598.18	12560.46
598.538	12562.49
598.897	12743.51
599.255	12615.37
599.613	12954.8
599.972	12863.05
600.33	12921.13
600.688	12995.25
601.046	13054.01
601.404	13170.39
601.762	13171.07
602.12	13354.11
602.478	13337.84
602.836	13324.06
603.194	13382.13
603.552	13404.28
603.91	13320.89
604.268	13540.77
604.625	13452.87
604.983	13575.8
605.341	13593.43
605.698	13683.14
606.056	13759.07
606.413	13685.18
606.771	13840.43
607.128	13887.66
607.485	13808.79
607.843	13889.01
608.2	14042.23
608.557	14003.36
608.914	14035
609.272	14107.31
609.629	14174.88
609.986	14180.76
610.343	14239.29
610.7	14354.09
611.057	14319.96
611.414	14319.96
611.771	14356.57
612.127	14468.66
612.484	14449.45
612.841	14573.06
613.198	14556.57
613.554	14535.32
613.911	14653.74
614.267	14682.89
614.624	14663.46
614.98	14596.79
615.337	14734.64
615.693	14720.63
616.05	14685.6
616.406	14814.64
616.762	14764.24
617.118	14797.69
617.475	14790.68
617.831	14858.93
618.187	14893.96
618.543	14900.96
618.899	14973.96
619.255	15003.56
619.611	15011.24
619.967	15065.71
620.323	15010.34
620.678	15031.81
621.034	14984.13
621.39	15042.66
621.746	15066.38
622.101	15170.34
622.457	15126.95
622.812	15092.37
623.168	15266.15
623.523	15120.62
623.879	15215.53
624.234	15162.88
624.589	15169.43
624.945	15191.8
625.3	15206.27
625.655	15229.09
626.01	15167.4
626.365	15217.11
626.72	15228.64
627.075	15201.52
627.43	15217.57
627.785	15234.74
628.14	15239.71
628.495	15274.74
628.85	15262.54
629.205	15231.8
629.559	15272.03
629.914	15310.22
630.269	15180.28
630.623	15138.25
630.978	15242.42
631.332	15195.87
631.687	15273.38
632.041	15139.6
632.396	15203.56
632.75	15135.53
633.104	15247.85
633.459	15130.34
633.813	15140.73
634.167	15055.31
634.521	15189.09
634.875	15043.79
635.229	15063.45
635.583	15024.8
635.937	14982.77
636.291	15090.34
636.645	15006.27
636.999	15036.1
637.352	15059.83
637.706	14981.41
638.06	15035.42
638.413	14942.32
638.767	14985.26
639.121	15047.85
639.474	14991.13
639.828	14867.52
640.181	14934.18
640.534	14941.87
640.888	14911.81
641.241	14848.31
641.594	14932.6
641.947	14923.34
642.301	14893.05
642.654	14923.56
643.007	14862.32
643.36	14828.65
643.713	14827.52
644.066	14874.75
644.419	14700.97
644.771	14719.05
645.124	14557.92
645.477	14524.25
645.83	14406.97
646.182	14377.36
646.535	14332.84
646.888	14322
647.24	14249.91
647.593	14391.15
647.945	14374.88
648.298	14272.51
648.65	14357.02
649.002	14220.98
649.355	14341.43
649.707	14267.31
650.059	14432.05
650.411	14681.53
650.763	14601.99
651.115	14709.78
651.467	14673.17
651.819	14698.94
652.171	14711.14
652.523	14592.5
652.875	14638.15
653.227	14552.72
653.578	14645.15
653.93	14727.41
654.282	14567.41
654.633	14651.25
654.985	14596.57
655.337	14653.51
655.688	14696.9
656.039	14755.66
656.391	14618.49
656.742	14643.34
657.094	14663.23
657.445	14678.15
657.796	14694.64
658.147	14713.4
658.498	14668.2
658.849	14714.75
659.2	14719.73
659.551	14710.69
659.902	14745.26
660.253	14742.32
660.604	14660.97
660.955	14651.48
661.306	14672.72
661.656	14734.19
662.007	14712.95
662.358	14721.08
662.708	14689.44
663.059	14743.23
663.409	14644.02
663.76	14749.33
664.11	14745.94
664.461	14839.95
664.811	14796.56
665.161	14808.99
665.511	14782.55
665.862	14748.43
666.212	14827.52
666.562	14841.76
666.912	14746.62
667.262	14766.96
667.612	14768.99
667.962	14729.9
668.312	14785.49
668.662	14779.39
669.011	14785.94
669.361	14754.75
669.711	14759.27
670.06	14636.79
670.41	14678.37
670.76	14659.39
671.109	14723.34
671.459	14706.17
671.808	14752.04
672.157	14779.39
672.507	14608.99
672.856	14605.83
673.205	14651.71
673.554	14674.98
673.904	14654.42
674.253	14667.98
674.602	14630.91
674.951	14467.3
675.3	14376.46
675.649	14513.4
675.998	14528.32
676.346	14516.57
676.695	14580.75
677.044	14448.77
677.393	14526.74
677.741	14535.1
678.09	14461.43
678.438	14507.53
678.787	14441.77
679.135	14493.29
679.484	14325.84
679.832	14453.74
680.181	14352.5
680.529	14383.92
680.877	14401.54
681.225	14304.6
681.573	14402.9
681.922	14231.38
682.27	14172.85
682.618	14197.03
682.966	14282.45
683.314	14174.43
683.661	14201.55
684.009	14031.16
684.357	14027.99
684.705	14072.29
685.053	14076.58
685.4	14077.26
685.748	13992.29
686.095	13952.29
686.443	13924.27
686.79	13898.96
687.138	13870.71
687.485	13812.63
687.832	13784.61
688.18	13800.88
688.527	13700.54
688.874	13773.99
689.221	13615.8
689.568	13647.21
689.915	13545.97
690.262	13560.89
690.609	13538.51
690.956	13487.22
691.303	13536.25
691.65	13357.28
691.997	13396.14
692.344	13349.59
692.69	13287
693.037	13282.25
693.383	13174.23
693.73	13202.7
694.077	13127.9
694.423	13121.12
694.769	13028.47
695.116	13044.97
695.462	13012.43
695.808	12904.18
696.155	12945.08
696.501	12870.28
696.847	12863.05
697.193	12756.61
697.539	12745.09
697.885	12637.07
698.231	12596.84
698.577	12560.91
698.923	12503.74
699.269	12405.89
699.614	12397.53
699.96	12396.4
700.306	12419.22
700.651	12309.17
700.997	12266.68
701.342	12200.47
701.688	12198.21
702.033	12243.86
702.379	12237.53
702.724	12140.81
703.069	12131.32
703.415	11943.53
703.76	11910.99
704.105	11977.65
704.45	11921.38
704.795	11835.51
705.14	11892
705.485	11816.53
705.83	11673.93
706.175	11710.99
706.52	11675.06
706.865	11660.37
707.209	11634.61
707.554	11618.34
707.899	11606.59
708.243	11537.89
708.588	11488.4
708.932	11428.74
709.277	11404.56
709.621	11435.29
709.966	11309.42
710.31	11352.81
710.654	11158.46
710.998	11283.43
711.342	11231
711.687	11137.67
712.031	11161.63
712.375	11055.42
712.719	11132.48
713.063	11114.62
713.407	11130.67
713.75	11002.31
714.094	11047.73
714.438	11002.99
714.782	11042.31
715.125	11006.38
715.469	10947.85
715.812	10928.87
716.156	10853.16
716.499	10836.44
716.843	10874.18
717.186	10885.25
717.53	10880.96
717.873	10901.52
718.216	10845.93
718.559	10787.17
718.902	10743.79
719.246	10707.85
719.589	10767.74
719.932	10755.08
720.275	10760.06
720.617	10704.24
720.96	10687.74
721.303	10702.88
721.646	10651.81
721.989	10606.39
722.331	10663.34
722.674	10601.42
723.016	10587.18
723.359	10578.14
723.701	10569.55
724.044	10601.42
724.386	10451.59
724.729	10536.56
725.071	10538.59
725.413	10539.04
725.755	10428.99
726.097	10373.63
726.439	10455.21
726.782	10418.37
727.124	10540.17
727.465	10471.02
727.807	10444.13
728.149	10421.08
728.491	10413.17
728.833	10391.7
729.175	10313.74
729.516	10351.71
729.858	10384.02
730.199	10305.38
730.541	10308.54
730.882	10362.78
731.224	10424.7
731.565	10318.03
731.906	10355.32
732.248	10341.76
732.589	10322.78
732.93	10279.62
733.271	10301.09
733.612	10271.26
733.953	10370.01
734.294	10389.9
734.635	10369.56
734.976	10316
735.317	10320.97
735.658	10360.52
735.999	10352.61
736.339	10277.13
736.68	10334.3
737.021	10291.14
737.361	10354.42
737.702	10341.99
738.042	10328.88
738.383	10416.34
738.723	10363
739.063	10394.19
739.404	10462.66
739.744	10362.78
740.084	10418.82
740.424	10390.8
740.764	10470.57
741.104	10392.83
741.444	10444.81
741.784	10431.48
742.124	10466.28
742.464	10456.34
742.804	10481.65
743.143	10448.88
743.483	10507.63
743.823	10605.71
744.162	10511.7
744.502	10676.22
744.841	10664.01
745.181	10669.89
745.52	10648.42
745.86	10736.33
746.199	10769.1
746.538	10695.88
746.877	10857.68
747.216	10888.41
747.556	10876.21
747.895	10960.5
748.234	10992.37
748.573	11077.34
748.911	11161.4
749.25	11196.2
749.589	11288.4
749.928	11303.77
750.267	11355.07
750.605	11412.24
750.944	11492.24
751.283	11534.72
751.621	11700.82
751.96	11713.48
752.298	11789.41
752.636	11968.39
752.975	11990.31
753.313	12141.94
753.651	12268.72
753.989	12268.04
754.327	12377.64
754.666	12478.65
755.004	12731.76
755.342	12761.36
755.679	12946.44
756.017	12936.95
756.355	13121.58
756.693	13248.35
757.031	13399.31
757.368	13508.68
757.706	13697.83
758.044	13751.39
758.381	13871.16
758.719	14074.32
759.056	14162
759.394	14319.74
