Data from hue_330_FLMS001491_86.txt Node
Date: Mon Feb 06 15:46:02 GMT 2017
User: dcchb
Spectrometer: FLMS00149
Trigger mode: 0
Integration Time (sec): 2.000000E-2
Scans to average: 10
Electric dark correction enabled: true
Nonlinearity correction enabled: false
Boxcar width: 0
XAxis mode: Wavelengths
Number of Pixels in Spectrum: 2048
>>>>>Begin Spectral Data<<<<<
341.393	-22.5
341.776	-22.5
342.16	-22.5
342.543	-57.75
342.927	-79.9
343.31	-54.14
343.693	-63.85
344.077	-70.41
344.46	-55.94
344.843	-65.21
345.226	-60.24
345.61	-30.18
345.993	3.04
346.376	-8.04
346.759	-1.93
347.142	24.05
347.525	26.99
347.908	58.63
348.291	74.45
348.674	115.8
349.057	106.99
349.44	128.91
349.823	132.52
350.206	172.07
350.588	176.82
350.971	214.56
351.354	248.23
351.737	245.74
352.119	243.71
352.502	262.01
352.884	284.16
353.267	293.65
353.65	297.94
354.032	281.9
354.414	313.54
354.797	311.5
355.179	320.09
355.562	314.21
355.944	333.2
356.326	324.38
356.709	331.39
357.091	331.39
357.473	331.62
357.855	323.25
358.238	343.82
358.62	328
359.002	331.16
359.384	343.14
359.766	335.01
360.148	332.29
360.53	358.51
360.912	344.95
361.294	334.78
361.676	341.78
362.057	334.1
362.439	326.19
362.821	327.1
363.203	310.83
363.584	328.68
363.966	318.28
364.348	336.59
364.729	330.94
365.111	323.93
365.493	303.14
365.874	313.08
366.256	319.86
366.637	327.77
367.019	321.67
367.4	332.75
367.781	297.49
368.163	330.94
368.544	322.35
368.925	312.63
369.306	335.23
369.688	299.75
370.069	323.48
370.45	318.06
370.831	325.29
371.212	311.05
371.593	303.82
371.974	339.07
372.355	318.73
372.736	312.63
373.117	324.84
373.498	325.97
373.879	331.16
374.26	311.96
374.641	305.85
375.021	306.53
375.402	344.27
375.783	317.83
376.163	315.8
376.544	340.43
376.925	313.08
377.305	311.5
377.686	325.51
378.066	331.16
378.447	331.16
378.827	337.04
379.208	329.58
379.588	344.5
379.968	311.96
380.349	339.07
380.729	337.94
381.109	342.24
381.489	343.14
381.87	352.86
382.25	347.89
382.63	322.35
383.01	328.23
383.39	330.94
383.77	330.49
384.15	333.2
384.53	337.27
384.91	346.76
385.29	352.63
385.67	354.89
386.049	339.75
386.429	342.46
386.809	328.68
387.189	336.81
387.568	359.41
387.948	355.34
388.328	336.81
388.707	349.69
389.087	335.91
389.466	374.55
389.846	356.02
390.225	355.12
390.605	370.71
390.984	370.94
391.363	361.67
391.743	383.37
392.122	360.54
392.501	375.46
392.881	378.62
393.26	363.71
393.639	359.64
394.018	391.28
394.397	372.97
394.776	378.39
395.155	367.77
395.534	363.48
395.913	361.67
396.292	381.33
396.671	395.79
397.05	381.11
397.429	382.69
397.808	386.08
398.186	390.82
398.565	395.57
398.944	407.32
399.323	384.95
399.701	403.7
400.08	399.41
400.458	402.12
400.837	400.99
401.215	384.72
401.594	412.07
401.972	391.28
402.351	413.42
402.729	427.21
403.107	418.17
403.486	430.14
403.864	439.64
404.242	416.59
404.62	444.15
404.999	432.63
405.377	433.31
405.755	440.99
406.133	422.69
406.511	449.8
406.889	447.09
407.267	462.23
407.645	457.26
408.023	473.08
408.401	452.06
408.779	469.47
409.156	482.12
409.534	474.66
409.912	477.6
410.29	494.1
410.667	484.61
411.045	504.04
411.422	504.04
411.8	501.1
412.178	509.92
412.555	521.22
412.933	516.02
413.31	524.83
413.687	512.85
414.065	533.64
414.442	539.07
414.819	565.51
415.197	551.04
415.574	573.19
415.951	562.34
416.328	553.76
416.705	586.3
417.082	571.16
417.46	587.88
417.837	578.39
418.214	575.68
418.591	604.38
418.967	595.56
419.344	609.35
419.721	625.39
420.098	611.61
420.475	630.36
420.852	628.1
421.228	644.38
421.605	659.29
421.982	652.74
422.358	663.81
422.735	678.95
423.111	678.5
423.488	671.72
423.864	684.37
424.241	674.66
424.617	697.71
424.994	718.05
425.37	738.61
425.746	707.42
426.123	731.38
426.499	701.78
426.875	727.76
427.251	751.49
427.627	747.2
428.003	716.46
428.379	773.41
428.756	776.58
429.132	783.13
429.507	799.17
429.883	840.08
430.259	797.37
430.635	797.14
431.011	824.03
431.387	846.4
431.763	837.59
432.138	870.36
432.514	856.57
432.89	870.13
433.265	909.91
433.641	901.32
434.016	885.5
434.392	915.78
434.767	933.86
435.143	934.09
435.518	914.88
435.894	923.46
436.269	968.89
436.644	965.05
437.02	984.25
437.395	949.23
437.77	991.03
438.145	981.32
438.52	1000.3
438.895	1014.76
439.271	1021.99
439.646	1035.55
440.021	1045.95
440.395	1042.78
440.77	1031.94
441.145	1064.25
441.52	1070.81
441.895	1084.59
442.27	1073.74
442.645	1063.35
443.019	1076.91
443.394	1062.22
443.769	1066.51
444.143	1082.33
444.518	1106.74
444.892	1100.86
445.267	1114.19
445.641	1139.96
446.016	1106.06
446.39	1119.62
446.764	1127.53
447.139	1116.45
447.513	1135.21
447.887	1149.22
448.262	1163.23
448.636	1146.51
449.01	1144.25
449.384	1162.55
449.758	1181.31
450.132	1196
450.506	1187.64
450.88	1196.45
451.254	1204.81
451.628	1204.59
452.002	1217.02
452.376	1195.77
452.75	1216.34
453.123	1218.37
453.497	1258.37
453.871	1247.98
454.244	1253.4
454.618	1248.65
454.992	1287.3
455.365	1292.95
455.739	1325.26
456.112	1323.23
456.486	1324.81
456.859	1339.05
457.232	1350.8
457.606	1351.48
457.979	1357.13
458.352	1402.1
458.725	1397.58
459.099	1423.79
459.472	1422.43
459.845	1452.26
460.218	1448.65
460.591	1457.46
460.964	1449.33
461.337	1506.73
461.71	1529.55
462.083	1521.19
462.456	1519.61
462.829	1499.72
463.201	1572.26
463.574	1531.36
463.947	1553.96
464.32	1618.59
464.692	1618.59
465.065	1626.72
465.438	1630.11
465.81	1643.67
466.183	1630.11
466.555	1696.33
466.928	1687.51
467.3	1695.87
467.672	1657.23
468.045	1740.84
468.417	1752.14
468.789	1738.36
469.161	1755.98
469.534	1790.33
469.906	1810.22
470.278	1842.54
470.65	1840.05
471.022	1882.31
471.394	1901.29
471.766	1877.79
472.138	1941.52
472.51	1956.21
472.882	1989.88
473.253	2031.01
473.625	2000.95
473.997	2047.05
474.369	2047.05
474.74	2077.78
475.112	2081.63
475.484	2139.25
475.855	2162.3
476.227	2180.61
476.598	2238.68
476.97	2258.57
477.341	2297.44
477.713	2322.75
478.084	2335.18
478.455	2374.73
478.827	2399.81
479.198	2419.02
479.569	2462.18
479.94	2488.62
480.311	2502.86
480.682	2573.14
481.053	2606.81
481.424	2645.23
481.795	2673.25
482.166	2722.29
482.537	2711.44
482.908	2757.31
483.279	2795.96
483.65	2831.44
484.021	2866.24
484.391	2887.03
484.762	2911.89
485.133	2947.59
485.503	2990.3
485.874	3049.74
486.244	3058.1
486.615	3119.79
486.985	3140.36
487.356	3202.73
487.726	3219.9
488.097	3251.09
488.467	3273.69
488.837	3354.59
489.207	3358.2
489.578	3393.68
489.948	3411.99
490.318	3496.05
490.688	3497.86
491.058	3501.7
491.428	3534.7
491.798	3604.98
492.168	3706.44
492.538	3690.4
492.908	3703.28
493.278	3774.69
493.648	3728.81
494.017	3805.42
494.387	3822.37
494.757	3845.87
495.126	3889.26
495.496	3884.06
495.866	3899.21
496.235	3964.97
496.605	3986.66
496.974	4027.79
497.344	4002.03
497.713	4070.95
498.082	4077.96
498.452	4091.97
498.821	4135.58
499.19	4104.85
499.559	4176.71
499.928	4188.24
500.298	4228.46
500.667	4188.01
501.036	4208.8
501.405	4222.13
501.774	4225.3
502.143	4297.61
502.512	4301.45
502.88	4339.19
503.249	4335.8
503.618	4358.4
503.987	4341.45
504.356	4406.76
504.724	4459.87
505.093	4404.05
505.462	4467.1
505.83	4494.44
506.199	4507.78
506.567	4585.97
506.936	4587.32
507.304	4565.85
507.672	4614.21
508.041	4613.76
508.409	4649.02
508.777	4655.57
509.145	4682.91
509.514	4671.39
509.882	4729.47
510.25	4676.59
510.618	4713.2
510.986	4737.83
511.354	4766.98
511.722	4801.55
512.09	4856.69
512.458	4805.62
512.826	4893.08
513.193	4848.78
513.561	4895.79
513.929	4911.16
514.297	4977.6
514.664	4946.18
515.032	4969.46
515.4	4997.03
515.767	5002.45
516.135	5009.23
516.502	4996.8
516.869	5087.87
517.237	5093.98
517.604	5034.99
517.972	5099.63
518.339	5079.97
518.706	5118.16
519.073	5116.8
519.44	5150.92
519.808	5185.95
520.175	5161.32
520.542	5241.09
520.909	5209
521.276	5220.75
521.643	5336.91
522.009	5346.62
522.376	5323.12
522.743	5398.83
523.11	5379.17
523.477	5423.01
523.843	5429.56
524.21	5502.1
524.577	5522.21
524.943	5548.2
525.31	5542.1
525.676	5578.71
526.043	5627.3
526.409	5616
526.776	5665.26
527.142	5687.41
527.508	5728.54
527.874	5726.73
528.241	5788.87
528.607	5806.05
528.973	5875.88
529.339	5820.96
529.705	5907.97
530.071	5924.91
530.437	5949.32
530.803	5941.86
531.169	6001.07
531.535	5997.91
531.901	6012.82
532.267	6089.2
532.632	6119.71
532.998	6128.75
533.364	6146.83
533.73	6169.65
534.095	6186.83
534.461	6248.97
534.826	6297.79
535.192	6308.86
535.557	6357.67
535.923	6339.14
536.288	6384.56
536.653	6401.74
537.019	6416.88
537.384	6403.32
537.749	6451
538.114	6445.58
538.479	6514.96
538.845	6492.36
539.21	6501.17
539.575	6578.91
539.94	6594.5
540.305	6613.94
540.67	6586.59
541.034	6672.01
541.399	6717.66
541.764	6683.31
542.129	6789.98
542.494	6780.71
542.858	6863.65
543.223	6865.23
543.587	6845.57
543.952	6855.06
544.316	6898.45
544.681	6914.27
545.045	6967.37
545.41	6977.99
545.774	6970.54
546.138	7065.22
546.503	7061.83
546.867	7084.21
547.231	7125.56
547.595	7156.07
547.959	7170.76
548.324	7157.42
548.688	7221.38
549.052	7197.65
549.416	7300.7
549.779	7268.38
550.143	7343.41
550.507	7369.85
550.871	7421.6
551.235	7408.27
551.599	7461.15
551.962	7399
552.326	7502.73
552.689	7502.05
553.053	7496.4
553.417	7480.81
553.78	7571.43
554.143	7573.23
554.507	7597.64
554.87	7688.03
555.234	7667.69
555.597	7662.72
555.96	7677.64
556.323	7680.8
556.686	7734.58
557.05	7787.92
557.413	7749.73
557.776	7800.8
558.139	7855.71
558.502	7905.2
558.865	7830.63
559.228	7958.76
559.59	7943.62
559.953	8022.26
560.316	8035.82
560.679	7980
561.041	8052.32
561.404	8144.07
561.767	8164.4
562.129	8159.66
562.492	8240.33
562.854	8220.22
563.217	8187.23
563.579	8273.1
563.941	8259.99
564.304	8259.09
564.666	8365.3
565.028	8358.98
565.39	8408.47
565.753	8399.88
566.115	8415.92
566.477	8444.4
566.839	8433.1
567.201	8611.62
567.563	8497.73
567.925	8639.19
568.287	8604.17
568.648	8681
569.01	8757.38
569.372	8678.29
569.734	8746.31
570.095	8810.26
570.457	8790.15
570.819	8914.21
571.18	8856.59
571.542	8976.13
571.903	8934.33
572.265	9019.75
572.626	8993.08
572.987	9153.53
573.349	9184.94
573.71	9249.12
574.071	9262
574.432	9269.91
574.794	9367.54
575.155	9473.07
575.516	9426.52
575.877	9491.6
576.238	9557.81
576.599	9697.47
576.96	9742.67
577.32	9788.54
577.681	9906.28
578.042	10027.18
578.403	10065.82
578.763	10099.27
579.124	10234.86
579.485	10314.4
579.845	10498.81
580.206	10540.61
580.566	10663.32
580.927	10751.23
581.287	10887.5
581.648	11019.02
582.008	11128.62
582.368	11262.4
582.728	11401.61
583.089	11541.72
583.449	11678.44
583.809	11927.02
584.169	12083.85
584.529	12219.89
584.889	12410.17
585.249	12542.59
585.609	12794.11
585.969	12997.27
586.329	13251.28
586.688	13378.5
587.048	13613.3
587.408	13787.98
587.768	13986.4
588.127	14208.54
588.487	14477.68
588.846	14851.69
589.206	14897.33
589.565	15111.34
589.925	15510.88
590.284	15678.33
590.643	16024.99
591.003	16242.61
591.362	16589.49
591.721	16791.07
592.08	17055.02
592.44	17416.82
592.799	17730.48
593.158	17912.62
593.517	18118.94
593.876	18463.12
594.235	18731.58
594.593	19028.07
594.952	19307.39
595.311	19588.74
595.67	20012
596.029	20277.31
596.387	20614.02
596.746	20840.68
597.104	21053.78
597.463	21318.63
597.822	21708.91
598.18	21908.45
598.538	22152.28
598.897	22597.24
599.255	22698.49
599.613	23228.64
599.972	23331.46
600.33	23709.76
600.688	23795.63
601.046	24226.81
601.404	24600.13
601.762	24857.98
602.12	25155.82
602.478	25470.62
602.836	25771.85
603.194	25866.54
603.552	26103.14
603.91	26334.1
604.268	26700.41
604.625	26875.32
604.983	27273.28
605.341	27308.53
605.698	27793.04
606.056	28056.08
606.413	28218.11
606.771	28496.98
607.128	28663.07
607.485	28868.94
607.843	29062.39
608.2	29475.03
608.557	29572.2
608.914	29821.01
609.272	30127.89
609.629	30392.52
609.986	30737.82
610.343	30636.81
610.7	31039.96
611.057	31320.86
611.414	31416.67
611.771	31550.68
612.127	31830.45
612.484	32139.82
612.841	32313.15
613.198	32326.48
613.554	32450.77
613.911	32831.1
614.267	33009.85
614.624	33059.12
614.98	33379.33
615.337	33608.03
615.693	33684.41
616.05	33596.96
616.406	34067.23
616.762	34125.3
617.118	34277.16
617.475	34445.07
617.831	34511.73
618.187	34789.92
618.543	34989.91
618.899	35198.04
619.255	35216.35
619.611	35236.01
619.967	35471.71
620.323	35689.78
620.678	35612.04
621.034	35706.73
621.39	35808.65
621.746	35894.07
622.101	36378.58
622.457	36296.77
622.812	36356.43
623.168	36559.14
623.523	36604.79
623.879	36737.21
624.234	36552.58
624.589	36886.36
624.945	36977.88
625.3	36977.43
625.655	37024.44
626.01	37218.1
626.365	37249.29
626.72	37253.36
627.075	37332
627.43	37452.22
627.785	37403.41
628.14	37491.99
628.495	37653.12
628.85	37552.33
629.205	37477.76
629.559	37791.87
629.914	37695.38
630.269	37699.22
630.623	37612.44
630.978	37782.61
631.332	37749.61
631.687	37936.28
632.041	37858.99
632.396	38060.79
632.75	37977.41
633.104	37968.14
633.459	37912.32
633.813	37788.48
634.167	37903.74
634.521	37884.3
634.875	38079.78
635.229	38053.56
635.583	38002.04
635.937	37923.85
636.291	38028.93
636.645	38024.41
636.999	37955.71
637.352	38090.62
637.706	37889.72
638.06	38185.08
638.413	37993
638.767	37974.02
639.121	38009.04
639.474	37926.33
639.828	37895.37
640.181	37933.56
640.534	38006.56
640.888	37848.6
641.241	37834.13
641.594	37825.32
641.947	38085.88
642.301	37893.57
642.654	37923.17
643.007	37914.58
643.36	37981.02
643.713	37936.5
644.066	37908.71
644.419	37891.98
644.771	37545.33
645.124	37278.67
645.477	37154.15
645.83	36870.09
646.182	36920.94
646.535	36928.85
646.888	36936.53
647.24	36533.38
647.593	36899.24
647.945	36665.58
648.298	36706.03
648.65	36610.66
649.002	36525.92
649.355	36731.11
649.707	36633.49
650.059	36905.34
650.411	37081.61
650.763	37158.22
651.115	37651.54
651.467	37522.28
651.819	37546.46
652.171	37248.16
652.523	37444.99
652.875	37440.7
653.227	37268.27
653.578	37466.46
653.93	37439.57
654.282	37229.4
654.633	37142.4
654.985	37182.85
655.337	37302.62
655.688	37249.29
656.039	37372.9
656.391	37117.77
656.742	37137.43
657.094	37133.13
657.445	37263.3
657.796	37285.9
658.147	37184.21
658.498	37071.44
658.849	37226.01
659.2	37192.12
659.551	36998.67
659.902	37247.48
660.253	37153.25
660.604	37194.83
660.955	36973.59
661.306	37126.81
661.656	37112.8
662.007	37150.53
662.358	37145.11
662.708	37040.25
663.059	37079.58
663.409	36832.12
663.76	37148.05
664.11	37099.91
664.461	37186.01
664.811	37030.99
665.161	37012.23
665.511	36919.35
665.862	37028.96
666.212	37124.55
666.562	37188.27
666.912	37011.1
667.262	36982.86
667.612	36955.96
667.962	37045.68
668.312	36909.18
668.662	37032.12
669.011	36978.11
669.361	36955.51
669.711	36872.35
670.06	36780.15
670.41	36838.45
670.76	36836.42
671.109	36950.09
671.459	36930.2
671.808	36749.64
672.157	36877.55
672.507	36767.27
672.856	36762.3
673.205	36813.82
673.554	36821.73
673.904	36741.28
674.253	37009.07
674.602	36781.96
674.951	36209.32
675.3	36129.54
675.649	36692.47
675.998	36617.67
676.346	36798.23
676.695	36725.91
677.044	36527.95
677.393	36640.49
677.741	36572.47
678.09	36487.5
678.438	36480.5
678.787	36510.55
679.135	36572.92
679.484	36250.67
679.832	36551.45
680.181	36283.44
680.529	36266.49
680.877	36153.05
681.225	36118.92
681.573	36372.02
681.922	36131.8
682.27	35985.82
682.618	36091.58
682.966	36040.96
683.314	35979.49
683.661	35913.73
684.009	35821.53
684.357	35735.43
684.705	35649.78
685.053	35723.23
685.4	35591.03
685.748	35451.82
686.095	35327.76
686.443	35275.78
686.79	35325.5
687.138	35430.13
687.485	35296.35
687.832	35306.29
688.18	35197.14
688.527	35104.71
688.874	35054.32
689.221	34975.45
689.568	34873.53
689.915	34790.6
690.262	34778.39
690.609	34747.43
690.956	34591.96
691.303	34556.48
691.65	34302.93
691.997	34440.1
692.344	34146.77
692.69	34233.78
693.037	34310.61
693.383	34060.9
693.73	34066.32
694.077	33925.08
694.423	34074.68
694.769	33787.23
695.116	33690.51
695.462	33695.48
695.808	33689.61
696.155	33655.94
696.501	33372.33
696.847	33400.8
697.193	33119.23
697.539	33246.23
697.885	33132.56
698.231	32915.62
698.577	32944.77
698.923	32871.32
699.269	32723.76
699.614	32554.5
699.96	32594.04
700.306	32511.11
700.651	32455.29
700.997	32341.17
701.342	32319.7
701.688	32121.97
702.033	32084.68
702.379	32034.96
702.724	32013.95
703.069	32128.29
703.415	31704.35
703.76	31700.06
704.105	31675.42
704.45	31597.69
704.795	31499.38
705.14	31405.6
705.485	31439.27
705.83	31263.01
706.175	31339.61
706.52	31182.78
706.865	31246.73
707.209	31070.47
707.554	31079.06
707.899	31044.25
708.243	30841.32
708.588	30746.41
708.932	30520.88
709.277	30541.67
709.621	30616.69
709.966	30375.57
710.31	30395.01
710.654	30114.56
710.998	30282.69
711.342	30322.01
711.687	30217.84
712.031	30099.87
712.375	29990.5
712.719	29954.34
713.063	29878.18
713.407	29999.54
713.75	29835.02
714.094	29848.35
714.438	29717.06
714.782	29657.62
715.125	29360.68
715.469	29529.94
715.812	29529.04
716.156	29329.27
716.499	29327.46
716.843	29402.04
717.186	29204.98
717.53	29319.55
717.873	29196.62
718.216	29126.34
718.559	29064.65
718.902	28938.1
719.246	28975.16
719.589	28922.28
719.932	28666.01
720.275	28794.14
720.617	28772.68
720.96	28602.96
721.303	28747.59
721.646	28691.55
721.989	28454.72
722.331	28543.53
722.674	28470.54
723.016	28494.04
723.359	28497.43
723.701	28382.63
724.044	28161.84
724.386	28155.97
724.729	28225.12
725.071	28153.03
725.413	28093.37
725.755	28240.03
726.097	28005.92
726.439	27913.26
726.782	27821.74
727.124	27983.32
727.465	27828.29
727.807	27817.22
728.149	27700.84
728.491	27592.59
728.833	27671.01
729.175	27526.15
729.516	27560.28
729.858	27610.22
730.199	27505.14
730.541	27537.23
730.882	27482.54
731.224	27422.2
731.565	27237.12
731.906	27331.81
732.248	27253.17
732.589	27156.45
732.93	27004.13
733.271	27137.24
733.612	27156.9
733.953	27118.03
734.294	26950.35
734.635	26992.61
734.976	27018.82
735.317	26883.69
735.658	26824.48
735.999	26864.03
736.339	26731.15
736.68	26820.18
737.021	26671.04
737.361	26666.52
737.702	26809.79
738.042	26581.77
738.383	26612.73
738.723	26619.96
739.063	26477.37
739.404	26431.04
739.744	26441.66
740.084	26372.74
740.424	26481.44
740.764	26311.27
741.104	26400.99
741.444	26214.78
741.784	26154.44
742.124	26265.62
742.464	26199.18
742.804	26033.76
743.143	26076.02
743.483	26061.79
743.823	25845.75
744.162	25912.19
744.502	26043.93
744.841	25840.55
745.181	25918.74
745.52	25744.51
745.86	25804.39
746.199	25817.05
746.538	25704.96
746.877	25725.3
747.216	25666.77
747.556	25576.83
747.895	25566.43
748.234	25542.03
748.573	25412.76
748.911	25488.92
749.25	25295.48
749.589	25314.69
749.928	25325.53
750.267	25347
750.605	25308.81
750.944	25141.36
751.283	25186.56
751.621	25255.48
751.96	25011.87
752.298	24977.97
752.636	25073.79
752.975	24794.02
753.313	24793.35
753.651	24928.03
753.989	24686
754.327	24726
754.666	24616.85
755.004	24608.72
755.342	24659.79
755.679	24511.77
756.017	24497.76
756.355	24446.01
756.693	24419.8
757.031	24295.28
757.368	24254.38
757.706	24262.29
758.044	24045.79
758.381	24174.83
758.719	24074.72
759.056	24020.48
759.394	24060.94
759.731	23635.18
