Data from hue_320_FLMS001491_26.txt Node
Date: Mon Feb 06 15:46:58 GMT 2017
User: dcchb
Spectrometer: FLMS00149
Trigger mode: 0
Integration Time (sec): 2.000000E-2
Scans to average: 10
Electric dark correction enabled: true
Nonlinearity correction enabled: false
Boxcar width: 0
XAxis mode: Wavelengths
Number of Pixels in Spectrum: 2048
>>>>>Begin Spectral Data<<<<<
341.393	-16.3
341.776	-16.3
342.16	-16.3
342.543	-64.89
342.927	-84.77
343.31	-71.66
343.693	-68.28
344.077	-65.56
344.46	-76.64
344.843	-42.29
345.226	-49.74
345.61	-31.89
345.993	-24.21
346.376	8.79
346.759	11.04
347.142	22.57
347.525	48.33
347.908	57.6
348.291	87.2
348.674	88.78
349.057	105.96
349.44	120.42
349.823	128.78
350.206	155.9
350.588	204.49
350.971	214.66
351.354	233.86
351.737	233.41
352.119	220.53
352.502	254.43
352.884	256.01
353.267	276.57
353.65	284.03
354.032	299.85
354.414	299.85
354.797	312.73
355.179	316.12
355.562	324.03
355.944	316.35
356.326	314.31
356.709	339.62
357.091	321.77
357.473	338.72
357.855	327.19
358.238	318.61
358.62	333.97
359.002	324.71
359.384	343.69
359.766	317.25
360.148	344.14
360.53	357.7
360.912	345.27
361.294	328.32
361.676	328.78
362.057	333.07
362.439	321.55
362.821	338.49
363.203	329.45
363.584	334.2
363.966	318.16
364.348	322.45
364.729	302.11
365.111	315.9
365.493	308.89
365.874	309.34
366.256	293.3
366.637	292.17
367.019	308.21
367.4	302.34
367.781	295.11
368.163	303.47
368.544	308.44
368.925	326.06
369.306	305.27
369.688	309.79
370.069	316.12
370.45	289.91
370.831	285.84
371.212	282.9
371.593	295.78
371.974	301.21
372.355	332.84
372.736	324.03
373.117	303.47
373.498	291.72
373.879	299.4
374.26	312.05
374.641	311.6
375.021	312.51
375.402	305.5
375.783	323.81
376.163	315.9
376.544	305.5
376.925	322.22
377.305	319.96
377.686	307.53
378.066	330.13
378.447	349.57
378.827	317.48
379.208	336.46
379.588	323.58
379.968	323.35
380.349	330.58
380.729	340.3
381.109	323.13
381.489	321.09
381.87	349.12
382.25	347.99
382.63	330.58
383.01	349.57
383.39	340.98
383.77	338.49
384.15	330.58
384.53	336.69
384.91	348.66
385.29	361.09
385.67	340.08
386.049	340.75
386.429	352.5
386.809	345.73
387.189	351.37
387.568	354.99
387.948	345.73
388.328	357.7
388.707	352.28
389.087	336.01
389.466	352.96
389.846	357.25
390.225	368.78
390.605	337.82
390.984	358.15
391.363	359.51
391.743	342.56
392.122	370.58
392.501	344.6
392.881	357.02
393.26	346.63
393.639	384.14
394.018	376.01
394.397	373.75
394.776	377.14
395.155	363.35
395.534	387.31
395.913	383.24
396.292	382.56
396.671	378.49
397.05	379.85
397.429	374.2
397.808	391.37
398.186	377.14
398.565	402.22
398.944	404.03
399.323	403.35
399.701	398.15
400.08	385.95
400.458	376.91
400.837	402
401.215	386.18
401.594	402
401.972	380.07
402.351	398.83
402.729	410.58
403.107	399.06
403.486	398.83
403.864	398.83
404.242	403.58
404.62	427.53
404.999	406.74
405.377	414.88
405.755	430.69
406.133	424.37
406.511	442.22
406.889	442.22
407.267	445.84
407.645	428.21
408.023	449
408.401	455.33
408.779	446.06
409.156	449.23
409.534	460.52
409.912	443.35
410.29	472.73
410.667	450.36
411.045	476.12
411.422	482.9
411.8	476.12
412.178	500.98
412.555	510.47
412.933	506.17
413.31	494.87
413.687	528.09
414.065	516.34
414.442	519.96
414.819	508.43
415.197	506.63
415.574	549.56
415.951	534.87
416.328	531.26
416.705	546.62
417.082	581.65
417.46	568.54
417.837	589.79
418.214	578.71
418.591	575.55
418.967	599.28
419.344	596.57
419.721	585.72
420.098	604.93
420.475	604.48
420.852	629.33
421.228	642.21
421.605	621.42
421.982	631.14
422.358	644.02
422.735	652.61
423.111	644.93
423.488	667.07
423.864	663.01
424.241	696.9
424.617	689.67
424.994	680.63
425.37	701.42
425.746	695.09
426.123	728.09
426.499	681.08
426.875	710.01
427.251	713.85
427.627	739.84
428.003	741.65
428.379	721.31
428.756	761.53
429.132	761.99
429.507	795.43
429.883	772.38
430.259	814.64
430.635	780.74
431.011	790.23
431.387	808.09
431.763	815.09
432.138	812.38
432.514	814.19
432.89	846.28
433.265	851.7
433.641	842.66
434.016	877.91
434.392	855.77
434.767	891.02
435.143	866.62
435.518	898.03
435.894	925.82
436.269	918.14
436.644	944.58
437.02	947.97
437.395	948.42
437.77	950.68
438.145	963.79
438.52	980.28
438.895	960.85
439.271	954.97
439.646	1000.17
440.021	990.45
440.395	1021.64
440.77	980.28
441.145	977.8
441.52	1027.52
441.895	1021.19
442.27	1021.19
442.645	1031.13
443.019	1047.4
443.394	1054.63
443.769	1074.75
444.143	1046.05
444.518	1039.27
444.892	1029.32
445.267	1079.49
445.641	1083.11
446.016	1085.59
446.39	1086.72
446.764	1085.59
447.139	1089.66
447.513	1111.81
447.887	1075.88
448.262	1062.54
448.636	1092.37
449.01	1118.81
449.384	1092.15
449.758	1118.36
450.132	1108.64
450.506	1135.54
450.88	1123.33
451.254	1105.25
451.628	1135.54
452.002	1163.78
452.376	1149.55
452.75	1130.11
453.123	1149.32
453.497	1182.99
453.871	1187.51
454.244	1180.96
454.618	1190.22
454.992	1182.31
455.365	1228.64
455.739	1223.44
456.112	1260.96
456.486	1228.19
456.859	1253.5
457.232	1255.76
457.606	1258.24
457.979	1278.58
458.352	1288.07
458.725	1320.84
459.099	1301.86
459.472	1322.87
459.845	1319.94
460.218	1349.09
460.591	1330.78
460.964	1339.37
461.337	1336.21
461.71	1375.53
462.083	1399.93
462.456	1400.84
462.829	1361.07
463.201	1384.79
463.574	1451.68
463.947	1447.17
464.32	1451.91
464.692	1447.39
465.065	1422.31
465.438	1469.76
465.81	1495.98
466.183	1475.64
466.555	1538.91
466.928	1534.85
467.3	1540.72
467.672	1529.65
468.045	1568.52
468.417	1573.72
468.789	1589.53
469.161	1573.94
469.534	1607.16
469.906	1630.44
470.278	1626.82
470.65	1639.93
471.022	1680.15
471.394	1660.04
471.766	1715.18
472.138	1690.32
472.51	1749.08
472.882	1776.2
473.253	1752.47
473.625	1793.37
473.997	1796.53
474.369	1815.29
474.74	1833.82
475.112	1864.56
475.484	1879.02
475.855	1886.02
476.227	1905.46
476.598	1962.18
476.97	1962.86
477.341	1980.71
477.713	2009.18
478.084	2013.93
478.455	2054.83
478.827	2052.35
479.198	2136.64
479.569	2119.24
479.94	2148.16
480.311	2160.82
480.682	2198.56
481.053	2214.83
481.424	2259.8
481.795	2240.59
482.166	2312
482.537	2321.04
482.908	2319.46
483.279	2333.47
483.65	2385.22
484.021	2426.12
484.391	2436.07
484.762	2403.75
485.133	2458.44
485.503	2513.8
485.874	2551.54
486.244	2577.76
486.615	2566.01
486.985	2622.28
487.356	2659.79
487.726	2645.33
488.097	2705.21
488.467	2707.7
488.837	2737.53
489.207	2770.07
489.578	2833.57
489.948	2802.38
490.318	2883.74
490.688	2845.09
491.058	2891.2
491.428	2858.65
491.798	2926.22
492.168	3017.97
492.538	2992.66
492.908	3016.62
493.278	3030.4
493.648	3012.1
494.017	3074.92
494.387	3114.69
494.757	3098.2
495.126	3176.39
495.496	3192.66
495.866	3164.63
496.235	3187.68
496.605	3212.32
496.974	3264.74
497.344	3259.55
497.713	3272.65
498.082	3291.64
498.452	3330.05
498.821	3309.26
499.19	3340.45
499.559	3321.47
499.928	3343.61
500.298	3378.41
500.667	3394.23
501.036	3357.4
501.405	3441.69
501.774	3386.78
502.143	3450.05
502.512	3434.91
502.88	3477.39
503.249	3471.97
503.618	3480.56
503.987	3489.82
504.356	3517.85
504.724	3544.29
505.093	3515.81
505.462	3570.73
505.83	3568.24
506.199	3615.24
506.567	3564.4
506.936	3602.36
507.304	3635.36
507.672	3657.95
508.041	3701.8
508.409	3725.3
508.777	3690.95
509.145	3750.83
509.514	3703.6
509.882	3715.58
510.25	3737.05
510.618	3728.46
510.986	3738.63
511.354	3770.72
511.722	3785.41
512.09	3829.93
512.458	3786.99
512.826	3810.72
513.193	3823.6
513.561	3838.74
513.929	3860.89
514.297	3851.85
514.664	3845.52
515.032	3870.15
515.4	3887.33
515.767	3913.77
516.135	3921
516.502	3953.54
516.869	3965.74
517.237	3928.46
517.604	3953.99
517.972	3985.86
518.339	3955.12
518.706	3942.69
519.073	3996.48
519.44	3991.28
519.808	3979.3
520.175	4009.13
520.542	4057.04
520.909	4053.88
521.276	4024.95
521.643	4094.33
522.009	4084.16
522.376	4109.24
522.743	4109.92
523.11	4161.22
523.477	4186.53
523.843	4189.92
524.21	4220.88
524.577	4198.28
524.943	4225.62
525.31	4282.35
525.676	4304.72
526.043	4273.76
526.409	4306.07
526.776	4339.07
527.142	4325.73
527.508	4326.86
527.874	4382.91
528.241	4393.3
528.607	4407.09
528.973	4466.97
529.339	4438.5
529.705	4460.87
530.071	4528.89
530.437	4537.71
530.803	4547.65
531.169	4559.85
531.535	4572.28
531.901	4566.41
532.267	4595.33
532.632	4628.32
532.998	4648.21
533.364	4646.4
533.73	4719.85
534.095	4703.12
534.461	4740.19
534.826	4773.86
535.192	4803.69
535.557	4838.04
535.923	4791.94
536.288	4798.49
536.653	4901.09
537.019	4857.02
537.384	4856.12
537.749	4905.83
538.114	4923.91
538.479	4950.8
538.845	4952.38
539.21	4963.46
539.575	4959.39
539.94	4971.59
540.305	4978.37
540.67	5045.04
541.034	5082.1
541.399	5137.24
541.764	5080.52
542.129	5150.12
542.494	5164.58
542.858	5174.52
543.223	5165.94
543.587	5205.26
543.952	5236.67
544.316	5211.59
544.681	5245.94
545.045	5257.91
545.41	5298.36
545.774	5315.09
546.138	5316.67
546.503	5377.91
546.867	5349.66
547.231	5473.27
547.595	5387.63
547.959	5413.61
548.324	5472.14
548.688	5438.02
549.052	5484.57
549.416	5462.88
549.779	5494.97
550.143	5533.39
550.507	5609.77
550.871	5600.05
551.235	5577.9
551.599	5631.24
551.962	5622.87
552.326	5655.19
552.689	5658.35
553.053	5671.01
553.417	5628.07
553.78	5732.48
554.143	5719.82
554.507	5716.21
554.87	5762.08
555.234	5814.96
555.597	5844.34
555.96	5824.45
556.323	5788.75
556.686	5837.56
557.05	5817.45
557.413	5885.01
557.776	5894.73
558.139	5963.88
558.502	5944.9
558.865	5954.62
559.228	5971.34
559.59	6034.16
559.953	5997.1
560.316	6056.99
560.679	6035.29
561.041	6120.49
561.404	6092.24
561.767	6151
562.129	6143.77
562.492	6182.18
562.854	6138.57
563.217	6214.05
563.579	6194.16
563.941	6253.59
564.304	6280.71
564.666	6303.31
565.028	6253.82
565.39	6311.44
565.753	6401.61
566.115	6357.54
566.477	6369.52
566.839	6407.94
567.201	6448.16
567.563	6412.01
567.925	6490.42
568.287	6520.93
568.648	6469.86
569.01	6516.64
569.372	6548.27
569.734	6583.53
570.095	6589.63
570.457	6599.8
570.819	6678.21
571.18	6736.52
571.542	6749.17
571.903	6796.18
572.265	6775.39
572.626	6826.91
572.987	6889.28
573.349	6946.46
573.71	6949.85
574.071	6994.14
574.432	7050.63
574.794	7044.53
575.155	7169.5
575.516	7130.41
575.877	7237.3
576.238	7245.66
576.599	7330.63
576.96	7438.19
577.32	7434.8
577.681	7538.76
578.042	7610.62
578.403	7638.41
578.763	7691.97
579.124	7800.67
579.485	7937.84
579.845	8077.73
580.206	8121.57
580.566	8230.49
580.927	8369.7
581.287	8486.53
581.648	8611.95
582.008	8701.44
582.368	8841.77
582.728	8942.11
583.089	9049.45
583.449	9216.45
583.809	9408.09
584.169	9500.74
584.529	9690.79
584.889	9967.17
585.249	10041.29
585.609	10180.5
585.969	10504.1
586.329	10612.57
586.688	10818.44
587.048	11026.12
587.408	11178.43
587.768	11381.37
588.127	11708.36
588.487	11820.68
588.846	12180.22
589.206	12309.25
589.565	12538.17
589.925	12866.3
590.284	13087.31
590.643	13386.74
591.003	13615.66
591.362	13989.43
591.721	14220.39
592.08	14378.8
592.44	14719.58
592.799	15085
593.158	15293.81
593.517	15568.38
593.876	15904.41
594.235	16037.29
594.593	16447.45
594.952	16762.69
595.311	16955.68
595.67	17317.48
596.029	17749.11
596.387	17984.81
596.746	18280.17
597.104	18399.04
597.463	18667.05
597.822	19239.92
598.18	19363.98
598.538	19702.05
598.897	20062.95
599.255	20144.75
599.613	20710.84
599.972	20811.63
600.33	21264.5
600.688	21375
601.046	21723.24
601.404	22151.93
601.762	22344.92
602.12	22741.75
602.478	22917.56
602.836	23167.95
603.194	23352.35
603.552	23651.1
603.91	23814.94
604.268	24281.59
604.625	24338.09
604.983	24703.28
605.341	24822.37
605.698	25311.85
606.056	25474.33
606.413	25703.93
606.771	25971.49
607.128	26209.45
607.485	26399.05
607.843	26581.42
608.2	26962.43
608.557	27451.91
608.914	27459.81
609.272	27739.81
609.629	27925.34
609.986	28259.57
610.343	28205.11
610.7	28758.76
611.057	28805.32
611.414	29033.11
611.771	29193.33
612.127	29443.49
612.484	29685.29
612.841	29905.63
613.198	30021.78
613.554	30103.59
613.911	30435.1
614.267	30593.97
614.624	30744.02
614.98	30871.02
615.337	31235.53
615.693	31242.99
616.05	31354.85
616.406	31666.94
616.762	31695.41
617.118	31922.52
617.475	31952.13
617.831	32183.08
618.187	32333.58
618.543	32536.74
618.899	32860.12
619.255	32882.05
619.611	32905.32
619.967	33217.4
620.323	33365.65
620.678	33341.69
621.034	33383.05
621.39	33524.06
621.746	33615.81
622.101	34081.56
622.457	33819.42
622.812	34108.45
623.168	34116.59
623.523	34271.84
623.879	34489.01
624.234	34313.19
624.589	34541.66
624.945	34578.72
625.3	34808.32
625.655	34773.97
626.01	34870.47
626.365	34909.79
626.72	35051.93
627.075	35138.48
627.43	35074.3
627.785	35137.13
628.14	35311.81
628.495	35417.8
628.85	35429.55
629.205	35313.39
629.559	35592.71
629.914	35472.94
630.269	35679.49
630.623	35633.61
630.978	35465.71
631.332	35766.94
631.687	35790.9
632.041	35779.14
632.396	35788.18
632.75	35653.27
633.104	35825.02
633.459	35726.26
633.813	35770.33
634.167	35946.6
634.521	35842.87
634.875	35815.75
635.229	35849.65
635.583	35770.33
635.937	35837.67
636.291	35761.52
636.645	35761.97
636.999	35791.57
637.352	35998.8
637.706	35792.25
638.06	35958.12
638.413	35839.03
638.767	35780.95
639.121	35905.47
639.474	35691.91
639.828	35766.71
640.181	35925.58
640.534	35820.05
640.888	35733.27
641.241	35682.42
641.594	35794.96
641.947	35896.2
642.301	35789.09
642.654	35803.32
643.007	35863.89
643.36	35790.67
643.713	35713.83
644.066	35928.29
644.419	35691.69
644.771	35446.5
645.124	35106.62
645.477	35135.55
645.83	34867.3
646.182	34852.39
646.535	34749.11
646.888	34874.99
647.24	34539.18
647.593	34854.65
647.945	34776.91
648.298	34487.2
648.65	34637.03
649.002	34567.88
649.355	34703.69
649.707	34611.49
650.059	34830.92
650.411	35223
650.763	35159.27
651.115	35555.2
651.467	35441.53
651.819	35583.22
652.171	35330.79
652.523	35394.3
652.875	35419.38
653.227	35190.91
653.578	35440.4
653.93	35482.88
654.282	35268.42
654.633	35110.69
654.985	35234.07
655.337	35361.75
655.688	35230.01
656.039	35382.77
656.391	35059.39
656.742	35249.21
657.094	35184.81
657.445	35366.27
657.796	35216.45
658.147	35208.31
658.498	35074.53
658.849	35274.98
659.2	35166.96
659.551	35219.61
659.902	35279.5
660.253	35215.77
660.604	35148.43
660.955	34999.73
661.306	35107.07
661.656	35149.78
662.007	35147.97
662.358	35083.34
662.708	35000.18
663.059	35084.7
663.409	34886.51
663.76	35146.84
664.11	35178.93
664.461	35092.38
664.811	35124.7
665.161	34933.06
665.511	34875.89
665.862	35086.28
666.212	35091.03
666.562	35014.64
666.912	35067.98
667.262	34956.57
667.612	34989.56
667.962	34998.6
668.312	34960.86
668.662	35211.02
669.011	35054.87
669.361	34974.65
669.711	34896
670.06	35043.12
670.41	34879.28
670.76	34806.97
671.109	34940.97
671.459	34956.34
671.808	34881.77
672.157	35070.24
672.507	34751.37
672.856	34801.09
673.205	34750.92
673.554	34944.36
673.904	34856.91
674.253	34914.99
674.602	34911.6
674.951	34243.59
675.3	34217.38
675.649	34666.63
675.998	34709.57
676.346	34713.86
676.695	34769.23
677.044	34456.92
677.393	34614.43
677.741	34594.09
678.09	34466.64
678.438	34541.21
678.787	34625.28
679.135	34692.39
679.484	34336.24
679.832	34439.97
680.181	34177.6
680.529	34445.62
680.877	34331.27
681.225	34252.86
681.573	34506.64
681.922	34188.68
682.27	34021.22
682.618	34087.44
682.966	34074.56
683.314	34202.24
683.661	34190.94
684.009	33802.92
684.357	33797.73
684.705	33791.85
685.053	33786.43
685.4	33665.53
685.748	33583.27
686.095	33613.78
686.443	33508.92
686.79	33373.11
687.138	33590.05
687.485	33507.57
687.832	33347.12
688.18	33495.36
688.527	33155.71
688.874	33162.94
689.221	33155.03
689.568	33031.87
689.915	32873.23
690.262	32990.29
690.609	32851.54
690.956	32886.79
691.303	32707.59
691.65	32682.28
691.997	32573.8
692.344	32516.4
692.69	32413.58
693.037	32470.08
693.383	32198
693.73	32242.51
694.077	31977.44
694.423	32035.06
694.769	32071.44
695.116	31940.15
695.462	31830.55
695.808	31730.66
696.155	31903.77
696.501	31523.66
696.847	31572.7
697.193	31332.26
697.539	31540.16
697.885	31246.61
698.231	31180.39
698.577	31200.28
698.923	31165.71
699.269	30898.14
699.614	30829.44
699.96	30780.86
700.306	30831.25
700.651	30658.6
700.997	30491.37
701.342	30558.26
701.688	30672.84
702.033	30331.38
702.379	30283.92
702.724	30255
703.069	30429
703.415	30029.24
703.76	30129.8
704.105	30025.62
704.45	30037.6
704.795	29783.6
705.14	29878.06
705.485	29831.5
705.83	29575.47
706.175	29683.94
706.52	29480.55
706.865	29545.86
707.209	29519.2
707.554	29278.3
707.899	29321.91
708.243	29179.09
708.588	29217.73
708.932	29057.06
709.277	29023.39
709.621	29046.67
709.966	28799.44
710.31	28929.38
710.654	28709.95
710.998	28692.55
711.342	28636.73
711.687	28674.47
712.031	28443.97
712.375	28376.4
712.719	28420.47
713.063	28456.85
713.407	28326.01
713.75	28239.68
714.094	28203.07
714.438	28019.57
714.782	28138.89
715.125	28000.14
715.469	28079.23
715.812	27808.51
716.156	27773.48
716.499	27773.03
716.843	27713.14
717.186	27673.82
717.53	27654.16
717.873	27717.44
718.216	27655.06
718.559	27515.63
718.902	27338.91
719.246	27396.77
719.589	27420.95
719.932	27217.11
720.275	27252.36
720.617	27159.48
720.96	27150.9
721.303	27188.64
721.646	27168.52
721.989	26914.29
722.331	27113.61
722.674	26995.65
723.016	26992.48
723.359	26927.85
723.701	26903.67
724.044	26654.64
724.386	26538.26
724.729	26737.8
725.071	26668.42
725.413	26657.8
725.755	26728.76
726.097	26463.91
726.439	26332.84
726.782	26448.99
727.124	26459.39
727.465	26307.08
727.807	26353.63
728.149	26273.63
728.491	26196.35
728.833	26301.88
729.175	26099.85
729.516	26110.47
729.858	25987.76
730.199	26022.34
730.541	25913.64
730.882	25908.22
731.224	26006.52
731.565	25852.4
731.906	25808.33
732.248	25803.81
732.589	25739.41
732.93	25646.3
733.271	25750.48
733.612	25595.23
733.953	25673.65
734.294	25459.87
734.635	25506.42
734.976	25547.55
735.317	25386.65
735.658	25425.97
735.999	25441.34
736.339	25343.49
736.68	25439.75
737.021	25316.59
737.361	25147.11
737.702	25393.2
738.042	25225.52
738.383	25199.54
738.723	25166.09
739.063	25193.89
739.404	25156.15
739.744	25119.76
740.084	24978.98
740.424	25022.59
740.764	25001.57
741.104	24994.79
741.444	24926.77
741.784	24781.47
742.124	24919.09
742.464	24802.26
742.804	24698.76
743.143	24720
743.483	24673.45
743.823	24595.48
744.162	24515.49
744.502	24719.55
744.841	24471.64
745.181	24517.97
745.52	24550.29
745.86	24558.2
746.199	24401.59
746.538	24343.06
746.877	24465.54
747.216	24371.76
747.556	24192.33
747.895	24228.94
748.234	24157.53
748.573	24086.8
748.911	24139.68
749.25	24089.96
749.589	24020.13
749.928	24026.46
750.267	24011.32
750.605	23922.96
750.944	23959.34
751.283	23745.79
751.621	23890.87
751.96	23641.61
752.298	23706.69
752.636	23765.22
752.975	23583.98
753.313	23503.53
753.651	23684.32
753.989	23493.14
754.327	23359.13
754.666	23314.84
755.004	23382.41
755.342	23220.15
755.679	23262.86
756.017	23193.94
756.355	23230.1
756.693	23003.21
757.031	23173.6
757.368	22953.04
757.706	22935.19
758.044	22873.72
758.381	22911.46
758.719	22842.76
759.056	22751.24
759.394	22682.54
759.731	22506.05
760.068	22502.2
760.405	22506.05
