Data from hue_110_FLMS001491_00094.txt Node
Date: Tue Feb 07 17:02:04 GMT 2017
User: dcchb
Spectrometer: FLMS00149
Trigger mode: 0
Integration Time (sec): 2.000000E-2
Scans to average: 10
Electric dark correction enabled: true
Nonlinearity correction enabled: false
Boxcar width: 0
XAxis mode: Wavelengths
Number of Pixels in Spectrum: 2048
>>>>>Begin Spectral Data<<<<<
341.393	-13.23
341.776	-13.23
342.16	-13.23
342.543	-68.6
342.927	-51.88
343.31	-56.62
343.693	-67.24
344.077	-76.51
344.46	-65.44
344.843	-29.5
345.226	-45.1
345.61	-24.99
345.993	-31.31
346.376	-17.98
346.759	7.78
347.142	22.7
347.525	41.91
347.908	57.72
348.291	69.7
348.674	83.49
349.057	131.39
349.44	148.34
349.823	136.14
350.206	146.76
350.588	200.32
350.971	213.43
351.354	228.12
351.737	222.69
352.119	244.39
352.502	277.61
352.884	287.55
353.267	276.25
353.65	311.96
354.032	298.4
354.414	299.98
354.797	324.38
355.179	311.5
355.562	313.31
355.944	328.23
356.326	344.04
356.709	348.79
357.091	342.91
357.473	323.03
357.855	353.76
358.238	363.93
358.62	341.56
359.002	340.65
359.384	337.04
359.766	336.59
360.148	343.14
360.53	330.03
360.912	328.68
361.294	337.72
361.676	343.59
362.057	318.06
362.439	320.77
362.821	314.67
363.203	324.16
363.584	316.7
363.966	320.99
364.348	317.38
364.729	327.1
365.111	335.46
365.493	329.58
365.874	309.7
366.256	296.36
366.637	307.44
367.019	318.06
367.4	322.12
367.781	324.16
368.163	300.43
368.544	306.53
368.925	304.72
369.306	326.42
369.688	331.16
370.069	299.53
370.45	305.18
370.831	329.58
371.212	322.58
371.593	315.12
371.974	333.42
372.355	320.77
372.736	318.06
373.117	310.37
373.498	335.23
373.879	347.43
374.26	322.35
374.641	321.9
375.021	307.66
375.402	320.99
375.783	338.85
376.163	351.95
376.544	341.11
376.925	344.04
377.305	332.97
377.686	323.25
378.066	320.54
378.447	345.4
378.827	329.81
379.208	330.03
379.588	332.97
379.968	341.56
380.349	339.98
380.729	347.89
381.109	339.52
381.489	342.91
381.87	317.15
382.25	338.85
382.63	367.09
383.01	338.17
383.39	357.83
383.77	342.01
384.15	353.54
384.53	361.45
384.91	353.08
385.29	358.96
385.67	371.39
386.049	352.18
386.429	343.37
386.809	344.95
387.189	346.76
387.568	349.69
387.948	388.34
388.328	377.26
388.707	354.67
389.087	348.34
389.466	371.16
389.846	376.13
390.225	363.71
390.605	353.08
390.984	364.38
391.363	379.3
391.743	366.87
392.122	384.72
392.501	373.65
392.881	367.77
393.26	384.27
393.639	380.88
394.018	379.98
394.397	427.88
394.776	406.87
395.155	371.16
395.534	364.16
395.913	386.76
396.292	406.19
396.671	394.66
397.05	417.04
397.429	396.47
397.808	394.66
398.186	423.59
398.565	395.79
398.944	385.85
399.323	405.74
399.701	409.58
400.08	402.35
400.458	423.82
400.837	401.9
401.215	406.19
401.594	403.93
401.972	427.43
402.351	433.76
402.729	411.39
403.107	427.21
403.486	445.74
403.864	424.72
404.242	427.21
404.62	435.79
404.999	432.63
405.377	419.75
405.755	441.22
406.133	432.4
406.511	433.08
406.889	444.83
407.267	464.27
407.645	451.61
408.023	476.02
408.401	452.97
408.779	424.27
409.156	460.88
409.534	466.98
409.912	463.59
410.29	476.47
410.667	465.85
411.045	468.34
411.422	481.44
411.8	467.88
412.178	494.55
412.555	490.71
412.933	491.61
413.31	480.09
413.687	496.81
414.065	516.02
414.442	495.45
414.819	511.72
415.197	500.2
415.574	522.12
415.951	518.28
416.328	530.93
416.705	543.59
417.082	522.12
417.46	512.18
417.837	551.27
418.214	524.15
418.591	545.17
418.967	523.02
419.344	554.21
419.721	539.97
420.098	537.49
420.475	568.9
420.852	557.82
421.228	576.81
421.605	567.09
421.982	577.26
422.358	572.97
422.735	586.07
423.111	582
423.488	587.88
423.864	606.86
424.241	577.26
424.617	596.92
424.994	605.28
425.37	586.3
425.746	606.18
426.123	629.91
426.499	593.98
426.875	612.29
427.251	628.78
427.627	630.14
428.003	656.35
428.379	658.84
428.756	646.86
429.132	657.71
429.507	681.44
429.883	671.04
430.259	667.88
430.635	659.52
431.011	672.85
431.387	668.56
431.763	716.24
432.138	697.26
432.514	710.59
432.89	731.15
433.265	741.32
433.641	737.03
434.016	726.41
434.392	731.83
434.767	751.04
435.143	764.82
435.518	764.82
435.894	758.72
436.269	775.22
436.644	781.1
437.02	806.18
437.395	800.76
437.77	779.97
438.145	779.29
438.52	828.55
438.895	807.76
439.271	817.48
439.646	833.98
440.021	812.28
440.395	844.14
440.77	815.22
441.145	836.46
441.52	872.39
441.895	855.22
442.27	859.74
442.645	878.95
443.019	883.47
443.394	885.27
443.769	882.56
444.143	876.69
444.518	871.71
444.892	882.56
445.267	888.89
445.641	905.39
446.016	915.78
446.39	895.89
446.764	928.44
447.139	927.98
447.513	946.97
447.887	940.41
448.262	948.55
448.636	957.59
449.01	962.33
449.384	959.62
449.758	991.71
450.132	991.26
450.506	1001.65
450.88	1017.02
451.254	1017.47
451.628	1022.44
452.002	1011.37
452.376	1003.69
452.75	1025.83
453.123	1062.9
453.497	1062.9
453.871	1036.46
454.244	1049.56
454.618	1083.01
454.992	1100.86
455.365	1087.3
455.739	1134.31
456.112	1133.63
456.486	1134.08
456.859	1167.53
457.232	1180.18
457.606	1187.86
457.979	1190.58
458.352	1203.46
458.725	1240.52
459.099	1244.59
459.472	1261.31
459.845	1272.16
460.218	1309.44
460.591	1294.08
460.964	1267.86
461.337	1328.65
461.71	1362.55
462.083	1346.05
462.456	1392.6
462.829	1408.42
463.201	1373.17
463.574	1425.15
463.947	1420.17
464.32	1479.38
464.692	1486.61
465.065	1494.75
465.438	1531.58
465.81	1545.14
466.183	1568.19
466.555	1595.99
466.928	1608.64
467.3	1619.94
467.672	1665.37
468.045	1703.78
468.417	1714.4
468.789	1736.55
469.161	1763.67
469.534	1748.75
469.906	1828.75
470.278	1850.67
470.65	1858.58
471.022	1921.86
471.394	1953.27
471.766	1981.29
472.138	2012.48
472.51	2084.34
472.882	2122.75
473.253	2164.34
473.625	2162.75
473.997	2254.5
474.369	2275.29
474.74	2327.72
475.112	2390.54
475.484	2433.03
475.855	2494.04
476.227	2517.55
476.598	2631.67
476.97	2640.48
477.341	2707.37
477.713	2793.92
478.084	2851.78
478.455	2970.42
478.827	2966.12
479.198	3115.72
479.569	3141.03
479.94	3289.96
480.311	3325.66
480.682	3447.47
481.053	3510.74
481.424	3628.25
481.795	3713
482.166	3792.54
482.537	3838.64
482.908	3977.17
483.279	4084.74
483.65	4226.2
484.021	4317.05
484.391	4416.48
484.762	4487.21
485.133	4587.77
485.503	4745.51
485.874	4833.64
486.244	4936.47
486.615	5120.19
486.985	5206.06
487.356	5331.26
487.726	5462.55
488.097	5650.57
488.467	5696.22
488.837	5875.42
489.207	6002.65
489.578	6215.98
489.948	6341.18
490.318	6419.82
490.688	6530.55
491.058	6717.66
491.428	6798.56
491.798	6986.13
492.168	7150.42
492.538	7278.78
492.908	7440.81
493.278	7561.71
493.648	7686.45
494.017	7851.19
494.387	7996.27
494.757	8098.64
495.126	8190.84
495.496	8310.39
495.866	8445.98
496.235	8620.44
496.605	8761.45
496.974	8890.26
497.344	9020.2
497.713	9102.46
498.082	9200.31
498.452	9343.36
498.821	9388.55
499.19	9451.38
499.559	9679.62
499.928	9761.88
500.298	9871.48
500.667	10040.06
501.036	10065.6
501.405	10259.94
501.774	10239.6
502.143	10368.87
502.512	10445.93
502.88	10587.62
503.249	10659.71
503.618	10744.45
503.987	10845.46
504.356	10957.55
504.724	11056.76
505.093	11097.43
505.462	11191.22
505.83	11276.64
506.199	11312.57
506.567	11490.64
506.936	11521.38
507.304	11672.56
507.672	11758.66
508.041	11781.71
508.409	11913.01
508.777	11944.19
509.145	12104.87
509.514	12069.84
509.882	12181.02
510.25	12255.37
510.618	12325.2
510.986	12338.08
511.354	12403.39
511.722	12509.6
512.09	12693.1
512.458	12624.17
512.826	12764.28
513.193	12796.15
513.561	12823.04
513.929	12847.22
514.297	12978.97
514.664	12977.38
515.032	13092.64
515.4	13129.7
515.767	13243.82
516.135	13233.42
516.502	13201.79
516.869	13324.04
517.237	13362.23
517.604	13345.96
517.972	13471.61
518.339	13541.21
518.706	13642
519.073	13658.04
519.44	13602.45
519.808	13736.46
520.175	13711.38
520.542	13853.29
520.909	13908.43
521.276	13899.62
521.643	13968.77
522.009	14075.21
522.376	14035.44
522.743	14051.71
523.11	14143.68
523.477	14234.3
523.843	14275.88
524.21	14444.46
524.577	14466.16
524.943	14489.21
525.31	14514.29
525.676	14604.69
526.043	14642.88
526.409	14645.82
526.776	14714.97
527.142	14732.37
527.508	14683.1
527.874	14811.69
528.241	14887.62
528.607	14859.6
528.973	14917.22
529.339	14862.08
529.705	14970.55
530.071	15016.88
530.437	14974.17
530.803	14993.15
531.169	15045.13
531.535	14992.02
531.901	14961.29
532.267	14987.73
532.632	15038.12
532.998	15010.1
533.364	15097.56
533.73	15074.05
534.095	15128.06
534.461	15102.75
534.826	15119.93
535.192	15129.42
535.557	15179.36
535.923	15153.82
536.288	15120.15
536.653	15034.73
537.019	15003.09
537.384	15020.27
537.749	15055.52
538.114	14990.44
538.479	14968.97
538.845	15011
539.21	14933.04
539.575	14999.03
539.94	14868.41
540.305	14916.09
540.67	14900.72
541.034	14887.17
541.399	14859.14
541.764	14851.69
542.129	14771.46
542.494	14792.03
542.858	14797
543.223	14766.04
543.587	14778.92
543.952	14617.79
544.316	14702.54
544.681	14610.56
545.045	14661.41
545.41	14623.22
545.774	14608.3
546.138	14634.06
546.503	14559.72
546.867	14523.56
547.231	14619.15
547.595	14554.74
547.959	14561.07
548.324	14501.86
548.688	14462.09
549.052	14462.09
549.416	14443.33
549.779	14395.2
550.143	14341.19
550.507	14288.99
550.871	14353.85
551.235	14315.88
551.599	14367.4
551.962	14315.65
552.326	14239.27
552.689	14342.32
553.053	14143.46
553.417	14138.94
553.78	14298.25
554.143	14231.14
554.507	14238.82
554.87	14169.22
555.234	14309.55
555.597	14130.57
555.96	14176.68
556.323	14184.58
556.686	14077.69
557.05	14180.29
557.413	14196.79
557.776	14069.56
558.139	14219.39
558.502	14190.46
558.865	14171.93
559.228	14179.39
559.59	14180.52
559.953	14120.86
560.316	14251.93
560.679	14205.38
561.041	14326.28
561.404	14225.49
561.767	14291.7
562.129	14259.38
562.492	14369.66
562.854	14266.84
563.217	14267.75
563.579	14260.51
563.941	14443.56
564.304	14347.74
564.666	14342.55
565.028	14354.75
565.39	14494.86
565.753	14492.6
566.115	14415.54
566.477	14523.78
566.839	14513.16
567.201	14542.99
567.563	14518.81
567.925	14652.59
568.287	14648.3
568.648	14521.07
569.01	14684.91
569.372	14735.53
569.734	14667.96
570.095	14675.19
570.457	14731.69
570.819	14654.85
571.18	14739.6
571.542	14664.57
571.903	14692.82
572.265	14698.7
572.626	14780.28
572.987	14777.56
573.349	14859.37
573.71	14859.6
574.071	14897.79
574.432	14888.97
574.794	15072.24
575.155	14908.86
575.516	14782.76
575.877	14946.6
576.238	14887.62
576.599	14956.32
576.96	14895.53
577.32	14907.05
577.681	14999.25
578.042	15014.39
578.403	14978.24
578.763	15000.16
579.124	14994.51
579.485	15048.74
579.845	15087.39
580.206	14933.94
580.566	15036.77
580.927	15013.49
581.287	14998.57
581.648	15014.39
582.008	15061.62
582.368	14970.1
582.728	15014.39
583.089	15008.52
583.449	14995.18
583.809	15015.98
584.169	15016.88
584.529	14947.28
584.889	15014.17
585.249	14848.75
585.609	14951.8
585.969	15030.89
586.329	14985.47
586.688	14984.79
587.048	14881.74
587.408	14907.5
587.768	14780.95
588.127	14807.62
588.487	14810.56
588.846	14990.89
589.206	14856.88
589.565	14867.05
589.925	14892.36
590.284	14798.13
590.643	14839.71
591.003	14762.65
591.362	14914.51
591.721	14904.11
592.08	14783.89
592.44	14863.66
592.799	14920.16
593.158	14801.29
593.517	14832.03
593.876	14806.72
594.235	14784.79
594.593	14815.3
594.952	14803.1
595.311	14704.8
595.67	14857.79
596.029	14885.36
596.387	14868.41
596.746	14844.45
597.104	14809.88
597.463	14731.24
597.822	14766.49
598.18	14669.77
598.538	14645.14
598.897	14766.94
599.255	14619.83
599.613	14928.07
599.972	14780.05
600.33	14720.62
600.688	14725.59
601.046	14797.9
601.404	14852.36
601.762	14764.23
602.12	14830.44
602.478	14809.43
602.836	14744.8
603.194	14731.24
603.552	14726.27
603.91	14755.19
604.268	14781.86
604.625	14762.2
604.983	14839.26
605.341	14749.09
605.698	14762.2
606.056	14799.48
606.413	14824.12
606.771	14804.46
607.128	14886.04
607.485	14797.68
607.843	14800.84
608.2	14902.98
608.557	14855.08
608.914	14881.97
609.272	14962.42
609.629	14942.53
609.986	14865.02
610.343	14906.15
610.7	15021.4
611.057	14900.95
611.414	14965.81
611.771	14927.84
612.127	14910.22
612.484	14975.52
612.841	15032.7
613.198	15000.83
613.554	14933.72
613.911	15067.5
614.267	15077.89
614.624	15051.91
614.98	15088.52
615.337	15050.1
615.693	15089.19
616.05	15038.35
616.406	15167.84
616.762	15082.19
617.118	15060.95
617.475	15107.05
617.831	15141.85
618.187	15163.09
618.543	15243.09
618.899	15291.45
619.255	15188.17
619.611	15213.03
619.967	15273.82
620.323	15372.8
620.678	15157.89
621.034	15272.92
621.39	15209.64
621.746	15269.53
622.101	15377.32
622.457	15281.96
622.812	15276.99
623.168	15380.49
623.523	15402.63
623.879	15326.93
624.234	15258.45
624.589	15287.83
624.945	15247.38
625.3	15352.92
625.655	15313.37
626.01	15266.82
626.365	15304.33
626.72	15331.9
627.075	15289.64
627.43	15210.09
627.785	15184.56
628.14	15250.32
628.495	15236.08
628.85	15263.65
629.205	15224.78
629.559	15209.42
629.914	15138.91
630.269	15190.43
630.623	15121.96
630.978	15171.9
631.332	15190.43
631.687	15182.98
632.041	15095.07
632.396	15099.14
632.75	15108.63
633.104	15105.46
633.459	14990.89
633.813	15055.75
634.167	14969.2
634.521	15003.32
634.875	15022.98
635.229	15036.09
635.583	14970.78
635.937	15006.94
636.291	14843.55
636.645	14948.63
636.999	14874.74
637.352	14972.13
637.706	14853.27
638.06	14929.65
638.413	14857.11
638.767	14883.1
639.121	14784.12
639.474	14748.41
639.828	14818.47
640.181	14801.29
640.534	14711.12
640.888	14645.36
641.241	14736.43
641.594	14702.76
641.947	14706.6
642.301	14711.12
642.654	14674.06
643.007	14747.51
643.36	14631.8
643.713	14588.64
644.066	14626.38
644.419	14564.46
644.771	14502.77
645.124	14326.95
645.477	14391.81
645.83	14364.47
646.182	14185.94
646.535	14248.99
646.888	14129.22
647.24	14198.6
647.593	14180.74
647.945	14273.4
648.298	14160.18
648.65	14115.21
649.002	14190.01
649.355	14154.3
649.707	14206.73
650.059	14247.18
650.411	14347.29
650.763	14370.34
651.115	14526.27
651.467	14375.54
651.819	14424.8
652.171	14418.93
652.523	14393.17
652.875	14464.8
653.227	14361.53
653.578	14490.34
653.93	14376.9
654.282	14332.6
654.633	14427.74
654.985	14390.91
655.337	14398.14
655.688	14433.39
656.039	14402.66
656.391	14407.63
656.742	14355.88
657.094	14311.81
657.445	14520.85
657.796	14375.31
658.147	14401.3
658.498	14410.79
658.849	14384.81
659.2	14473.84
659.551	14432.26
659.902	14481.53
660.253	14445.14
660.604	14488.31
660.955	14420.74
661.306	14451.02
661.656	14367.63
662.007	14403.11
662.358	14417.8
662.708	14498.93
663.059	14419.83
663.409	14338.7
663.76	14500.28
664.11	14493.05
664.461	14452.15
664.811	14470.9
665.161	14481.53
665.511	14409.44
665.862	14480.4
666.212	14529.89
666.562	14531.92
666.912	14550.68
667.262	14570.56
667.612	14594.29
667.962	14476.55
668.312	14603.78
668.662	14550.22
669.011	14485.37
669.361	14506.61
669.711	14581.64
670.06	14431.81
670.41	14414.18
670.76	14470
671.109	14472.71
671.459	14386.84
671.808	14345.71
672.157	14502.54
672.507	14327.63
672.856	14366.27
673.205	14427.29
673.554	14444.69
673.904	14309.1
674.253	14409.89
674.602	14329.67
674.951	14173.51
675.3	14080.86
675.649	14304.58
675.998	14204.02
676.346	14228.88
676.695	14418.25
677.044	14294.19
677.393	14268.2
677.741	14299.84
678.09	14253.74
678.438	14164.92
678.787	14211.25
679.135	14209.89
679.484	14085.83
679.832	14146.39
680.181	14103.91
680.529	14058.94
680.877	14017.81
681.225	14068.2
681.573	14136.22
681.922	13924.25
682.27	14020.07
682.618	13871.15
682.966	13879.73
683.314	13943.24
683.661	13960.41
684.009	13827.08
684.357	13722.22
684.705	13724.48
685.053	13793.86
685.4	13750.02
685.748	13603.36
686.095	13693.75
686.443	13606.75
686.79	13585.96
687.138	13601.78
687.485	13571.27
687.832	13504.83
688.18	13517.48
688.527	13427.54
688.874	13487.88
689.221	13470.25
689.568	13294.44
689.915	13275.68
690.262	13296.47
690.609	13263.48
690.956	13146.65
691.303	13200.66
691.65	13104.84
691.997	13107.78
692.344	13048.12
692.69	12979.19
693.037	13014.9
693.383	12876.82
693.73	12981
694.077	12822.59
694.423	12872.98
694.769	12765.86
695.116	12802.93
695.462	12768.12
695.808	12677.28
696.155	12719.09
696.501	12527.68
696.847	12586.89
697.193	12458.98
697.539	12488.36
697.885	12425.08
698.231	12375.37
698.577	12431.41
698.923	12393.67
699.269	12277.06
699.614	12149.61
699.96	12180.57
700.306	12180.8
700.651	12054.47
700.997	12099.89
701.342	11919.56
701.688	11993.46
702.033	11935.15
702.379	11973.8
702.724	11851.54
703.069	11885.66
703.415	11748.72
703.76	11720.47
704.105	11681.83
704.45	11722.5
704.795	11597.08
705.14	11567.48
705.485	11522.28
705.83	11436.41
706.175	11522.28
706.52	11497.2
706.865	11379.69
707.209	11426.69
707.554	11360.7
707.899	11360.93
708.243	11208.84
708.588	11290.2
708.932	11181.05
709.277	11126.36
709.621	11199.35
709.966	11123.2
710.31	11125.46
710.654	10994.61
710.998	11069.41
711.342	11028.28
711.687	11002.52
712.031	10955.97
712.375	10866.48
712.719	10897.67
713.063	10919.81
713.407	10880.26
713.75	10839.81
714.094	10818.8
714.438	10764.56
714.782	10783.09
715.125	10700.16
715.469	10741.06
715.812	10568.18
716.156	10663.1
716.499	10625.58
716.843	10645.69
717.186	10590.78
717.53	10624.23
717.873	10624.68
718.216	10552.82
718.559	10522.99
718.902	10471.91
719.246	10437.79
719.589	10534.29
719.932	10469.2
720.275	10445.25
720.617	10425.36
720.96	10403.44
721.303	10415.42
721.646	10361.41
721.989	10424.91
722.331	10404.8
722.674	10394.85
723.016	10360.73
723.359	10300.39
723.701	10355.31
724.044	10295.42
724.386	10303.1
724.729	10314.63
725.071	10311.47
725.413	10301.3
725.755	10312.37
726.097	10196.67
726.439	10141.08
726.782	10249.32
727.124	10232.37
727.465	10271.69
727.807	10232.6
728.149	10238.7
728.491	10117.35
728.833	10166.84
729.175	10147.63
729.516	10115.54
729.858	10074.41
730.199	10133.84
730.541	10168.65
730.882	10197.12
731.224	10165.26
731.565	10075.77
731.906	10113.96
732.248	10130.68
732.589	10120.51
732.93	10047.07
733.271	10072.83
733.612	10139.72
733.953	10186.05
734.294	10189.21
734.635	10125.26
734.976	10068.31
735.317	10056.11
735.658	10101.75
735.999	10104.24
736.339	10041.42
736.68	10099.27
737.021	10066.5
737.361	10086.61
737.702	10107.4
738.042	10104.69
738.383	10101.53
738.723	10122.32
739.063	10091.58
739.404	10131.58
739.744	10106.05
740.084	10123.9
740.424	10112.15
740.764	10123.9
741.104	10195.54
741.444	10206.84
741.784	10144.92
742.124	10207.06
742.464	10213.16
742.804	10256.55
743.143	10270.34
743.483	10264.24
743.823	10280.51
744.162	10233.95
744.502	10290
744.841	10378.81
745.181	10446.6
745.52	10424.23
745.86	10460.61
746.199	10545.58
746.538	10494.96
746.877	10593.72
747.216	10659.48
747.556	10728.4
747.895	10707.84
748.234	10784.9
748.573	10779.02
748.911	10866.71
749.25	10847.27
749.589	10946.25
749.928	10992.58
750.267	11112.8
750.605	11115.96
750.944	11195.51
751.283	11227.6
751.621	11420.36
751.96	11473.92
752.298	11557.76
752.636	11706.91
752.975	11691.77
753.313	11760.92
753.651	11983.29
753.989	11941.48
754.327	12011.08
754.666	12136.05
755.004	12287.23
755.342	12399.77
755.679	12524.97
756.017	12579.88
