Data from hue_210_FLMS001491_00021.txt Node
Date: Tue Feb 07 16:40:56 GMT 2017
User: dcchb
Spectrometer: FLMS00149
Trigger mode: 0
Integration Time (sec): 2.000000E-2
Scans to average: 10
Electric dark correction enabled: true
Nonlinearity correction enabled: false
Boxcar width: 0
XAxis mode: Wavelengths
Number of Pixels in Spectrum: 2048
>>>>>Begin Spectral Data<<<<<
341.393	-15.59
341.776	-15.59
342.16	-15.59
342.543	-68.7
342.927	-68.25
343.31	-56.04
343.693	-81.81
344.077	-71.41
344.46	-64.41
344.843	-51.52
345.226	-45.42
345.61	-25.54
345.993	-15.59
346.376	-6.33
346.759	13.33
347.142	20.11
347.525	37.06
347.908	58.53
348.291	77.29
348.674	96.72
349.057	115.03
349.44	138.75
349.823	123.16
350.206	151.86
350.588	195.02
350.971	193.22
351.354	220.33
351.737	241.58
352.119	236.83
352.502	278.41
352.884	270.95
353.267	283.38
353.65	293.55
354.032	284.29
354.414	287.68
354.797	304.4
355.179	312.31
355.562	315.47
355.944	321.8
356.326	325.87
356.709	308.47
357.091	328.58
357.473	321.8
357.855	324.06
358.238	355.92
358.62	335.58
359.002	329.26
359.384	322.25
359.766	332.87
360.148	332.65
360.53	331.06
360.912	336.04
361.294	334.91
361.676	335.36
362.057	331.06
362.439	354.11
362.821	327.9
363.203	328.13
363.584	325.87
363.966	325.64
364.348	316.6
364.729	307.34
365.111	286.32
365.493	342.14
365.874	322.25
366.256	287.22
366.637	293.1
367.019	322.48
367.4	336.04
367.781	320.67
368.163	323.16
368.544	308.01
368.925	316.6
369.306	308.24
369.688	303.27
370.069	318.41
370.45	318.18
370.831	304.85
371.212	318.41
371.593	322.48
371.974	297.62
372.355	302.36
372.736	327
373.117	310.95
373.498	310.95
373.879	314.79
374.26	300.56
374.641	296.49
375.021	319.31
375.402	332.87
375.783	317.73
376.163	319.99
376.544	317.51
376.925	336.26
377.305	308.69
377.686	320.9
378.066	308.47
378.447	322.7
378.827	330.84
379.208	322.48
379.588	329.03
379.968	320.67
380.349	345.75
380.729	330.16
381.109	329.48
381.489	336.94
381.87	318.18
382.25	338.52
382.63	317.73
383.01	334.45
383.39	320.44
383.77	333.32
384.15	337.17
384.53	331.52
384.91	323.61
385.29	332.19
385.67	357.05
386.049	328.35
386.429	333.32
386.809	362.48
387.189	344.4
387.568	350.27
387.948	330.84
388.328	349.6
388.707	339.65
389.087	344.17
389.466	342.82
389.846	371.29
390.225	355.92
390.605	367
390.984	361.35
391.363	368.8
391.743	363.38
392.122	359.09
392.501	391.85
392.881	377.62
393.26	371.74
393.639	376.49
394.018	362.25
394.397	376.26
394.776	363.61
395.155	382.81
395.534	388.01
395.913	388.46
396.292	382.81
396.671	383.94
397.05	397.05
397.429	366.32
397.808	391.4
398.186	395.47
398.565	397.28
398.944	406.09
399.323	390.05
399.701	402.02
400.08	389.59
400.458	405.87
400.837	416.71
401.215	424.62
401.594	414.9
401.972	418.07
402.351	418.52
402.729	415.81
403.107	430.05
403.486	409.71
403.864	442.93
404.242	431.18
404.62	429.82
404.999	422.14
405.377	459.65
405.755	440.44
406.133	468.46
406.511	467.56
406.889	449.03
407.267	467.56
407.645	478.18
408.023	487.44
408.401	484.73
408.779	471.4
409.156	498.29
409.534	490.61
409.912	511.62
410.29	526.09
410.667	521.79
411.045	522.92
411.422	570.15
411.8	557.5
412.178	552.75
412.555	577.84
412.933	575.13
413.31	573.54
413.687	603.37
414.065	595.01
414.442	621.23
414.819	621.68
415.197	621.45
415.574	648.12
415.951	658.74
416.328	635.01
416.705	641.34
417.082	673.88
417.46	690.6
417.837	697.83
418.214	701
418.591	696.25
418.967	719.53
419.344	740.32
419.721	722.47
420.098	734.44
420.475	751.62
420.852	764.73
421.228	778.28
421.605	786.42
421.982	789.36
422.358	806.31
422.735	876.14
423.111	835.91
423.488	858.06
423.864	844.05
424.241	868.68
424.617	912.07
424.994	914.78
425.37	939.41
425.746	946.42
426.123	952.74
426.499	950.94
426.875	981.9
427.251	985.28
427.627	1024.61
428.003	1025.51
428.379	1025.96
428.756	1036.81
429.132	1063.25
429.507	1072.51
429.883	1073.87
430.259	1110.25
430.635	1103.7
431.011	1102.57
431.387	1153.42
431.763	1158.16
432.138	1166.97
432.514	1211.04
432.89	1209.23
433.265	1240.87
433.641	1279.29
434.016	1267.31
434.392	1297.59
434.767	1307.76
435.143	1346.63
435.518	1379.4
435.894	1372.62
436.269	1395.9
436.644	1425.05
437.02	1471.6
437.395	1472.28
437.77	1535.33
438.145	1533.97
438.52	1541.2
438.895	1587.75
439.271	1591.14
439.646	1626.85
440.021	1647.19
440.395	1670.24
440.77	1647.19
441.145	1681.31
441.52	1749.78
441.895	1726.51
442.27	1752.04
442.645	1766.06
443.019	1795.21
443.394	1835.66
443.769	1821.42
444.143	1838.37
444.518	1903.23
444.892	1854.87
445.267	1895.54
445.641	1903.68
446.016	1914.07
446.39	1946.16
446.764	1978.03
447.139	1972.83
447.513	1980.74
447.887	1985.71
448.262	2008.31
448.636	2009.44
449.01	2044.24
449.384	2079.72
449.758	2092.15
450.132	2133.5
450.506	2177.34
450.88	2125.14
451.254	2135.09
451.628	2153.62
452.002	2220.73
452.376	2239.72
452.75	2214.86
453.123	2217.79
453.497	2256.89
453.871	2317.68
454.244	2345.25
454.618	2375.53
454.992	2386.6
455.365	2361.97
455.739	2451.69
456.112	2486.26
456.486	2472.03
456.859	2499.6
457.232	2560.61
457.606	2563.1
457.979	2588.41
458.352	2623.89
458.725	2623.21
459.099	2689.65
459.472	2710.21
459.845	2779.81
460.218	2754.5
460.591	2785.69
460.964	2813.26
461.337	2855.29
461.71	2909.3
462.083	2944.78
462.456	2937.32
462.829	2892.81
463.201	2960.15
463.574	3014.61
463.947	3060.48
464.32	3140.03
464.692	3132.35
465.065	3166.92
465.438	3216.86
465.81	3242.17
466.183	3264.77
466.555	3364.88
466.928	3359.01
467.3	3401.04
467.672	3406.01
468.045	3505.22
468.417	3503.41
468.789	3545.22
469.161	3547.48
469.534	3614.37
469.906	3690.98
470.278	3723.74
470.65	3761.03
471.022	3805.78
471.394	3828.6
471.766	3945.66
472.138	3961.93
472.51	3967.35
472.882	4102.72
473.253	4094.58
473.625	4152.66
473.997	4210.96
474.369	4261.81
474.74	4281.24
475.112	4353.11
475.484	4447.57
475.855	4520.11
476.227	4514.46
476.598	4687.56
476.97	4658.86
477.341	4749.03
477.713	4799.65
478.084	4872.87
478.455	4977.04
478.827	5053.65
479.198	5170.94
479.569	5155.12
479.94	5271.05
480.311	5296.36
480.682	5391.95
481.053	5487.09
481.424	5565.28
481.795	5657.7
482.166	5675.56
482.537	5735.44
482.908	5877.13
483.279	5927.75
483.65	5975.89
484.021	6083.68
484.391	6164.36
484.762	6186.96
485.133	6215.43
485.503	6319.38
485.874	6455.42
486.244	6511.69
486.615	6633.27
486.985	6631.69
487.356	6768.86
487.726	6832.81
488.097	6928.18
488.467	6974.05
488.837	7054.28
489.207	7154.61
489.578	7159.59
489.948	7284.33
490.318	7309.64
490.688	7360.94
491.058	7450.43
491.428	7549.63
491.798	7636.41
492.168	7756.63
492.538	7817.87
492.908	7842.96
493.278	7995.5
493.648	7891.32
494.017	7995.27
494.387	8018.09
494.757	8160.01
495.126	8200.91
495.496	8191.88
495.866	8225.09
496.235	8337.86
496.605	8291.76
496.974	8428.25
497.344	8438.2
497.713	8507.57
498.082	8546.67
498.452	8613.56
498.821	8656.72
499.19	8638.19
499.559	8724.74
499.928	8746.66
500.298	8794.57
500.667	8791.86
501.036	8803.84
501.405	8912.99
501.774	8849.26
502.143	8971.52
502.512	8949.37
502.88	9029.59
503.249	8979.2
503.618	9051.74
503.987	9026.66
504.356	9128.8
504.724	9152.75
505.093	9236.59
505.462	9169.93
505.83	9286.76
506.199	9254.45
506.567	9304.61
506.936	9334.44
507.304	9414.67
507.672	9376.93
508.041	9333.54
508.409	9477.26
508.777	9487.89
509.145	9524.95
509.514	9542.35
509.882	9457.83
510.25	9520.2
510.618	9549.81
510.986	9580.77
511.354	9619.63
511.722	9627.54
512.09	9688.11
512.458	9625.96
512.826	9705.73
513.193	9700.31
513.561	9745.73
513.929	9750.93
514.297	9778.05
514.664	9848.33
515.032	9795.67
515.4	9865.73
515.767	9865.96
516.135	9826.18
516.502	9828.67
516.869	9839.06
517.237	9917.25
517.604	9843.81
517.972	9963.81
518.339	10003.13
518.706	9928.1
519.073	9906.63
519.44	9964.48
519.808	10003.35
520.175	9949.79
520.542	10039.06
520.909	10074.31
521.276	9999.74
521.643	9994.77
522.009	10044.03
522.376	10086.06
522.743	10105.5
523.11	10140.75
523.477	10153.41
523.843	10169.22
524.21	10227.75
524.577	10194.08
524.943	10159.51
525.31	10234.99
525.676	10319.05
526.043	10242.44
526.409	10173.29
526.776	10288.32
527.142	10290.12
527.508	10253.52
527.874	10369.67
528.241	10368.77
528.607	10281.76
528.973	10327.86
529.339	10287.87
529.705	10334.19
530.071	10276.34
530.437	10354.98
530.803	10342.78
531.169	10290.35
531.535	10287.64
531.901	10237.92
532.267	10238.15
532.632	10223.46
532.998	10233.18
533.364	10285.83
533.73	10230.01
534.095	10307.3
534.461	10212.84
534.826	10196.79
535.192	10210.13
535.557	10216.45
535.923	10157.92
536.288	10173.74
536.653	10095.33
537.019	9995.9
537.384	10080.19
537.749	10122.22
538.114	10083.8
538.479	10027.53
538.845	9975.78
539.21	9961.77
539.575	9913.41
539.94	9884.94
540.305	9944.82
540.67	9817.59
541.034	9834.54
541.399	9855.79
541.764	9761.78
542.129	9796.8
542.494	9760.87
542.858	9726.98
543.223	9702.34
543.587	9742.57
543.952	9636.36
544.316	9632.52
544.681	9591.61
545.045	9614.89
545.41	9555
545.774	9500.09
546.138	9483.82
546.503	9460.77
546.867	9453.31
547.231	9544.61
547.595	9392.97
547.959	9376.48
548.324	9368.57
548.688	9302.81
549.052	9284.05
549.416	9230.49
549.779	9275.46
550.143	9196.82
550.507	9170.38
550.871	9182.13
551.235	9130.16
551.599	9154.34
551.962	9105.98
552.326	9048.58
552.689	9080.89
553.053	8912.08
553.417	9040.44
553.78	9044.06
554.143	9023.04
554.507	8985.75
554.87	8962.7
555.234	8979.88
555.597	8904.17
555.96	8898.3
556.323	8859.65
556.686	8876.38
557.05	8886.77
557.413	8851.52
557.776	8861.01
558.139	8805.64
558.502	8861.24
558.865	8790.05
559.228	8814.01
559.59	8790.96
559.953	8785.08
560.316	8877.73
560.679	8829.82
561.041	8839.09
561.404	8865.3
561.767	8814.46
562.129	8765.19
562.492	8788.47
562.854	8771.75
563.217	8779.2
563.579	8801.35
563.941	8793.22
564.304	8774.91
564.666	8821.24
565.028	8812.2
565.39	8789.37
565.753	8859.43
566.115	8818.98
566.477	8849.26
566.839	8842.71
567.201	8828.02
567.563	8870.05
567.925	8890.16
568.287	8876.6
568.648	8871.18
569.01	8899.43
569.372	8905.75
569.734	8874.79
570.095	8964.06
570.457	8975.13
570.819	8983.94
571.18	8993.21
571.542	8968.58
571.903	8988.01
572.265	9017.84
572.626	8987.79
572.987	8945.3
573.349	9021.68
573.71	8992.53
574.071	9035.24
574.432	9067.11
574.794	9061.91
575.155	9090.38
575.516	9056.03
575.877	9058.29
576.238	9129.03
576.599	9129.93
576.96	9108.24
577.32	9161.57
577.681	9189.81
578.042	9167.67
578.403	9166.09
578.763	9180.1
579.124	9168.35
579.485	9157.95
579.845	9263.94
580.206	9223.03
580.566	9285.86
580.927	9233.43
581.287	9344.16
581.648	9232.98
582.008	9256.71
582.368	9297.16
582.728	9312.52
583.089	9271.62
583.449	9334.67
583.809	9396.36
584.169	9354.1
584.529	9261
584.889	9361.79
585.249	9317.27
585.609	9281.79
585.969	9346.42
586.329	9359.75
586.688	9322.01
587.048	9364.05
587.408	9312.75
587.768	9358.17
588.127	9302.81
588.487	9321.79
588.846	9403.37
589.206	9303.26
589.565	9308.23
589.925	9405.63
590.284	9390.94
590.643	9337.61
591.003	9450.6
591.362	9435.23
591.721	9443.59
592.08	9392.52
592.44	9434.33
592.799	9420.09
593.158	9424.61
593.517	9475.91
593.876	9471.39
594.235	9390.04
594.593	9421.67
594.952	9381
595.311	9408.11
595.67	9451.5
596.029	9500.09
596.387	9516.13
596.746	9528.79
597.104	9461.9
597.463	9500.32
597.822	9461.9
598.18	9478.17
598.538	9460.54
598.897	9545.29
599.255	9404.05
599.613	9593.65
599.972	9418.28
600.33	9537.38
600.688	9523.82
601.046	9523.37
601.404	9547.32
601.762	9520.43
602.12	9575.12
602.478	9549.58
602.836	9562.69
603.194	9521.56
603.552	9500.77
603.91	9502.35
604.268	9544.16
604.625	9533.76
604.983	9571.95
605.341	9487.21
605.698	9549.13
606.056	9639.97
606.413	9522.91
606.771	9559.3
607.128	9636.81
607.485	9568.34
607.843	9612.4
608.2	9611.05
608.557	9624.83
608.914	9607.21
609.272	9626.41
609.629	9658.73
609.986	9663.7
610.343	9631.84
610.7	9721.1
611.057	9637.49
611.414	9679.29
611.771	9657.37
612.127	9721.33
612.484	9727.2
612.841	9725.39
613.198	9644.94
613.554	9687.43
613.911	9796.58
614.267	9785.51
614.624	9716.58
614.98	9714.09
615.337	9800.19
615.693	9808.33
616.05	9788.22
616.406	9833.87
616.762	9769.01
617.118	9769.69
617.475	9757.48
617.831	9776.01
618.187	9729.01
618.543	9806.3
618.899	9824.37
619.255	9849.23
619.611	9790.93
619.967	9770.82
620.323	9849.68
620.678	9800.19
621.034	9796.8
621.39	9788.67
621.746	9774.43
622.101	9966.29
622.457	9800.65
622.812	9800.19
623.168	9881.1
623.523	9899.4
623.879	9978.95
624.234	9870.7
624.589	9881.32
624.945	9895.78
625.3	9863.7
625.655	9824.15
626.01	9856.92
626.365	9816.69
626.72	9816.24
627.075	9827.09
627.43	9771.49
627.785	9811.95
628.14	9805.39
628.495	9877.48
628.85	9853.98
629.205	9782.34
629.559	9826.18
629.914	9804.94
630.269	9788.9
630.623	9762.91
630.978	9738.28
631.332	9735.11
631.687	9727.43
632.041	9631.39
632.396	9722.68
632.75	9726.3
633.104	9638.84
633.459	9665.06
633.813	9683.36
634.167	9657.15
634.521	9636.13
634.875	9719.07
635.229	9658.05
635.583	9665.96
635.937	9573.53
636.291	9589.13
636.645	9634.1
636.999	9589.35
637.352	9554.33
637.706	9513.2
638.06	9538.51
638.413	9512.97
638.767	9454.44
639.121	9514.78
639.474	9384.84
639.828	9466.64
640.181	9407.44
640.534	9468.9
640.888	9458.96
641.241	9445.85
641.594	9439.75
641.947	9437.27
642.301	9375.57
642.654	9421.22
643.007	9446.98
643.36	9378.74
643.713	9409.02
644.066	9367.21
644.419	9382.13
644.771	9338.51
645.124	9255.8
645.477	9274.56
645.83	9141.68
646.182	9128.12
646.535	9070.5
646.888	9069.82
647.24	9028.24
647.593	9065.98
647.945	9055.36
648.298	9012.19
648.65	8994.57
649.002	8965.19
649.355	9143.04
649.707	9104.39
650.059	9062.59
650.411	9169.02
650.763	9209.02
651.115	9353.88
651.467	9319.53
651.819	9232.53
652.171	9288.12
652.523	9251.73
652.875	9247.44
653.227	9203.37
653.578	9279.08
653.93	9260.55
654.282	9191.4
654.633	9165.41
654.985	9274.78
655.337	9328.12
655.688	9258.06
656.039	9305.29
656.391	9256.71
656.742	9250.15
657.094	9249.7
657.445	9287.89
657.796	9276.37
658.147	9260.1
658.498	9240.21
658.849	9352.75
659.2	9337.61
659.551	9313.2
659.902	9258.29
660.253	9317.72
660.604	9334.9
660.955	9264.62
661.306	9358.62
661.656	9359.75
662.007	9389.36
662.358	9342.81
662.708	9346.87
663.059	9269.13
663.409	9243.15
663.76	9327.44
664.11	9364.27
664.461	9318.85
664.811	9329.02
665.161	9365.18
665.511	9387.32
665.862	9395.46
666.212	9336.48
666.562	9377.38
666.912	9431.84
667.262	9354.1
667.612	9382.35
667.962	9314.11
668.312	9287.44
668.662	9443.37
669.011	9319.3
669.361	9343.03
669.711	9336.25
670.06	9379.64
670.41	9301.22
670.76	9277.04
671.109	9307.55
671.459	9274.78
671.808	9283.6
672.157	9294.44
672.507	9237.95
672.856	9278.85
673.205	9218.51
673.554	9326.76
673.904	9207.67
674.253	9279.3
674.602	9247.89
674.951	9160.89
675.3	9109.82
675.649	9173.77
675.998	9250.6
676.346	9208.35
676.695	9171.06
677.044	9118.86
677.393	9184.39
677.741	9257.38
678.09	9145.3
678.438	9154.11
678.787	9103.72
679.135	9137.16
679.484	9002.02
679.832	9002.25
680.181	9026.43
680.529	9049.03
680.877	9051.06
681.225	9033.21
681.573	9043.6
681.922	9006.99
682.27	8966.77
682.618	9015.13
682.966	8969.26
683.314	9065.52
683.661	8922.93
684.009	8918.18
684.357	8878.86
684.705	8856.49
685.053	8859.43
685.4	8821.01
685.748	8795.93
686.095	8774.91
686.443	8776.27
686.79	8743.72
687.138	8770.62
687.485	8718.64
687.832	8715.25
688.18	8719.32
688.527	8629.83
688.874	8644.29
689.221	8580.57
689.568	8563.16
689.915	8570.17
690.262	8583.73
690.609	8512.09
690.956	8510.28
691.303	8460.79
691.65	8454.92
691.997	8435.94
692.344	8384.41
692.69	8311.19
693.037	8375.82
693.383	8232.1
693.73	8284.53
694.077	8201.82
694.423	8189.84
694.769	8189.39
695.116	8111.65
695.462	8106.91
695.808	8143.29
696.155	8134.7
696.501	8021.03
696.847	8014.7
697.193	7995.95
697.539	7964.08
697.885	7902.17
698.231	7907.14
698.577	7903.3
698.923	7826.69
699.269	7821.04
699.614	7748.72
699.96	7706.46
700.306	7690.19
700.651	7708.72
700.997	7644.09
701.342	7673.47
701.688	7544.66
702.033	7577.88
702.379	7560.71
702.724	7550.31
703.069	7558.9
703.415	7469.63
703.76	7432.12
704.105	7506.24
704.45	7435.51
704.795	7326.81
705.14	7383.76
705.485	7283.42
705.83	7310.77
706.175	7317.55
706.52	7250.43
706.865	7193.71
707.209	7195.29
707.554	7164.56
707.899	7198.68
708.243	7148.51
708.588	7220.6
708.932	7094.95
709.277	7102.64
709.621	7116.42
709.966	7042.75
710.31	7077.1
710.654	6978.8
710.998	7023.77
711.342	6988.97
711.687	6911.68
712.031	6946.94
712.375	6901.51
712.719	6920.04
713.063	6880.05
713.407	6909.87
713.75	6889.08
714.094	6891.57
714.438	6831.46
714.782	6851.12
715.125	6775.87
715.469	6812.48
715.812	6806.83
716.156	6767.73
716.499	6747.17
716.843	6790.56
717.186	6718.24
717.53	6720.5
717.873	6716.43
718.216	6738.13
718.559	6691.8
718.902	6699.48
719.246	6688.86
719.589	6722.08
719.932	6656.32
720.275	6640.05
720.617	6682.76
720.96	6619.71
721.303	6615.65
721.646	6654.06
721.989	6576.32
722.331	6631.69
722.674	6574.74
723.016	6632.59
723.359	6616.78
723.701	6617.68
724.044	6537.91
724.386	6559.83
724.729	6634.63
725.071	6599.15
725.413	6625.81
725.755	6569.32
726.097	6519.83
726.439	6557.79
726.782	6544.01
727.124	6479.83
727.465	6492.26
727.807	6473.05
728.149	6547.17
728.491	6545.36
728.833	6522.31
729.175	6447.06
729.516	6516.89
729.858	6518.02
730.199	6503.11
730.541	6515.31
730.882	6518.25
731.224	6535.42
731.565	6475.08
731.906	6467.17
732.248	6548.75
732.589	6459.27
732.93	6483.45
733.271	6468.3
733.612	6527.96
733.953	6518.02
734.294	6508.3
734.635	6473.28
734.976	6485.71
735.317	6473.95
735.658	6458.59
735.999	6495.42
736.339	6516.44
736.68	6541.07
737.021	6473.95
737.361	6475.08
737.702	6544.46
738.042	6486.84
738.383	6474.18
738.723	6595.76
739.063	6497.46
739.404	6580.62
739.744	6486.38
740.084	6578.81
740.424	6573.39
740.764	6621.75
741.104	6632.14
741.444	6597.57
741.784	6576.32
742.124	6594.63
742.464	6662.2
742.804	6665.59
743.143	6707.39
743.483	6727.28
743.823	6747.39
744.162	6751.23
744.502	6782.87
744.841	6805.02
745.181	6851.57
745.52	6863.32
745.86	6878.46
746.199	6929.76
746.538	6956.43
746.877	7036.43
747.216	7060.15
747.556	7109.87
747.895	7143.32
748.234	7149.87
748.573	7162.75
748.911	7273.71
749.25	7350.54
749.589	7339.47
749.928	7395.06
750.267	7544.89
750.605	7578.33
750.944	7685.22
751.283	7668.95
751.621	7804.09
751.96	7869.62
752.298	7934.48
752.636	8082.95
752.975	8129.05
753.313	8171.31
753.651	8340.57
753.989	8380.8
754.327	8462.38
754.666	8567.68
755.004	8809.49
755.342	8798.64
755.679	8968.58
756.017	9054.68
756.355	9218.51
756.693	9316.82
757.031	9517.04
757.368	9609.92
757.706	9792.28
758.044	9890.59
758.381	10094.2
758.719	10202.44
759.056	10321.76
759.394	10478.82
759.731	10684.69
760.068	10840.84
760.405	10947.96
760.743	11059.14
761.08	11273.38
761.417	11413.49
761.754	11559.47
762.091	11782.97
762.428	11996.75
762.765	12124.43
763.102	12307.92
763.438	12342.05
763.775	12581.36
764.112	12790.85
764.449	12949.26
764.785	13083.5
765.122	13244.4
765.458	13384.73
765.795	13521.68
766.131	13720.09
766.467	13897.04
766.804	14042.57
767.14	14086.86
767.476	14302.22
