Data from hue_22_FLMS001491_00006.txt Node
Date: Tue Feb 07 17:09:25 GMT 2017
User: dcchb
Spectrometer: FLMS00149
Trigger mode: 0
Integration Time (sec): 2.000000E-2
Scans to average: 10
Electric dark correction enabled: true
Nonlinearity correction enabled: false
Boxcar width: 0
XAxis mode: Wavelengths
Number of Pixels in Spectrum: 2048
>>>>>Begin Spectral Data<<<<<
341.393	-23.8
341.776	-23.8
342.16	-23.8
342.543	-90.24
342.927	-52.05
343.31	-63.57
343.693	-76
344.077	-59.28
344.46	-72.39
344.843	-27.64
345.226	-38.26
345.61	-31.03
345.993	-18.83
346.376	-22.44
346.759	23.88
347.142	19.59
347.525	49.42
347.908	49.65
348.291	74.96
348.674	103.2
349.057	88.74
349.44	132.13
349.823	158.12
350.206	138.91
350.588	178.23
350.971	207.83
351.354	225.01
351.737	235.4
352.119	244.22
352.502	265.69
352.884	268.62
353.267	280.6
353.65	288.06
354.032	293.03
354.414	289.41
354.797	307.72
355.179	324.21
355.562	350.65
355.944	330.32
356.326	315.4
356.709	335.06
357.091	343.42
357.473	343.2
357.855	334.16
358.238	353.59
358.62	345.23
359.002	328.51
359.384	332.58
359.766	348.17
360.148	340.03
360.53	347.72
360.912	325.8
361.294	330.99
361.676	324.67
362.057	341.84
362.439	320.82
362.821	322.41
363.203	326.02
363.584	344.33
363.966	329.19
364.348	323.08
364.729	329.19
365.111	315.63
365.493	310.43
365.874	312.46
366.256	318.11
366.637	305.23
367.019	308.85
367.4	316.08
367.781	308.4
368.163	319.69
368.544	304.33
368.925	295.29
369.306	315.18
369.688	321.28
370.069	301.84
370.45	312.46
370.831	294.84
371.212	312.69
371.593	311.33
371.974	311.79
372.355	328.06
372.736	323.76
373.117	307.04
373.498	324.89
373.879	314.95
374.26	326.25
374.641	313.82
375.021	301.16
375.402	308.62
375.783	312.01
376.163	333.48
376.544	324.89
376.925	335.74
377.305	323.08
377.686	344.78
378.066	312.92
378.447	318.34
378.827	352.01
379.208	307.04
379.588	313.14
379.968	327.83
380.349	325.57
380.729	331.67
381.109	334.61
381.489	321.95
381.87	340.71
382.25	348.17
382.63	333.71
383.01	335.06
383.39	331.9
383.77	347.04
384.15	322.63
384.53	326.93
384.91	338.9
385.29	344.1
385.67	344.78
386.049	363.76
386.429	375.29
386.809	360.37
387.189	354.72
387.568	335.74
387.948	376.19
388.328	368.06
388.707	361.95
389.087	352.01
389.466	361.05
389.846	362.86
390.225	368.73
390.605	350.65
390.984	353.37
391.363	344.55
391.743	362.86
392.122	364.44
392.501	356.76
392.881	368.28
393.26	355.63
393.639	360.82
394.018	378
394.397	360.6
394.776	381.39
395.155	380.26
395.534	380.94
395.913	377.09
396.292	402.18
396.671	384.33
397.05	398.11
397.429	375.29
397.808	377.55
398.186	389.52
398.565	398.56
398.944	394.04
399.323	392.69
399.701	369.86
400.08	385.46
400.458	379.35
400.837	399.47
401.215	400.37
401.594	375.74
401.972	399.01
402.351	404.66
402.729	402.18
403.107	425.91
403.486	396.3
403.864	385.46
404.242	400.6
404.62	400.14
404.999	418.22
405.377	433.59
405.755	407.38
406.133	421.16
406.511	425.23
406.889	410.09
407.267	448.96
407.645	428.84
408.023	415.06
408.401	438.34
408.779	452.12
409.156	447.15
409.534	444.66
409.912	455.06
410.29	427.94
410.667	419.13
411.045	424.55
411.422	454.83
411.8	472.46
412.178	481.27
412.555	459.13
412.933	452.12
413.31	460.26
413.687	466.36
414.065	493.93
414.442	474.27
414.819	471.56
415.197	452.8
415.574	496.87
415.951	491.67
416.328	487.15
416.705	500.03
417.082	473.36
417.46	488.96
417.837	496.19
418.214	484.21
418.591	505.9
418.967	486.47
419.344	493.7
419.721	503.64
420.098	496.64
420.475	470.2
420.852	514.49
421.228	541.84
421.605	514.04
421.982	504.32
422.358	537.09
422.735	526.47
423.111	515.4
423.488	547.26
423.864	527.83
424.241	559.24
424.617	538.22
424.994	518.79
425.37	531.67
425.746	522.4
426.123	555.17
426.499	559.91
426.875	552.46
427.251	580.03
427.627	577.99
428.003	567.6
428.379	579.58
428.756	569.86
429.132	572.57
429.507	596.98
429.883	569.41
430.259	590.42
430.635	603.53
431.011	593.13
431.387	579.12
431.763	611.66
432.138	624.55
432.514	615.96
432.89	606.92
433.265	653.92
433.641	627.71
434.016	621.83
434.392	652.34
434.767	628.84
435.143	648.27
435.518	652.57
435.894	657.99
436.269	658.22
436.644	662.96
437.02	680.14
437.395	683.75
437.77	707.48
438.145	674.71
438.52	693.02
438.895	701.15
439.271	697.54
439.646	691.89
440.021	727.59
440.395	712.9
440.77	714.26
441.145	713.36
441.52	729.4
441.895	749.74
442.27	749.74
442.645	740.93
443.019	722.4
443.394	738.67
443.769	738.22
444.143	741.38
444.518	753.36
444.892	762.85
445.267	756.52
445.641	771.66
446.016	796.52
446.39	773.69
446.764	780.7
447.139	792.68
447.513	781.15
447.887	786.12
448.262	794.71
448.636	782.28
449.01	817.76
449.384	811.43
449.758	820.02
450.132	811.89
450.506	830.42
450.88	840.81
451.254	825.9
451.628	860.7
452.002	862.28
452.376	822.05
452.75	852.11
453.123	836.74
453.497	868.38
453.871	877.42
454.244	894.6
454.618	890.3
454.992	891.66
455.365	902.73
455.739	915.84
456.112	922.39
456.486	930.75
456.859	927.14
457.232	938.21
457.606	913.8
457.979	955.61
458.352	970.75
458.725	977.08
459.099	972.11
459.472	999.68
459.845	987.93
460.218	1010.3
460.591	1017.08
460.964	1028.15
461.337	1019.34
461.71	1050.07
462.083	1067.47
462.456	1064.76
462.829	1088.94
463.201	1059.56
463.574	1078.77
463.947	1115.61
464.32	1128.94
464.692	1114.93
465.065	1133.91
465.438	1159.67
465.81	1201.48
466.183	1145.21
466.555	1184.53
466.928	1225.66
467.3	1205.1
467.672	1239.67
468.045	1234.25
468.417	1259.78
468.789	1268.82
469.161	1266.79
469.534	1267.24
469.906	1329.16
470.278	1338.2
470.65	1325.77
471.022	1354.92
471.394	1396.73
471.766	1405.99
472.138	1405.09
472.51	1453.22
472.882	1465.2
473.253	1507.01
473.625	1481.92
473.997	1534.13
474.369	1541.58
474.74	1558.76
475.112	1612.32
475.484	1613.67
475.855	1618.42
476.227	1620.68
476.598	1695.25
476.97	1712.65
477.341	1753.1
477.713	1794.01
478.084	1796.27
478.455	1815.93
478.827	1864.97
479.198	1897.28
479.569	1911.07
479.94	1994.68
480.311	1958.75
480.682	2000.78
481.053	2079.42
481.424	2122.59
481.795	2137.95
482.166	2130.72
482.537	2221.57
482.908	2240.32
483.279	2295.91
483.65	2326.87
484.021	2365.97
484.391	2372.07
484.762	2415.46
485.133	2461.11
485.503	2494.78
485.874	2523.48
486.244	2584.27
486.615	2642.12
486.985	2676.92
487.356	2733.19
487.726	2740.87
488.097	2796.24
488.467	2835.11
488.837	2891.38
489.207	2901.77
489.578	2974.99
489.948	3008.44
490.318	3083.92
490.688	3081.88
491.058	3130.47
491.428	3151.71
491.798	3218.83
492.168	3251.82
492.538	3252.5
492.908	3335.43
493.278	3388.99
493.648	3377.69
494.017	3452.49
494.387	3499.72
494.757	3499.5
495.126	3583.34
495.496	3585.6
495.866	3598.7
496.235	3639.16
496.605	3639.83
496.974	3725.93
497.344	3757.8
497.713	3741.53
498.082	3827.63
498.452	3845.25
498.821	3848.19
499.19	3857.46
499.559	3941.52
499.928	3963.67
500.298	4014.06
500.667	4035.98
501.036	4036.89
501.405	4055.19
501.774	4104.23
502.143	4138.13
502.512	4125.92
502.88	4188.07
503.249	4201.63
503.618	4212.25
503.987	4230.55
504.356	4300.61
504.724	4313.94
505.093	4333.15
505.462	4331.34
505.83	4352.81
506.199	4378.12
506.567	4431.68
506.936	4416.99
507.304	4440.94
507.672	4496.99
508.041	4539.7
508.409	4515.29
508.777	4519.58
509.145	4614.05
509.514	4599.13
509.882	4622.63
510.25	4628.51
510.618	4667.15
510.986	4680.71
511.354	4710.54
511.722	4755.96
512.09	4795.74
512.458	4822.4
512.826	4879.8
513.193	4900.59
513.561	4878.9
513.929	4858.11
514.297	4877.32
514.664	4929.97
515.032	4937.65
515.4	5015.84
515.767	4983.98
516.135	5073.47
516.502	4991.21
516.869	5100.81
517.237	5135.84
517.604	5102.39
517.972	5133.35
518.339	5165.44
518.706	5136.29
519.073	5181.04
519.44	5213.58
519.808	5260.13
520.175	5237.98
520.542	5322.95
520.909	5305.1
521.276	5284.31
521.643	5324.54
522.009	5390.07
522.376	5401.6
522.743	5434.81
523.11	5513.91
523.477	5528.6
523.843	5535.38
524.21	5617.63
524.577	5608.14
524.943	5580.57
525.31	5638.2
525.676	5709.61
526.043	5746.67
526.409	5799.78
526.776	5798.65
527.142	5821.47
527.508	5883.84
527.874	5888.14
528.241	5997.51
528.607	5959.55
528.973	5984.63
529.339	5962.48
529.705	6063.27
530.071	6083.84
530.437	6141.91
530.803	6138.07
531.169	6155.7
531.535	6170.16
531.901	6148.24
532.267	6222.82
532.632	6307.56
532.998	6277.73
533.364	6327.67
533.73	6373.77
534.095	6388.24
534.461	6455.13
534.826	6501
535.192	6379.2
535.557	6525.86
535.923	6508.23
536.288	6577.61
536.653	6592.52
537.019	6552.3
537.384	6585.29
537.749	6669.36
538.114	6631.39
538.479	6657.83
538.845	6681.11
539.21	6682.69
539.575	6798.17
539.94	6748.45
540.305	6803.59
540.67	6803.37
541.034	6876.36
541.399	6869.35
541.764	6918.84
542.129	6881.78
542.494	6915
542.858	6974.89
543.223	6993.64
543.587	7020.08
543.952	7078.16
544.316	7079.97
544.681	7115.45
545.045	7111.83
545.41	7142.79
545.774	7170.81
546.138	7166.75
546.503	7204.03
546.867	7247.2
547.231	7307.53
547.595	7352.73
547.959	7355.67
548.324	7389.79
548.688	7420.98
549.052	7409
549.416	7433.63
549.779	7405.61
550.143	7498.94
550.507	7514.76
550.871	7543.23
551.235	7653.29
551.599	7650.12
551.962	7677.24
552.326	7629.56
552.689	7696.45
553.053	7735.09
553.417	7762.89
553.78	7736.9
554.143	7768.54
554.507	7856.22
554.87	7827.07
555.234	7900.51
555.597	7853.28
555.96	7855.09
556.323	7903.45
556.686	7964.47
557.05	7998.36
557.413	8073.39
557.776	7987.97
558.139	8082.43
558.502	8144.12
558.865	8130.11
559.228	8172.14
559.59	8231.8
559.953	8276.1
560.316	8306.38
560.679	8264.34
561.041	8340.05
561.404	8357.68
561.767	8409.88
562.129	8429.54
562.492	8477.22
562.854	8473.15
563.217	8452.14
563.579	8523.32
563.941	8540.72
564.304	8648.52
564.666	8574.62
565.028	8617.1
565.39	8664.11
565.753	8706.14
566.115	8730.1
566.477	8743.88
566.839	8859.13
567.201	8854.61
567.563	8905.01
567.925	8971.44
568.287	9009.41
568.648	8972.35
569.01	9053.48
569.372	9095.51
569.734	9077.2
570.095	9152.23
570.457	9191.78
570.819	9241.27
571.18	9289.18
571.542	9286.01
571.903	9278.1
572.265	9377.54
572.626	9456.18
572.987	9446.46
573.349	9442.17
573.71	9547.7
574.071	9555.38
574.432	9628.83
574.794	9780.69
575.155	9713.35
575.516	9788.82
575.877	9809.61
576.238	9949.27
576.599	9981.14
576.96	10025.2
577.32	10086.67
577.681	10187.23
578.042	10227.68
578.403	10372.99
578.763	10422.25
579.124	10481.46
579.485	10630.38
579.845	10755.58
580.206	10716.26
580.566	10888
580.927	11010.94
581.287	11183.36
581.648	11198.96
582.008	11339.74
582.368	11449.12
582.728	11615.67
583.089	11687.53
583.449	11857.7
583.809	12054.3
584.169	12181.3
584.529	12328.87
584.889	12585.36
585.249	12687.51
585.609	12747.62
585.969	13092.47
586.329	13304.21
586.688	13500.14
587.048	13695.61
587.408	13957.75
587.768	14112.33
588.127	14341.02
588.487	14592.54
588.846	14893.55
589.206	14980.55
589.565	15348.23
589.925	15656.69
590.284	15829.12
590.643	16109.34
591.003	16320.18
591.362	16612.37
591.721	16930.33
592.08	17130.1
592.44	17511.11
592.799	17720.59
593.158	17987.71
593.517	18423.17
593.876	18691.87
594.235	18838.08
594.593	19246.88
594.952	19534.11
595.311	19776.13
595.67	20191.71
596.029	20574.76
596.387	20840.29
596.746	21260.61
597.104	21447.05
597.463	21746.25
597.822	22067.37
598.18	22362.05
598.538	22639.79
598.897	23143.28
599.255	23268.47
599.613	23918.17
599.972	24004.72
600.33	24382.79
600.688	24589.79
601.046	24910.69
601.404	25281.52
601.762	25635.87
602.12	25986.36
602.478	26209.18
602.836	26671.09
603.194	26824.76
603.552	27119.44
603.91	27224.3
604.268	27839.42
604.625	28004.16
604.983	28326.42
605.341	28506.07
605.698	28992.61
606.056	29286.62
606.413	29488.87
606.771	29832.59
607.128	30082.53
607.485	30210.89
607.843	30535.17
608.2	30824.2
608.557	31185.1
608.914	31283.85
609.272	31748.47
609.629	31972.65
609.986	32217.84
610.343	32218.07
610.7	32858.5
611.057	32895.79
611.414	33151.6
611.771	33417.81
612.127	33723.34
612.484	33810.34
612.841	34227.05
613.198	34241.29
613.554	34425.69
613.911	34718.34
614.267	35013.92
614.624	35150.42
614.98	35274.03
615.337	35621.37
615.693	35756.96
616.05	35888.7
616.406	36183.16
616.762	36226.55
617.118	36473.55
617.475	36600.77
617.831	36828.57
618.187	37065.17
618.543	37150.14
618.899	37469.68
619.255	37601.43
619.611	37637.13
619.967	37983.56
620.323	38021.3
620.678	38027.18
621.034	38078.02
621.39	38229.21
621.746	38327.51
622.101	38833.03
622.457	38673.94
622.812	38885.91
623.168	39049.3
623.523	38988.28
623.879	39303.75
624.234	39096.3
624.589	39514.37
624.945	39441.6
625.3	39588.94
625.655	39551.88
626.01	39747.58
626.365	39749.62
626.72	39906.45
627.075	39920.46
627.43	39951.2
627.785	39889.95
628.14	40060.34
628.495	40194.58
628.85	40306.67
629.205	40089.27
629.559	40544.17
629.914	40324.52
630.269	40544.4
630.623	40467.79
630.978	40484.06
631.332	40636.38
631.687	40871.4
632.041	40641.57
632.396	40758.63
632.75	40698.52
633.104	40811.06
633.459	40641.12
633.813	40579.65
634.167	40723.6
634.521	40854.22
634.875	40810.83
635.229	40766.32
635.583	40650.39
635.937	40666.66
636.291	40821.23
636.645	40738.29
636.999	40834.11
637.352	40868.69
637.706	40602.93
638.06	40847.67
638.413	40836.82
638.767	40716.15
639.121	40856.48
639.474	40552.54
639.828	40616.04
640.181	40733.1
640.534	40718.63
640.888	40595.92
641.241	40556.6
641.594	40669.59
641.947	40759.31
642.301	40755.24
642.654	40795.92
643.007	40653.1
643.36	40674.11
643.713	40656.94
644.066	40737.16
644.419	40689.25
644.771	40191.19
645.124	40094.69
645.477	39961.59
645.83	39850.18
646.182	39634.82
646.535	39560.7
646.888	39615.38
647.24	39376.52
647.593	39578.78
647.945	39564.99
648.298	39402.51
648.65	39345.11
649.002	39181.05
649.355	39443.19
649.707	39489.74
650.059	39572
650.411	39994.58
650.763	39984.87
651.115	40451.07
651.467	40308.25
651.819	40290.4
652.171	40212.88
652.523	40248.59
652.875	40189.38
653.227	40049.95
653.578	40476.38
653.93	40274.8
654.282	39985.77
654.633	40018.09
654.985	40169.04
655.337	40082.49
655.688	40147.8
656.039	40246.33
656.391	39991.65
656.742	40083.62
657.094	40050.85
657.445	40155.26
657.796	40177.86
658.147	39975.83
658.498	39983.74
658.849	40012.89
659.2	40025.09
659.551	39869.16
659.902	40137.63
660.253	40063.51
660.604	40145.54
660.955	39882.04
661.306	40044.07
661.656	39904.42
662.007	39922.95
662.358	40024.19
662.708	39943.74
663.059	39858.77
663.409	39756.17
663.76	39905.32
664.11	39932.89
664.461	39908.94
664.811	39805.21
665.161	39729.05
665.511	39737.87
665.862	39818.09
666.212	39864.87
666.562	39894.93
666.912	39766.12
667.262	39791.65
667.612	39781.93
667.962	39884.98
668.312	39754.59
668.662	39905.09
669.011	39831.65
669.361	39726.12
669.711	39812.89
670.06	39841.59
670.41	39814.93
670.76	39715.04
671.109	39927.02
671.459	39719.56
671.808	39682.5
672.157	39739.9
672.507	39416.52
672.856	39564.09
673.205	39471.21
673.554	39714.82
673.904	39581.94
674.253	39760.01
674.602	39611.09
674.951	39126.13
675.3	38948.51
675.649	39529.74
675.998	39295.62
676.346	39457.65
676.695	39564.54
677.044	39185.79
677.393	39357.99
677.741	39562.73
678.09	39367.71
678.438	39207.26
678.787	39362.06
679.135	39318.22
679.484	39078.68
679.832	39305.11
680.181	38973.59
680.529	39150.09
680.877	38950.54
681.225	39010.88
681.573	39204.1
681.922	38905.57
682.27	38772.92
682.618	38866.93
682.966	38825.35
683.314	38877.55
683.661	38656.54
684.009	38574.06
684.357	38440.05
684.705	38514.17
685.053	38472.82
685.4	38449.54
685.748	38320.05
686.095	38143.33
686.443	38003
686.79	37918.71
687.138	38179.04
687.485	38091.58
687.832	37943.11
688.18	38045.93
688.527	37787.18
688.874	37746.96
689.221	37523.24
689.568	37516.46
689.915	37449.57
690.262	37386.52
690.609	37473.97
690.956	37270.59
691.303	37188.78
691.65	37090.03
691.997	37194.88
692.344	36814.78
692.69	36972.97
693.037	36869.92
693.383	36548.35
693.73	36798.96
694.077	36517.84
694.423	36544.96
694.769	36408.46
695.116	36320.33
695.462	36218.64
695.808	36153.33
696.155	36151.52
696.501	36029.26
696.847	36031.75
697.193	35758.09
697.539	35969.61
697.885	35568.94
698.231	35574.14
698.577	35544.31
698.923	35511.54
699.269	35311.32
699.614	35117.42
699.96	35122.4
700.306	35110.87
700.651	34863.65
700.997	34772.57
701.342	34657.1
701.688	34639.92
702.033	34533.94
702.379	34451.45
702.724	34512.02
703.069	34525.12
703.415	34132.59
703.76	34094.63
704.105	34271.12
704.45	34066.38
704.795	33990.22
705.14	33764.92
705.485	33825.03
705.83	33756.78
706.175	33817.35
706.52	33670.46
706.865	33522.44
707.209	33517.47
707.554	33290.35
707.899	33347.98
708.243	33334.87
708.588	33162.9
708.932	33025.95
709.277	32940.08
709.621	32910.25
709.966	32759.75
710.31	32896.24
710.654	32560.66
710.998	32600.88
711.342	32744.15
711.687	32579.41
712.031	32379.42
712.375	32305.07
712.719	32299.19
713.063	32334.45
713.407	32251.96
713.75	32090.84
714.094	32161.34
714.438	31997.05
714.782	32077.05
715.125	31836.83
715.469	31904.63
715.812	31764.52
716.156	31623.05
716.499	31721.81
716.843	31708.7
717.186	31449.05
717.53	31603.17
717.873	31524.52
718.216	31478.65
718.559	31376.96
718.902	31179.9
719.246	31349.39
719.589	31126.79
719.932	31063.29
720.275	31060.36
720.617	30999.57
720.96	30878.89
721.303	31040.02
721.646	30981.71
721.989	30766.58
722.331	30834.6
722.674	30631.89
723.016	30680.48
723.359	30691.33
723.701	30670.76
724.044	30420.15
724.386	30289.53
724.729	30524.32
725.071	30367.27
725.413	30348.74
725.755	30245.69
726.097	30108.29
726.439	30039.59
726.782	30096.77
727.124	30211.79
727.465	30142.87
727.807	29915.75
728.149	29951.91
728.491	29793.04
728.833	29914.62
729.175	29838.92
729.516	29743.1
729.858	29805.02
730.199	29737
730.541	29663.56
730.882	29666.04
731.224	29726.15
731.565	29386.28
731.906	29442.32
732.248	29545.82
732.589	29328.42
732.93	29233.96
733.271	29216.56
733.612	29329.33
733.953	29271.02
734.294	29232.83
734.635	29057.7
734.976	29184.02
735.317	28920.52
735.658	28930.24
735.999	28997.13
736.339	28967.98
736.68	29101.09
737.021	28939.06
737.361	28732.96
737.702	28882.56
738.042	28744.48
738.383	28743.35
738.723	28626.07
739.063	28571.16
739.404	28731.38
739.744	28677.14
740.084	28435.79
740.424	28475.11
740.764	28399.41
741.104	28619.29
741.444	28329.58
741.784	28308.34
742.124	28264.5
742.464	28363.7
742.804	28327.32
743.143	28058.85
743.483	28271.5
743.823	28065.63
744.162	27902.92
744.502	28176.59
744.841	27931.4
745.181	28118.74
745.52	27919.42
745.86	27900.66
746.199	27834.45
746.538	27790.16
746.877	27937.5
747.216	27839.65
747.556	27682.59
747.895	27849.59
748.234	27812.76
748.573	27694.57
748.911	27611.86
749.25	27570.96
749.589	27489.38
749.928	27520.34
750.267	27481.69
750.605	27406.67
750.944	27398.53
751.283	27295.03
751.621	27314.01
751.96	27231.3
752.298	27208.71
752.636	27229.27
752.975	26959.67
753.313	26961.48
753.651	27033.79
753.989	26899.56
754.327	26858.66
754.666	26793.12
755.004	26742.28
755.342	26744.31
755.679	26615.05
756.017	26505.22
756.355	26664.09
756.693	26481.49
757.031	26642.84
757.368	26305.45
757.706	26403.98
758.044	26213.48
758.381	26284.21
758.719	26155.17
759.056	26217.55
759.394	26179.13
759.731	25993.37
760.068	25918.12
760.405	25847.39
