Data from hue_140_FLMS001491_00071.txt Node
Date: Tue Feb 07 16:56:22 GMT 2017
User: dcchb
Spectrometer: FLMS00149
Trigger mode: 0
Integration Time (sec): 2.000000E-2
Scans to average: 10
Electric dark correction enabled: true
Nonlinearity correction enabled: false
Boxcar width: 0
XAxis mode: Wavelengths
Number of Pixels in Spectrum: 2048
>>>>>Begin Spectral Data<<<<<
341.393	-6.86
341.776	-6.86
342.16	-6.86
342.543	-43.47
342.927	-57.48
343.31	-68.56
343.693	-79.63
344.077	-81.89
344.46	-38.73
344.843	-50.03
345.226	-18.62
345.61	-30.59
345.993	-20.42
346.376	1.27
346.759	12.12
347.142	21.84
347.525	34.49
347.908	64.77
348.291	67.94
348.674	73.36
349.057	112.68
349.44	147.48
349.823	128.95
350.206	175.28
350.588	201.94
350.971	210.31
351.354	231.55
351.737	234.94
352.119	247.37
352.502	252.79
352.884	289.4
353.267	282.85
353.65	287.59
354.032	286.69
354.414	313.58
354.797	314.71
355.179	325.78
355.562	319.45
355.944	321.71
356.326	336.18
356.709	317.42
357.091	332.79
357.473	342.73
357.855	369.85
358.238	358.1
358.62	328.95
359.002	334.82
359.384	347.25
359.766	342.51
360.148	345.44
360.53	341.83
360.912	344.54
361.294	350.64
361.676	350.64
362.057	362.62
362.439	337.76
362.821	348.15
363.203	345.89
363.584	333.92
363.966	338.21
364.348	319
364.729	310.64
365.111	334.37
365.493	339.34
365.874	313.58
366.256	302.96
366.637	308.83
367.019	324.88
367.4	314.94
367.781	317.87
368.163	319.68
368.544	303.64
368.925	307.48
369.306	309.06
369.688	308.61
370.069	317.2
370.45	321.94
370.831	328.49
371.212	326.69
371.593	329.17
371.974	318.1
372.355	298.44
372.736	310.42
373.117	322.17
373.498	311.32
373.879	323.3
374.26	321.71
374.641	314.94
375.021	306.8
375.402	316.97
375.783	331.21
376.163	325.1
376.544	333.47
376.925	317.42
377.305	309.29
377.686	333.92
378.066	326.01
378.447	312.22
378.827	333.01
379.208	313.81
379.588	323.3
379.968	328.72
380.349	347.7
380.729	353.8
381.109	328.04
381.489	330.08
381.87	359.23
382.25	354.26
382.63	361.71
383.01	335.95
383.39	344.31
383.77	345.67
384.15	344.99
384.53	349.74
384.91	342.51
385.29	336.18
385.67	337.76
386.049	354.03
386.429	363.52
386.809	354.71
387.189	373.01
387.568	359.91
387.948	339.34
388.328	337.08
388.707	381.6
389.087	387.25
389.466	372.33
389.846	375.27
390.225	373.92
390.605	368.49
390.984	374.82
391.363	372.79
391.743	382.96
392.122	351.09
392.501	372.11
392.881	401.03
393.26	375.27
393.639	385.89
394.018	388.15
394.397	389.51
394.776	376.85
395.155	374.59
395.534	401.94
395.913	387.02
396.292	382.5
396.671	386.35
397.05	392.9
397.429	391.09
397.808	401.49
398.186	384.31
398.565	383.18
398.944	397.19
399.323	390.64
399.701	404.88
400.08	418.21
400.458	403.97
400.837	404.88
401.215	407.81
401.594	403.97
401.972	428.38
402.351	430.19
402.729	414.37
403.107	405.55
403.486	419.57
403.864	411.2
404.242	395.39
404.62	430.19
404.999	445.1
405.377	451.2
405.755	446.68
406.133	450.52
406.511	449.39
406.889	433.8
407.267	442.84
407.645	421.83
408.023	428.6
408.401	446.91
408.779	429.73
409.156	457.98
409.534	472.45
409.912	457.53
410.29	468.83
410.667	445.1
411.045	473.8
411.422	478.09
411.8	469.06
412.178	476.06
412.555	504.76
412.933	487.59
413.31	487.36
413.687	529.17
414.065	507.47
414.442	504.53
414.819	504.53
415.197	507.92
415.574	532.56
415.951	500.02
416.328	516.96
416.705	505.44
417.082	489.85
417.46	532.1
417.837	530.97
418.214	521.94
418.591	516.74
418.967	547.25
419.344	537.98
419.721	550.41
420.098	545.21
420.475	521.26
420.852	549.28
421.228	550.64
421.605	549.28
421.982	570.97
422.358	572.78
422.735	569.62
423.111	562.61
423.488	587.7
423.864	588.6
424.241	599.45
424.617	594.93
424.994	582.27
425.37	601.93
425.746	580.24
426.123	608.26
426.499	604.87
426.875	618.88
427.251	625.66
427.627	617.75
428.003	624.53
428.379	636.28
428.756	620.24
429.132	647.58
429.507	635.15
429.883	672.21
430.259	650.97
430.635	650.52
431.011	695.26
431.387	667.92
431.763	705.66
432.138	670.86
432.514	678.77
432.89	702.04
433.265	681.71
433.641	709.5
434.016	696.39
434.392	717.18
434.767	725.77
435.143	700.01
435.518	726.68
435.894	748.37
436.269	749.73
436.644	736.17
437.02	734.36
437.395	760.35
437.77	774.58
438.145	772.1
438.52	758.77
438.895	798.76
439.271	793.34
439.646	822.04
440.021	808.26
440.395	797.41
440.77	808.26
441.145	839.44
441.52	827.69
441.895	826.33
442.27	835.6
442.645	837.41
443.019	870.17
443.394	865.2
443.769	836.73
444.143	865.66
444.518	857.07
444.892	872.89
445.267	859.33
445.641	893
446.016	888.71
446.39	905.65
446.764	898.42
447.139	891.19
447.513	898.65
447.887	916.73
448.262	913.11
448.636	920.79
449.01	944.52
449.384	946.11
449.758	931.64
450.132	937.07
450.506	952.21
450.88	981.13
451.254	978.65
451.628	968.03
452.002	1007.35
452.376	1000.79
452.75	994.47
453.123	1020.23
453.497	1024.3
453.871	1022.26
454.244	1051.86
454.618	1056.61
454.992	1024.75
455.365	1076.5
455.739	1107.68
456.112	1100.45
456.486	1140.22
456.859	1135.48
457.232	1118.98
457.606	1145.42
457.979	1153.56
458.352	1180.9
458.725	1183.61
459.099	1196.27
459.472	1234.46
459.845	1230.84
460.218	1252.99
460.591	1268.36
460.964	1263.61
461.337	1305.64
461.71	1325.3
462.083	1349.03
462.456	1347.45
462.829	1351.74
463.201	1378.86
463.574	1400.1
463.947	1368.24
464.32	1440.33
464.692	1421.57
465.065	1481.46
465.438	1483.49
465.81	1513.55
466.183	1502.47
466.555	1530.5
466.928	1572.76
467.3	1560.1
467.672	1620.21
468.045	1624.73
468.417	1647.33
468.789	1687.78
469.161	1707.44
469.534	1716.03
469.906	1766.42
470.278	1783.15
470.65	1801
471.022	1895.01
471.394	1889.36
471.766	1932.52
472.138	1941.56
472.51	2004.16
472.882	2036.92
473.253	2077.6
473.625	2121.89
473.997	2136.36
474.369	2230.82
474.74	2243.25
475.112	2290.7
475.484	2332.06
475.855	2419.29
476.227	2438.5
476.598	2510.36
476.97	2565.72
477.341	2617.47
477.713	2700.64
478.084	2734.98
478.455	2848.65
478.827	2897.24
479.198	2992.38
479.569	3099.72
479.94	3131.36
480.311	3209.1
480.682	3287.29
481.053	3431.01
481.424	3518.24
481.795	3579.03
482.166	3687.28
482.537	3720.72
482.908	3853.37
483.279	3948.29
483.65	4047.49
484.021	4173.82
484.391	4229.18
484.762	4379.46
485.133	4456.07
485.503	4588.95
485.874	4653.58
486.244	4801.6
486.615	4938.09
486.985	5018.31
487.356	5218.31
487.726	5324.97
488.097	5455.82
488.467	5555.93
488.837	5746.88
489.207	5853.55
489.578	5969.7
489.948	6141.22
490.318	6202.92
490.688	6354.78
491.058	6512.06
491.428	6680.87
491.798	6793.63
492.168	7001.09
492.538	7052.84
492.908	7196.11
493.278	7402.66
493.648	7449.89
494.017	7587.96
494.387	7719.03
494.757	7808.07
495.126	8017.56
495.496	8137.33
495.866	8220.04
496.235	8383.2
496.605	8486.7
496.974	8648.28
497.344	8756.07
497.713	8833.13
498.082	8949.28
498.452	9144.76
498.821	9224.31
499.19	9286
499.559	9445.99
499.928	9533
500.298	9722.82
500.667	9777.96
501.036	9769.15
501.405	9884.4
501.774	10039.43
502.143	10120.55
502.512	10207.78
502.88	10332.3
503.249	10371.17
503.618	10498.62
503.987	10575.46
504.356	10664.27
504.724	10727.99
505.093	10778.84
505.462	10904.71
505.83	10897.71
506.199	11093.18
506.567	11245.5
506.936	11140.87
507.304	11396
507.672	11403.91
508.041	11502.21
508.409	11552.61
508.777	11607.75
509.145	11720.29
509.514	11683.22
509.882	11796.67
510.25	11888.87
510.618	11891.13
510.986	12062.2
511.354	12028.07
511.722	12176.32
512.09	12226.26
512.458	12289.76
512.826	12247.73
513.193	12347.39
513.561	12472.58
513.929	12461.06
514.297	12631.9
514.664	12586.48
515.032	12685.01
515.4	12731.11
515.767	12715.06
516.135	12778.34
516.502	12691.56
516.869	12830.54
517.237	12904.89
517.604	12860.82
517.972	12995.96
518.339	13003.64
518.706	13078.67
519.073	13010.65
519.44	13069.63
519.808	13216.06
520.175	13091.77
520.542	13251.32
520.909	13322.28
521.276	13257.19
521.643	13262.39
522.009	13307.81
522.376	13410.18
522.743	13466.45
523.11	13549.84
523.477	13581.48
523.843	13638.88
524.21	13654.25
524.577	13801.13
524.943	13696.28
525.31	13852.88
525.676	13857.18
526.043	13906.67
526.409	13793.9
526.776	13974.01
527.142	13968.81
527.508	14024.63
527.874	13996.16
528.241	14022.6
528.607	13952.32
528.973	14129.49
529.339	14088.81
529.705	14127
530.071	14178.3
530.437	14113.89
530.803	14171.29
531.169	14163.16
531.535	14066.21
531.901	14134.23
532.267	14144.4
532.632	14258.75
532.998	14193.21
533.364	14178.53
533.73	14046.33
534.095	14255.36
534.461	14177.62
534.826	14129.71
535.192	14172.65
535.557	14173.55
535.923	14054.46
536.288	14077.06
536.653	14088.36
537.019	14031.41
537.384	14017.63
537.749	14084.06
538.114	13959.55
538.479	13978.3
538.845	13965.42
539.21	13935.37
539.575	13933.11
539.94	13898.98
540.305	13876.61
540.67	13807.69
541.034	13774.02
541.399	13772.66
541.764	13774.24
542.129	13708.03
542.494	13714.58
542.858	13732.89
543.223	13680.69
543.587	13575.38
543.952	13594.13
544.316	13626.22
544.681	13506
545.045	13517.53
545.41	13567.92
545.774	13545.32
546.138	13475.04
546.503	13387.36
546.867	13370.41
547.231	13440.92
547.595	13343.07
547.959	13356.17
548.324	13310.53
548.688	13262.39
549.052	13233.92
549.416	13244.54
549.779	13177.65
550.143	13179.46
550.507	13270.07
550.871	13177.87
551.235	13119.57
551.599	13135.62
551.962	13112.56
552.326	13121.83
552.689	13042.28
553.053	13014.71
553.417	12903.76
553.78	13100.81
554.143	12907.37
554.507	12997.99
554.87	12987.37
555.234	13037.76
555.597	12962.96
555.96	12945.56
556.323	12865.11
556.686	12864.21
557.05	12929.29
557.413	12890.2
557.776	12819.92
558.139	12884.1
558.502	12874.6
558.865	12824.89
559.228	12843.87
559.59	12858.33
559.953	12841.61
560.316	12976.98
560.679	12872.8
561.041	12971.78
561.404	12932
561.767	12938.78
562.129	12917.54
562.492	13017.43
562.854	12902.85
563.217	12900.37
563.579	12928.84
563.941	12977.2
564.304	13039.35
564.666	13054.04
565.028	13038.89
565.39	13007.93
565.753	13100.81
566.115	13046.58
566.477	13101.04
566.839	13148.27
567.201	13219.23
567.563	13134.71
567.925	13212.9
568.287	13150.3
568.648	13198.44
569.01	13206.57
569.372	13223.52
569.734	13197.08
570.095	13191.21
570.457	13268.94
570.819	13281.83
571.18	13275.72
571.542	13318.21
571.903	13289.51
572.265	13278.21
572.626	13326.8
572.987	13396.63
573.349	13371.77
573.71	13395.27
574.071	13427.13
574.432	13375.16
574.794	13522.05
575.155	13440.24
575.516	13387.59
575.877	13464.19
576.238	13352.78
576.599	13455.15
576.96	13415.38
577.32	13394.14
577.681	13512.55
578.042	13432.56
578.403	13468.94
578.763	13446.79
579.124	13456.51
579.485	13492.22
579.845	13483.18
580.206	13521.37
580.566	13405.89
580.927	13442.95
581.287	13530.63
581.648	13470.3
582.008	13576.96
582.368	13439.56
582.728	13531.76
583.089	13476.4
583.449	13481.59
583.809	13550.52
584.169	13463.52
584.529	13363.63
584.889	13517.53
585.249	13400.24
585.609	13387.81
585.969	13451.54
586.329	13360.47
586.688	13486.57
587.048	13485.89
587.408	13411.54
587.768	13347.81
588.127	13308.49
588.487	13314.59
588.846	13414.93
589.206	13361.82
589.565	13354.14
589.925	13360.47
590.284	13376.74
590.643	13293.35
591.003	13311.2
591.362	13375.16
591.721	13353.24
592.08	13322.05
592.44	13303.75
592.799	13391.88
593.158	13328.6
593.517	13283.18
593.876	13301.03
594.235	13284.31
594.593	13278.21
594.952	13306.46
595.311	13347.13
595.67	13200.7
596.029	13350.07
596.387	13275.95
596.746	13343.75
597.104	13258.1
597.463	13266.91
597.822	13289.96
598.18	13187.14
598.538	13245.67
598.897	13264.43
599.255	13155.28
599.613	13371.32
599.972	13253.58
600.33	13293.8
600.688	13266.91
601.046	13331.99
601.404	13299.9
601.762	13250.41
602.12	13353.91
602.478	13282.96
602.836	13301.94
603.194	13242.73
603.552	13321.15
603.91	13263.75
604.268	13256.97
604.625	13258.32
604.983	13274.14
605.341	13265.33
605.698	13252.67
606.056	13256.74
606.413	13328.6
606.771	13351.88
607.128	13289.06
607.485	13238.66
607.843	13229.17
608.2	13350.52
608.557	13382.84
608.914	13314.37
609.272	13365.44
609.629	13354.14
609.986	13376.74
610.343	13316.63
610.7	13484.98
611.057	13396.4
611.414	13459.45
611.771	13427.81
612.127	13537.19
612.484	13464.19
612.841	13468.71
613.198	13472.1
613.554	13458.09
613.911	13506.9
614.267	13546.9
614.624	13529.05
614.98	13501.03
615.337	13571.76
615.693	13520.46
616.05	13567.69
616.406	13659.44
616.762	13553.91
617.118	13530.18
617.475	13619.44
617.831	13590.29
618.187	13617.86
618.543	13667.35
618.899	13633
619.255	13650.4
619.611	13685.88
619.967	13587.81
620.323	13688.14
620.678	13634.81
621.034	13597.07
621.39	13618.09
621.746	13641.59
622.101	13780.8
622.457	13738.09
622.812	13675.71
623.168	13733.11
623.523	13691.08
623.879	13758.2
624.234	13606.11
624.589	13729.95
624.945	13674.81
625.3	13702.61
625.655	13670.97
626.01	13667.13
626.365	13703.28
626.72	13621.25
627.075	13667.58
627.43	13723.62
627.785	13615.15
628.14	13590.97
628.495	13689.72
628.85	13617.18
629.205	13605.66
629.559	13710.06
629.914	13619.9
630.269	13642.95
630.623	13645.21
630.978	13573.8
631.332	13612.44
631.687	13671.87
632.041	13502.16
632.396	13531.08
632.75	13557.98
633.104	13386.23
633.459	13421.48
633.813	13471.88
634.167	13482.5
634.521	13436.62
634.875	13413.12
635.229	13400.92
635.583	13363.18
635.937	13331.99
636.291	13301.94
636.645	13288.15
636.999	13351.43
637.352	13361.6
637.706	13264.43
638.06	13325.21
638.413	13202.28
638.767	13183.07
639.121	13270.53
639.474	13268.94
639.828	13167.03
640.181	13226.46
640.534	13152.34
640.888	13186.46
641.241	13065.33
641.594	13044.54
641.947	13155.05
642.301	13159.8
642.654	13116.63
643.007	13195.95
643.36	13115.5
643.713	13072.11
644.066	13069.63
644.419	13120.7
644.771	13033.02
645.124	12806.58
645.477	12896.3
645.83	12827.83
646.182	12736.76
646.535	12624.44
646.888	12682.75
647.24	12602.07
647.593	12751.22
647.945	12697.89
648.298	12573.82
648.65	12571.11
649.002	12578.57
649.355	12676.19
649.707	12631.9
650.059	12726.59
650.411	12833.02
650.763	12827.15
651.115	12992.79
651.467	12888.16
651.819	12969.97
652.171	12864.21
652.523	12885.45
652.875	12806.58
653.227	12852.01
653.578	12982.4
653.93	12914.38
654.282	12804.1
654.633	12814.72
654.985	12807.94
655.337	12884.1
655.688	12842.97
656.039	12960.03
656.391	12821.73
656.742	12911.89
657.094	12917.09
657.445	12885.9
657.796	12855.62
658.147	12905.11
658.498	12836.87
658.849	12854.94
659.2	12878.45
659.551	12809.3
659.902	12939.24
660.253	12873.02
660.604	12944.66
660.955	12878.9
661.306	12802.29
661.656	12820.37
662.007	12893.81
662.358	12951.67
662.708	12933.81
663.059	12880.71
663.409	12875.51
663.76	12890.88
664.11	12943.98
664.461	12943.76
664.811	12882.97
665.161	12960.7
665.511	12984.88
665.862	12943.76
666.212	12949.18
666.562	12992.12
666.912	12934.04
667.262	12909.18
667.612	12905.79
667.962	12920.03
668.312	12926.13
668.662	12978.11
669.011	12898.11
669.361	12912.8
669.711	12901.5
670.06	12850.65
670.41	12855.4
670.76	12847.26
671.109	12856.53
671.459	12826.47
671.808	12860.82
672.157	12792.57
672.507	12798.22
672.856	12738.34
673.205	12839.13
673.554	12854.27
673.904	12795.51
674.253	12862.63
674.602	12761.61
674.951	12638.23
675.3	12533.6
675.649	12747.83
675.998	12666.25
676.346	12781.27
676.695	12776.98
677.044	12680.26
677.393	12762.52
677.741	12719.81
678.09	12693.14
678.438	12649.75
678.787	12692.69
679.135	12716.64
679.484	12605.01
679.832	12683.42
680.181	12565.46
680.529	12610.43
680.877	12572.47
681.225	12476.2
681.573	12622.41
681.922	12492.02
682.27	12440.49
682.618	12436.42
682.966	12448.63
683.314	12440.72
683.661	12415.18
684.009	12342.87
684.357	12237.33
684.705	12270.1
685.053	12345.35
685.4	12292.47
685.748	12141.06
686.095	12204.34
686.443	12154.85
686.79	12073.04
687.138	12116.43
687.485	12167.28
687.832	12125.7
688.18	12051.35
688.527	11948.08
688.874	12008.19
689.221	11986.04
689.568	11939.71
689.915	11864.24
690.262	11934.52
690.609	11819.94
690.956	11824.24
691.303	11829.43
691.65	11742.21
691.997	11699.27
692.344	11730.91
692.69	11611.81
693.037	11626.05
693.383	11479.39
693.73	11527.52
694.077	11487.07
694.423	11465.38
694.769	11417.92
695.116	11359.62
695.462	11350.13
695.808	11240.52
696.155	11352.61
696.501	11267.64
696.847	11158.49
697.193	11066.29
697.539	11147.19
697.885	11050.25
698.231	11019.96
698.577	10976.35
698.923	10937.93
699.269	10926.41
699.614	10857.48
699.96	10850.48
700.306	10854.32
700.651	10806.18
700.997	10745.4
701.342	10698.84
701.688	10688.9
702.033	10692.74
702.379	10546.08
702.724	10580.65
703.069	10559.86
703.415	10485.97
703.76	10442.58
704.105	10472.86
704.45	10429.47
704.795	10326.88
705.14	10335.46
705.485	10290.27
705.83	10249.59
706.175	10212.75
706.52	10178.18
706.865	10113.32
707.209	10152.64
707.554	10098.18
707.899	10139.76
708.243	10053.89
708.588	10063.83
708.932	9984.06
709.277	9942.7
709.621	9972.53
709.966	9920.78
710.31	9922.37
710.654	9787
710.998	9877.85
711.342	9833.78
711.687	9869.94
712.031	9740.9
712.375	9764.86
712.719	9780.22
713.063	9787.45
713.407	9704.29
713.75	9743.39
714.094	9678.53
714.438	9645.76
714.782	9647.8
715.125	9563.28
715.469	9699.1
715.812	9571.19
716.156	9537.52
716.499	9566.67
716.843	9484.19
717.186	9483.73
717.53	9503.17
717.873	9478.31
718.216	9534.58
718.559	9493.22
718.902	9376.62
719.246	9388.59
719.589	9392.44
719.932	9261.59
720.275	9348.37
720.617	9351.76
720.96	9293.46
721.303	9288.71
721.646	9316.05
721.989	9323.06
722.331	9318.99
722.674	9304.76
723.016	9208.94
723.359	9224.08
723.701	9250.52
724.044	9242.38
724.386	9177.53
724.729	9228.37
725.071	9204.64
725.413	9211.65
725.755	9179.79
726.097	9153.8
726.439	9121.26
726.782	9156.96
727.124	9211.2
727.465	9081.71
727.807	9118.55
728.149	9125.33
728.491	9061.37
728.833	9138.43
729.175	9042.16
729.516	9074.93
729.858	9037.64
730.199	9071.99
730.541	9078.55
730.882	9011.88
731.224	9075.16
731.565	8992.9
731.906	9010.98
732.248	9121.26
732.589	9013.92
732.93	9031.54
733.271	9012.56
733.612	9050.52
733.953	9001.94
734.294	9053.24
734.635	8984.31
734.976	9033.8
735.317	8986.12
735.658	9001.03
735.999	9031.77
736.339	9031.77
736.68	8996.51
737.021	8996.51
737.361	9027.7
737.702	9045.33
738.042	9001.49
738.383	9034.48
738.723	9081.48
739.063	9046.01
739.404	9104.99
739.744	9047.59
740.084	9036.97
740.424	9121.94
740.764	9074.48
741.104	9112.22
741.444	9174.82
741.784	9148.83
742.124	9111.54
742.464	9147.25
742.804	9154.48
743.143	9174.14
743.483	9247.13
743.823	9185.44
744.162	9229.73
744.502	9284.87
744.841	9168.26
745.181	9307.47
745.52	9310.18
745.86	9414.58
746.199	9442.6
746.538	9477.63
746.877	9481.93
747.216	9577.29
747.556	9639.21
747.895	9640.79
748.234	9652.99
748.573	9672.43
748.911	9678.98
749.25	9875.81
749.589	9831.52
749.928	9953.78
750.267	10033.1
750.605	10078.29
750.944	10092.53
751.283	10152.87
751.621	10262.47
751.96	10303.37
752.298	10416.14
752.636	10568.45
752.975	10494.78
753.313	10635.34
753.651	10829.24
753.989	10912.17
754.327	10951.27
754.666	11078.27
755.004	11217.7
755.342	11324.82
755.679	11443.23
756.017	11536.79
756.355	11740.62
756.693	11785.14
757.031	12012.03
757.368	12054.51
757.706	12137.68
758.044	12340.16
758.381	12370.44
758.719	12633.93
