Data from hue_36_FLMS001491_00045.txt Node
Date: Tue Feb 07 17:29:51 GMT 2017
User: dcchb
Spectrometer: FLMS00149
Trigger mode: 0
Integration Time (sec): 2.000000E-2
Scans to average: 10
Electric dark correction enabled: true
Nonlinearity correction enabled: false
Boxcar width: 0
XAxis mode: Wavelengths
Number of Pixels in Spectrum: 2048
>>>>>Begin Spectral Data<<<<<
341.393	-7.71
341.776	-7.71
342.16	-7.71
342.543	-53.81
342.927	-56.3
343.31	-81.16
343.693	-63.98
344.077	-66.02
344.46	-58.56
344.843	-65.79
345.226	-31.44
345.61	-35.51
345.993	-9.07
346.376	3.81
346.759	17.37
347.142	27.32
347.525	50.59
347.908	73.19
348.291	75.45
348.674	70.25
349.057	93.53
349.44	123.58
349.823	142.57
350.206	168.33
350.588	209.68
350.971	209.46
351.354	229.8
351.737	242.9
352.119	249.46
352.502	258.04
352.884	270.93
353.267	293.98
353.65	314.54
354.032	309.79
354.414	310.02
354.797	316.57
355.179	305.73
355.562	315.9
355.944	326.29
356.326	338.04
356.709	353.86
357.091	343.92
357.473	339.62
357.855	330.81
358.238	356.8
358.62	350.25
359.002	346.18
359.384	357.7
359.766	356.8
360.148	346.63
360.53	324.03
360.912	349.79
361.294	335.56
361.676	347.53
362.057	349.12
362.439	329.68
362.821	305.95
363.203	339.85
363.584	340.98
363.966	331.49
364.348	324.93
364.729	306.86
365.111	330.58
365.493	335.1
365.874	329.45
366.256	322
366.637	306.4
367.019	317.7
367.4	305.27
367.781	328.32
368.163	333.97
368.544	312.05
368.925	305.95
369.306	339.85
369.688	323.58
370.069	318.38
370.45	333.97
370.831	338.72
371.212	315.67
371.593	322.68
371.974	336.91
372.355	314.09
372.736	303.47
373.117	305.5
373.498	316.12
373.879	314.54
374.26	320.64
374.641	329.23
375.021	331.71
375.402	328.78
375.783	323.81
376.163	336.23
376.544	328.32
376.925	333.3
377.305	318.61
377.686	342.34
378.066	327.19
378.447	351.6
378.827	330.58
379.208	331.71
379.588	340.08
379.968	348.21
380.349	331.04
380.729	349.34
381.109	338.49
381.489	329.45
381.87	342.56
382.25	341.66
382.63	338.49
383.01	354.09
383.39	357.7
383.77	363.13
384.15	353.63
384.53	347.76
384.91	354.09
385.29	359.51
385.67	363.13
386.049	369
386.429	364.26
386.809	376.23
387.189	369
387.568	369.45
387.948	357.93
388.328	363.58
388.707	378.72
389.087	368.32
389.466	352.5
389.846	357.93
390.225	377.59
390.605	356.8
390.984	361.32
391.363	357.93
391.743	375.56
392.122	377.36
392.501	384.37
392.881	369.45
393.26	365.84
393.639	388.89
394.018	367.19
394.397	384.82
394.776	391.83
395.155	375.78
395.534	370.81
395.913	388.66
396.292	399.51
396.671	411.94
397.05	402.22
397.429	379.4
397.808	385.05
398.186	388.89
398.565	408.55
398.944	394.09
399.323	386.85
399.701	395.89
400.08	403.58
400.458	400.87
400.837	402.22
401.215	399.06
401.594	393.63
401.972	432.28
402.351	401.09
402.729	396.12
403.107	395.89
403.486	425.05
403.864	426.4
404.242	435.89
404.62	438.83
404.999	431.82
405.377	401.54
405.755	427.98
406.133	407.19
406.511	434.76
406.889	440.64
407.267	436.34
407.645	451.94
408.023	434.99
408.401	441.77
408.779	438.6
409.156	442.22
409.534	448.55
409.912	469.79
410.29	452.39
410.667	444.25
411.045	469.11
411.422	449.23
411.8	458.49
412.178	476.57
412.555	495.78
412.933	477.7
413.31	476.57
413.687	469.79
414.065	472.5
414.442	477.7
414.819	490.81
415.197	497.36
415.574	495.33
415.951	503.69
416.328	502.56
416.705	505.95
417.082	508.88
417.46	492.39
417.837	511.82
418.214	496.91
418.591	519.28
418.967	524.7
419.344	520.18
419.721	524.48
420.098	517.47
420.475	540.97
420.852	522.22
421.228	504.37
421.605	525.38
421.982	528.32
422.358	541.43
422.735	534.65
423.111	546.85
423.488	557.92
423.864	537.58
424.241	534.65
424.617	554.99
424.994	587.53
425.37	548.21
425.746	577.13
426.123	560.18
426.499	563.57
426.875	565.38
427.251	590.24
427.627	573.52
428.003	596.11
428.379	594.08
428.756	580.52
429.132	590.92
429.507	595.89
429.883	619.62
430.259	604.7
430.635	623.91
431.011	604.25
431.387	631.59
431.763	617.81
432.138	607.87
432.514	659.16
432.89	619.16
433.265	636.34
433.641	651.03
434.016	664.59
434.392	673.4
434.767	707.52
435.143	661.42
435.518	664.36
435.894	711.14
436.269	678.6
436.644	692.83
437.02	719.95
437.395	677.47
437.77	705.26
438.145	717.24
438.52	728.09
438.895	742.78
439.271	731.48
439.646	749.33
440.021	737.13
440.395	729.22
440.77	747.3
441.145	734.19
441.52	729.67
441.895	751.82
442.27	751.14
442.645	760.4
443.019	784.36
443.394	785.26
443.769	765.38
444.143	769.44
444.518	779.39
444.892	773.96
445.267	790.01
445.641	788.2
446.016	787.3
446.39	809.67
446.764	812.83
447.139	800.63
447.513	818.48
447.887	825.94
448.262	810.35
448.636	837.69
449.01	828.42
449.384	829.78
449.758	834.98
450.132	874.3
450.506	865.94
450.88	858.93
451.254	863.9
451.628	858.71
452.002	881.53
452.376	893.28
452.75	869.33
453.123	882.43
453.497	915.65
453.871	899.38
454.244	925.15
454.618	919.27
454.992	932.83
455.365	939.61
455.739	975.31
456.112	976.44
456.486	977.12
456.859	986.16
457.232	994.3
457.606	998.59
457.979	1002.21
458.352	1009.21
458.725	1020.28
459.099	1032.49
459.472	1047.85
459.845	1081.3
460.218	1054.18
460.591	1067.29
460.964	1088.3
461.337	1102.09
461.71	1096.44
462.083	1140.28
462.456	1148.42
462.829	1123.78
463.201	1185.25
463.574	1170.79
463.947	1193.39
464.32	1201.3
464.692	1224.12
465.065	1228.64
465.438	1265.02
465.81	1258.24
466.183	1268.19
466.555	1279.26
466.928	1296.89
467.3	1332.59
467.672	1331.46
468.045	1352.93
468.417	1329.88
468.789	1381.4
469.161	1372.59
469.534	1417.11
469.906	1442.65
470.278	1464.57
470.65	1488.75
471.022	1501.85
471.394	1527.62
471.766	1572.36
472.138	1576.2
472.51	1630.21
472.882	1658.46
473.253	1662.98
473.625	1715.86
473.997	1734.16
474.369	1752.24
474.74	1804.67
475.112	1826.36
475.484	1860.26
475.855	1894.16
476.227	1970.77
476.598	2014.61
476.97	2029.3
477.341	2086.7
477.713	2113.14
478.084	2139.12
478.455	2227.71
478.827	2235.39
479.198	2341.38
479.569	2370.53
479.94	2431.32
480.311	2485.33
480.682	2590.41
481.053	2618.66
481.424	2722.84
481.795	2778.66
482.166	2833.8
482.537	2894.81
482.908	2950.85
483.279	3006.67
483.65	3107.46
484.021	3159.44
484.391	3290.28
484.762	3334.12
485.133	3413.44
485.503	3483.27
485.874	3579.31
486.244	3656.6
486.615	3765.07
486.985	3815.46
487.356	3924.84
487.726	4001.45
488.097	4100.65
488.467	4134.55
488.837	4300.42
489.207	4363.7
489.578	4493.41
489.948	4576.57
490.318	4705.61
490.688	4766.85
491.058	4851.14
491.428	4958.94
491.798	5081.42
492.168	5186.28
492.538	5297.91
492.908	5404.12
493.278	5505.59
493.648	5510.11
494.017	5687.96
494.387	5781.74
494.757	5825.81
495.126	5897.22
495.496	5994.39
495.866	6102.18
496.235	6271.22
496.605	6311.44
496.974	6397.09
497.344	6475.06
497.713	6578.56
498.082	6626.92
498.452	6752.79
498.821	6799.57
499.19	6886.57
499.559	7022.16
499.928	7119.56
500.298	7123.85
500.667	7273.23
501.036	7279.55
501.405	7387.8
501.774	7492.2
502.143	7526.78
502.512	7604.97
502.88	7691.07
503.249	7733.33
503.618	7879.54
503.987	7895.36
504.356	7986.2
504.724	8060.78
505.093	8118.18
505.462	8098.97
505.83	8282.47
506.199	8349.13
506.567	8466.19
506.936	8413.99
507.304	8599.52
507.672	8608.78
508.041	8676.13
508.409	8785.5
508.777	8894.2
509.145	8974.88
509.514	9005.16
509.882	9046.06
510.25	9071.6
510.618	9181.65
510.986	9152.5
511.354	9265.04
511.722	9389.56
512.09	9434.53
512.458	9511.59
512.826	9482.43
513.193	9579.61
513.561	9653.96
513.929	9754.74
514.297	9803.33
514.664	9901.63
515.032	9874.29
515.4	10036.09
515.767	10048.52
516.135	10109.76
516.502	10076.99
516.869	10239.7
517.237	10253.49
517.604	10320.38
517.972	10420.26
518.339	10454.16
518.706	10462.52
519.073	10560.6
519.44	10642.18
519.808	10772.34
520.175	10702.29
520.542	10793.81
520.909	10914.94
521.276	10919.68
521.643	11100.02
522.009	11067.25
522.376	11177.76
522.743	11194.48
523.11	11334.36
523.477	11424.08
523.843	11454.81
524.21	11579.1
524.577	11612.32
524.943	11726.9
525.31	11808.7
525.676	11898.42
526.043	11959.88
526.409	12005.76
526.776	12113.55
527.142	12118.07
527.508	12200.55
527.874	12302.47
528.241	12377.95
528.607	12425.41
528.973	12499.08
529.339	12506.99
529.705	12701.56
530.071	12791.73
530.437	12827.43
530.803	12874.44
531.169	13010.03
531.535	12957.15
531.901	12937.26
532.267	13028.33
532.632	13126.41
532.998	13213.41
533.364	13280.75
533.73	13287.98
534.095	13406.62
534.461	13489.56
534.826	13544.25
535.192	13519.84
535.557	13630.57
535.923	13639.61
536.288	13694.75
536.653	13758.71
537.019	13811.36
537.384	13831.47
537.749	13897.23
538.114	13986.5
538.479	13992.15
538.845	14090.9
539.21	14058.13
539.575	14229.43
539.94	14270.56
540.305	14231.46
540.67	14217.9
541.034	14358.69
541.399	14491.79
541.764	14385.58
542.129	14542.41
542.494	14604.56
542.858	14647.95
543.223	14677.1
543.587	14717.55
543.952	14845.01
544.316	14900.14
544.681	14877.77
545.045	15007.26
545.41	15104.21
545.774	15156.18
546.138	15143.08
546.503	15181.95
546.867	15165.67
547.231	15325.67
547.595	15290.64
547.959	15440.02
548.324	15496.97
548.688	15442.28
549.052	15508.49
549.416	15631.43
549.779	15652.22
550.143	15695.38
550.507	15713.46
550.871	15821.48
551.235	15874.13
551.599	15873.23
551.962	15998.87
552.326	16070.06
552.689	16095.82
553.053	16018.31
553.417	16159.55
553.78	16369.03
554.143	16277.51
554.507	16388.02
554.87	16451.74
555.234	16535.36
555.597	16439.77
555.96	16556.15
556.323	16620.33
556.686	16562.7
557.05	16817.16
557.413	16817.61
557.776	16909.36
558.139	16976.25
558.502	16950.49
558.865	16982.12
559.228	17070.71
559.59	17239.74
559.953	17190.48
560.316	17285.84
560.679	17374.88
561.041	17534.65
561.404	17569.45
561.767	17618.49
562.129	17570.13
562.492	17773.52
562.854	17758.83
563.217	17728.77
563.579	17804.25
563.941	17917.47
564.304	17974.87
564.666	18115.88
565.028	18149.1
565.39	18248.53
565.753	18373.05
566.115	18406.49
566.477	18415.98
566.839	18471.58
567.201	18610.33
567.563	18606.71
567.925	18702.98
568.287	18729.2
568.648	18864.33
569.01	19007.83
569.372	18990.21
569.734	18971
570.095	19189.98
570.457	19229.3
570.819	19329.63
571.18	19359.24
571.542	19431.1
571.903	19447.82
572.265	19575.05
572.626	19550.64
572.987	19696.63
573.349	19749.96
573.71	19790.41
574.071	19939.79
574.432	20072.66
574.794	20212.55
575.155	20203.51
575.516	20299.78
575.877	20366.67
576.238	20495.93
576.599	20663.61
576.96	20745.19
577.32	20930.95
577.681	20979.99
578.042	21159.42
578.403	21281.9
578.763	21376.58
579.124	21521.67
579.485	21654.54
579.845	21843.01
580.206	21888.66
580.566	22033.74
580.927	22140.41
581.287	22340.85
581.648	22445.03
582.008	22758.02
582.368	22779.71
582.728	22950.55
583.089	23094.51
583.449	23255.86
583.809	23417.89
584.169	23764.54
584.529	23791.21
584.889	24175.16
585.249	24158.88
585.609	24438.88
585.969	24647.46
586.329	24840.9
586.688	25096.71
587.048	25155.92
587.408	25460.55
587.768	25562.92
588.127	25866.64
588.487	26020.3
588.846	26445.6
589.206	26371.71
589.565	26661.19
589.925	26914.97
590.284	27129.43
590.643	27212.82
591.003	27678.79
591.362	27969.86
591.721	28057.77
592.08	28307.48
592.44	28662.72
592.799	28755.83
593.158	28997.63
593.517	29251.86
593.876	29470.61
594.235	29600.32
594.593	29898.85
594.952	30171.61
595.311	30388.1
595.67	30593.97
596.029	30946.5
596.387	31050.91
596.746	31367.51
597.104	31531.35
597.463	31639.14
597.822	32048.39
598.18	32032.58
598.538	32367.03
598.897	32674.14
599.255	32595.27
599.613	33276.84
599.972	33123.39
600.33	33452.43
600.688	33471.63
601.046	33863.26
601.404	34029.81
601.762	34093.09
602.12	34489.01
602.478	34613.75
602.836	34644.71
603.194	34811.03
603.552	35067.75
603.91	35063
604.268	35378.93
604.625	35472.94
604.983	35813.49
605.341	35860.27
605.698	35985.01
606.056	36374.83
606.413	36408.51
606.771	36655.28
607.128	36717.88
607.485	36739.12
607.843	36784.77
608.2	37170.52
608.557	37304.08
608.914	37401.7
609.272	37617.51
609.629	37798.07
609.986	38046.43
610.343	37904.74
610.7	38396.25
611.057	38453.2
611.414	38496.59
611.771	38687.32
612.127	38918.27
612.484	38930.47
612.841	39272.16
613.198	39083.46
613.554	39239.84
613.911	39386.73
614.267	39638.03
614.624	39653.39
614.98	39671.47
615.337	40172.02
615.693	40012.48
616.05	40051.35
616.406	40440.72
616.762	40449.3
617.118	40382.86
617.475	40483.2
617.831	40597.77
618.187	40830.99
618.543	40879.8
618.899	41129.51
619.255	41148.27
619.611	41022.4
619.967	41156.18
620.323	41427.81
620.678	41419.67
621.034	41429.39
621.39	41357.08
621.746	41518.43
622.101	41828.25
622.457	41573.34
622.812	41735.6
623.168	41937.4
623.523	41969.49
623.879	42017.85
624.234	41855.14
624.589	42033.67
624.945	42202.25
625.3	42239.99
625.655	42230.73
626.01	42271.4
626.365	42302.59
626.72	42257.84
627.075	42294.23
627.43	42451.74
627.785	42418.52
628.14	42397.05
628.495	42550.94
628.85	42524.05
629.205	42343.72
629.559	42599.98
629.914	42541.23
630.269	42584.16
630.623	42481.11
630.978	42407.44
631.332	42586.42
631.687	42689.47
632.041	42493.54
632.396	42583.94
632.75	42543.26
633.104	42641.11
633.459	42446.99
633.813	42541.9
634.167	42509.14
634.521	42508.01
634.875	42573.32
635.229	42500.78
635.583	42374
635.937	42446.31
636.291	42413.32
636.645	42423.72
636.999	42426.2
637.352	42471.62
637.706	42292.42
638.06	42427.1
638.413	42362.02
638.767	42333.1
639.121	42341.23
639.474	42067.34
639.828	42209.03
640.181	42243.38
640.534	42129.49
640.888	42107.79
641.241	42062.37
641.594	42156.83
641.947	42265.3
642.301	42216.04
642.654	42298.97
643.007	42223.04
643.36	42250.16
643.713	41972.43
644.066	42266.43
644.419	41976.95
644.771	41646.33
645.124	41341.48
645.477	41249.51
645.83	41292.67
646.182	41015.39
646.535	40780.14
646.888	40983.53
647.24	40589.41
647.593	40998.22
647.945	40826.02
648.298	40690.88
648.65	40611.56
649.002	40527.27
649.355	40746.02
649.707	40633.48
650.059	40847.49
650.411	41354.36
650.763	41235.95
651.115	41697.86
651.467	41591.19
651.819	41653.79
652.171	41517.98
652.523	41489.05
652.875	41369.28
653.227	41236.4
653.578	41592.55
653.93	41357.53
654.282	41331.77
654.633	41136.29
654.985	41303.74
655.337	41273.46
655.688	41397.75
656.039	41354.36
656.391	41117.53
656.742	41194.14
657.094	41223.07
657.445	41292.9
657.796	41168.61
658.147	41113.69
658.498	41252.9
658.849	41320.47
659.2	41314.82
659.551	41093.13
659.902	41338.32
660.253	41102.85
660.604	41256.74
660.955	41052.23
661.306	41215.84
661.656	41181.04
662.007	41174.71
662.358	41083.19
662.708	41092.9
663.059	41163.41
663.409	40767.71
663.76	41155.27
664.11	41157.53
664.461	41134.26
664.811	41051.1
665.161	41051.77
665.511	41037.08
665.862	40964.09
666.212	41109.4
666.562	41153.01
666.912	41021.49
667.262	40940.36
667.612	41000.02
667.962	41110.53
668.312	40986.24
668.662	41090.19
669.011	40914.83
669.361	40906.01
669.711	40868.73
670.06	40897.43
670.41	40769.3
670.76	40788.28
671.109	40848.39
671.459	40712.8
671.808	40907.14
672.157	40874.6
672.507	40712.57
672.856	40847.03
673.205	40813.14
673.554	40894.72
673.904	40661.95
674.253	40807.49
674.602	40710.54
674.951	40195.75
675.3	40042.76
675.649	40642.74
675.998	40582.86
676.346	40639.36
676.695	40766.58
677.044	40473.94
677.393	40522.97
677.741	40520.49
678.09	40487.95
678.438	40410.43
678.787	40447.27
679.135	40497.66
679.484	40193.49
679.832	40339.93
680.181	40227.16
680.529	40304.22
680.877	40056.09
681.225	39989.2
681.573	40340.15
681.922	40023.33
682.27	39864.69
682.618	40001.63
682.966	39834.18
683.314	39844.57
683.661	39791.02
684.009	39659.72
684.357	39588.31
684.705	39523.68
685.053	39666.73
685.4	39504.02
685.748	39414.75
686.095	39409.33
686.443	39157.59
686.79	39240.97
687.138	39303.57
687.485	39239.62
687.832	39002.79
688.18	39131.37
688.527	38932.06
688.874	38893.41
689.221	38793.53
689.568	38724.83
689.915	38585.17
690.262	38649.13
690.609	38585.62
690.956	38383.14
691.303	38346.31
691.65	38306.54
691.997	38172.3
692.344	38002.59
692.69	38083.94
693.037	38035.13
693.383	37824.74
693.73	37857.96
694.077	37458.87
694.423	37677.63
694.769	37449.61
695.116	37422.26
695.462	37357.86
695.808	37200.58
696.155	37330.97
696.501	36982.73
696.847	37072.44
697.193	36716.29
697.539	36843.52
697.885	36696.41
698.231	36513.14
698.577	36597.2
698.923	36545.68
699.269	36201.51
699.614	36055.97
699.96	36055.97
700.306	36066.82
700.651	35983.21
700.997	35865.7
701.342	35802.19
701.688	35813.04
702.033	35671.35
702.379	35731.46
702.724	35504.8
703.069	35636.55
703.415	35111.14
703.76	35401.75
704.105	35286.5
704.45	35124.47
704.795	34943.91
705.14	34871.15
705.485	34774.88
705.83	34794.54
706.175	34657.37
706.52	34660.76
706.865	34582.57
707.209	34459.63
707.554	34250.82
707.899	34413.3
708.243	34220.77
708.588	34164.72
708.932	33879.31
709.277	33983.26
709.621	34060.77
709.966	33739.2
710.31	33721.34
710.654	33534.23
710.998	33626.21
711.342	33646.32
711.687	33396.16
712.031	33369.94
712.375	33211.98
712.719	33332.65
713.063	33309.38
713.407	33352.77
713.75	33154.13
714.094	33069.84
714.438	32914.13
714.782	33110.06
715.125	32909.61
715.469	32876.4
715.812	32704.2
716.156	32575.39
716.499	32511.66
716.843	32590.75
717.186	32482.06
717.53	32616.74
717.873	32556.86
718.216	32452.23
718.559	32257.88
718.902	32023.76
719.246	32090.43
719.589	31880.04
719.932	31957.78
720.275	31918.68
720.617	31867.83
720.96	31802.53
721.303	31833.94
721.646	31801.85
721.989	31598.24
722.331	31714.84
722.674	31641.63
723.016	31635.3
723.359	31446.6
723.701	31542.65
724.044	31463.33
724.386	31303.78
724.729	31366.38
725.071	31358.7
725.413	31314.63
725.755	31334.06
726.097	31163.67
726.439	30999.38
726.782	31020.17
727.124	31151.02
727.465	31032.6
727.807	30910.57
728.149	30834.64
728.491	30765.26
728.833	30844.36
729.175	30717.13
729.516	30671.93
729.858	30611.14
730.199	30548.77
730.541	30498.38
730.882	30490.47
731.224	30490.7
731.565	30297.03
731.906	30416.12
732.248	30333.86
732.589	30094.55
732.93	30041.89
733.271	30109.91
733.612	30198.05
733.953	30112.63
734.294	30030.37
734.635	29960.99
734.976	29994.66
735.317	29838.28
735.658	29876.93
735.999	29850.03
736.339	29750.15
736.68	29815.01
737.021	29646.65
737.361	29478.74
737.702	29663.37
738.042	29670.38
738.383	29445.3
738.723	29577.5
739.063	29389.93
739.404	29554
739.744	29504.96
740.084	29372.08
740.424	29402.81
740.764	29337.96
741.104	29412.76
741.444	29229.94
741.784	29065.65
742.124	29170.73
742.464	29167.34
742.804	29095.48
743.143	28988.81
743.483	29038.08
743.823	28848.25
744.162	28791.76
744.502	28899.32
744.841	28866.56
745.181	28961.92
745.52	28648.71
745.86	28977.06
746.199	28706.34
746.538	28748.14
746.877	28705.66
747.216	28760.8
747.556	28641.48
747.895	28608.94
748.234	28486
748.573	28416.63
748.911	28421.82
749.25	28351.77
749.589	28179.12
749.928	28248.27
750.267	28260.7
750.605	28225.22
750.944	28109.29
751.283	27985
751.621	28031.1
751.96	27936.64
752.298	27908.84
752.636	27834.27
752.975	27616.87
753.313	27662.52
753.651	27832.91
753.989	27527.61
754.327	27553.6
754.666	27473.6
755.004	27491.45
755.342	27528.06
755.679	27410.55
756.017	27371.46
756.355	27353.15
756.693	27282.64
757.031	27339.37
757.368	27149.77
