Data from hue_220_FLMS001491_00048.txt Node
Date: Tue Feb 07 16:39:31 GMT 2017
User: dcchb
Spectrometer: FLMS00149
Trigger mode: 0
Integration Time (sec): 2.000000E-2
Scans to average: 10
Electric dark correction enabled: true
Nonlinearity correction enabled: false
Boxcar width: 0
XAxis mode: Wavelengths
Number of Pixels in Spectrum: 2048
>>>>>Begin Spectral Data<<<<<
341.393	-27.53
341.776	-27.53
342.16	-27.53
342.543	-81.31
342.927	-70.92
343.31	-77.92
343.693	-73.63
344.077	-50.8
344.46	-47.41
344.843	-46.74
345.226	-37.7
345.61	-12.39
345.993	-18.26
346.376	-19.84
346.759	0.49
347.142	15.18
347.525	45.46
347.908	66.71
348.291	56.09
348.674	93.15
349.057	107.61
349.44	129.3
349.823	137.67
350.206	162.98
350.588	174.5
350.971	187.83
351.354	236.19
351.737	219.47
352.119	257.89
352.502	275.74
352.884	278
353.267	304.22
353.65	298.11
354.032	288.4
354.414	299.02
354.797	301.96
355.179	299.7
355.562	336.08
355.944	312.8
356.326	337.21
356.709	325.46
357.091	333.14
357.473	353.48
357.855	352.35
358.238	347.15
358.62	343.54
359.002	360.03
359.384	331.11
359.766	343.76
360.148	312.8
360.53	343.31
360.912	327.72
361.294	346.7
361.676	350.32
362.057	331.79
362.439	332.01
362.821	317.77
363.203	325.01
363.584	349.64
363.966	319.81
364.348	330.66
364.729	320.71
365.111	339.47
365.493	314.84
365.874	344.67
366.256	322.75
366.637	293.14
367.019	348.73
367.4	316.64
367.781	311.9
368.163	307.38
368.544	310.99
368.925	302.63
369.306	321.39
369.688	299.02
370.069	307.83
370.45	318.9
370.831	309.64
371.212	302.18
371.593	303.09
371.974	291.33
372.355	305.57
372.736	314.61
373.117	313.03
373.498	324.1
373.879	308.96
374.26	322.52
374.641	299.92
375.021	322.52
375.402	292.69
375.783	329.53
376.163	327.72
376.544	337.21
376.925	347.15
377.305	326.81
377.686	316.64
378.066	329.98
378.447	343.99
378.827	339.47
379.208	325.91
379.588	333.14
379.968	349.19
380.349	356.19
380.729	340.37
381.109	343.54
381.489	357.77
381.87	340.6
382.25	349.86
382.63	343.31
383.01	338.11
383.39	319.36
383.77	364.55
384.15	343.54
384.53	333.59
384.91	339.47
385.29	365.91
385.67	342.41
386.049	334.5
386.429	372.24
386.809	348.73
387.189	330.43
387.568	343.31
387.948	357.77
388.328	348.51
388.707	352.8
389.087	367.26
389.466	353.93
389.846	341.28
390.225	354.38
390.605	377.21
390.984	359.58
391.363	383.76
391.743	381.5
392.122	376.3
392.501	381.73
392.881	373.37
393.26	378.79
393.639	383.31
394.018	380.6
394.397	390.31
394.776	398.45
395.155	398.9
395.534	389.41
395.913	390.31
396.292	394.38
396.671	402.07
397.05	409.3
397.429	422.86
397.808	397.55
398.186	398.22
398.565	391.44
398.944	404.55
399.323	433.93
399.701	416.53
400.08	402.29
400.458	419.69
400.837	445.23
401.215	440.48
401.594	408.17
401.972	440.71
402.351	432.35
402.729	449.3
403.107	447.94
403.486	442.97
403.864	434.16
404.242	449.07
404.62	442.29
404.999	438.22
405.377	468.96
405.755	458.11
406.133	472.12
406.511	465.11
406.889	507.15
407.267	491.33
407.645	495.17
408.023	509.86
408.401	506.47
408.779	513.48
409.156	531.1
409.534	522.06
409.912	517.09
410.29	526.81
410.667	548.5
411.045	541.27
411.422	550.76
411.8	546.47
412.178	555.96
412.555	584.43
412.933	609.29
413.31	592.8
413.687	595.96
414.065	593.25
414.442	618.56
414.819	619.24
415.197	632.34
415.574	654.04
415.951	682.51
416.328	668.27
416.705	684.32
417.082	692
417.46	676.86
417.837	701.49
418.214	712.57
418.591	704.66
418.967	702.4
419.344	724.54
419.721	752.34
420.098	744.88
420.475	746.24
420.852	772.45
421.228	780.36
421.605	806.8
421.982	826.69
422.358	799.12
422.735	839.12
423.111	825.78
423.488	862.84
423.864	877.31
424.241	907.82
424.617	879.12
424.994	901.49
425.37	919.11
425.746	919.57
426.123	960.7
426.499	962.73
426.875	988.04
427.251	998.21
427.627	1010.19
428.003	1010.64
428.379	1028.94
428.756	1034.82
429.132	1073.46
429.507	1051.31
429.883	1077.75
430.259	1099
430.635	1122.27
431.011	1085.66
431.387	1127.92
431.763	1155.94
432.138	1151.65
432.514	1190.97
432.89	1170.41
433.265	1239.78
433.641	1251.31
434.016	1272.78
434.392	1297.41
434.767	1339.67
435.143	1318.43
435.518	1331.76
435.894	1358.88
436.269	1399.1
436.644	1428.48
437.02	1393.9
437.395	1452.89
437.77	1457.18
438.145	1489.04
438.52	1487.01
438.895	1523.84
439.271	1574.24
439.646	1597.97
440.021	1641.58
440.395	1633.22
440.77	1639.32
441.145	1629.6
441.52	1703.73
441.895	1715.25
442.27	1712.09
442.645	1705.76
443.019	1774.01
443.394	1777.85
443.769	1796.38
444.143	1811.52
444.518	1842.71
444.892	1849.26
445.267	1839.54
445.641	1851.52
446.016	1858.98
446.39	1866.21
446.764	1885.19
447.139	1908.69
447.513	1935.36
447.887	1951.63
448.262	1947.56
448.636	1950.73
449.01	1992.31
449.384	1986.88
449.758	2013.32
450.132	2055.36
450.506	2022.59
450.88	2037.95
451.254	2065.3
451.628	2090.83
452.002	2138.29
452.376	2120.44
452.75	2124.73
453.123	2175.58
453.497	2199.98
453.871	2223.26
454.244	2233.2
454.618	2268.23
454.992	2300.09
455.365	2298.51
455.739	2369.47
456.112	2398.85
456.486	2385.29
456.859	2413.76
457.232	2485.63
457.606	2437.27
457.979	2458.28
458.352	2531.5
458.725	2568.34
459.099	2611.95
459.472	2616.7
459.845	2644.27
460.218	2649.24
460.591	2677.26
460.964	2698.95
461.337	2782.79
461.71	2792.06
462.083	2793.42
462.456	2806.75
462.829	2820.99
463.201	2904.15
463.574	2856.01
463.947	2938.04
464.32	2976.24
464.692	2971.94
465.065	3034.76
465.438	3072.28
465.81	3092.62
466.183	3176.46
466.555	3208.55
466.928	3223.69
467.3	3227.75
467.672	3265.95
468.045	3366.96
468.417	3339.62
468.789	3381.87
469.161	3434.3
469.534	3429.1
469.906	3541.87
470.278	3485.37
470.65	3567.18
471.022	3615.54
471.394	3709.55
471.766	3701.87
472.138	3728.98
472.51	3846.27
472.882	3855.31
473.253	3888.53
473.625	3971.46
473.997	4004.68
474.369	4041.52
474.74	4068.18
475.112	4185.02
475.484	4216.43
475.855	4275.41
476.227	4287.61
476.598	4403.09
476.97	4442.41
477.341	4529.41
477.713	4575.52
478.084	4621.16
478.455	4727.83
478.827	4703.65
479.198	4858.45
479.569	4865.68
479.94	5018.44
480.311	5037.88
480.682	5093.69
481.053	5230.19
481.424	5281.03
481.795	5328.04
482.166	5393.35
482.537	5437.19
482.908	5544.98
483.279	5576.62
483.65	5662.49
484.021	5796.5
484.391	5772.32
484.762	5899.32
485.133	5889.15
485.503	5964.86
485.874	6089.83
486.244	6123.72
486.615	6180.44
486.985	6309.93
487.356	6377.5
487.726	6458.4
488.097	6507.89
488.467	6542.92
488.837	6680.54
489.207	6752.86
489.578	6726.42
489.948	6810.71
490.318	6932.97
490.688	6887.09
491.058	7080.31
491.428	7113.08
491.798	7156.46
492.168	7273.07
492.538	7250.25
492.908	7324.37
493.278	7412.05
493.648	7454.08
494.017	7574.53
494.387	7558.49
494.757	7654.76
495.126	7683.23
495.496	7702.44
495.866	7733.4
496.235	7846.84
496.605	7932.26
496.974	7965.03
497.344	8000.51
497.713	7955.77
498.082	8110.34
498.452	8109.21
498.821	8183.33
499.19	8162.54
499.559	8243.44
499.928	8227.4
500.298	8237.11
500.667	8326.15
501.036	8293.16
501.405	8367.28
501.774	8382.42
502.143	8429.2
502.512	8480.95
502.88	8472.81
503.249	8478.92
503.618	8562.98
503.987	8565.92
504.356	8593.04
504.724	8635.3
505.093	8636.2
505.462	8724.56
505.83	8715.97
506.199	8787.61
506.567	8777.66
506.936	8792.58
507.304	8874.39
507.672	8903.54
508.041	8929.53
508.409	8909.41
508.777	8977.66
509.145	9058.34
509.514	8988.51
509.882	9026.25
510.25	9033.25
510.618	9169.52
510.986	9036.87
511.354	9070.31
511.722	9186.24
512.09	9213.59
512.458	9206.58
512.826	9239.8
513.193	9307.37
513.561	9226.24
513.929	9271.21
514.297	9382.62
514.664	9452.45
515.032	9404.99
515.4	9411.09
515.767	9350.3
516.135	9469.4
516.502	9340.81
516.869	9458.1
517.237	9503.75
517.604	9430.08
517.972	9435.27
518.339	9376.52
518.706	9471.88
519.073	9518.44
519.44	9552.11
519.808	9595.95
520.175	9511.88
520.542	9612.44
520.909	9557.31
521.276	9556.85
521.643	9626.46
522.009	9696.06
522.376	9685.21
522.743	9720.46
523.11	9722.5
523.477	9734.25
523.843	9801.14
524.21	9762.95
524.577	9794.59
524.943	9849.73
525.31	9870.29
525.676	9870.07
526.043	9868.71
526.409	9880.46
526.776	9949.16
527.142	9915.49
527.508	9932.89
527.874	10007.46
528.241	9993.9
528.607	9921.14
528.973	9962.72
529.339	10016.5
529.705	10071.42
530.071	10056.5
530.437	10027.12
530.803	10074.13
531.169	10028.71
531.535	9993.45
531.901	9982.6
532.267	9959.55
532.632	10021.02
532.998	9993.45
533.364	10022.38
533.73	9927.24
534.095	10023.96
534.461	10047.24
534.826	10043.85
535.192	9987.12
535.557	10030.74
535.923	9992.77
536.288	9953.23
536.653	9984.64
537.019	9895.6
537.384	9975.6
537.749	9971.31
538.114	9915.26
538.479	9866
538.845	9928.59
539.21	9853.79
539.575	9887.69
539.94	9872.33
540.305	9821.93
540.67	9725.21
541.034	9824.19
541.399	9824.64
541.764	9774.7
542.129	9766.11
542.494	9750.52
542.858	9765.44
543.223	9677.53
543.587	9774.25
543.952	9681.37
544.316	9725.66
544.681	9644.31
545.045	9648.38
545.41	9659
545.774	9582.16
546.138	9522.96
546.503	9542.84
546.867	9485.89
547.231	9540.81
547.595	9498.32
547.959	9545.55
548.324	9447.48
548.688	9480.02
549.052	9441.15
549.416	9405.67
549.779	9393.69
550.143	9358.44
550.507	9418.78
550.871	9383.75
551.235	9347.37
551.599	9373.81
551.962	9357.31
552.326	9263.98
552.689	9376.52
553.053	9292.23
553.417	9288.39
553.78	9362.51
554.143	9270.31
554.507	9319.8
554.87	9273.24
555.234	9385.56
555.597	9204.77
555.96	9285
556.323	9174.94
556.686	9170.87
557.05	9274.6
557.413	9279.8
557.776	9158.9
558.139	9268.73
558.502	9265.56
558.865	9138.11
559.228	9239.12
559.59	9237.31
559.953	9240.03
560.316	9297.88
560.679	9291.32
561.041	9303.53
561.404	9285
561.767	9282.74
562.129	9312.34
562.492	9291.1
562.854	9268.5
563.217	9251.1
563.579	9289.74
563.941	9273.24
564.304	9329.29
564.666	9355.5
565.028	9392.11
565.39	9369.06
565.753	9346.24
566.115	9361.83
566.477	9440.25
566.839	9397.08
567.201	9391.89
567.563	9432.56
567.925	9519.79
568.287	9477.53
568.648	9467.36
569.01	9515.72
569.372	9519.34
569.734	9518.66
570.095	9560.47
570.457	9540.13
570.819	9593.01
571.18	9503.07
571.542	9599.11
571.903	9614.25
572.265	9630.75
572.626	9592.56
572.987	9638.43
573.349	9658.32
573.71	9698.77
574.071	9741.48
574.432	9738.54
574.794	9826.68
575.155	9711.88
575.516	9782.61
575.877	9795.49
576.238	9818.09
576.599	9904.64
576.96	9868.94
577.32	9914.81
577.681	9940.12
578.042	9950.29
578.403	9976.5
578.763	9898.09
579.124	9973.34
579.485	10046.78
579.845	10051.98
580.206	10095.6
580.566	10033.22
580.927	10052.21
581.287	10104.41
581.648	10070.96
582.008	10121.13
582.368	10087.46
582.728	10094.92
583.089	10129.95
583.449	10189.6
583.809	10231.86
584.169	10183.5
584.529	10161.81
584.889	10248.81
585.249	10199.32
585.609	10183.73
585.969	10303.73
586.329	10264.63
586.688	10303.27
587.048	10299.66
587.408	10351.41
587.768	10279.09
588.127	10270.51
588.487	10294.23
588.846	10404.74
589.206	10294.01
589.565	10315.25
589.925	10415.14
590.284	10405.19
590.643	10437.51
591.003	10399.77
591.362	10447.45
591.721	10399.99
592.08	10458.52
592.44	10476.6
592.799	10456.26
593.158	10510.27
593.517	10468.47
593.876	10500.56
594.235	10549.37
594.593	10480.67
594.952	10519.77
595.311	10468.69
595.67	10511.86
596.029	10576.04
596.387	10547.56
596.746	10614.68
597.104	10489.94
597.463	10583.27
597.822	10602.02
598.18	10555.92
598.538	10600.44
598.897	10614.23
599.255	10575.13
599.613	10748.01
599.972	10609.25
600.33	10661.46
600.688	10640.21
601.046	10657.39
601.404	10702.36
601.762	10700.55
602.12	10748.69
602.478	10710.04
602.836	10741.91
603.194	10709.37
603.552	10717.73
603.91	10643.83
604.268	10687.67
604.625	10651.06
604.983	10746.88
605.341	10750.27
605.698	10739.87
606.056	10783.26
606.413	10707.33
606.771	10771.51
607.128	10793.43
607.485	10719.76
607.843	10769.25
608.2	10781
608.557	10853.99
608.914	10859.42
609.272	10871.62
609.629	10853.99
609.986	10928.34
610.343	10892.19
610.7	10978.28
611.057	10958.62
611.414	10928.79
611.771	10914.78
612.127	11004.72
612.484	10956.59
612.841	11005.63
613.198	10951.62
613.554	10926.31
613.911	11004.5
614.267	11039.07
614.624	11022.8
614.98	11019.87
615.337	11165.85
615.693	11189.58
616.05	11051.05
616.406	11129.92
616.762	11080.88
617.118	11054.67
617.475	11059.41
617.831	11122.46
618.187	11103.03
618.543	11162.91
618.899	11161.56
619.255	11178.28
619.611	11148.68
619.967	11211.27
620.323	11195.23
620.678	11263.7
621.034	11116.59
621.39	11094.21
621.746	11060.54
622.101	11295.56
622.457	11152.29
622.812	11198.17
623.168	11174.89
623.523	11245.17
623.879	11242.01
624.234	11143.7
624.589	11172.18
624.945	11172.4
625.3	11193.19
625.655	11184.61
626.01	11157.49
626.365	11173.76
626.72	11251.27
627.075	11142.8
627.43	11174.44
627.785	11150.26
628.14	11172.18
628.495	11173.99
628.85	11161.78
629.205	11070.49
629.559	11192.52
629.914	11109.58
630.269	11194.32
630.623	11061.9
630.978	11048.57
631.332	11164.49
631.687	11050.37
632.041	11109.13
632.396	11058.28
632.75	11016.48
633.104	11003.59
633.459	10971.96
633.813	10982.13
634.167	10948.68
634.521	10933.09
634.875	10970.15
635.229	10968.34
635.583	10925.86
635.937	10846.54
636.291	10896.25
636.645	10955.23
636.999	10865.52
637.352	10881.34
637.706	10858.51
638.06	10843.37
638.413	10849.7
638.767	10849.7
639.121	10884.95
639.474	10755.01
639.828	10750.27
640.181	10807.22
640.534	10780.55
640.888	10736.48
641.241	10743.94
641.594	10754.34
641.947	10826.88
642.301	10673.89
642.654	10719.31
643.007	10741
643.36	10754.79
643.713	10673.66
644.066	10743.71
644.419	10617.84
644.771	10650.38
645.124	10509.37
645.477	10565.41
645.83	10453.33
646.182	10470.05
646.535	10389.83
646.888	10434.34
647.24	10289.94
647.593	10331.3
647.945	10263.95
648.298	10361.35
648.65	10262.82
649.002	10284.29
649.355	10291.07
649.707	10312.77
650.059	10376.04
650.411	10486.09
650.763	10481.8
651.115	10582.14
651.467	10515.25
651.819	10506.21
652.171	10584.85
652.523	10539.43
652.875	10531.74
653.227	10512.53
653.578	10581.23
653.93	10569.03
654.282	10493.33
654.633	10464.17
654.985	10506.43
655.337	10563.83
655.688	10569.03
656.039	10522.03
656.391	10473.89
656.742	10498.52
657.094	10520.44
657.445	10523.16
657.796	10534.68
658.147	10486.09
658.498	10505.3
658.849	10583.49
659.2	10527.68
659.551	10532.87
659.902	10600.22
660.253	10512.76
660.604	10548.47
660.955	10649.03
661.306	10571.52
661.656	10545.3
662.007	10569.71
662.358	10588.46
662.708	10655.58
663.059	10584.85
663.409	10486.32
663.76	10559.31
664.11	10580.33
664.461	10615.58
664.811	10604.96
665.161	10598.86
665.511	10490.39
665.862	10501.24
666.212	10552.53
666.562	10582.59
666.912	10608.35
667.262	10497.17
667.612	10550.5
667.962	10557.28
668.312	10627.11
668.662	10640.89
669.011	10578.52
669.361	10464.63
669.711	10603.61
670.06	10562.93
670.41	10545.53
670.76	10457.62
671.109	10581.23
671.459	10524.74
671.808	10444.74
672.157	10533.78
672.507	10498.52
672.856	10461.91
673.205	10435.7
673.554	10409.71
673.904	10461.69
674.253	10490.39
674.602	10473.21
674.951	10258.3
675.3	10288.36
675.649	10455.59
675.998	10354.12
676.346	10353.89
676.695	10415.81
677.044	10369.49
677.393	10265.54
677.741	10368.13
678.09	10394.57
678.438	10340.34
678.787	10310.73
679.135	10326.32
679.484	10278.64
679.832	10235.03
680.181	10257.63
680.529	10288.81
680.877	10236.38
681.225	10149.83
681.573	10303.05
681.922	10180.34
682.27	10109.16
682.618	10190.28
682.966	10131.98
683.314	10138.76
683.661	10113.45
684.009	10098.08
684.357	10108.93
684.705	10020.34
685.053	9974.02
685.4	10025.54
685.748	9937.86
686.095	9969.95
686.443	9942.61
686.79	9837.3
687.138	9914.36
687.485	9923.85
687.832	9821.93
688.18	9856.96
688.527	9839.56
688.874	9766.57
689.221	9735.83
689.568	9720.69
689.915	9644.76
690.262	9668.94
690.609	9614.93
690.956	9562.73
691.303	9551.66
691.65	9544.42
691.997	9463.97
692.344	9432.79
692.69	9459.68
693.037	9489.51
693.383	9289.29
693.73	9360.93
694.077	9320.02
694.423	9276.18
694.769	9270.99
695.116	9177.65
695.462	9180.14
695.808	9184.21
696.155	9188.95
696.501	9150.99
696.847	9101.95
697.193	9053.14
697.539	9082.74
697.885	9005.68
698.231	9011.56
698.577	8926.36
698.923	8904.22
699.269	8871
699.614	8818.34
699.96	8789.64
700.306	8830.54
700.651	8735.18
700.997	8712.58
701.342	8697.67
701.688	8664.9
702.033	8617.89
702.379	8618.8
702.724	8574.05
703.069	8594.17
703.415	8503.1
703.76	8512.59
704.105	8467.62
704.45	8508.07
704.795	8432.81
705.14	8348.07
705.485	8349.88
705.83	8359.37
706.175	8379.71
706.52	8288.19
706.865	8253.16
707.209	8243.67
707.554	8229.43
707.899	8172.03
708.243	8172.26
708.588	8158.02
708.932	8130.68
709.277	8083.9
709.621	8088.42
709.966	8068.08
710.31	8015.42
710.654	7953.73
710.998	7908.76
711.342	7972.94
711.687	7902.89
712.031	7949.89
712.375	7918.93
712.719	7911.25
713.063	7884.35
713.407	7899.04
713.75	7821.08
714.094	7833.96
714.438	7784.47
714.782	7842.32
715.125	7732.49
715.469	7755.32
715.812	7739.27
716.156	7732.04
716.499	7703.79
716.843	7719.61
717.186	7659.73
717.53	7708.77
717.873	7792.38
718.216	7694.98
718.559	7610.69
718.902	7573.85
719.246	7594.42
719.589	7566.17
719.932	7556.45
720.275	7541.54
720.617	7545.83
720.96	7562.56
721.303	7566.85
721.646	7513.07
721.989	7503.12
722.331	7514.65
722.674	7538.83
723.016	7478.26
723.359	7528.66
723.701	7490.24
724.044	7439.17
724.386	7408.21
724.729	7421.54
725.071	7439.17
725.413	7474.87
725.755	7372.73
726.097	7424.25
726.439	7358.49
726.782	7367.53
727.124	7427.19
727.465	7408.66
727.807	7407.08
728.149	7413.86
728.491	7297.48
728.833	7386.29
729.175	7344.48
729.516	7390.13
729.858	7351.71
730.199	7363.24
730.541	7334.31
730.882	7359.17
731.224	7384.25
731.565	7363.46
731.906	7296.57
732.248	7346.52
732.589	7297.25
732.93	7333.63
733.271	7281.88
733.612	7342.9
733.953	7335.89
734.294	7298.38
734.635	7302
734.976	7326.63
735.317	7307.87
735.658	7339.51
735.999	7294.99
736.339	7344.71
736.68	7405.05
737.021	7383.58
737.361	7324.14
737.702	7410.47
738.042	7385.16
738.383	7336.8
738.723	7378.83
739.063	7359.85
739.404	7441.2
739.744	7450.24
740.084	7445.27
740.424	7479.85
740.764	7425.61
741.104	7459.96
741.444	7492.5
741.784	7443.91
742.124	7507.19
742.464	7566.85
742.804	7537.7
743.143	7500.64
743.483	7523.23
743.823	7506.74
744.162	7547.19
744.502	7570.69
744.841	7632.38
745.181	7746.96
745.52	7646.39
745.86	7759.16
746.199	7789.89
746.538	7793.96
746.877	7887.07
747.216	7879.38
747.556	7856.78
747.895	7996.22
748.234	7964.13
748.573	8041.41
748.911	8077.8
749.25	8132.26
749.589	8198.24
749.928	8282.31
750.267	8341.97
750.605	8398.01
750.944	8477.11
751.283	8515.98
751.621	8632.36
751.96	8658.12
752.298	8773.37
752.636	8873.26
752.975	8937.66
753.313	8981.95
753.651	9067.6
753.989	9217.43
754.327	9310.31
754.666	9395.28
755.004	9590.52
755.342	9683.86
755.679	9825.77
756.017	9911.65
756.355	10110.51
756.693	10142.83
757.031	10321.35
757.368	10367.23
757.706	10590.72
758.044	10692.87
758.381	10887.67
758.719	11021
759.056	11238.62
759.394	11308.67
759.731	11479.06
760.068	11622.11
760.405	11746.17
760.743	11987.98
761.08	12097.13
761.417	12239.04
761.754	12479.26
762.091	12613.72
762.428	12837.67
762.765	12930.78
