Data from hue_50_FLMS001491_100.txt Node
Date: Mon Feb 06 15:11:22 GMT 2017
User: dcchb
Spectrometer: FLMS00149
Trigger mode: 0
Integration Time (sec): 2.000000E-2
Scans to average: 10
Electric dark correction enabled: true
Nonlinearity correction enabled: false
Boxcar width: 0
XAxis mode: Wavelengths
Number of Pixels in Spectrum: 2048
>>>>>Begin Spectral Data<<<<<
341.393	7.73
341.776	7.73
342.16	7.73
342.543	-70.92
342.927	-63.46
343.31	-61.2
343.693	-63.68
344.077	-62.55
344.46	-66.4
344.843	-46.06
345.226	-36.57
345.61	-9.67
345.993	-13.06
346.376	2.08
346.759	-1.31
347.142	20.38
347.525	24.45
347.908	71
348.291	59.48
348.674	77.78
349.057	105.35
349.44	123.43
349.823	156.87
350.206	143.32
350.588	182.64
350.971	197.78
351.354	229.41
351.737	216.76
352.119	263.31
352.502	270.09
352.884	270.32
353.267	279.13
353.65	304.67
354.032	279.36
354.414	310.77
354.797	321.84
355.179	339.92
355.562	322.52
355.944	340.37
356.326	358.68
356.709	323.2
357.091	332.46
357.473	368.17
357.855	332.24
358.238	343.31
358.62	353.71
359.002	329.3
359.384	371.11
359.766	348.96
360.148	339.92
360.53	342.86
360.912	331.11
361.294	357.1
361.676	341.95
362.057	362.52
362.439	323.42
362.821	356.87
363.203	312.12
363.584	352.35
363.966	340.15
364.348	336.98
364.729	303.76
365.111	314.16
365.493	327.72
365.874	332.91
366.256	313.03
366.637	334.72
367.019	317.55
367.4	304.22
367.781	304.22
368.163	320.94
368.544	297.44
368.925	319.58
369.306	320.94
369.688	328.4
370.069	313.93
370.45	332.24
370.831	314.16
371.212	324.33
371.593	327.27
371.974	312.58
372.355	336.08
372.736	306.25
373.117	304.22
373.498	338.56
373.879	334.95
374.26	321.39
374.641	324.55
375.021	310.54
375.402	321.16
375.783	313.25
376.163	322.75
376.544	339.02
376.925	354.16
377.305	324.33
377.686	331.11
378.066	336.3
378.447	338.11
378.827	319.81
379.208	328.62
379.588	341.5
379.968	328.85
380.349	334.04
380.729	354.16
381.109	336.76
381.489	338.11
381.87	340.82
382.25	343.54
382.63	346.47
383.01	343.31
383.39	356.87
383.77	372.91
384.15	364.55
384.53	364.55
384.91	348.96
385.29	367.49
385.67	365.23
386.049	358.9
386.429	339.92
386.809	362.07
387.189	379.47
387.568	351.9
387.948	344.44
388.328	382.18
388.707	379.02
389.087	360.48
389.466	377.43
389.846	358.23
390.225	367.49
390.605	383.54
390.984	381.05
391.363	376.53
391.743	353.48
392.122	365.23
392.501	379.47
392.881	370.43
393.26	364.1
393.639	380.15
394.018	381.95
394.397	395.29
394.776	399.35
395.155	405.68
395.534	390.99
395.913	391.9
396.292	412.01
396.671	416.08
397.05	393.03
397.429	386.92
397.808	394.16
398.186	411.11
398.565	405.91
398.944	413.14
399.323	394.16
399.701	404.33
400.08	410.43
400.458	428.28
400.837	396.42
401.215	406.36
401.594	418.11
401.972	432.12
402.351	431.22
402.729	411.56
403.107	424.89
403.486	419.92
403.864	419.47
404.242	422.63
404.62	436.42
404.999	436.19
405.377	436.64
405.755	438.9
406.133	422.18
406.511	430.54
406.889	442.29
407.267	432.8
407.645	459.69
408.023	443.87
408.401	469.41
408.779	450.2
409.156	483.19
409.534	473.02
409.912	464.21
410.29	448.17
410.667	492.46
411.045	486.36
411.422	479.35
411.8	470.31
412.178	485.91
412.555	491.1
412.933	499.46
413.31	493.36
413.687	501.95
414.065	486.36
414.442	480.71
414.819	507.15
415.197	504.44
415.574	504.89
415.951	550.54
416.328	523.42
416.705	537.66
417.082	522.29
417.46	545.79
417.837	554.38
418.214	535.85
418.591	538.79
418.967	541.72
419.344	539.01
419.721	543.53
420.098	581.95
420.475	559.35
420.852	577.88
421.228	566.81
421.605	583.08
421.982	578.33
422.358	575.62
422.735	564.77
423.111	581.72
423.488	601.38
423.864	595.73
424.241	626.69
424.617	606.81
424.994	588.5
425.37	630.08
425.746	592.12
426.123	599.57
426.499	628.95
426.875	618.78
427.251	650.65
427.627	624.43
428.003	635.96
428.379	645.68
428.756	640.25
429.132	635.73
429.507	649.06
429.883	688.39
430.259	679.12
430.635	648.16
431.011	687.48
431.387	714.15
431.763	715.28
432.138	699.68
432.514	726.8
432.89	692.23
433.265	736.07
433.641	734.49
434.016	738.55
434.392	745.33
434.767	764.32
435.143	739.68
435.518	742.85
435.894	767.25
436.269	764.99
436.644	781.72
437.02	786.24
437.395	775.16
437.77	818.1
438.145	805.9
438.52	802.96
438.895	809.74
439.271	808.83
439.646	839.79
440.021	849.29
440.395	841.38
440.77	832.34
441.145	848.61
441.52	859.68
441.895	859.45
442.27	890.41
442.645	869.62
443.019	858.1
443.394	849.74
443.769	888.15
444.143	862.84
444.518	867.14
444.892	869.4
445.267	895.16
445.641	915.72
446.016	902.62
446.39	888.61
446.764	914.37
447.139	923.86
447.513	936.51
447.887	939.68
448.262	928.38
448.636	931.77
449.01	963.63
449.384	973.58
449.758	944.65
450.132	950.3
450.506	969.06
450.88	973.35
451.254	979.23
451.628	995.04
452.002	967.93
452.376	1023.74
452.75	1036.4
453.123	1023.29
453.497	1034.59
453.871	1043.63
454.244	1101.93
454.618	1081.6
454.992	1094.48
455.365	1079.11
455.739	1108.49
456.112	1101.26
456.486	1140.13
456.859	1118.21
457.232	1182.16
457.606	1158.66
457.979	1184.19
458.352	1200.91
458.725	1179.9
459.099	1192.78
459.472	1221.03
459.845	1242.95
460.218	1256.73
460.591	1273.23
460.964	1318.88
461.337	1293.57
461.71	1313.68
462.083	1351.19
462.456	1345.77
462.829	1340.35
463.201	1397.97
463.574	1381.7
463.947	1383.06
464.32	1439.33
464.692	1425.32
465.065	1453.56
465.438	1492.66
465.81	1489.04
466.183	1490.4
466.555	1517.74
466.928	1570.4
467.3	1565.88
467.672	1598.19
468.045	1628.93
468.417	1646.1
468.789	1657.85
469.161	1648.59
469.534	1698.08
469.906	1750.05
470.278	1716.61
470.65	1786.66
471.022	1843.84
471.394	1849.94
471.766	1889.26
472.138	1922.7
472.51	1964.74
472.882	1968.35
473.253	2017.39
473.625	2092.87
473.997	2121.79
474.369	2122.02
474.74	2169.48
475.112	2214.45
475.484	2281.34
475.855	2322.92
476.227	2400.88
476.598	2451.05
476.97	2499.19
477.341	2580.31
477.713	2597.71
478.084	2697.6
478.455	2756.13
478.827	2806.07
479.198	2842.91
479.569	2908.67
479.94	3031.15
480.311	3072.96
480.682	3165.38
481.053	3257.58
481.424	3355.89
481.795	3410.57
482.166	3539.38
482.537	3605.37
482.908	3693.96
483.279	3785.03
483.65	3867.06
484.021	3976.43
484.391	4065.02
484.762	4146.37
485.133	4270.44
485.503	4315.64
485.874	4494.39
486.244	4559.7
486.615	4734.16
486.985	4787.04
487.356	4948.61
487.726	5069.74
488.097	5192.45
488.467	5316.74
488.837	5458.2
489.207	5571.65
489.578	5722.6
489.948	5840.79
490.318	6003.5
490.688	6054.35
491.058	6212.53
491.428	6340.21
491.798	6485.52
492.168	6650.94
492.538	6709.47
492.908	6933.87
493.278	7075.56
493.648	7129.8
494.017	7318.49
494.387	7404.37
494.757	7618.15
495.126	7744.92
495.496	7901.76
495.866	8012.49
496.235	8173.61
496.605	8305.36
496.974	8382.65
497.344	8508.07
497.713	8678.46
498.082	8762.3
498.452	8956.64
498.821	9097.88
499.19	9192.12
499.559	9381.26
499.928	9500.13
500.298	9615.38
500.667	9719.79
501.036	9783.97
501.405	9957.75
501.774	9973.34
502.143	10204.29
502.512	10223.05
502.88	10444.97
503.249	10540.78
503.618	10638.41
503.987	10772.64
504.356	10845.41
504.724	10998.4
505.093	11137.6
505.462	11210.37
505.83	11352.51
506.199	11430.93
506.567	11729.9
506.936	11735.1
507.304	11849.45
507.672	11970.8
508.041	12083.11
508.409	12153.4
508.777	12226.84
509.145	12531.01
509.514	12554.74
509.882	12670.67
510.25	12717.67
510.618	12784.56
510.986	12880.61
511.354	13140.94
511.722	13186.36
512.09	13392.01
512.458	13428.62
512.826	13551.78
513.193	13627.25
513.561	13742.96
513.929	13864.99
514.297	14028.83
514.664	14149.73
515.032	14131.65
515.4	14351.08
515.767	14480.79
516.135	14601.47
516.502	14498.64
516.869	14825.42
517.237	14883.94
517.604	14830.61
517.972	15086.43
518.339	15178.63
518.706	15204.16
519.073	15290.94
519.44	15414.78
519.808	15678.05
520.175	15650.25
520.542	15864.94
520.909	15923.69
521.276	15890.25
521.643	16154.65
522.009	16301.31
522.376	16381.98
522.743	16478.48
523.11	16663.33
523.477	16846.83
523.843	16931.57
524.21	17182.42
524.577	17243.43
524.943	17341.06
525.31	17452.46
525.676	17599.13
526.043	17600.94
526.409	17772.91
526.776	18015.39
527.142	18064.2
527.508	18124.76
527.874	18254.48
528.241	18484.3
528.607	18535.83
528.973	18648.14
529.339	18586.9
529.705	18940.79
530.071	18970.39
530.437	19118.41
530.803	19226.2
531.169	19300.55
531.535	19303.04
531.901	19444.5
532.267	19518.63
532.632	19531.28
532.998	19750.26
533.364	19720.65
533.73	19852.85
534.095	19978.5
534.461	20126.29
534.826	20309.79
535.192	20303.92
535.557	20503.01
535.923	20510.01
536.288	20494.87
536.653	20578.94
537.019	20648.31
537.384	20758.59
537.749	20869.78
538.114	20952.94
538.479	21062.31
538.845	21148.86
539.21	21125.81
539.575	21195.87
539.94	21304.57
540.305	21367.62
540.67	21473.6
541.034	21544.33
541.399	21748.4
541.764	21600.83
542.129	21780.49
542.494	21765.35
542.858	21897.09
543.223	21949.97
543.587	22088.95
543.952	22087.37
544.316	22279.23
544.681	22179.57
545.045	22336.86
545.41	22469.06
545.774	22502.05
546.138	22605.32
546.503	22603.06
546.867	22697.75
547.231	22820.23
547.595	22846.45
547.959	23004.18
548.324	23121.02
548.688	23111.75
549.052	23109.49
549.416	23244.63
549.779	23259.54
550.143	23259.09
550.507	23546.09
550.871	23598.52
551.235	23619.53
551.599	23741.11
551.962	23785.86
552.326	23895.01
552.689	24050.03
553.053	23968.9
553.417	24071.95
553.78	24452.28
554.143	24245.05
554.507	24344.26
554.87	24405.95
555.234	24693.63
555.597	24577.93
555.96	24607.98
556.323	24834.64
556.686	24946.96
557.05	24985.37
557.413	25072.83
557.776	25173.84
558.139	25423.78
558.502	25396.66
558.865	25406.15
559.228	25535.19
559.59	25643.66
559.953	25724.11
560.316	25996.65
560.679	25938.8
561.041	26094.95
561.404	26214.04
561.767	26395.05
562.129	26295.62
562.492	26547.14
562.854	26580.59
563.217	26645.22
563.579	26827.59
563.941	26956.85
564.304	26918.88
564.666	27178.08
565.028	27292.21
565.39	27398.87
565.753	27463.5
566.115	27507.34
566.477	27694.23
566.839	27779.42
567.201	28074.33
567.563	27966.31
567.925	28054.45
568.287	28151.84
568.648	28197.95
569.01	28357.26
569.372	28482.23
569.734	28427.77
570.095	28566.75
570.457	28941.88
570.819	28825.05
571.18	29008.55
571.542	29151.82
571.903	29224.58
572.265	29335.32
572.626	29301.42
572.987	29456.67
573.349	29512.71
573.71	29743.44
574.071	29754.51
574.432	29885.81
574.794	30045.58
575.155	30095.52
575.516	30048.74
575.877	30348.62
576.238	30373.48
576.599	30488.28
576.96	30455.06
577.32	30556.75
577.681	30768.5
578.042	30896.41
578.403	30978.44
578.763	31039.9
579.124	31092.11
579.485	31309.05
579.845	31450.29
580.206	31529.38
580.566	31593.56
580.927	31790.39
581.287	31715.37
581.648	31787.46
582.008	32025.19
582.368	32158.29
582.728	32185.41
583.089	32286.2
583.449	32304.73
583.809	32368
584.169	32648
584.529	32716.47
584.889	33030.13
585.249	32855.68
585.609	32887.54
585.969	33059.06
586.329	33144.26
586.688	33216.8
587.048	33322.78
587.408	33318.49
587.768	33553.74
588.127	33574.75
588.487	33697.69
588.846	33981.07
589.206	33926.38
589.565	33964.12
589.925	34174.96
590.284	34216.32
590.643	34428.06
591.003	34568.62
591.362	34740.15
591.721	34652.01
592.08	34672.13
592.44	35077.31
592.799	35101.27
593.158	34962.29
593.517	35184.65
593.876	35184.88
594.235	35315.72
594.593	35390.3
594.952	35609.5
595.311	35547.58
595.67	35708.48
596.029	35912.32
596.387	36052.65
596.746	36142.37
597.104	35939.66
597.463	36045.2
597.822	36261.01
598.18	36251.29
598.538	36325.41
598.897	36520.89
599.255	36359.09
599.613	37050.82
599.972	36707.55
600.33	36966.53
600.688	36820.54
601.046	37121.55
601.404	37104.15
601.762	37245.84
602.12	37406.29
602.478	37415.78
602.836	37507.76
603.194	37427.53
603.552	37597.02
603.91	37663.01
604.268	37829.56
604.625	37635.89
604.983	38005.82
605.341	37748.2
605.698	38084.92
606.056	38209.21
606.413	38167.85
606.771	38251.92
607.128	38361.07
607.485	38351.8
607.843	38331.01
608.2	38512.25
608.557	38634.05
608.914	38726.48
609.272	38944.1
609.629	38909.53
609.986	39045.57
610.343	38957.21
610.7	39365.33
611.057	39256.19
611.414	39261.61
611.771	39390.19
612.127	39673.12
612.484	39580.7
612.841	39844.42
613.198	39611.88
613.554	39755.83
613.911	39978.88
614.267	39970.06
614.624	39999.89
614.98	40031.31
615.337	40232.88
615.693	40230.62
616.05	40176.16
616.406	40459.09
616.762	40307.91
617.118	40327.57
617.475	40455.48
617.831	40571.4
618.187	40563.72
618.543	40749.25
618.899	40861.11
619.255	40770.04
619.611	40858.4
619.967	40982.47
620.323	41228.11
620.678	40985.86
621.034	40934.56
621.39	40919.19
621.746	40962.13
622.101	41387.43
622.457	41099.3
622.812	41305.4
623.168	41394.21
623.523	41394.66
623.879	41487.31
624.234	41189.02
624.589	41469.01
624.945	41304.95
625.3	41478.95
625.655	41586.52
626.01	41546.07
626.365	41572.06
626.72	41588.33
627.075	41640.53
627.43	41465.62
627.785	41450.7
628.14	41601.66
628.495	41600.98
628.85	41624.48
629.205	41484.15
629.559	41762.11
629.914	41549.91
630.269	41650.92
630.623	41625.61
630.978	41546.29
631.332	41692.51
631.687	41793.29
632.041	41533.64
632.396	41731.37
632.75	41506.75
633.104	41509.01
633.459	41457.26
633.813	41380.65
634.167	41484.38
634.521	41394.89
634.875	41484.38
635.229	41367.99
635.583	41295.23
635.937	41203.25
636.291	41270.37
636.645	41360.31
636.999	41241.67
637.352	41315.11
637.706	41196.93
638.06	41246.64
638.413	41078.96
638.767	41111.5
639.121	41130.49
639.474	40901.79
639.828	41016.14
640.181	40931.17
640.534	40975.01
640.888	41033.54
641.241	40810.27
641.594	40864.73
641.947	40953.99
642.301	40782.92
642.654	40943.6
643.007	40914.67
643.36	40736.6
643.713	40757.16
644.066	40892.3
644.419	40505.87
644.771	40370.73
645.124	40199.44
645.477	40085.77
645.83	39873.12
646.182	39646.46
646.535	39510.64
646.888	39651.2
647.24	39321.72
647.593	39580.24
647.945	39523.75
648.298	39352.45
648.65	39278.11
649.002	39233.36
649.355	39361.04
649.707	39244.43
650.059	39418.67
650.411	39847.58
650.763	40008.26
651.115	40157.63
651.467	40160.79
651.819	40102.04
652.171	40126.9
652.523	39939.56
652.875	39999.67
653.227	39904.98
653.578	40122.6
653.93	39985.88
654.282	39849.39
654.633	39802.16
654.985	39802.84
655.337	39943.62
655.688	39825.21
656.039	39988.82
656.391	39640.13
656.742	39782.5
657.094	39716.29
657.445	39818.66
657.796	39804.87
658.147	39748.6
658.498	39704.08
658.849	39730.75
659.2	39761.93
659.551	39728.26
659.902	39772.78
660.253	39750.41
660.604	39710.18
660.955	39475.39
661.306	39540.47
661.656	39616.63
662.007	39676.51
662.358	39493.92
662.708	39573.92
663.059	39489.17
663.409	39319.46
663.76	39676.29
664.11	39650.07
664.461	39597.19
664.811	39662.05
665.161	39596.06
665.511	39521.72
665.862	39432.68
666.212	39492.34
666.562	39557.19
666.912	39366.69
667.262	39385.22
667.612	39457.31
667.962	39528.04
668.312	39339.35
668.662	39470.42
669.011	39408.72
669.361	39333.92
669.711	39337.54
670.06	39283.76
670.41	39161.05
670.76	39221.61
671.109	39366.92
671.459	39347.71
671.808	39303.64
672.157	39211.21
672.507	39124.89
672.856	39021.39
673.205	39116.53
673.554	39130.31
673.904	39104.1
674.253	39204.89
674.602	39043.76
674.951	38568.29
675.3	38407.85
675.649	38941.17
675.998	38992.92
676.346	38942.07
676.695	39060.48
677.044	38728.29
677.393	38957.89
677.741	38927.38
678.09	38900.26
678.438	38588.86
678.787	38732.81
679.135	38905.91
679.484	38631.34
679.832	38731.23
680.181	38422.76
680.529	38712.7
680.877	38469.09
681.225	38443.55
681.573	38677.22
681.922	38413.95
682.27	38370.56
682.618	38278.36
682.966	38160.39
683.314	38406.04
683.661	38189.32
684.009	37978.48
684.357	37921.08
684.705	38010.34
685.053	37898.03
685.4	37938.48
685.748	37613.06
686.095	37669.11
686.443	37528.55
686.79	37530.35
687.138	37636.34
687.485	37441.77
687.832	37359.74
688.18	37463.24
688.527	37185.73
688.874	37136.47
689.221	37039.97
689.568	37032.51
689.915	36940.99
690.262	36916.13
690.609	36920.43
690.956	36619.64
691.303	36648.8
691.65	36422.59
691.997	36598.18
692.344	36401.57
692.69	36294.91
693.037	36434.34
693.383	36107.34
693.73	36224.63
694.077	35938.31
694.423	35857.4
694.769	35852.21
695.116	35816.73
695.462	35729.27
695.808	35628.26
696.155	35713.91
696.501	35414.03
696.847	35401.6
697.193	35113.47
697.539	35423.74
697.885	35170.87
698.231	34970.65
698.577	35104.88
698.923	34895.85
699.269	34753.03
699.614	34574.05
699.96	34544.44
700.306	34472.36
700.651	34290.67
700.997	34256.99
701.342	34243.66
701.688	34140.61
702.033	34043.67
702.379	33932.48
702.724	34017
703.069	34016.32
703.415	33413.85
703.76	33555.32
704.105	33684.13
704.45	33490.69
704.795	33321.2
705.14	33228.55
705.485	33131.37
705.83	33088.21
706.175	33071.26
706.52	33017.03
706.865	32919.85
707.209	32776.58
707.554	32766.64
707.899	32765.96
708.243	32516.48
708.588	32652.07
708.932	32351.06
709.277	32495.23
709.621	32521.9
709.966	32117.62
710.31	32234.22
710.654	32017.73
710.998	32151.06
711.342	32059.76
711.687	32046.88
712.031	31936.6
712.375	31725.99
712.719	31749.49
713.063	31752.2
713.407	31799.88
713.75	31685.31
714.094	31580.91
714.438	31546.33
714.782	31533
715.125	31255.94
715.469	31466.79
715.812	31238.99
716.156	31138.66
716.499	31148.83
716.843	31173.69
717.186	30928.27
717.53	31126.91
717.873	30984.09
718.216	30985.44
718.559	30860.02
718.902	30611.44
719.246	30506.36
719.589	30495.96
719.932	30505.45
720.275	30478.11
720.617	30304.56
720.96	30281.73
721.303	30324.89
721.646	30262.98
721.989	30079.48
722.331	30199.25
722.674	30121.96
723.016	30155.86
723.359	29985.69
723.701	30047.16
724.044	29801.29
724.386	29669.77
724.729	29925.58
725.071	29747.06
725.413	29792.25
725.755	29794.06
726.097	29587.96
726.439	29443.34
726.782	29536.21
727.124	29619.15
727.465	29369.67
727.807	29363.79
728.149	29365.15
728.491	29239.73
728.833	29362.21
729.175	29156.11
729.516	29116.11
729.858	29166.96
730.199	29106.85
730.541	29114.53
730.882	28990.92
731.224	29051.93
731.565	28804.26
731.906	28912.95
732.248	28997.92
732.589	28691.49
732.93	28659.85
733.271	28663.92
733.612	28577.14
733.953	28679.29
734.294	28519.97
734.635	28460.54
734.976	28498.5
735.317	28413.31
735.658	28374.21
735.999	28299.41
736.339	28294.44
736.68	28317.94
737.021	28241.11
737.361	28157.27
737.702	28097.16
738.042	28025.07
738.383	28048.57
738.723	28158.4
739.063	28094.22
739.404	28071.17
739.744	27896.71
740.084	27878.18
740.424	27877.95
740.764	27857.61
741.104	27950.72
741.444	27695.81
741.784	27644.06
742.124	27735.13
742.464	27703.04
742.804	27571.97
743.143	27533.56
743.483	27536.95
743.823	27371.75
744.162	27337.63
744.502	27369.94
744.841	27246.33
745.181	27319.55
745.52	27259.21
745.86	27239.1
746.199	27150.97
746.538	27037.3
746.877	27310.28
747.216	27028.26
747.556	27083.85
747.895	27111.19
748.234	26934.93
748.573	26955.27
748.911	26836.17
749.25	26829.62
749.589	26697.87
749.928	26858.32
750.267	26754.59
750.605	26654.48
750.944	26614.94
751.283	26541.49
751.621	26571.1
751.96	26394.38
752.298	26354.6
752.636	26483.19
752.975	26336.3
753.313	26250.43
753.651	26327.71
753.989	26190.31
754.327	26186.47
754.666	25965.01
755.004	25981.05
755.342	26092.46
755.679	25943.32
756.017	25779.7
