Data from hue_90_FLMS001491_81.txt Node
Date: Mon Feb 06 15:25:47 GMT 2017
User: dcchb
Spectrometer: FLMS00149
Trigger mode: 0
Integration Time (sec): 2.000000E-2
Scans to average: 10
Electric dark correction enabled: true
Nonlinearity correction enabled: false
Boxcar width: 0
XAxis mode: Wavelengths
Number of Pixels in Spectrum: 2048
>>>>>Begin Spectral Data<<<<<
341.393	-2.46
341.776	-2.46
342.16	-2.46
342.543	-53.08
342.927	-56.24
343.31	-60.08
343.693	-81.1
344.077	-76.35
344.46	-67.77
344.843	-48.11
345.226	-39.74
345.61	-21.21
345.993	-34.1
346.376	11.1
346.759	8.16
347.142	25.79
347.525	34.15
347.908	58.78
348.291	73.92
348.674	105.56
349.057	110.99
349.44	114.38
349.823	151.21
350.206	159.12
350.588	188.05
350.971	213.81
351.354	229.85
351.737	238.44
352.119	240.02
352.502	247.48
352.884	253.13
353.267	268.5
353.65	295.16
354.032	300.59
354.414	312.79
354.797	308.49
355.179	313.69
355.562	295.39
355.944	325.44
356.326	329.06
356.709	336.52
357.091	323.18
357.473	357.76
357.855	349.17
358.238	344.88
358.62	336.97
359.002	355.27
359.384	333.8
359.766	333.8
360.148	348.72
360.53	349.4
360.912	326.8
361.294	340.58
361.676	353.01
362.057	322.51
362.439	314.6
362.821	331.77
363.203	334.71
363.584	310.98
363.966	313.47
364.348	327.48
364.729	316.86
365.111	328.61
365.493	306.91
365.874	348.27
366.256	329.96
366.637	321.38
367.019	306.91
367.4	298.1
367.781	313.92
368.163	309.17
368.544	315.27
368.925	304.88
369.306	317.08
369.688	323.18
370.069	301.94
370.45	311.21
370.831	318.89
371.212	296.97
371.593	328.16
371.974	320.47
372.355	303.52
372.736	328.61
373.117	315.5
373.498	303.52
373.879	326.57
374.26	305.33
374.641	298.78
375.021	329.96
375.402	309.4
375.783	326.57
376.163	334.26
376.544	336.29
376.925	312.79
377.305	309.17
377.686	336.97
378.066	337.87
378.447	341.94
378.827	342.17
379.208	327.03
379.588	342.17
379.968	332.9
380.349	317.53
380.729	341.04
381.109	314.6
381.489	335.39
381.87	329.96
382.25	364.99
382.63	342.39
383.01	344.2
383.39	341.94
383.77	330.87
384.15	335.61
384.53	357.76
384.91	343.3
385.29	359.11
385.67	335.16
386.049	345.56
386.429	357.76
386.809	351.43
387.189	369.51
387.568	351.21
387.948	374.93
388.328	353.24
388.707	357.08
389.087	350.53
389.466	366.8
389.846	359.57
390.225	364.09
390.605	358.66
390.984	375.39
391.363	343.3
391.743	376.97
392.122	373.13
392.501	367.93
392.881	367.93
393.26	392.56
393.639	384.65
394.018	395.05
394.397	387.81
394.776	374.26
395.155	378.32
395.534	376.06
395.913	400.24
396.292	418.1
396.671	374.71
397.05	409.96
397.429	381.04
397.808	395.05
398.186	402.96
398.565	399.57
398.944	404.09
399.323	406.8
399.701	404.09
400.08	410.64
400.458	411.77
400.837	424.2
401.215	421.71
401.594	413.12
401.972	399.11
402.351	426.68
402.729	441.82
403.107	431.2
403.486	421.71
403.864	400.92
404.242	415.61
404.62	429.4
404.999	433.46
405.377	423.75
405.755	435.27
406.133	434.82
406.511	440.47
406.889	444.76
407.267	436.17
407.645	440.92
408.023	444.31
408.401	447.25
408.779	456.06
409.156	431.43
409.534	467.59
409.912	443.41
410.29	461.26
410.667	483.63
411.045	482.5
411.422	493.57
411.8	480.02
412.178	466.68
412.555	475.72
412.933	482.73
413.31	486.34
413.687	521.6
414.065	497.64
414.442	517.08
414.819	520.24
415.197	527.47
415.574	515.72
415.951	516.62
416.328	520.69
416.705	530.86
417.082	518.66
417.46	530.86
417.837	558.66
418.214	528.83
418.591	561.82
418.967	535.38
419.344	540.35
419.721	539
420.098	548.71
420.475	564.99
420.852	544.87
421.228	556.85
421.605	550.75
421.982	568.37
422.358	571.76
422.735	587.58
423.111	574.93
423.488	586.68
423.864	617.41
424.241	593.01
424.617	598.88
424.994	588.71
425.37	620.35
425.746	599.56
426.123	607.24
426.499	597.75
426.875	614.02
427.251	621.71
427.627	646.11
428.003	625.32
428.379	643.85
428.756	662.38
429.132	640.92
429.507	651.76
429.883	663.74
430.259	682.95
430.635	668.94
431.011	669.62
431.387	666
431.763	671.65
432.138	683.4
432.514	723.63
432.89	724.08
433.265	719.33
433.641	741.03
434.016	750.07
434.392	746.68
434.767	757.52
435.143	770.63
435.518	766.56
435.894	788.71
436.269	756.62
436.644	743.96
437.02	780.12
437.395	736.96
437.77	802.49
438.145	815.83
438.52	818.99
438.895	798.2
439.271	810.85
439.646	859.89
440.021	841.14
440.395	821.02
440.77	838.2
441.145	848.37
441.52	833.23
441.895	866.22
442.27	867.12
442.645	853.57
443.019	880.23
443.394	873.45
443.769	885.43
444.143	872.77
444.518	907.12
444.892	915.71
445.267	882.26
445.641	928.59
446.016	924.98
446.39	893.56
446.764	910.51
447.139	933.11
447.513	955.03
447.887	947.12
448.262	922.49
448.636	939.44
449.01	958.2
449.384	977.18
449.758	966.78
450.132	993.9
450.506	979.66
450.88	993
451.254	1007.01
451.628	996.61
452.002	1026.67
452.376	1034.35
452.75	1047.91
453.123	1048.59
453.497	1054.01
453.871	1038.42
454.244	1087.23
454.618	1115.03
454.992	1103.73
455.365	1091.07
455.739	1126.78
456.112	1105.99
456.486	1149.15
456.859	1164.97
457.232	1191.64
457.606	1162.48
457.979	1191.18
458.352	1219.88
458.725	1206.1
459.099	1232.09
459.472	1256.04
459.845	1272.54
460.218	1272.54
460.591	1282.03
460.964	1283.84
461.337	1334.46
461.71	1343.5
462.083	1370.39
462.456	1356.15
462.829	1374.46
463.201	1424.4
463.574	1417.62
463.947	1449.48
464.32	1477.05
464.692	1493.55
465.065	1490.84
465.438	1503.49
465.81	1528.35
466.183	1562.93
466.555	1560.44
466.928	1582.13
467.3	1589.36
467.672	1651.06
468.045	1662.36
468.417	1691.06
468.789	1714.11
469.161	1747.33
469.534	1772.19
469.906	1804.27
470.278	1830.71
470.65	1849.47
471.022	1913.42
471.394	1931.5
471.766	1973.31
472.138	2027.55
472.51	2035
472.882	2095.34
473.253	2130.82
473.625	2158.39
473.997	2221.44
474.369	2245.62
474.74	2303.24
475.112	2357.48
475.484	2379.4
475.855	2406.52
476.227	2487.42
476.598	2546.85
476.97	2594.99
477.341	2679.73
477.713	2762.22
478.084	2776.68
478.455	2867.52
478.827	2913.85
479.198	3005.37
479.569	3075.65
479.94	3177.8
480.311	3233.16
480.682	3350.9
481.053	3444.91
481.424	3520.16
481.795	3575.08
482.166	3675.41
482.537	3750.89
482.908	3846.48
483.279	3956.53
483.65	4052.35
484.021	4185.91
484.391	4299.8
484.762	4328.73
485.133	4410.31
485.503	4541.6
485.874	4643.75
486.244	4732.11
486.615	4948.82
486.985	4985.43
487.356	5150.18
487.726	5223.62
488.097	5395.59
488.467	5510.84
488.837	5638.3
489.207	5812.3
489.578	5914
489.948	5987.67
490.318	6122.81
490.688	6239.19
491.058	6369.8
491.428	6557.6
491.798	6687.76
492.168	6888.89
492.538	6941.99
492.908	7079.39
493.278	7239.39
493.648	7316.9
494.017	7467.4
494.387	7532.03
494.757	7706.94
495.126	7833.95
495.496	7874.62
495.866	8035.07
496.235	8170.89
496.605	8274.61
496.974	8363.42
497.344	8511.89
497.713	8652.46
498.082	8748.72
498.452	8925.44
498.821	8970.87
499.19	9025.55
499.559	9205.66
499.928	9256.51
500.298	9396.62
500.667	9487.46
501.036	9523.62
501.405	9693.56
501.774	9774.01
502.143	9817.85
502.512	9940.78
502.88	10103.27
503.249	10152.08
503.618	10194.56
503.987	10270.49
504.356	10299.19
504.724	10452.63
505.093	10501.67
505.462	10540.09
505.83	10633.42
506.199	10758.84
506.567	10899.63
506.936	10908.44
507.304	10978.04
507.672	11016.69
508.041	11103.92
508.409	11261.2
508.777	11281.77
509.145	11426.17
509.514	11384.14
509.882	11488.09
510.25	11564.02
510.618	11566.28
510.986	11726.05
511.354	11859.83
511.722	11835.88
512.09	11987.51
512.458	11942.99
512.826	12049.43
513.193	12140.5
513.561	12191.8
513.929	12295.75
514.297	12295.3
514.664	12359.7
515.032	12378.69
515.4	12452.13
515.767	12520.38
516.135	12533.71
516.502	12471.34
516.869	12676.53
517.237	12646.02
517.604	12636.53
517.972	12844.66
518.339	12932.57
518.706	12848.05
519.073	12888.95
519.44	12860.93
519.808	13052.11
520.175	13028.16
520.542	13080.81
520.909	13264.09
521.276	13179.57
521.643	13198.1
522.009	13321.26
522.376	13387.02
522.743	13284.88
523.11	13494.59
523.477	13547.69
523.843	13589.95
524.21	13700.46
524.577	13738.65
524.943	13702.04
525.31	13672.21
525.676	13854.35
526.043	13826.56
526.409	13869.49
526.776	13991.98
527.142	13909.72
527.508	13987.68
527.874	13962.37
528.241	14155.59
528.607	14079.43
528.973	14167.34
529.339	14128.92
529.705	14178.41
530.071	14189.26
530.437	14222.48
530.803	14313.78
531.169	14362.81
531.535	14226.77
531.901	14259.99
532.267	14206.89
532.632	14320.33
532.998	14326.88
533.364	14286.88
533.73	14314.68
534.095	14424.28
534.461	14379.09
534.826	14436.03
535.192	14298.86
535.557	14424.28
535.923	14354.68
536.288	14360.78
536.653	14385.19
537.019	14342.93
537.384	14302.93
537.749	14324.17
538.114	14210.95
538.479	14250.5
538.845	14236.72
539.21	14230.61
539.575	14309.93
539.94	14194.46
540.305	14221.12
540.67	14231.97
541.034	14220.22
541.399	14220.67
541.764	14177.96
542.129	14150.84
542.494	14157.85
542.858	14243.5
543.223	14130.05
543.587	14100.9
543.952	14084.18
544.316	14074.23
544.681	13915.82
545.045	14079.21
545.41	14021.35
545.774	13992.43
546.138	13929.61
546.503	13914.69
546.867	13805.54
547.231	14045.08
547.595	13970.96
547.959	13960.11
548.324	13885.31
548.688	13878.31
549.052	13934.58
549.416	13793.56
549.779	13794.69
550.143	13750.85
550.507	13807.57
550.871	13775.03
551.235	13750.18
551.599	13802.15
551.962	13772.1
552.326	13822.26
552.689	13786.11
553.053	13558.54
553.417	13634.92
553.78	13769.84
554.143	13584.3
554.507	13597.86
554.87	13680.35
555.234	13678.09
555.597	13599.9
555.96	13624.98
556.323	13731.42
556.686	13657.97
557.05	13620.69
557.413	13664.75
557.776	13605.55
558.139	13702.04
558.502	13622.72
558.865	13671.31
559.228	13767.12
559.59	13644.87
559.953	13635.6
560.316	13803.73
560.679	13730.97
561.041	13791.98
561.404	13764.41
561.767	13832.88
562.129	13732.1
562.492	13838.31
562.854	13739.33
563.217	13801.93
563.579	13720.57
563.941	13865.2
564.304	13842.83
564.666	13894.58
565.028	13944.75
565.39	13961.47
565.753	13953.56
566.115	13916.05
566.477	13991.52
566.839	14018.42
567.201	14045.76
567.563	14031.75
567.925	14106.78
568.287	14062.03
568.648	14108.81
569.01	14185.42
569.372	14168.7
569.734	14154.46
570.095	14164.85
570.457	14202.82
570.819	14146.1
571.18	14184.29
571.542	14286.88
571.903	14298.18
572.265	14365.53
572.626	14341.8
572.987	14290.27
573.349	14408.01
573.71	14360.55
574.071	14403.94
574.432	14489.36
574.794	14476.26
575.155	14399.65
575.516	14418.63
575.877	14464.51
576.238	14514
576.599	14478.07
576.96	14482.81
577.32	14465.18
577.681	14449.82
578.042	14548.57
578.403	14478.07
578.763	14474
579.124	14515.35
579.485	14556.03
579.845	14514.67
580.206	14537.05
580.566	14512.87
580.927	14434.68
581.287	14566.42
581.648	14511.06
582.008	14609.14
582.368	14572.3
582.728	14643.71
583.089	14534.56
583.449	14601.45
583.809	14567.78
584.169	14582.24
584.529	14492.98
584.889	14654.78
585.249	14485.98
585.609	14439.65
585.969	14538.18
586.329	14533.66
586.688	14488.91
587.048	14548.12
587.408	14416.6
587.768	14463.38
588.127	14501.79
588.487	14466.77
588.846	14481
589.206	14329.59
589.565	14423.15
589.925	14497.73
590.284	14370.72
590.643	14449.59
591.003	14429.93
591.362	14414.79
591.721	14416.37
592.08	14445.52
592.44	14443.49
592.799	14359.2
593.158	14379.31
593.517	14381.57
593.876	14376.6
594.235	14353.78
594.593	14386.54
594.952	14421.8
595.311	14323.27
595.67	14359.2
596.029	14347.9
596.387	14441.68
596.746	14377.5
597.104	14333.66
597.463	14317.62
597.822	14411.85
598.18	14294.34
598.538	14275.59
598.897	14349.48
599.255	14237.62
599.613	14500.66
599.972	14272.42
600.33	14337.05
600.688	14281.01
601.046	14363.27
601.404	14432.19
601.762	14354.68
602.12	14362.81
602.478	14443.04
602.836	14397.84
603.194	14356.03
603.552	14299.09
603.91	14326.21
604.268	14405.07
604.625	14343.83
604.983	14400.33
605.341	14392.64
605.698	14403.72
606.056	14415.02
606.413	14261.35
606.771	14383.38
607.128	14353.78
607.485	14318.3
607.843	14336.6
608.2	14370.72
608.557	14502.7
608.914	14394.68
609.272	14408.91
609.629	14451.17
609.986	14459.76
610.343	14451.17
610.7	14614.11
611.057	14557.39
611.414	14606.42
611.771	14544.96
612.127	14590.15
612.484	14558.74
612.841	14556.48
613.198	14574.33
613.554	14591.96
613.911	14727.1
614.267	14661.56
614.624	14619.76
614.98	14623.15
615.337	14706.53
615.693	14624.95
616.05	14600.55
616.406	14739.53
616.762	14721.22
617.118	14744.73
617.475	14666.31
617.831	14758.06
618.187	14730.71
618.543	14737.95
618.899	14859.75
619.255	14729.81
619.611	14771.17
619.967	14840.99
620.323	14912.4
620.678	14785.4
621.034	14738.17
621.39	14747.44
621.746	14744.27
622.101	14866.98
622.457	14814.33
622.812	14755.8
623.168	14859.07
623.523	14761.9
623.879	14908.56
624.234	14701.56
624.589	14928.9
624.945	14768
625.3	14839.41
625.655	14880.77
626.01	14838.06
626.365	14752.41
626.72	14784.27
627.075	14726.87
627.43	14780.43
627.785	14729.81
628.14	14769.81
628.495	14812.97
628.85	14741.11
629.205	14717.83
629.559	14812.29
629.914	14695.24
630.269	14721.9
630.623	14697.27
630.978	14680.55
631.332	14658.17
631.687	14742.69
632.041	14626.76
632.396	14764.61
632.75	14579.98
633.104	14669.02
633.459	14671.05
633.813	14567.78
634.167	14543.6
634.521	14654.78
634.875	14608.46
635.229	14538.4
635.583	14464.96
635.937	14497.27
636.291	14469.7
636.645	14453.89
636.999	14429.48
637.352	14409.37
637.706	14385.86
638.06	14451.17
638.413	14395.81
638.767	14295.47
639.121	14413.66
639.474	14267.9
639.828	14286.21
640.181	14325.3
640.534	14332.76
640.888	14189.71
641.241	14221.12
641.594	14231.97
641.947	14269.71
642.301	14255.02
642.654	14184.51
643.007	14215.93
643.36	14278.52
643.713	14119.88
644.066	14179.99
644.419	14165.31
644.771	14056.16
645.124	13901.36
645.477	13961.47
645.83	13821.59
646.182	13756.95
646.535	13738.88
646.888	13667.47
647.24	13690.97
647.593	13707.46
647.945	13763.96
648.298	13666.34
648.65	13584.08
649.002	13600.8
649.355	13631.31
649.707	13680.57
650.059	13662.95
650.411	13735.71
650.763	13862.71
651.115	14043.05
651.467	13864.07
651.819	13948.81
652.171	13918.08
652.523	13922.83
652.875	13842.6
653.227	13864.97
653.578	14089.6
653.93	13942.03
654.282	13967.8
654.633	13835.6
654.985	13883.05
655.337	13858.42
655.688	13915.37
656.039	13930.28
656.391	13835.14
656.742	13886.22
657.094	13922.15
657.445	13930.28
657.796	13963.73
658.147	13778.65
658.498	13830.17
658.849	13896.16
659.2	13932.77
659.551	13920.79
659.902	13946.1
660.253	13939.1
660.604	13960.34
660.955	13857.07
661.306	13936.84
661.656	13892.09
662.007	13909.04
662.358	13982.49
662.708	13961.92
663.059	13907.91
663.409	13850.29
663.76	13958.76
664.11	13947.46
664.461	13947.01
664.811	13995.14
665.161	13957.4
665.511	13956.5
665.862	13877.4
666.212	14002.15
666.562	14082.14
666.912	13991.07
667.262	13965.54
667.612	13964.63
667.962	13963.05
668.312	13938.87
668.662	14083.27
669.011	13960.34
669.361	13951.3
669.711	13850.96
670.06	13922.83
670.41	13857.07
670.76	13884.18
671.109	13937.51
671.459	13867.23
671.808	13818.65
672.157	13764.64
672.507	13747.24
672.856	13781.36
673.205	13784.98
673.554	13771.19
673.904	13725.77
674.253	13897.06
674.602	13737.29
674.951	13597.86
675.3	13543.63
675.649	13770.51
675.998	13750.63
676.346	13792.43
676.695	13782.26
677.044	13661.82
677.393	13652.55
677.741	13728.48
678.09	13665.88
678.438	13615.26
678.787	13637.41
679.135	13708.37
679.484	13554.02
679.832	13540.69
680.181	13536.62
680.529	13541.14
680.877	13610.52
681.225	13514.7
681.573	13606
681.922	13472.22
682.27	13431.09
682.618	13367.81
682.966	13368.26
683.314	13403.29
683.661	13352.9
684.009	13192.68
684.357	13213.24
684.705	13175.95
685.053	13269.06
685.4	13208.72
685.748	13128.72
686.095	13158.78
686.443	13109.97
686.79	13069.97
687.138	13029.06
687.485	13045.11
687.832	12978.22
688.18	13020.93
688.527	12957.2
688.874	12908.84
689.221	12830.2
689.568	12770.31
689.915	12875.17
690.262	12738.22
690.609	12763.08
690.956	12708.17
691.303	12691.22
691.65	12622.75
691.997	12651.67
692.344	12517.89
692.69	12525.35
693.037	12552.01
693.383	12381.85
693.73	12408.74
694.077	12401.28
694.423	12319.7
694.769	12244.68
695.116	12257.11
695.462	12139.82
695.808	12215.75
696.155	12182.98
696.501	12057.34
696.847	12064.8
697.193	11977.34
697.539	12021.18
697.885	11890.11
698.231	11817.57
698.577	11838.14
698.923	11833.84
699.269	11733.28
699.614	11618.25
699.96	11644.69
700.306	11648.31
700.651	11638.82
700.997	11533.74
701.342	11559.95
701.688	11487.41
702.033	11497.35
702.379	11494.87
702.724	11378.26
703.069	11365.61
703.415	11333.97
703.76	11242.67
704.105	11241.09
704.45	11267.08
704.795	11184.82
705.14	11096.69
705.485	11121.32
705.83	11070.7
706.175	11006.74
706.52	11029.57
706.865	11041.32
707.209	10918.84
707.554	10923.36
707.899	10843.13
708.243	10750.25
708.588	10780.08
708.932	10800.87
709.277	10693.08
709.621	10743.93
709.966	10735.11
710.31	10712.74
710.654	10556.36
710.998	10624.83
711.342	10608.11
711.687	10548.23
712.031	10515.91
712.375	10495.57
712.719	10475.91
713.063	10497.61
713.407	10531.5
713.75	10446.76
714.094	10444.5
714.438	10393.88
714.782	10409.92
715.125	10359.53
715.469	10322.69
715.812	10275.01
716.156	10245.63
716.499	10231.4
716.843	10298.74
717.186	10211.74
717.53	10266.2
717.873	10214.22
718.216	10246.99
718.559	10220.32
718.902	10159.54
719.246	10188.23
719.589	10086.54
719.932	10017.84
720.275	10091.06
720.617	10068.24
720.96	10056.49
721.303	10044.28
721.646	10016.71
721.989	9997.28
722.331	10044.74
722.674	9969.48
723.016	9959.77
723.359	9998.18
723.701	9885.42
724.044	9911.63
724.386	9889.26
724.729	9832.54
725.071	9900.33
725.413	9936.49
725.755	9865.98
726.097	9811.52
726.439	9761.13
726.782	9730.85
727.124	9881.8
727.465	9821.92
727.807	9798.19
728.149	9711.19
728.491	9744.63
728.833	9744.63
729.175	9747.12
729.516	9740.79
729.858	9705.08
730.199	9790.28
730.541	9752.54
730.882	9771.52
731.224	9775.14
731.565	9671.41
731.906	9748.02
732.248	9707.34
732.589	9667.57
732.93	9643.39
733.271	9586.22
733.612	9696.72
733.953	9683.39
734.294	9725.87
734.635	9646.55
734.976	9745.08
735.317	9623.28
735.658	9641.13
735.999	9622.83
736.339	9660.57
736.68	9686.78
737.021	9626.22
737.361	9637.97
737.702	9747.79
738.042	9641.81
738.383	9650.85
738.723	9651.98
739.063	9686.33
739.404	9639.1
739.744	9640.9
740.084	9707.57
740.424	9693.56
740.764	9663.5
741.104	9707.57
741.444	9663.28
741.784	9702.37
742.124	9705.08
742.464	9714.8
742.804	9724.52
743.143	9758.42
743.483	9842.26
743.823	9763.16
744.162	9789.6
744.502	9838.64
744.841	9806.32
745.181	9936.94
745.52	9972.42
745.86	9991.4
746.199	9988.47
746.538	10005.41
746.877	10031.85
747.216	10122.47
747.556	10033.66
747.895	10205.64
748.234	10125.86
748.573	10249.7
748.911	10291.74
749.25	10369.93
749.589	10368.34
749.928	10448.57
750.267	10526.31
750.605	10547.55
750.944	10548.45
751.283	10591.16
751.621	10690.82
751.96	10703.48
752.298	10795.45
752.636	10965.62
752.975	10983.24
753.313	10948.67
753.651	11189.34
753.989	11198.38
754.327	11320.18
754.666	11387.53
755.004	11482.44
755.342	11564.7
755.679	11712.49
756.017	11778.25
756.355	11929.88
756.693	12023.21
757.031	12145.92
757.368	12266.82
757.706	12369.42
758.044	12451.9
