Data from hue_180_FLMS001491_00097.txt Node
Date: Tue Feb 07 16:47:45 GMT 2017
User: dcchb
Spectrometer: FLMS00149
Trigger mode: 0
Integration Time (sec): 2.000000E-2
Scans to average: 10
Electric dark correction enabled: true
Nonlinearity correction enabled: false
Boxcar width: 0
XAxis mode: Wavelengths
Number of Pixels in Spectrum: 2048
>>>>>Begin Spectral Data<<<<<
341.393	-7.36
341.776	-7.36
342.16	-7.36
342.543	-67.24
342.927	-54.36
343.31	-70.41
343.693	-84.42
344.077	-51.65
344.46	-49.62
344.843	-55.04
345.226	-54.14
345.61	-36.28
345.993	-15.49
346.376	-7.36
346.759	21.79
347.142	36.03
347.525	41.91
347.908	42.36
348.291	78.06
348.674	96.82
349.057	107.44
349.44	126.88
349.823	144.05
350.206	158.74
350.588	200.09
350.971	225.63
351.354	225.4
351.737	227.66
352.119	266.08
352.502	252.52
352.884	276.93
353.267	268.79
353.65	296.59
354.032	286.19
354.414	310.6
354.797	288.45
355.179	323.71
355.562	295.91
355.944	332.97
356.326	327.32
356.709	325.29
357.091	346.76
357.473	324.84
357.855	334.78
358.238	348.56
358.62	358.96
359.002	344.72
359.384	340.43
359.766	334.1
360.148	352.41
360.53	336.81
360.912	346.53
361.294	360.99
361.676	324.84
362.057	327.77
362.439	346.3
362.821	320.99
363.203	328.45
363.584	316.25
363.966	316.93
364.348	316.02
364.729	307.66
365.111	335.68
365.493	318.73
365.874	315.57
366.256	305.85
366.637	321.67
367.019	302.92
367.4	299.53
367.781	307.21
368.163	315.8
368.544	323.03
368.925	311.73
369.306	325.97
369.688	314.89
370.069	309.7
370.45	306.53
370.831	297.49
371.212	306.98
371.593	317.38
371.974	308.34
372.355	305.85
372.736	313.76
373.117	313.99
373.498	311.96
373.879	297.27
374.26	317.83
374.641	324.84
375.021	308.79
375.402	315.34
375.783	324.38
376.163	324.84
376.544	338.62
376.925	311.73
377.305	317.6
377.686	330.94
378.066	328.9
378.447	335.01
378.827	328.9
379.208	325.51
379.588	342.46
379.968	335.23
380.349	311.28
380.729	340.88
381.109	341.11
381.489	338.62
381.87	335.46
382.25	339.98
382.63	335.01
383.01	349.92
383.39	334.1
383.77	343.59
384.15	348.34
384.53	341.78
384.91	353.54
385.29	341.56
385.67	332.52
386.049	351.5
386.429	328
386.809	357.6
387.189	360.77
387.568	355.8
387.948	359.86
388.328	344.72
388.707	377.04
389.087	377.49
389.466	346.08
389.846	360.77
390.225	376.81
390.605	357.15
390.984	360.99
391.363	374.55
391.743	381.78
392.122	367.32
392.501	373.42
392.881	373.2
393.26	365.51
393.639	379.52
394.018	380.2
394.397	363.93
394.776	377.26
395.155	376.59
395.534	379.3
395.913	379.75
396.292	393.08
396.671	385.63
397.05	385.85
397.429	399.86
397.808	378.17
398.186	371.39
398.565	389.24
398.944	396.02
399.323	399.18
399.701	389.02
400.08	415
400.458	411.61
400.837	382.01
401.215	413.87
401.594	408.9
401.972	412.74
402.351	415.91
402.729	402.8
403.107	425.17
403.486	425.17
403.864	420.2
404.242	443.03
404.62	456.13
404.999	427.88
405.377	436.25
405.755	446.41
406.133	432.18
406.511	428.79
406.889	468.79
407.267	473.76
407.645	463.82
408.023	467.43
408.401	467.21
408.779	476.47
409.156	460.2
409.534	471.95
409.912	503.36
410.29	520.99
410.667	499.52
411.045	499.97
411.422	513.08
411.8	515.34
412.178	522.57
412.555	543.81
412.933	547.88
413.31	553.08
413.687	551.27
414.065	548.33
414.442	575
414.819	583.13
415.197	593.53
415.574	590.59
415.951	581.78
416.328	615.9
416.705	593.98
417.082	609.57
417.46	632.17
417.837	625.17
418.214	636.47
418.591	648.67
418.967	649.35
419.344	660.87
419.721	643.7
420.098	662.45
420.475	672.4
420.852	687.76
421.228	684.6
421.605	687.54
421.982	719.18
422.358	733.86
422.735	743.58
423.111	735.45
423.488	737.93
423.864	781.55
424.241	781.32
424.617	769.8
424.994	795.56
425.37	804.6
425.746	809.34
426.123	835.56
426.499	835.78
426.875	825.84
427.251	859.29
427.627	865.84
428.003	866.29
428.379	896.57
428.756	885.5
429.132	914.43
429.507	896.12
429.883	914.88
430.259	932.96
430.635	942.67
431.011	942.67
431.387	973.86
431.763	983.35
432.138	979.28
432.514	979.51
432.89	1022.9
433.265	1041.2
433.641	1038.26
434.016	1028.77
434.392	1074.87
434.767	1096.79
435.143	1093.86
435.518	1118.71
435.894	1130.01
436.269	1161.2
436.644	1189.67
437.02	1219.05
437.395	1191.03
437.77	1205.72
438.145	1248.2
438.52	1229.22
438.895	1279.39
439.271	1298.6
439.646	1323.91
440.021	1330.91
440.395	1341.31
440.77	1319.39
441.145	1333.4
441.52	1383.79
441.895	1381.53
442.27	1411.36
442.645	1415.65
443.019	1415.2
443.394	1452.49
443.769	1460.17
444.143	1483
444.518	1485.94
444.892	1494.07
445.267	1491.81
445.641	1489.1
446.016	1529.1
446.39	1542.66
446.764	1550.34
447.139	1551.92
447.513	1588.31
447.887	1562.09
448.262	1573.62
448.636	1621.75
449.01	1626.5
449.384	1619.04
449.758	1670.34
450.132	1662.43
450.506	1690.9
450.88	1691.35
451.254	1704.01
451.628	1739.49
452.002	1734.29
452.376	1747.17
452.75	1766.15
453.123	1785.14
453.497	1826.94
453.871	1850.67
454.244	1893.38
454.618	1900.16
454.992	1897.9
455.365	1891.12
455.739	1983.1
456.112	1951.01
456.486	2019.25
456.859	2011.12
457.232	2021.74
457.606	2040.72
457.979	2073.72
458.352	2095.86
458.725	2128.18
459.099	2165.47
459.472	2162.98
459.845	2223.77
460.218	2238.46
460.591	2232.81
460.964	2265.58
461.337	2353.03
461.71	2371.56
462.083	2412.01
462.456	2431.22
462.829	2417.44
463.201	2475.51
463.574	2473.03
463.947	2508.96
464.32	2581.73
464.692	2593.93
465.065	2626.7
465.438	2644.55
465.81	2692.01
466.183	2722.29
466.555	2757.31
466.928	2775.62
467.3	2835.5
467.672	2861.94
468.045	2927.93
468.417	2946.01
468.789	2936.07
469.161	3018.32
469.534	3044.54
469.906	3167.25
470.278	3161.37
470.65	3199.34
471.022	3275.94
471.394	3332.44
471.766	3349.62
472.138	3404.3
472.51	3470.06
472.882	3557.07
473.253	3602.26
473.625	3680.68
473.997	3743.5
474.369	3755.93
474.74	3800.68
475.112	3916.61
475.484	3979.2
475.855	3998.19
476.227	4116.83
476.598	4193.43
476.97	4258.74
477.341	4378.51
477.713	4434.11
478.084	4458.74
478.455	4593.42
478.827	4664.83
479.198	4807.2
479.569	4832.51
479.94	4976.24
480.311	5010.81
480.682	5140.75
481.053	5281.09
481.424	5365.16
481.795	5391.37
482.166	5482.44
482.537	5619.16
482.908	5699.38
483.279	5750.23
483.65	5912.94
484.021	6029.09
484.391	6119.94
484.762	6147.06
485.133	6258.47
485.503	6308.41
485.874	6493.04
486.244	6579.36
486.615	6739.36
486.985	6802.18
487.356	6965.11
487.726	6991.33
488.097	7138.67
488.467	7209.4
488.837	7367.81
489.207	7478.32
489.578	7559.45
489.948	7616.17
490.318	7795.6
490.688	7794.02
491.058	7939.78
491.428	8079.43
491.798	8209.83
492.168	8356.49
492.538	8373.89
492.908	8453.89
493.278	8596.48
493.648	8526.2
494.017	8707.67
494.387	8825.4
494.757	8892.07
495.126	8949.69
495.496	8925.06
495.866	9011.84
496.235	9156.02
496.605	9212.06
496.974	9283.7
497.344	9382.9
497.713	9429
498.082	9534.31
498.452	9516.91
498.821	9640.75
499.19	9623.12
499.559	9709.45
499.928	9770.46
500.298	9856.79
500.667	9927.97
501.036	9854.53
501.405	9981.08
501.774	9949.44
502.143	10086.61
502.512	10136.33
502.88	10193.28
503.249	10157.12
503.618	10260.62
503.987	10269.89
504.356	10293.16
504.724	10366.15
505.093	10347.85
505.462	10461.07
505.83	10471.91
506.199	10566.15
506.567	10587.39
506.936	10604.11
507.304	10710.33
507.672	10671.68
508.041	10713.26
508.409	10753.49
508.777	10845.01
509.145	10902.64
509.514	10861.96
509.882	10946.7
510.25	10931.34
510.618	10971.11
510.986	10930.88
511.354	11054.95
511.722	11076.64
512.09	11101.73
512.458	11068.06
512.826	11155.06
513.193	11172.23
513.561	11197.09
513.929	11292.68
514.297	11327.48
514.664	11363.87
515.032	11302.85
515.4	11346.47
515.767	11376.07
516.135	11413.13
516.502	11317.32
516.869	11518.89
517.237	11386.69
517.604	11369.52
517.972	11406.58
518.339	11479.57
518.706	11483.64
519.073	11446.8
519.44	11509.4
519.808	11543.3
520.175	11511.43
520.542	11620.81
520.909	11737.64
521.276	11557.99
521.643	11600.25
522.009	11687.93
522.376	11660.36
522.743	11684.54
523.11	11733.58
523.477	11821.03
523.843	11811.09
524.21	11870.3
524.577	11870.52
524.943	11818.32
525.31	11866.91
525.676	11882.27
526.043	11843.4
526.409	11919.33
526.776	11956.85
527.142	11948.94
527.508	11952.1
527.874	11906.9
528.241	11938.09
528.607	11910.29
528.973	11974.7
529.339	11935.83
529.705	11883.63
530.071	11915.49
530.437	11952.78
530.803	11963.17
531.169	11975.15
531.535	11916.62
531.901	11937.64
532.267	11876.4
532.632	11875.04
532.998	11879.33
533.364	11900.35
533.73	11741.03
534.095	11847.02
534.461	11810.18
534.826	11772.67
535.192	11711.43
535.557	11678.89
535.923	11686.12
536.288	11641.15
536.653	11624.2
537.019	11558.44
537.384	11592.79
537.749	11509.63
538.114	11513.24
538.479	11446.58
538.845	11412.45
539.21	11360.48
539.575	11367.71
539.94	11235.96
540.305	11381.49
540.67	11205.91
541.034	11224.44
541.399	11155.29
541.764	11137.43
542.129	11150.54
542.494	11075.51
542.858	11012.46
543.223	11007.95
543.587	11032.58
543.952	10892.47
544.316	10898.8
544.681	10865.12
545.045	10896.08
545.41	10855.63
545.774	10809.31
546.138	10688.41
546.503	10717.11
546.867	10628.29
547.231	10555.53
547.595	10567.05
547.959	10578.8
548.324	10525.47
548.688	10486.38
549.052	10425.59
549.416	10334.74
549.779	10288.64
550.143	10280.51
550.507	10306.72
550.871	10220.85
551.235	10114.64
551.599	10191.24
551.962	10203.67
552.326	10104.69
552.689	10096.1
553.053	10030.8
553.417	9994.41
553.78	10151.7
554.143	9980.4
554.507	10049.1
554.87	9931.14
555.234	9961.64
555.597	9901.08
555.96	9912.15
556.323	9890.46
556.686	9822.67
557.05	9839.16
557.413	9861.76
557.776	9772.5
558.139	9790.8
558.502	9763.68
558.865	9746.51
559.228	9770.92
559.59	9697.02
559.953	9667.42
560.316	9764.59
560.679	9726.85
561.041	9698.83
561.404	9725.72
561.767	9698.15
562.129	9665.83
562.492	9785.38
562.854	9579.28
563.217	9711.03
563.579	9666.74
563.941	9615.44
564.304	9675.78
564.666	9656.34
565.028	9610.24
565.39	9678.49
565.753	9662.44
566.115	9653.86
566.477	9658.83
566.839	9624.7
567.201	9641.65
567.563	9662.67
567.925	9699.5
568.287	9638.49
568.648	9694.08
569.01	9662.67
569.372	9645.72
569.734	9637.81
570.095	9685.95
570.457	9726.62
570.819	9724.36
571.18	9629.9
571.542	9685.27
571.903	9644.37
572.265	9704.48
572.626	9699.05
572.987	9678.49
573.349	9721.65
573.71	9670.81
574.071	9674.87
574.432	9742.67
574.794	9715.1
575.155	9679.62
575.516	9700.18
575.877	9720.07
576.238	9699.96
576.599	9726.85
576.96	9735.44
577.32	9735.66
577.681	9739.96
578.042	9743.57
578.403	9733.4
578.763	9691.6
579.124	9725.72
579.485	9679.84
579.845	9790.35
580.206	9674.65
580.566	9729.56
580.927	9750.35
581.287	9769.11
581.648	9631.03
582.008	9751.93
582.368	9713.74
582.728	9723.01
583.089	9660.86
583.449	9689.56
583.809	9681.43
584.169	9683.23
584.529	9651.6
584.889	9675.1
585.249	9643.01
585.609	9637.59
585.969	9647.98
586.329	9572.95
586.688	9604.59
587.048	9616.12
587.408	9574.54
587.768	9496.8
588.127	9560.75
588.487	9461.77
588.846	9588.1
589.206	9500.19
589.565	9458.16
589.925	9523.46
590.284	9456.57
590.643	9490.47
591.003	9479.62
591.362	9562.79
591.721	9463.58
592.08	9445.73
592.44	9477.59
592.799	9437.82
593.158	9487.98
593.517	9435.56
593.876	9441.88
594.235	9423.81
594.593	9407.54
594.952	9437.14
595.311	9433.52
595.67	9434.88
596.029	9465.16
596.387	9431.26
596.746	9413.86
597.104	9355.11
597.463	9303.58
597.822	9406.63
598.18	9445.73
598.538	9292.96
598.897	9427.42
599.255	9309.01
599.613	9400.98
599.972	9343.36
600.33	9308.78
600.688	9383.13
601.046	9361.21
601.404	9341.55
601.762	9392.17
602.12	9365.05
602.478	9352.4
602.836	9400.08
603.194	9259.06
603.552	9364.37
603.91	9332.51
604.268	9311.27
604.625	9203.02
604.983	9281.21
605.341	9230.14
605.698	9263.81
606.056	9334.99
606.413	9363.02
606.771	9336.58
607.128	9303.36
607.485	9318.05
607.843	9348.78
608.2	9359.4
608.557	9385.16
608.914	9327.31
609.272	9319.18
609.629	9368.67
609.986	9339.06
610.343	9343.81
610.7	9403.69
611.057	9409.12
611.414	9360.76
611.771	9398.27
612.127	9414.09
612.484	9429.23
612.841	9433.07
613.198	9337.71
613.554	9396.01
613.911	9446.86
614.267	9450.92
614.624	9407.99
614.98	9430.13
615.337	9505.39
615.693	9396.69
616.05	9396.69
616.406	9455.67
616.762	9391.94
617.118	9404.82
617.475	9429.46
617.831	9492.5
618.187	9442.56
618.543	9478.72
618.899	9502
619.255	9512.62
619.611	9448.66
619.967	9576.12
620.323	9582.22
620.678	9465.39
621.034	9536.8
621.39	9470.58
621.746	9468.32
622.101	9583.12
622.457	9517.14
622.812	9565.72
623.168	9528.89
623.523	9541.32
623.879	9577.02
624.234	9546.74
624.589	9491.83
624.945	9519.62
625.3	9504.26
625.655	9509
626.01	9529.34
626.365	9508.78
626.72	9489.79
627.075	9535.44
627.43	9478.72
627.785	9451.83
628.14	9555.33
628.495	9497.02
628.85	9525.95
629.205	9434.65
629.559	9468.78
629.914	9416.8
630.269	9488.89
630.623	9462.45
630.978	9379.97
631.332	9450.25
631.687	9425.61
632.041	9394.2
632.396	9434.88
632.75	9401.66
633.104	9356.46
633.459	9371.83
633.813	9325.5
634.167	9370.93
634.521	9288.89
634.875	9328.22
635.229	9282.57
635.583	9250.7
635.937	9284.6
636.291	9237.82
636.645	9237.6
636.999	9251.61
637.352	9209.35
637.706	9204.83
638.06	9233.98
638.413	9186.07
638.767	9205.28
639.121	9184.04
639.474	9156.47
639.828	9087.32
640.181	9163.93
640.534	9175.22
640.888	9095.9
641.241	9099.07
641.594	9202.57
641.947	9137.26
642.301	9158.73
642.654	9113.76
643.007	9137.94
643.36	9086.41
643.713	9035.79
644.066	9090.71
644.419	9026.98
644.771	8971.39
645.124	8899.53
645.477	8934.55
645.83	8868.34
646.182	8769.13
646.535	8796.93
646.888	8805.74
647.24	8724.84
647.593	8803.26
647.945	8726.2
648.298	8701.79
648.65	8729.13
649.002	8697.72
649.355	8754.67
649.707	8771.85
650.059	8799.64
650.411	8846.87
650.763	8940.88
651.115	8973.2
651.467	8983.37
651.819	8976.59
652.171	9003.25
652.523	8989.24
652.875	8874.22
653.227	8932.75
653.578	8974.1
653.93	8944.04
654.282	8918.73
654.633	8949.47
654.985	8904.05
655.337	8910.83
655.688	8960.99
656.039	8992.18
656.391	8959.64
656.742	9001.67
657.094	9012.97
657.445	9061.56
657.796	8910.6
658.147	8917.15
658.498	8962.8
658.849	9009.35
659.2	8979.07
659.551	8946.08
659.902	9052.52
660.253	8946.98
660.604	9029.01
660.955	9019.3
661.306	9067.88
661.656	9001.44
662.007	9040.54
662.358	9029.92
662.708	9060.2
663.059	8975.23
663.409	8973.42
663.76	9007.55
664.11	9036.47
664.461	9048.22
664.811	9083.48
665.161	9011.84
665.511	8961.22
665.862	9022.46
666.212	8990.6
666.562	9066.98
666.912	8993.08
667.262	9038.73
667.612	8977.04
667.962	9112.85
668.312	9023.59
668.662	9045.74
669.011	9033.53
669.361	8992.63
669.711	8988.11
670.06	8997.15
670.41	9060.88
670.76	8986.53
671.109	9025.62
671.459	9026.75
671.808	8942.24
672.157	9024.95
672.507	8930.71
672.856	8920.54
673.205	9001.9
673.554	8981.78
673.904	8965.06
674.253	9007.55
674.602	8910.37
674.951	8764.61
675.3	8700.21
675.649	8884.16
675.998	8872.18
676.346	8860.66
676.695	8865.4
677.044	8837.38
677.393	8874.44
677.741	8926.42
678.09	8845.74
678.438	8873.99
678.787	8845.29
679.135	8847.78
679.484	8797.38
679.832	8824.73
680.181	8722.13
680.529	8763.48
680.877	8761.22
681.225	8665.86
681.573	8781.79
681.922	8711.73
682.27	8607.56
682.618	8691.4
682.966	8667.67
683.314	8620.66
683.661	8647.78
684.009	8516.26
684.357	8570.27
684.705	8560.1
685.053	8616.82
685.4	8510.84
685.748	8523.72
686.095	8485.98
686.443	8415.7
686.79	8403.04
687.138	8463.15
687.485	8424.28
687.832	8369.82
688.18	8404.62
688.527	8339.31
688.874	8410.27
689.221	8294.57
689.568	8295.02
689.915	8238.3
690.262	8253.22
690.609	8215.02
690.956	8240.56
691.303	8228.13
691.65	8123.95
691.997	8211.86
692.344	8088.7
692.69	8080.79
693.037	8032.43
693.383	7954.24
693.73	7999.44
694.077	7977.29
694.423	7933.68
694.769	7925.77
695.116	7874.02
695.462	7822.72
695.808	7836.28
696.155	7783.17
696.501	7752.66
696.847	7812.77
697.193	7720.35
697.539	7712.44
697.885	7598.54
698.231	7611.42
698.577	7540.92
698.923	7605.32
699.269	7544.31
699.614	7520.81
699.96	7486
700.306	7413.69
700.651	7434.71
700.997	7380.24
701.342	7350.64
701.688	7305.9
702.033	7365.78
702.379	7330.75
702.724	7283.98
703.069	7287.59
703.415	7152.23
703.76	7220.02
704.105	7216.41
704.45	7154.49
704.795	7146.8
705.14	7093.92
705.485	7052.34
705.83	7061.83
706.175	7072.91
706.52	7004.89
706.865	7000.14
707.209	7006.92
707.554	6979.58
707.899	6987.26
708.243	6838.79
708.588	6879.24
708.932	6854.16
709.277	6795.17
709.621	6826.36
709.966	6755.85
710.31	6821.61
710.654	6744.55
710.998	6732.8
711.342	6758.79
711.687	6687.83
712.031	6654.61
712.375	6624.78
712.719	6681.73
713.063	6675.86
713.407	6660.94
713.75	6659.81
714.094	6641.96
714.438	6563.09
714.782	6598.57
715.125	6562.86
715.469	6582.07
715.812	6592.69
716.156	6494.62
716.499	6550.44
716.843	6574.84
717.186	6498.69
717.53	6504.33
717.873	6521.96
718.216	6496.43
718.559	6464.79
718.902	6416.43
719.246	6432.92
719.589	6435.41
719.932	6375.07
720.275	6417.11
720.617	6384.79
720.96	6420.95
721.303	6359.71
721.646	6356.32
721.989	6319.93
722.331	6342.98
722.674	6399.7
723.016	6366.71
723.359	6328.75
723.701	6410.55
724.044	6348.63
724.386	6314.96
724.729	6395.64
725.071	6335.07
725.413	6303.44
725.755	6333.27
726.097	6284.68
726.439	6241.74
726.782	6258.92
727.124	6330.1
727.465	6303.21
727.807	6229.77
728.149	6265.92
728.491	6226.38
728.833	6246.94
729.175	6251.46
729.516	6245.36
729.858	6212.59
730.199	6273.61
730.541	6267.96
730.882	6213.27
731.224	6299.37
731.565	6257.79
731.906	6231.8
732.248	6243.78
732.589	6270.89
732.93	6220.05
733.271	6218.01
733.612	6248.07
733.953	6262.53
734.294	6236.32
734.635	6263.89
734.976	6272.7
735.317	6261.18
735.658	6251.46
735.999	6325.13
736.339	6241.97
736.68	6257.79
737.021	6303.44
737.361	6307.05
737.702	6314.74
738.042	6293.04
738.383	6287.39
738.723	6270.44
739.063	6281.52
739.404	6348.63
739.744	6338.69
740.084	6322.87
740.424	6385.24
740.764	6339.59
741.104	6387.73
741.444	6364
741.784	6422.98
742.124	6488.74
742.464	6375.07
742.804	6403.32
743.143	6413.49
743.483	6493.71
743.823	6509.31
744.162	6461.62
744.502	6528.06
744.841	6534.39
745.181	6573.71
745.52	6608.06
745.86	6635.86
746.199	6685.35
746.538	6703.2
746.877	6804.89
747.216	6839.92
747.556	6805.34
747.895	6872.46
748.234	6897.32
748.573	6942.29
748.911	6999.01
749.25	7063.87
749.589	7094.15
749.928	7170.53
750.267	7294.82
750.605	7382.05
750.944	7392.45
751.283	7441.71
751.621	7531.65
751.96	7582.5
752.298	7637.86
752.636	7775.94
752.975	7833.79
753.313	7891.42
753.651	8091.41
753.989	8106.1
754.327	8215.7
754.666	8244.63
755.004	8408.24
755.342	8586.99
755.679	8695.24
756.017	8771.62
756.355	8887.77
756.693	8971.61
757.031	9166.64
757.368	9213.42
757.706	9362.34
758.044	9545.84
758.381	9682.78
758.719	9846.85
759.056	9950.35
759.394	10124.13
759.731	10165.03
760.068	10321.64
760.405	10419.94
760.743	10580.84
761.08	10863.77
761.417	10908.74
761.754	11097.21
762.091	11304.43
762.428	11400.48
762.765	11599.34
763.102	11782.16
763.438	11917.75
763.775	12022.83
764.112	12217.18
764.449	12404.97
764.785	12572.42
765.122	12558.41
765.458	12824.85
765.795	12909.59
766.131	13080.66
766.467	13332.86
