Data from hue_130_FLMS001491_00063.txt Node
Date: Tue Feb 07 16:57:55 GMT 2017
User: dcchb
Spectrometer: FLMS00149
Trigger mode: 0
Integration Time (sec): 2.000000E-2
Scans to average: 10
Electric dark correction enabled: true
Nonlinearity correction enabled: false
Boxcar width: 0
XAxis mode: Wavelengths
Number of Pixels in Spectrum: 2048
>>>>>Begin Spectral Data<<<<<
341.393	-16.78
341.776	-16.78
342.16	-16.78
342.543	-75.76
342.927	-78.02
343.31	-84.12
343.693	-72.14
344.077	-75.31
344.46	-65.59
344.843	-49.32
345.226	-28.08
345.61	-39.83
345.993	-13.84
346.376	-3.45
346.759	11.47
347.142	18.02
347.525	34.97
347.908	61.64
348.291	87.4
348.674	99.15
349.057	119.04
349.44	112.03
349.823	135.08
350.206	167.62
350.588	198.58
350.971	223.89
351.354	210.79
351.737	246.94
352.119	268.41
352.502	257.56
352.884	273.38
353.267	273.61
353.65	290.33
354.032	307.73
354.414	300.27
354.797	293.95
355.179	304.79
355.562	329.2
355.944	338.47
356.326	342.08
356.709	323.78
357.091	338.01
357.473	345.25
357.855	338.69
358.238	345.02
358.62	346.38
359.002	321.97
359.384	345.92
359.766	342.76
360.148	328.52
360.53	335.53
360.912	340.5
361.294	334.62
361.676	357.22
362.057	330.1
362.439	342.99
362.821	321.74
363.203	322.65
363.584	312.03
363.966	328.52
364.348	309.31
364.729	323.78
365.111	310.9
365.493	315.87
365.874	303.66
366.256	308.64
366.637	312.93
367.019	306.6
367.4	315.87
367.781	331.23
368.163	311.35
368.544	294.85
368.925	295.98
369.306	336.21
369.688	313.38
370.069	305.47
370.45	315.87
370.831	317.9
371.212	298.47
371.593	305.25
371.974	310.22
372.355	324.45
372.736	326.04
373.117	323.1
373.498	321.74
373.879	319.71
374.26	301.18
374.641	311.8
375.021	301.63
375.402	312.48
375.783	337.11
376.163	330.1
376.544	335.08
376.925	325.13
377.305	339.82
377.686	323.55
378.066	330.78
378.447	305.02
378.827	324.45
379.208	323.55
379.588	301.63
379.968	334.17
380.349	342.53
380.729	335.08
381.109	339.82
381.489	357.22
381.87	334.4
382.25	328.52
382.63	335.98
383.01	329.43
383.39	316.32
383.77	350.22
384.15	338.01
384.53	335.3
384.91	338.01
385.29	359.03
385.67	358.13
386.049	349.54
386.429	344.12
386.809	346.6
387.189	362.42
387.568	370.56
387.948	348.18
388.328	360.84
388.707	366.49
389.087	357.45
389.466	376.2
389.846	364.91
390.225	368.97
390.605	366.49
390.984	381.85
391.363	383.66
391.743	377.33
392.122	375.75
392.501	387.28
392.881	399.03
393.26	373.27
393.639	395.64
394.018	404.23
394.397	387.96
394.776	387.73
395.155	386.15
395.534	387.5
395.913	378.46
396.292	400.61
396.671	404.68
397.05	401.74
397.429	398.35
397.808	377.33
398.186	396.09
398.565	398.35
398.944	426.37
399.323	393.83
399.701	409.2
400.08	402.19
400.458	421.4
400.837	417.56
401.215	420.27
401.594	424.57
401.972	420.95
402.351	423.66
402.729	423.21
403.107	445.36
403.486	441.51
403.864	427.05
404.242	426.37
404.62	415.75
404.999	432.02
405.377	441.74
405.755	449.2
406.133	445.81
406.511	437.22
406.889	460.04
407.267	439.93
407.645	462.3
408.023	433.83
408.401	449.88
408.779	476.32
409.156	461.63
409.534	470.89
409.912	477.67
410.29	475.19
410.667	472.02
411.045	471.8
411.422	481.74
411.8	496.43
412.178	494.62
412.555	491.68
412.933	527.39
413.31	508.86
413.687	504.79
414.065	505.24
414.442	502.3
414.819	512.47
415.197	525.13
415.574	507.05
415.951	503.66
416.328	541.85
416.705	537.33
417.082	518.35
417.46	524
417.837	552.02
418.214	556.31
418.591	555.86
418.967	566.48
419.344	545.92
419.721	554.73
420.098	549.53
420.475	590.89
420.852	594.73
421.228	574.62
421.605	560.61
421.982	575.3
422.358	592.47
422.735	572.81
423.111	593.37
423.488	595.63
423.864	593.6
424.241	622.53
424.617	590.21
424.994	594.28
425.37	611.68
425.746	610.77
426.123	622.98
426.499	623.2
426.875	621.62
427.251	615.07
427.627	650.77
428.003	653.71
428.379	669.98
428.756	665.91
429.132	661.85
429.507	678.12
429.883	690.55
430.259	664.33
430.635	664.56
431.011	666.14
431.387	686.93
431.763	704.11
432.138	725.35
432.514	704.78
432.89	729.87
433.265	723.31
433.641	735.74
434.016	744.56
434.392	733.71
434.767	746.36
435.143	738
435.518	755.4
435.894	774.16
436.269	789.53
436.644	778.45
437.02	794.72
437.395	797.21
437.77	805.8
438.145	800.15
438.52	817.32
438.895	817.1
439.271	823.42
439.646	850.09
440.021	872.46
440.395	836.53
440.77	844.44
441.145	858.23
441.52	853.48
441.895	881.5
442.27	852.12
442.645	869.53
443.019	896.87
443.394	885.57
443.769	911.56
444.143	896.87
444.518	914.72
444.892	905.68
445.267	898.68
445.641	900.71
446.016	939.35
446.39	932.35
446.764	943.42
447.139	928.73
447.513	924.44
447.887	961.5
448.262	952.46
448.636	985.68
449.01	986.36
449.384	968.28
449.758	996.3
450.132	987.04
450.506	1024.78
450.88	1016.19
451.254	1039.46
451.628	1037.66
452.002	1017.32
452.376	1027.26
452.75	1052.35
453.123	1078.79
453.497	1042.63
453.871	1087.82
454.244	1082.63
454.618	1130.54
454.992	1113.81
455.365	1113.81
455.739	1121.95
456.112	1152
456.486	1159.91
456.859	1189.74
457.232	1181.83
457.606	1210.76
457.979	1225.9
458.352	1252.11
458.725	1249.63
459.099	1258.67
459.472	1277.65
459.845	1298.67
460.218	1309.97
460.591	1333.24
460.964	1329.85
461.337	1345.9
461.71	1373.47
462.083	1394.48
462.456	1418.89
462.829	1409.85
463.201	1409.85
463.574	1420.92
463.947	1438.55
464.32	1480.36
464.692	1497.31
465.065	1519
465.438	1550.19
465.81	1579.34
466.183	1582.27
466.555	1641.71
466.928	1613.91
467.3	1649.39
467.672	1712.21
468.045	1715.83
468.417	1696.85
468.789	1717.41
469.161	1777.07
469.534	1795.83
469.906	1867.01
470.278	1885.54
470.65	1883.96
471.022	1935.03
471.394	1982.72
471.766	2029.95
472.138	2044.41
472.51	2109.27
472.882	2156.72
473.253	2163.5
473.625	2236.04
473.997	2295.7
474.369	2301.8
474.74	2339.09
475.112	2419.09
475.484	2459.31
475.855	2524.17
476.227	2565.07
476.598	2647.11
476.97	2693.88
477.341	2791.96
477.713	2817.04
478.084	2871.28
478.455	2945.4
478.827	3027.21
479.198	3152.18
479.569	3219.29
479.94	3297.03
480.311	3354.43
480.682	3467.87
481.053	3563.01
481.424	3694.08
481.795	3735.66
482.166	3829.22
482.537	3936.11
482.908	4065.37
483.279	4126.39
483.65	4273.96
484.021	4396.89
484.391	4501.07
484.762	4537.9
485.133	4653.61
485.503	4816.54
485.874	4964.33
486.244	5014.73
486.615	5225.79
486.985	5288.39
487.356	5445.9
487.726	5564.09
488.097	5731.77
488.467	5824.2
488.837	6013.34
489.207	6096.28
489.578	6323.17
489.948	6423.96
490.318	6537.17
490.688	6651.75
491.058	6794.12
491.428	7003.83
491.798	7115.46
492.168	7348.68
492.538	7408.56
492.908	7606.52
493.278	7758.38
493.648	7783.69
494.017	8055.1
494.387	8143.46
494.757	8228.2
495.126	8447.18
495.496	8482.88
495.866	8633.61
496.235	8748.19
496.605	8975.53
496.974	9037.45
497.344	9136.2
497.713	9296.42
498.082	9368.51
498.452	9545.23
498.821	9615.51
499.19	9700.48
499.559	9881.04
499.928	10005.56
500.298	10068.83
500.667	10209.17
501.036	10214.59
501.405	10378.2
501.774	10510.85
502.143	10533.68
502.512	10692.09
502.88	10862.26
503.249	10843.73
503.618	10971.86
503.987	11060.44
504.356	11194.68
504.724	11282.36
505.093	11298.4
505.462	11392.41
505.83	11450.49
506.199	11567.32
506.567	11702.23
506.936	11738.39
507.304	11924.38
507.672	11975.22
508.041	11990.59
508.409	12072.85
508.777	12268.55
509.145	12242.56
509.514	12323.46
509.882	12475.77
510.25	12364.82
510.618	12513.74
510.986	12544.02
511.354	12599.84
511.722	12711.47
512.09	12807.06
512.458	12765.03
512.826	12901.75
513.193	13084.57
513.561	12994.18
513.929	13116.43
514.297	13160.73
514.664	13260.39
515.032	13257.45
515.4	13243.44
515.767	13355.52
516.135	13492.02
516.502	13384.68
516.869	13581.06
517.237	13517.55
517.604	13490.44
517.972	13627.38
518.339	13609.76
518.706	13607.27
519.073	13694.95
519.44	13795.74
519.808	13805.91
520.175	13854.49
520.542	13952.35
520.909	13958.9
521.276	13981.5
521.643	14047.03
522.009	14119.35
522.376	14087.48
522.743	14208.38
523.11	14325.89
523.477	14343.97
523.843	14319.79
524.21	14456.51
524.577	14461.71
524.943	14475.5
525.31	14544.42
525.676	14583.97
526.043	14636.17
526.409	14629.16
526.776	14672.78
527.142	14671.87
527.508	14784.41
527.874	14637.98
528.241	14759.78
528.607	14729.27
528.973	14932.21
529.339	14766.56
529.705	14948.48
530.071	14939.21
530.437	14852.21
530.803	14887.24
531.169	14918.87
531.535	14931.3
531.901	14896.95
532.267	14880.91
532.632	14961.58
532.998	14872.09
533.364	14903.28
533.73	14934.01
534.095	14951.64
534.461	14982.37
534.826	14930.85
535.192	14967.69
535.557	15004.07
535.923	14904.41
536.288	14948.93
536.653	14925.65
537.019	14859.21
537.384	14822.15
537.749	14893.11
538.114	14820.57
538.479	14822.38
538.845	14808.37
539.21	14682.95
539.575	14762.95
539.94	14738.77
540.305	14724.53
540.67	14609.73
541.034	14620.12
541.399	14613.12
541.764	14578.09
542.129	14599.79
542.494	14580.35
542.858	14551.88
543.223	14491.54
543.587	14526.57
543.952	14423.29
544.316	14464.42
544.681	14356.4
545.045	14447.93
545.41	14348.72
545.774	14374.71
546.138	14281.38
546.503	14265.56
546.867	14268.27
547.231	14274.6
547.595	14278.21
547.959	14279.34
548.324	14223.75
548.688	14076.86
549.052	14117.76
549.416	14047.71
549.779	14077.77
550.143	14022.17
550.507	13994.38
550.871	14136.52
551.235	13908.5
551.599	14031.21
551.962	13969.97
552.326	13904.21
552.689	13911.67
553.053	13791.9
553.417	13790.77
553.78	13939.69
554.143	13897.21
554.507	13858.56
554.87	13738.57
555.234	13861.73
555.597	13772.24
555.96	13786.93
556.323	13847.04
556.686	13712.8
557.05	13790.09
557.413	13766.14
557.776	13750.54
558.139	13758.9
558.502	13718.45
558.865	13796.64
559.228	13747.6
559.59	13764.78
559.953	13833.03
560.316	13808.17
560.679	13809.98
561.041	13802.07
561.404	13851.78
561.767	13877.54
562.129	13745.12
562.492	13878
562.854	13854.04
563.217	13859.24
563.579	13875.74
563.941	13885.68
564.304	13777.43
564.666	13901.72
565.028	13902.85
565.39	13883.87
565.753	13992.57
566.115	14073.7
566.477	13998.9
566.839	14021.72
567.201	14136.97
567.563	13996.64
567.925	14111.89
568.287	14059.69
568.648	14021.27
569.01	14120.02
569.372	14157.99
569.734	14091.55
570.095	14094.94
570.457	14230.53
570.819	14271.66
571.18	14165.22
571.542	14215.61
571.903	14227.82
572.265	14313.69
572.626	14308.95
572.987	14329.06
573.349	14383.97
573.71	14380.58
574.071	14331.77
574.432	14352.79
574.794	14510.07
575.155	14402.28
575.516	14408.6
575.877	14472.11
576.238	14486.79
576.599	14386.68
576.96	14505.78
577.32	14395.27
577.681	14481.14
578.042	14510.97
578.403	14444.99
578.763	14477.53
579.124	14386.68
579.485	14539.67
579.845	14511.65
580.206	14522.73
580.566	14521.37
580.927	14487.7
581.287	14531.76
581.648	14522.27
582.008	14562.27
582.368	14537.41
582.728	14488.38
583.089	14541.93
583.449	14518.21
583.809	14449.28
584.169	14534.7
584.529	14472.56
584.889	14571.54
585.249	14474.82
585.609	14393.24
585.969	14402.5
586.329	14533.8
586.688	14454.7
587.048	14433.01
587.408	14363.63
587.768	14335.16
588.127	14343.52
588.487	14206.8
588.846	14341.26
589.206	14318.66
589.565	14274.37
589.925	14340.81
590.284	14340.13
590.643	14356.18
591.003	14338.55
591.362	14336.52
591.721	14325.67
592.08	14333.58
592.44	14298.32
592.799	14392.11
593.158	14322.5
593.517	14260.59
593.876	14373.35
594.235	14282.28
594.593	14292.45
594.952	14238.89
595.311	14257.87
595.67	14235.28
596.029	14268.04
596.387	14303.3
596.746	14319.34
597.104	14275.27
597.463	14206.8
597.822	14193.02
598.18	14154.37
598.538	14146.46
598.897	14234.6
599.255	14124.32
599.613	14375.38
599.972	14168.61
600.33	14294.03
600.688	14203.86
601.046	14322.05
601.404	14256.52
601.762	14265.11
602.12	14309.17
602.478	14272.79
602.836	14310.75
603.194	14209.74
603.552	14282.73
603.91	14156.18
604.268	14284.99
604.625	14199.34
604.983	14342.17
605.341	14187.37
605.698	14293.13
606.056	14275.5
606.413	14224.43
606.771	14299.68
607.128	14360.47
607.485	14281.38
607.843	14264.88
608.2	14291.77
608.557	14428.72
608.914	14324.76
609.272	14431.2
609.629	14400.24
609.986	14448.15
610.343	14347.14
610.7	14512.1
611.057	14434.37
611.414	14351.2
611.771	14476.4
612.127	14437.76
612.484	14558.43
612.841	14508.71
613.198	14452.9
613.554	14453.57
613.911	14531.76
614.267	14534.7
614.624	14546.23
614.98	14581.71
615.337	14639.11
615.693	14566.79
616.05	14551.88
616.406	14677.07
616.762	14582.38
617.118	14642.95
617.475	14560.92
617.831	14667.13
618.187	14687.01
618.543	14651.08
618.899	14679.11
619.255	14641.37
619.611	14685.66
619.967	14699.9
620.323	14593.68
620.678	14806.11
621.034	14672.33
621.39	14692.44
621.746	14679.78
622.101	14800.46
622.457	14668.03
622.812	14703.96
623.168	14788.71
623.523	14759.56
623.879	14713.68
624.234	14623.29
624.589	14753.68
624.945	14808.82
625.3	14715.49
625.655	14766.79
626.01	14791.19
626.365	14731.53
626.72	14760.01
627.075	14721.82
627.43	14701.7
627.785	14639.11
628.14	14707.13
628.495	14760.91
628.85	14701.93
629.205	14595.04
629.559	14666
629.914	14597.3
630.269	14755.26
630.623	14530.86
630.978	14494.03
631.332	14611.76
631.687	14627.13
632.041	14566.79
632.396	14589.39
632.75	14590.52
633.104	14573.57
633.459	14494.93
633.813	14577.64
634.167	14481.14
634.521	14470.07
634.875	14486.57
635.229	14450.19
635.583	14407.02
635.937	14303.07
636.291	14435.27
636.645	14367.02
636.999	14373.35
637.352	14384.2
637.706	14277.31
638.06	14387.59
638.413	14364.76
638.767	14280.02
639.121	14264.65
639.474	14276.63
639.828	14188.05
640.181	14219.91
640.534	14226.91
640.888	14193.92
641.241	14046.13
641.594	14155.73
641.947	14205.45
642.301	14136.52
642.654	14151.21
643.007	14119.57
643.36	14119.57
643.713	14043.42
644.066	14164.54
644.419	14113.24
644.771	13976.75
645.124	13851.78
645.477	13862.4
645.83	13772.01
646.182	13659.7
646.535	13619.92
646.888	13677.78
647.24	13635.74
647.593	13651.79
647.945	13591.9
648.298	13584.67
648.65	13614.05
649.002	13479.59
649.355	13636.87
649.707	13616.99
650.059	13658.79
650.411	13878.9
650.763	13788.96
651.115	13900.82
651.467	13926.58
651.819	13885.45
652.171	13933.59
652.523	13939.69
652.875	13879.35
653.227	13799.81
653.578	13953.47
653.93	13868.96
654.282	13792.35
654.633	13849.75
654.985	13860.37
655.337	13866.92
655.688	13816.98
656.039	13872.12
656.391	13765.23
656.742	13772.91
657.094	13881.39
657.445	13903.08
657.796	13904.89
658.147	13898.56
658.498	13796.42
658.849	13891.33
659.2	13891.33
659.551	13803.65
659.902	13924.32
660.253	13863.53
660.604	13936.53
660.955	13882.06
661.306	13913.93
661.656	13887.04
662.007	13940.14
662.358	13991.21
662.708	13912.8
663.059	13892.91
663.409	13923.87
663.76	13890.65
664.11	13934.49
664.461	13959.58
664.811	13922.52
665.161	13956.19
665.511	13869.86
665.862	13917.32
666.212	13948.5
666.562	13957.99
666.912	13957.99
667.262	13890.65
667.612	13844.55
667.962	13918
668.312	13903.76
668.662	13908.96
669.011	13934.27
669.361	13862.86
669.711	14002.97
670.06	13806.13
670.41	13816.08
670.76	13805.46
671.109	13859.47
671.459	13845
671.808	13849.97
672.157	13838.22
672.507	13788.73
672.856	13868.05
673.205	13849.75
673.554	13885.91
673.904	13712.58
674.253	13845.91
674.602	13812.91
674.951	13621.73
675.3	13580.6
675.649	13823.53
675.998	13772.69
676.346	13725.01
676.695	13728.4
677.044	13711
677.393	13653.37
677.741	13778.79
678.09	13653.6
678.438	13637.1
678.787	13653.82
679.135	13674.16
679.484	13587.16
679.832	13549.42
680.181	13532.92
680.529	13534.95
680.877	13400.95
681.225	13378.12
681.573	13489.31
681.922	13454.28
682.27	13338.12
682.618	13317.11
682.966	13365.02
683.314	13360.72
683.661	13292.7
684.009	13253.61
684.357	13223.32
684.705	13188.98
685.053	13198.01
685.4	13218.35
685.748	13126.83
686.095	13144
686.443	13047.96
686.79	13059.71
687.138	13082.76
687.485	13061.75
687.832	13046.15
688.18	13065.59
688.527	12934.07
688.874	12922.77
689.221	12835.76
689.568	12801.41
689.915	12760.51
690.262	12843
690.609	12775.43
690.956	12735.43
691.303	12643.23
691.65	12630.35
691.997	12603
692.344	12530.46
692.69	12442.55
693.037	12556
693.383	12422.89
693.73	12351.94
694.077	12241.88
694.423	12314.87
694.769	12275.1
695.116	12272.84
695.462	12175.44
695.808	12162.34
696.155	12106.97
696.501	12058.38
696.847	12144.93
697.193	11901.33
697.539	11943.58
697.885	11940.87
698.231	11876.92
698.577	11837.6
698.923	11870.82
699.269	11789.46
699.614	11647.55
699.96	11725.51
700.306	11677.6
700.651	11562.58
700.997	11477.61
701.342	11530.71
701.688	11531.39
702.033	11348.8
702.379	11382.24
702.724	11369.81
703.069	11375.69
703.415	11278.52
703.76	11284.62
704.105	11314.45
704.45	11306.54
704.795	11114.68
705.14	11171.18
705.485	11105.41
705.83	10989.49
706.175	11070.61
706.52	10969.6
706.865	10990.16
707.209	10900.22
707.554	10921.46
707.899	10983.38
708.243	10875.59
708.588	10803.95
708.932	10749.04
709.277	10773.45
709.621	10721.02
709.966	10685.99
710.31	10762.82
710.654	10564.41
710.998	10592.89
711.342	10592.43
711.687	10584.3
712.031	10504.98
712.375	10492.77
712.719	10566.9
713.063	10507.69
713.407	10503.62
713.75	10448.26
714.094	10412.55
714.438	10323.51
714.782	10384.76
715.125	10372.33
715.469	10400.12
715.812	10354.25
716.156	10300.24
716.499	10280.58
716.843	10260.46
717.186	10281.93
717.53	10295.94
717.873	10317.19
718.216	10172.56
718.559	10146.57
718.902	10105.44
719.246	10117.64
719.589	10102.95
719.932	10084.42
720.275	10021.6
720.617	10035.39
720.96	10014.6
721.303	10050.98
721.646	9980.92
721.989	10074.48
722.331	10023.86
722.674	10026.35
723.016	9990.87
723.359	9955.16
723.701	9948.38
724.044	9924.43
724.386	9883.3
724.729	9986.35
725.071	9896.18
725.413	9878.78
725.755	9929.17
726.097	9853.47
726.439	9837.2
726.782	9829.97
727.124	9800.59
727.465	9797.88
727.807	9825.9
728.149	9814.15
728.491	9801.95
728.833	9860.48
729.175	9801.49
729.516	9750.87
729.858	9789.06
730.199	9779.8
730.541	9751.55
730.882	9795.39
731.224	9835.39
731.565	9708.16
731.906	9824.32
732.248	9768.73
732.589	9690.31
732.93	9711.33
733.271	9749.52
733.612	9770.76
733.953	9732.12
734.294	9671.78
734.635	9699.12
734.976	9723.53
735.317	9719.01
735.658	9694.6
735.999	9703.19
736.339	9701.61
736.68	9750.65
737.021	9689.18
737.361	9715.39
737.702	9725.34
738.042	9721.5
738.383	9730.31
738.723	9723.08
739.063	9728.05
739.404	9742.51
739.744	9725.56
740.084	9697.54
740.424	9768.73
740.764	9790.19
741.104	9851.89
741.444	9780.93
741.784	9763.3
742.124	9810.53
742.464	9833.36
742.804	9828.61
743.143	9852.79
743.483	9894.82
743.823	9833.58
744.162	9956.29
744.502	9972.56
744.841	9925.78
745.181	9984.31
745.52	10063.63
745.86	10072
746.199	10060.7
746.538	10127.81
746.877	10238.77
747.216	10201.94
747.556	10271.54
747.895	10291.65
748.234	10279.45
748.573	10391.31
748.911	10471.08
749.25	10473.11
749.589	10567.12
749.928	10633.79
750.267	10777.74
750.605	10758.3
750.944	10852.54
751.283	10842.6
751.621	11011.18
751.96	10960.11
752.298	11148.12
752.636	11215.47
752.975	11306.09
753.313	11341.79
753.651	11602.8
753.989	11574.78
754.327	11718.51
754.666	11757.15
755.004	11917.82
755.342	12067.87
755.679	12182.9
756.017	12203.46
756.355	12442.55
756.693	12552.61
757.031	12817.23
757.368	12829.89
757.706	12969.09
