Data from hue_220_FLMS001491_00070.txt Node
Date: Tue Feb 07 16:39:48 GMT 2017
User: dcchb
Spectrometer: FLMS00149
Trigger mode: 0
Integration Time (sec): 2.000000E-2
Scans to average: 10
Electric dark correction enabled: true
Nonlinearity correction enabled: false
Boxcar width: 0
XAxis mode: Wavelengths
Number of Pixels in Spectrum: 2048
>>>>>Begin Spectral Data<<<<<
341.393	-12.32
341.776	-12.32
342.16	-12.32
342.543	-62.26
342.927	-80.11
343.31	-70.85
343.693	-66.1
344.077	-78.75
344.46	-56.83
344.843	-48.7
345.226	-29.72
345.61	-26.78
345.993	-14.8
346.376	-12.09
346.759	14.12
347.142	31.3
347.525	44.86
347.908	55.93
348.291	72.43
348.674	88.7
349.057	97.29
349.44	122.6
349.823	137.28
350.206	154.46
350.588	189.49
350.971	215.02
351.354	217.06
351.737	213.44
352.119	253.44
352.502	239.2
352.884	250.5
353.267	257.06
353.65	296.38
354.032	290.5
354.414	307.9
354.797	297.05
355.179	307.22
355.562	317.84
355.944	315.13
356.326	325.75
356.709	344.06
357.091	308.81
357.473	333.44
357.855	323.72
358.238	335.7
358.62	337.96
359.002	330.95
359.384	349.93
359.766	325.75
360.148	317.84
360.53	340.44
360.912	327.34
361.294	339.09
361.676	330.5
362.057	349.26
362.439	323.95
362.821	337.05
363.203	312.2
363.584	315.58
363.966	337.73
364.348	301.57
364.729	321.01
365.111	304.29
365.493	306.55
365.874	288.02
366.256	320.1
366.637	317.17
367.019	321.01
367.4	306.55
367.781	298.18
368.163	316.94
368.544	308.81
368.925	301.57
369.306	299.54
369.688	318.3
370.069	298.86
370.45	310.84
370.831	311.29
371.212	310.39
371.593	311.07
371.974	310.39
372.355	303.16
372.736	281.46
373.117	303.83
373.498	310.16
373.879	301.57
374.26	313.78
374.641	299.31
375.021	287.79
375.402	314.68
375.783	323.72
376.163	325.53
376.544	320.56
376.925	309.71
377.305	320.33
377.686	300.9
378.066	325.98
378.447	315.13
378.827	335.92
379.208	316.71
379.588	331.18
379.968	345.64
380.349	329.6
380.729	320.1
381.109	327.11
381.489	332.08
381.87	313.1
382.25	327.11
382.63	334.57
383.01	328.24
383.39	356.49
383.77	334.57
384.15	322.36
384.53	338.86
384.91	342.7
385.29	335.47
385.67	345.19
386.049	350.61
386.429	321.01
386.809	332.53
387.189	345.64
387.568	332.08
387.948	323.95
388.328	342.93
388.707	348.8
389.087	346.54
389.466	349.03
389.846	338.86
390.225	372.31
390.605	324.62
390.984	353.78
391.363	350.16
391.743	374.79
392.122	342.25
392.501	372.53
392.881	361.69
393.26	364.4
393.639	377.96
394.018	371.63
394.397	370.05
394.776	358.07
395.155	389.71
395.534	361.69
395.913	387.22
396.292	385.64
396.671	382.02
397.05	385.19
397.429	370.27
397.808	397.16
398.186	359.43
398.565	388.35
398.944	383.38
399.323	392.87
399.701	401.46
400.08	403.27
400.458	385.87
400.837	400.78
401.215	410.5
401.594	399.65
401.972	404.62
402.351	411.4
402.729	428.8
403.107	406.88
403.486	420.44
403.864	415.7
404.242	414.34
404.62	420.44
404.999	422.25
405.377	436.94
405.755	441.23
406.133	423.38
406.511	456.15
406.889	460.67
407.267	448.69
407.645	480.1
408.023	483.26
408.401	459.31
408.779	470.84
409.156	471.74
409.534	474.22
409.912	476.26
410.29	513.32
410.667	496.82
411.045	504.73
411.422	520.33
411.8	530.72
412.178	534.79
412.555	531.85
412.933	545.64
413.31	562.13
413.687	540.21
414.065	569.14
414.442	557.16
414.819	550.83
415.197	595.35
415.574	602.13
415.951	632.86
416.328	613.43
416.705	629.02
417.082	628.57
417.46	608.23
417.837	648.23
418.214	650.94
418.591	663.6
418.967	678.51
419.344	683.94
419.721	683.71
420.098	702.47
420.475	699.53
420.852	707.67
421.228	715.57
421.605	736.59
421.982	724.39
422.358	749.02
422.735	757.16
423.111	779.53
423.488	789.24
423.864	793.54
424.241	795.35
424.617	819.53
424.994	824.72
425.37	841.45
425.746	861.79
426.123	855.46
426.499	894.33
426.875	890.71
427.251	895
427.627	931.16
428.003	939.98
428.379	947.43
428.756	964.38
429.132	970.93
429.507	975.91
429.883	984.49
430.259	1005.28
430.635	1018.84
431.011	1010.93
431.387	1044.15
431.763	1058.62
432.138	1050.71
432.514	1096.58
432.89	1084.83
433.265	1142.23
433.641	1149.91
434.016	1127.54
434.392	1192.4
434.767	1210.02
435.143	1228.1
435.518	1229.69
435.894	1247.76
436.269	1266.97
436.644	1276.01
437.02	1335.45
437.395	1321.43
437.77	1353.3
438.145	1395.56
438.52	1374.99
438.895	1420.19
439.271	1413.18
439.646	1470.36
440.021	1460.41
440.395	1502.45
440.77	1475.78
441.145	1506.51
441.52	1566.4
441.895	1548.09
442.27	1595.33
442.645	1589.22
443.019	1617.25
443.394	1617.02
443.769	1615.21
444.143	1633.29
444.518	1688.2
444.892	1666.28
445.267	1671.48
445.641	1753.97
446.016	1738.37
446.39	1700.41
446.764	1756.68
447.139	1769.11
447.513	1747.41
447.887	1769.11
448.262	1789.44
448.636	1800.52
449.01	1836.45
449.384	1822.89
449.758	1860.18
450.132	1832.38
450.506	1915.77
450.88	1866.96
451.254	1889.78
451.628	1937.69
452.002	1959.61
452.376	1937.92
452.75	1956.45
453.123	1978.82
453.497	2025.14
453.871	2042.77
454.244	2112.37
454.618	2060.17
454.992	2100.4
455.365	2111.24
455.739	2172.26
456.112	2155.76
456.486	2181.3
456.859	2216.78
457.232	2247.29
457.606	2262.2
457.979	2268.53
458.352	2329.54
458.725	2329.77
459.099	2340.39
459.472	2414.96
459.845	2418.81
460.218	2413.61
460.591	2463.55
460.964	2458.58
461.337	2520.05
461.71	2547.39
462.083	2556.88
462.456	2579.25
462.829	2544
463.201	2620.84
463.574	2633.49
463.947	2661.74
464.32	2728.85
464.692	2737.67
465.065	2747.39
465.438	2791.68
465.81	2841.62
466.183	2851.79
466.555	2921.62
466.928	2925.01
467.3	2898.57
467.672	2975.85
468.045	3048.17
468.417	3033.25
468.789	3044.78
469.161	3127.71
469.534	3137.43
469.906	3183.98
470.278	3261.72
470.65	3260.14
471.022	3273.93
471.394	3376.07
471.766	3385.79
472.138	3410.87
472.51	3440.02
472.882	3531.09
473.253	3499.91
473.625	3594.14
473.997	3655.61
474.369	3686.8
474.74	3734.48
475.112	3768.83
475.484	3834.36
475.855	3902.38
476.227	3914.81
476.598	3986.45
476.97	4022.38
477.341	4108.03
477.713	4154.81
478.084	4183.96
478.455	4304.86
478.827	4281.81
479.198	4402.26
479.569	4414.46
479.94	4535.59
480.311	4577.17
480.682	4592.31
481.053	4707.56
481.424	4729.48
481.795	4782.36
482.166	4863.49
482.537	4909.59
482.908	4982.35
483.279	5013.99
483.65	5144.16
484.021	5120.2
484.391	5259.18
484.762	5282.91
485.133	5348.9
485.503	5340.76
485.874	5438.39
486.244	5503.02
486.615	5620.53
486.985	5650.59
487.356	5717.93
487.726	5763.35
488.097	5880.41
488.467	5843.58
488.837	5910.24
489.207	6023.23
489.578	6117.47
489.948	6123.57
490.318	6248.54
490.688	6224.81
491.058	6302.09
491.428	6351.13
491.798	6461.86
492.168	6543.67
492.538	6500.96
492.908	6633.16
493.278	6668.41
493.648	6670.45
494.017	6769.65
494.387	6759.71
494.757	6816.2
495.126	6937.56
495.496	6845.81
495.866	6957.22
496.235	7026.14
496.605	7025.01
496.974	7079.7
497.344	7094.16
497.713	7095.97
498.082	7219.36
498.452	7215.52
498.821	7265.23
499.19	7295.74
499.559	7386.13
499.928	7331.67
500.298	7351.56
500.667	7417.55
501.036	7386.13
501.405	7476.53
501.774	7452.57
502.143	7488.28
502.512	7497.32
502.88	7504.77
503.249	7563.98
503.618	7487.6
503.987	7581.38
504.356	7580.93
504.724	7621.83
505.093	7660.93
505.462	7651.21
505.83	7714.71
506.199	7669.06
506.567	7791.32
506.936	7695.96
507.304	7877.87
507.672	7863.64
508.041	7878.32
508.409	7893.46
508.777	8001.48
509.145	7975.27
509.514	7897.53
509.882	8006.91
510.25	7947.02
510.618	7986.8
510.986	8032.22
511.354	8077.41
511.722	8133.91
512.09	8104.53
512.458	8067.92
512.826	8162.16
513.193	8091.2
513.561	8181.82
513.929	8133.46
514.297	8181.14
514.664	8250.29
515.032	8207.13
515.4	8264.75
515.767	8217.75
516.135	8208.94
516.502	8238.77
516.869	8310.85
517.237	8286.22
517.604	8227.69
517.972	8297.3
518.339	8282.61
518.706	8276.28
519.073	8278.77
519.44	8265.88
519.808	8326.45
520.175	8290.06
520.542	8344.3
520.909	8372.55
521.276	8304.3
521.643	8408.03
522.009	8359.89
522.376	8386.79
522.743	8395.6
523.11	8398.99
523.477	8427.01
523.843	8422.94
524.21	8447.35
524.577	8462.04
524.943	8467.69
525.31	8477.18
525.676	8462.04
526.043	8538.65
526.409	8493
526.776	8565.09
527.142	8543.17
527.508	8571.64
527.874	8553.56
528.241	8526.44
528.607	8549.27
528.973	8579.77
529.339	8535.71
529.705	8547.68
530.071	8557.18
530.437	8576.38
530.803	8614.35
531.169	8519.89
531.535	8479.44
531.901	8521.7
532.267	8468.59
532.632	8575.93
532.998	8431.53
533.364	8483.05
533.73	8470.85
534.095	8535.03
534.461	8450.06
534.826	8449.16
535.192	8412.1
535.557	8445.54
535.923	8417.74
536.288	8383.62
536.653	8404.64
537.019	8323.96
537.384	8296.62
537.749	8318.76
538.114	8248.48
538.479	8226.34
538.845	8251.87
539.21	8200.35
539.575	8151.09
539.94	8138.2
540.305	8219.78
540.67	8107.24
541.034	8198.54
541.399	8140.46
541.764	8198.54
542.129	8067.7
542.494	8100.69
542.858	8029.73
543.223	8004.87
543.587	7966.91
543.952	7969.39
544.316	7953.35
544.681	7883.07
545.045	7898.44
545.41	7919.68
545.774	7844.43
546.138	7836.74
546.503	7799.46
546.867	7746.35
547.231	7780.02
547.595	7786.8
547.959	7747.48
548.324	7760.36
548.688	7685.79
549.052	7697.76
549.416	7647.6
549.779	7614.83
550.143	7592.91
550.507	7587.71
550.871	7571.21
551.235	7526.69
551.599	7512.23
551.962	7535.51
552.326	7539.8
552.689	7536.41
553.053	7453.48
553.417	7474.94
553.78	7540.48
554.143	7405.79
554.507	7416.42
554.87	7381.61
555.234	7381.39
555.597	7329.19
555.96	7279.7
556.323	7252.13
556.686	7294.16
557.05	7337.77
557.413	7356.08
557.776	7302.97
558.139	7306.59
558.502	7265.23
558.865	7246.7
559.228	7302.29
559.59	7297.55
559.953	7316.08
560.316	7306.14
560.679	7239.92
561.041	7252.58
561.404	7278.79
561.767	7289.86
562.129	7205.57
562.492	7274.72
562.854	7273.37
563.217	7258.68
563.579	7242.41
563.941	7267.04
564.304	7250.09
564.666	7293.71
565.028	7247.15
565.39	7353.14
565.753	7302.75
566.115	7299.81
566.477	7319.69
566.839	7315.4
567.201	7347.49
567.563	7330.32
567.925	7390.43
568.287	7400.37
568.648	7378.68
569.01	7402.18
569.372	7393.59
569.734	7359.24
570.095	7427.71
570.457	7404.21
570.819	7396.75
571.18	7406.25
571.542	7423.42
571.903	7436.3
572.265	7452.57
572.626	7482.18
572.987	7486.92
573.349	7564.21
573.71	7526.24
574.071	7530.54
574.432	7524.89
574.794	7603.98
575.155	7521.95
575.516	7546.36
575.877	7579.12
576.238	7620.7
576.599	7608.95
576.96	7575.06
577.32	7670.87
577.681	7632.91
578.042	7649.86
578.403	7708.16
578.763	7699.8
579.124	7667.03
579.485	7735.73
579.845	7719.46
580.206	7625.9
580.566	7749.51
580.927	7803.3
581.287	7799.68
581.648	7743.86
582.008	7855.5
582.368	7785.67
582.728	7827.25
583.089	7811.88
583.449	7857.76
583.809	7858.44
584.169	7934.59
584.529	7832
584.889	7913.13
585.249	7906.8
585.609	7839.91
585.969	7985.67
586.329	7951.32
586.688	7910.87
587.048	7957.42
587.408	8001.71
587.768	7974.82
588.127	7986.34
588.487	8007.81
588.846	8020.47
589.206	8074.7
589.565	7998.77
589.925	8039.45
590.284	8001.71
590.643	8035.38
591.003	8083.74
591.362	8075.61
591.721	8182.5
592.08	8103.63
592.44	8102.95
592.799	8121.03
593.158	8059.79
593.517	8124.87
593.876	8166.45
594.235	8181.82
594.593	8148.15
594.952	8163.74
595.311	8141.14
595.67	8169.16
596.029	8257.97
596.387	8250.52
596.746	8221.37
597.104	8212.1
597.463	8146.34
597.822	8307.24
598.18	8155.15
598.538	8298.2
598.897	8323.51
599.255	8184.98
599.613	8284.87
599.972	8260.69
600.33	8263.17
600.688	8246.22
601.046	8317.63
601.404	8310.63
601.762	8284.41
602.12	8373.68
602.478	8354.02
602.836	8316.28
603.194	8301.82
603.552	8272.21
603.91	8350.4
604.268	8336.62
604.625	8329.61
604.983	8325.54
605.341	8327.8
605.698	8410.74
606.056	8319.89
606.413	8396.73
606.771	8381.81
607.128	8395.82
607.485	8360.8
607.843	8406.22
608.2	8482.15
608.557	8422.26
608.914	8408.93
609.272	8491.64
609.629	8421.81
609.986	8461.36
610.343	8506.1
610.7	8498.65
611.057	8454.13
611.414	8481.25
611.771	8494.58
612.127	8540.91
612.484	8564.86
612.841	8615.48
613.198	8484.18
613.554	8540.68
613.911	8570.06
614.267	8610.73
614.624	8547.23
614.98	8588.81
615.337	8604.41
615.693	8601.92
616.05	8615.48
616.406	8635.37
616.762	8553.11
617.118	8566.22
617.475	8583.84
617.831	8640.79
618.187	8584.75
618.543	8648.02
618.899	8706.32
619.255	8631.3
619.611	8721.69
619.967	8717.62
620.323	8733.44
620.678	8686.21
621.034	8621.13
621.39	8666.33
621.746	8628.81
622.101	8793.1
622.457	8692.09
622.812	8645.99
623.168	8715.82
623.523	8688.7
623.879	8732.99
624.234	8660
624.589	8750.17
624.945	8740.67
625.3	8642.6
625.655	8624.07
626.01	8695.48
626.365	8655.7
626.72	8669.26
627.075	8696.83
627.43	8662.94
627.785	8608.25
628.14	8738.41
628.495	8696.61
628.85	8643.28
629.205	8642.37
629.559	8686.89
629.914	8614.35
630.269	8646.67
630.623	8617.29
630.978	8591.98
631.332	8616.61
631.687	8612.99
632.041	8617.97
632.396	8630.85
632.75	8566.22
633.104	8556.95
633.459	8563.5
633.813	8543.17
634.167	8517.4
634.521	8507.91
634.875	8516.95
635.229	8506.56
635.583	8514.69
635.937	8460.91
636.291	8496.84
636.645	8377.07
636.999	8440.34
637.352	8467.01
637.706	8502.94
638.06	8463.85
638.413	8416.16
638.767	8393.79
639.121	8432.66
639.474	8410.97
639.828	8325.09
640.181	8356.73
640.534	8420.91
640.888	8340.23
641.241	8314.47
641.594	8317.63
641.947	8353.11
642.301	8393.56
642.654	8320.8
643.007	8350.63
643.36	8333.91
643.713	8297.75
644.066	8437.63
644.419	8323.74
644.771	8228.82
645.124	8196.51
645.477	8213.46
645.83	8139.56
646.182	8076.06
646.535	8076.51
646.888	8128.71
647.24	8051.65
647.593	8108.37
647.945	8079.9
648.298	8039.22
648.65	8000.13
649.002	8063.86
649.355	8085.1
649.707	8058.43
650.059	8055.04
650.411	8177.53
650.763	8170.52
651.115	8272.89
651.467	8228.15
651.819	8229.28
652.171	8256.85
652.523	8224.3
652.875	8224.76
653.227	8187.02
653.578	8299.78
653.93	8273.57
654.282	8177.98
654.633	8234.02
654.985	8182.5
655.337	8202.16
655.688	8209.16
656.039	8234.25
656.391	8201.71
656.742	8198.09
657.094	8198.99
657.445	8223.63
657.796	8192.21
658.147	8269.95
658.498	8193.8
658.849	8255.72
659.2	8264.75
659.551	8243.96
659.902	8265.43
660.253	8276.73
660.604	8313.11
660.955	8227.02
661.306	8268.82
661.656	8321.25
662.007	8280.12
662.358	8309.27
662.708	8273.12
663.059	8238.77
663.409	8208.26
663.76	8263.62
664.11	8270.18
664.461	8258.2
664.811	8255.72
665.161	8325.09
665.511	8206.45
665.862	8303.17
666.212	8313.11
666.562	8296.62
666.912	8341.36
667.262	8361.93
667.612	8370.74
667.962	8351.31
668.312	8244.42
668.662	8353.79
669.011	8329.16
669.361	8324.87
669.711	8280.8
670.06	8249.61
670.41	8277.64
670.76	8322.83
671.109	8309.73
671.459	8310.4
671.808	8210.74
672.157	8253.23
672.507	8232.44
672.856	8243.74
673.205	8248.26
673.554	8223.63
673.904	8231.08
674.253	8279.44
674.602	8196.73
674.951	8099.34
675.3	8064.08
675.649	8210.97
675.998	8221.37
676.346	8218.88
676.695	8190.63
677.044	8184.3
677.393	8135.27
677.741	8146.79
678.09	8106.34
678.438	8186.56
678.787	8091.65
679.135	8134.36
679.484	8064.99
679.832	8091.65
680.181	8064.31
680.529	8085.32
680.877	8092.56
681.225	8000.58
681.573	8098.88
681.922	8050.52
682.27	7970.75
682.618	7979.79
682.966	7946.34
683.314	8001.48
683.661	7949.73
684.009	7924.2
684.357	7880.58
684.705	7887.36
685.053	7881.49
685.4	7866.57
685.748	7803.52
686.095	7805.33
686.443	7850.3
686.79	7796.52
687.138	7772.11
687.485	7797.42
687.832	7748.61
688.18	7767.59
688.527	7669.52
688.874	7676.75
689.221	7635.62
689.568	7589.97
689.915	7560.59
690.262	7595.17
690.609	7587.94
690.956	7476.53
691.303	7509.29
691.65	7483.76
691.997	7517.43
692.344	7486.02
692.69	7414.38
693.037	7385.68
693.383	7329.86
693.73	7377.32
694.077	7369.86
694.423	7347.04
694.769	7288.28
695.116	7210.32
695.462	7238.34
695.808	7245.57
696.155	7250.09
696.501	7146.59
696.847	7143.88
697.193	7098.23
697.539	7095.07
697.885	7079.47
698.231	7011.23
698.577	6995.64
698.923	6952.7
699.269	7007.16
699.614	6915.86
699.96	6903.66
700.306	6931.23
700.651	6886.03
700.997	6866.15
701.342	6800.39
701.688	6809.43
702.033	6832.93
702.379	6776.88
702.724	6737.11
703.069	6713.38
703.415	6663.21
703.76	6665.7
704.105	6627.74
704.45	6647.17
704.795	6564.46
705.14	6550
705.485	6555.19
705.83	6535.31
706.175	6508.42
706.52	6499.6
706.865	6467.74
707.209	6400.62
707.554	6458.02
707.899	6435.65
708.243	6414.86
708.588	6413.05
708.932	6375.76
709.277	6350.45
709.621	6368.08
709.966	6258.48
710.31	6305.94
710.654	6262.77
710.998	6253.73
711.342	6242.66
711.687	6190.46
712.031	6179.61
712.375	6203.34
712.719	6197.46
713.063	6159.73
713.407	6195.88
713.75	6158.14
714.094	6116.56
714.438	6132.61
714.782	6110.46
715.125	6075.43
715.469	6105.26
715.812	6110.91
716.156	6049.9
716.499	6086.51
716.843	6065.26
717.186	5961.76
717.53	6041.31
717.873	5999.28
718.216	6047.86
718.559	5986.62
718.902	5946.17
719.246	5997.24
719.589	6016.23
719.932	5921.31
720.275	5953.18
720.617	5921.31
720.96	5941.88
721.303	5924.48
721.646	5917.92
721.989	5891.94
722.331	5929.67
722.674	5962.44
723.016	5958.6
723.359	5910.47
723.701	5902.56
724.044	5896.68
724.386	5878.83
724.729	5927.19
725.071	5878.38
725.413	5872.5
725.755	5853.74
726.097	5873.4
726.439	5822.11
726.782	5882.9
727.124	5861.88
727.465	5889.22
727.807	5824.82
728.149	5860.3
728.491	5842.45
728.833	5830.24
729.175	5854.2
729.516	5821.2
729.858	5807.64
730.199	5827.53
730.541	5823.01
730.882	5841.54
731.224	5870.92
731.565	5820.98
731.906	5809.68
732.248	5841.54
732.589	5794.08
732.93	5812.39
733.271	5810.81
733.612	5809.23
733.953	5837.93
734.294	5774.65
734.635	5845.16
734.976	5846.06
735.317	5802.67
735.658	5813.97
735.999	5795.44
736.339	5801.54
736.68	5851.94
737.021	5826.85
737.361	5803.8
737.702	5924.03
738.042	5876.12
738.383	5849.9
738.723	5865.27
739.063	5871.82
739.404	5889.9
739.744	5917.7
740.084	5914.31
740.424	5942.1
740.764	5865.27
741.104	5939.17
741.444	5943.23
741.784	5968.77
742.124	6008.32
742.464	5939.84
742.804	6023.46
743.143	5988.2
743.483	6065.94
743.823	6006.06
744.162	6036.56
744.502	6122.21
744.841	6147.3
745.181	6165.15
745.52	6188.88
745.86	6211.02
746.199	6210.12
746.538	6279.95
746.877	6281.3
747.216	6335.31
747.556	6359.72
747.895	6475.65
748.234	6456.44
748.573	6540.05
748.911	6503.67
749.25	6608.75
749.589	6630.9
749.928	6750.9
750.267	6817.56
750.605	6880.16
750.944	6914.28
751.283	6986.82
751.621	7059.36
751.96	7107.95
752.298	7196.08
752.636	7342.97
752.975	7404.44
753.313	7469.75
753.651	7616.41
753.989	7660.7
754.327	7778.67
754.666	7903.63
755.004	7981.6
755.342	8193.8
755.679	8285.09
756.017	8362.38
756.355	8469.95
756.693	8640.79
757.031	8722.6
757.368	8845.08
757.706	8947.67
758.044	9078.52
758.381	9355.57
758.719	9419.75
759.056	9678.28
759.394	9765.96
759.731	9878.72
760.068	10005.95
760.405	10124.59
760.743	10274.42
761.08	10594.18
761.417	10672.37
761.754	10816.78
762.091	10940.16
762.428	11140.16
762.765	11307.16
763.102	11505.8
763.438	11652.46
763.775	11796.86
764.112	11955.5
764.449	12237.08
764.785	12347.36
765.122	12480.24
765.458	12611.98
765.795	12758.87
766.131	12859.66
766.467	13037.51
766.804	13202.93
767.14	13388.46
767.476	13516.14
767.812	13613.99
768.148	13783.93
768.485	13977.37
768.821	13959.07
