Data from hue_38_FLMS001491_00098.txt Node
Date: Tue Feb 07 17:32:15 GMT 2017
User: dcchb
Spectrometer: FLMS00149
Trigger mode: 0
Integration Time (sec): 2.000000E-2
Scans to average: 10
Electric dark correction enabled: true
Nonlinearity correction enabled: false
Boxcar width: 0
XAxis mode: Wavelengths
Number of Pixels in Spectrum: 2048
>>>>>Begin Spectral Data<<<<<
341.393	5.76
341.776	5.76
342.16	5.76
342.543	-60.22
342.927	-71.98
343.31	-66.33
343.693	-71.07
344.077	-62.26
344.46	-58.64
344.843	-59.32
345.226	-36.04
345.61	-42.15
345.993	-31.52
346.376	11.19
346.759	23.16
347.142	19.32
347.525	32.65
347.908	63.39
348.291	88.7
348.674	78.53
349.057	110.39
349.44	142.26
349.823	167.57
350.206	169.37
350.588	187.9
350.971	206.21
351.354	234.01
351.737	243.72
352.119	248.69
352.502	267
352.884	295.25
353.267	296.6
353.65	307.9
354.032	299.99
354.414	316.71
354.797	316.26
355.179	330.27
355.562	328.47
355.944	317.62
356.326	328.24
356.709	345.19
357.091	328.47
357.473	340.89
357.855	370.5
358.238	354
358.62	353.78
359.002	363.49
359.384	332.53
359.766	345.87
360.148	358.3
360.53	344.96
360.912	354.45
361.294	339.99
361.676	343.61
362.057	333.89
362.439	341.12
362.821	322.59
363.203	332.53
363.584	306.55
363.966	349.48
364.348	340.89
364.729	329.37
365.111	317.39
365.493	332.31
365.874	331.4
366.256	315.13
366.637	321.69
367.019	295.92
367.4	318.07
367.781	328.92
368.163	325.75
368.544	328.47
368.925	332.08
369.306	315.58
369.688	315.81
370.069	339.09
370.45	319.88
370.831	313.55
371.212	322.59
371.593	321.91
371.974	314.46
372.355	327.11
372.736	336.6
373.117	328.01
373.498	317.39
373.879	321.46
374.26	295.47
374.641	309.26
375.021	343.83
375.402	329.82
375.783	325.75
376.163	338.64
376.544	321.01
376.925	305.64
377.305	323.72
377.686	324.85
378.066	329.14
378.447	355.58
378.827	347
379.208	366.21
379.588	347
379.968	340.22
380.349	349.93
380.729	339.54
381.109	361.46
381.489	338.64
381.87	352.87
382.25	352.87
382.63	347.67
383.01	350.39
383.39	342.93
383.77	355.36
384.15	351.97
384.53	344.28
384.91	346.54
385.29	368.69
385.67	360.33
386.049	362.82
386.429	377.5
386.809	370.5
387.189	372.53
387.568	376.6
387.948	376.15
388.328	356.26
388.707	360.78
389.087	387.22
389.466	376.6
389.846	381.12
390.225	371.85
390.605	380.22
390.984	374.79
391.363	398.97
391.743	393.77
392.122	395.13
392.501	357.84
392.881	383.38
393.26	386.32
393.639	398.29
394.018	407.11
394.397	386.54
394.776	386.77
395.155	406.66
395.534	405.75
395.913	391.97
396.292	404.85
396.671	407.33
397.05	396.94
397.429	423.38
397.808	394.23
398.186	408.24
398.565	406.88
398.944	423.6
399.323	424.06
399.701	409.59
400.08	411.85
400.458	422.25
400.837	424.51
401.215	407.79
401.594	428.35
401.972	422.93
402.351	433.32
402.729	433.77
403.107	428.35
403.486	443.94
403.864	434.23
404.242	423.38
404.62	426.32
404.999	435.58
405.377	429.93
405.755	436.71
406.133	417.28
406.511	437.62
406.889	465.41
407.267	466.99
407.645	453.89
408.023	457.5
408.401	444.4
408.779	466.09
409.156	462.47
409.534	450.27
409.912	472.19
410.29	483.94
410.667	478.07
411.045	476.48
411.422	471.96
411.8	474
412.178	497.73
412.555	497.73
412.933	518.97
413.31	479.2
413.687	495.69
414.065	476.94
414.442	490.72
414.819	508.12
415.197	520.55
415.574	529.82
415.951	537.95
416.328	522.81
416.705	513.09
417.082	514.9
417.46	536.6
417.837	535.24
418.214	544.51
418.591	546.31
418.967	549.48
419.344	555.35
419.721	535.01
420.098	540.66
420.475	562.36
420.852	560.55
421.228	537.73
421.605	575.92
421.982	552.19
422.358	595.35
422.735	589.7
423.111	594.67
423.488	584.73
423.864	590.61
424.241	598.97
424.617	605.29
424.994	584.5
425.37	615.24
425.746	580.21
426.123	624.73
426.499	611.85
426.875	605.07
427.251	613.66
427.627	635.58
428.003	627.44
428.379	663.82
428.756	657.04
429.132	653.88
429.507	652.98
429.883	673.54
430.259	671.96
430.635	670.15
431.011	656.59
431.387	689.36
431.763	671.96
432.138	705.63
432.514	712.18
432.89	709.47
433.265	736.14
433.641	687.1
434.016	737.49
434.392	732.75
434.767	730.72
435.143	730.49
435.518	742.01
435.894	742.92
436.269	746.99
436.644	782.01
437.02	759.19
437.395	775.46
437.77	770.71
438.145	817.94
438.52	805.97
438.895	770.26
439.271	804.84
439.646	818.4
440.021	827.21
440.395	835.57
440.77	834.22
441.145	816.81
441.52	836.02
441.895	840.54
442.27	855.23
442.645	825.18
443.019	839.64
443.394	846.87
443.769	873.54
444.143	857.49
444.518	873.08
444.892	873.99
445.267	877.38
445.641	881.9
446.016	890.03
446.39	885.97
446.764	895.68
447.139	902.69
447.513	932.52
447.887	926.87
448.262	930.71
448.636	931.61
449.01	949.24
449.384	956.47
449.758	940.65
450.132	949.69
450.506	960.54
450.88	953.76
451.254	982.69
451.628	981.56
452.002	969.58
452.376	985.17
452.75	1003.93
453.123	1048.22
453.497	1018.84
453.871	1032.18
454.244	1050.25
454.618	1055.9
454.992	1076.47
455.365	1069.92
455.739	1085.28
456.112	1113.76
456.486	1087.09
456.859	1108.78
457.232	1142
457.606	1147.65
457.979	1132.74
458.352	1127.77
458.725	1165.73
459.099	1178.39
459.472	1227.65
459.845	1220.19
460.218	1209.57
460.591	1233.3
460.964	1222.45
461.337	1269.68
461.71	1278.95
462.083	1303.81
462.456	1325.5
462.829	1309.91
463.201	1337.03
463.574	1353.07
463.947	1356.91
464.32	1388.78
464.692	1401.21
465.065	1427.42
465.438	1448.89
465.81	1476.23
466.183	1454.54
466.555	1484.14
466.928	1525.04
467.3	1492.05
467.672	1539.51
468.045	1585.83
468.417	1584.7
468.789	1594.42
469.161	1640.3
469.534	1669.22
469.906	1669.22
470.278	1706.28
470.65	1748.09
471.022	1796.9
471.394	1805.04
471.766	1800.29
472.138	1847.3
472.51	1861.53
472.882	1947.41
473.253	1959.84
473.625	1979.72
473.997	2029.89
474.369	2069.66
474.74	2126.16
475.112	2168.64
475.484	2179.04
475.855	2246.61
476.227	2242.09
476.598	2334.06
476.97	2383.1
477.341	2437.34
477.713	2481.86
478.084	2511.01
478.455	2617.45
478.827	2634.85
479.198	2725.24
479.569	2759.59
479.94	2869.42
480.311	2885.69
480.682	2974.5
481.053	3047.49
481.424	3152.57
481.795	3221.95
482.166	3240.03
482.537	3339.69
482.908	3434.15
483.279	3507.82
483.65	3623.52
484.021	3678.89
484.391	3741.71
484.762	3815.61
485.133	3877.98
485.503	3975.15
485.874	4082.27
486.244	4146.9
486.615	4257.4
486.985	4362.71
487.356	4486.32
487.726	4534.46
488.097	4653.1
488.467	4703.72
488.837	4895.58
489.207	4991.62
489.578	5117.04
489.948	5190.26
490.318	5323.81
490.688	5350.48
491.058	5429.8
491.428	5599.74
491.798	5697.59
492.168	5895.33
492.538	5896.68
492.908	6042.89
493.278	6096
493.648	6176.9
494.017	6329.89
494.387	6389.55
494.757	6499.6
495.126	6620.73
495.496	6675.19
495.866	6791.8
496.235	6885.58
496.605	7009.65
496.974	7031.79
497.344	7234.27
497.713	7300.94
498.082	7374.83
498.452	7491.89
498.821	7532.34
499.19	7569.18
499.559	7695.05
499.928	7771.66
500.298	7917.64
500.667	8036.96
501.036	8054.59
501.405	8168.94
501.774	8164.87
502.143	8285.54
502.512	8346.33
502.88	8462.26
503.249	8531.64
503.618	8578.87
503.987	8688.92
504.356	8798.53
504.724	8846.89
505.093	8935.47
505.462	8989.03
505.83	9052.3
506.199	9164.62
506.567	9241
506.936	9272.64
507.304	9423.14
507.672	9520.99
508.041	9515.57
508.409	9582.23
508.777	9666.53
509.145	9782.45
509.514	9768.9
509.882	9865.62
510.25	9977.25
510.618	10017.7
510.986	10127.76
511.354	10101.32
511.722	10254.08
512.09	10397.81
512.458	10304.25
512.826	10505.6
513.193	10534.75
513.561	10588.54
513.929	10619.72
514.297	10750.56
514.664	10847.06
515.032	10862.88
515.4	10977
515.767	11025.13
516.135	11091.57
516.502	11010.9
516.869	11202.53
517.237	11321.62
517.604	11236.43
517.972	11384.45
518.339	11422.19
518.706	11476.65
519.073	11583.99
519.44	11691.78
519.808	11722.29
520.175	11682.29
520.542	11847.94
520.909	11992.79
521.276	11945.11
521.643	12094.26
522.009	12174.93
522.376	12244.08
522.743	12297.19
523.11	12423.29
523.477	12556.62
523.843	12621.7
524.21	12616.28
524.577	12830.06
524.943	12924.29
525.31	12971.98
525.676	13096.27
526.043	13090.16
526.409	13122.71
526.776	13332.42
527.142	13277.28
527.508	13390.72
527.874	13449.93
528.241	13596.82
528.607	13603.15
528.973	13744.61
529.339	13829.13
529.705	13914.78
530.071	13944.15
530.437	13976.02
530.803	14145.73
531.169	14177.59
531.535	14230.02
531.901	14246.07
532.267	14320.64
532.632	14500.52
532.998	14504.82
533.364	14545.72
533.73	14586.85
534.095	14760.4
534.461	14780.06
534.826	14864.13
535.192	14957.46
535.557	15057.34
535.923	15025.25
536.288	15073.61
536.653	15303.67
537.019	15156.78
537.384	15279.71
537.749	15376.21
538.114	15288.52
538.479	15422.98
538.845	15438.8
539.21	15439.93
539.575	15585.24
539.94	15568.07
540.305	15661.85
540.67	15716.08
541.034	15801.51
541.399	15794.95
541.764	15894.84
542.129	16034.27
542.494	16076.75
542.858	16159.01
543.223	16126.24
543.587	16188.39
543.952	16253.02
544.316	16380.25
544.681	16344.99
545.045	16384.77
545.41	16619.34
545.774	16576.63
546.138	16620.47
546.503	16693.46
546.867	16653.46
547.231	16867.47
547.595	16844.87
547.959	16869.27
548.324	16985.88
548.688	16979.33
549.052	17067.46
549.416	17082.38
549.779	17191.75
550.143	17215.93
550.507	17330.05
550.871	17432.2
551.235	17429.03
551.599	17515.58
551.962	17560.78
552.326	17628.12
552.689	17692.53
553.053	17611.18
553.417	17748.8
553.78	17928.46
554.143	17795.58
554.507	17958.06
554.87	17997.83
555.234	18163.93
555.597	18049.36
555.96	18142.69
556.323	18231.95
556.686	18273.3
557.05	18414.32
557.413	18448.22
557.776	18499.97
558.139	18600.53
558.502	18633.3
558.865	18713.29
559.228	18813.4
559.59	18807.98
559.953	18859.05
560.316	19061.53
560.679	19083.23
561.041	19099.05
561.404	19267.85
561.767	19393.95
562.129	19332.49
562.492	19361.86
562.854	19472.82
563.217	19445.93
563.579	19553.05
563.941	19785.58
564.304	19765.69
564.666	19838.91
565.028	19932.7
565.39	20057.66
565.753	20153.93
566.115	20162.29
566.477	20193.71
566.839	20299.24
567.201	20383.31
567.563	20434.6
567.925	20615.39
568.287	20589.85
568.648	20700.13
569.01	20758.89
569.372	21012.67
569.734	20792.56
570.095	20984.19
570.457	21108.71
570.819	21052.89
571.18	21203.62
571.542	21396.61
571.903	21346.9
572.265	21473.67
572.626	21531.07
572.987	21617.85
573.349	21730.62
573.71	21842.25
574.071	22009.03
574.432	21991.4
574.794	22206.76
575.155	22194.78
575.516	22357.04
575.877	22503.7
576.238	22503.02
576.599	22720.65
576.96	22785.28
577.32	22870.7
577.681	22998.6
578.042	23168.09
578.403	23261.65
578.763	23325.15
579.124	23536.9
579.485	23685.82
579.845	23810.79
580.206	23912.48
580.566	24033.61
580.927	24207.16
581.287	24335.97
581.648	24338.68
582.008	24739.12
582.368	24824.77
582.728	24910.42
583.089	25090.98
583.449	25147.02
583.809	25472.89
584.169	25622.04
584.529	25764.18
584.889	26150.84
585.249	26121.69
585.609	26262.47
585.969	26564.84
586.329	26720.77
586.688	26978.16
587.048	27182.22
587.408	27312.16
587.768	27476.68
588.127	27754.41
588.487	27906.5
588.846	28345.58
589.206	28309.88
589.565	28562.98
589.925	28796.64
590.284	28947.83
590.643	29368.83
591.003	29525.44
591.362	29698.32
591.721	29809.72
592.08	30084.29
592.44	30334.46
592.799	30471.18
593.158	30491.74
593.517	30930.15
593.876	31046.08
594.235	31171.95
594.593	31406.52
594.952	31717.7
595.311	31773.51
595.67	32087.4
596.029	32488.3
596.387	32618.92
596.746	32821.62
597.104	32944.78
597.463	33153.82
597.822	33460.48
598.18	33434.04
598.538	33438.33
598.897	33941.14
599.255	33821.82
599.613	34454.12
599.972	34441.02
600.33	34637.62
600.688	34696.83
601.046	34962.58
601.404	35198.74
601.762	35367.77
602.12	35492.51
602.478	35780.42
602.836	35854.54
603.194	35826.52
603.552	36148.09
603.91	36123.46
604.268	36393.96
604.625	36489.78
604.983	36823.1
605.341	36815.19
605.698	37021.29
606.056	37321.39
606.413	37389.64
606.771	37550.54
607.128	37670.53
607.485	37649.97
607.843	37912.34
608.2	38131.09
608.557	38320.01
608.914	38289.73
609.272	38396.62
609.629	38605.43
609.986	38827.34
610.343	38678.42
610.7	39059.88
611.057	39115.02
611.414	39206.99
611.771	39279.53
612.127	39605.17
612.484	39609.02
612.841	39726.53
613.198	39745.96
613.554	39829.12
613.911	40155.22
614.267	40151.37
614.624	40239.05
614.98	40406.51
615.337	40562.66
615.693	40614.86
616.05	40681.53
616.406	40926.72
616.762	40912.03
617.118	40971.01
617.475	40951.58
617.831	41262.53
618.187	41280.61
618.543	41380.49
618.899	41628.17
619.255	41735.29
619.611	41544.33
619.967	41754.27
620.323	41897.54
620.678	41693.48
621.034	41744.33
621.39	41983.64
621.746	41941.38
622.101	42418.43
622.457	42088.05
622.812	42247.14
623.168	42482.16
623.523	42405.55
623.879	42564.19
624.234	42421.82
624.589	42493.68
624.945	42605.32
625.3	42767.8
625.655	42619.33
626.01	42730.29
626.365	42766.45
626.72	42845.09
627.075	42707.69
627.43	42783.85
627.785	42815.71
628.14	42800.34
628.495	42991.07
628.85	42880.79
629.205	42773.45
629.559	43140
629.914	42900.45
630.269	42883.51
630.623	42998.53
630.978	42900.68
631.332	42949.27
631.687	43018.42
632.041	42936.16
632.396	42895.71
632.75	42843.73
633.104	42904.07
633.459	42718.54
633.813	42988.14
634.167	42842.83
634.521	42867.01
634.875	42975.71
635.229	42816.39
635.583	42887.12
635.937	42956.72
636.291	42730.97
636.645	42828.82
636.999	42756.73
637.352	42903.17
637.706	42731.87
638.06	42863.39
638.413	42739.78
638.767	42690.29
639.121	42668.6
639.474	42470.86
639.828	42538.88
640.181	42612.1
640.534	42457.98
640.888	42502.05
641.241	42450.52
641.594	42506.34
641.947	42505.44
642.301	42597.64
642.654	42550.63
643.007	42588.15
643.36	42451.2
643.713	42379.11
644.066	42565.32
644.419	42241.26
644.771	42069.29
645.124	41760.37
645.477	41692.35
645.83	41302.53
646.182	41281.97
646.535	41196.32
646.888	41347.27
647.24	41138.92
647.593	41389.31
647.945	41193.15
648.298	40928.53
648.65	41069.99
649.002	40800.17
649.355	41025.02
649.707	41138.24
650.059	41281.06
650.411	41663.65
650.763	41832.23
651.115	41940.25
651.467	41953.13
651.819	41927.37
652.171	41846.92
652.523	41731.67
652.875	41704.78
653.227	41722.63
653.578	41860.93
653.93	41825.68
654.282	41674.72
654.633	41602.63
654.985	41543.65
655.337	41675.4
655.688	41658.23
656.039	41808.51
656.391	41422.98
656.742	41595.18
657.094	41590.21
657.445	41700.71
657.796	41660.03
658.147	41425.01
658.498	41484.9
658.849	41537.78
659.2	41570.77
659.551	41490.32
659.902	41524.22
660.253	41410.55
660.604	41531.9
660.955	41330.55
661.306	41552.92
661.656	41465.92
662.007	41468.4
662.358	41359.25
662.708	41434.5
663.059	41558.57
663.409	41182.31
663.76	41542.07
664.11	41546.82
664.461	41372.81
664.811	41345.92
665.161	41294.62
665.511	41366.48
665.862	41387.27
666.212	41326.26
666.562	41375.52
666.912	41326.26
667.262	41235.19
667.612	41250.55
667.962	41239.48
668.312	41212.14
668.662	41389.53
669.011	41374.39
669.361	41318.35
669.711	41215.3
670.06	41205.58
670.41	41158.58
670.76	41128.75
671.109	41294.17
671.459	41205.81
671.808	41101.86
672.157	41296.43
672.507	40994.74
672.856	40950.45
673.205	41061.18
673.554	41028.86
673.904	40803.11
674.253	41362.64
674.602	41005.59
674.951	40449.44
675.3	40401.99
675.649	40976.66
675.998	40958.13
676.346	40963.33
676.695	41149.99
677.044	40778.7
677.393	40992.71
677.741	40914.52
678.09	40826.84
678.438	40566.96
678.787	40696.44
679.135	40816.89
679.484	40487.41
679.832	40726.73
680.181	40498.03
680.529	40477.24
680.877	40353.63
681.225	40386.17
681.573	40463.68
681.922	40231.37
682.27	40258.72
682.618	40289.9
682.966	40128.1
683.314	40145.05
683.661	40121.77
684.009	39899.63
684.357	39938.72
684.705	39825.96
685.053	39960.64
685.4	39803.36
685.748	39702.35
686.095	39699.86
686.443	39252.64
686.79	39377.16
687.138	39457.15
687.485	39477.49
687.832	39324.5
688.18	39372.86
688.527	39124.28
688.874	39239.08
689.221	39080.67
689.568	38987.34
689.915	38857.85
690.262	38999.09
690.609	38823.72
690.956	38609.04
691.303	38656.27
691.65	38509.16
691.997	38475.71
692.344	38364.53
692.69	38207.02
693.037	38312.55
693.383	37923.86
693.73	38000.02
694.077	37764.77
694.423	37786.46
694.769	37777.2
695.116	37518.45
695.462	37667.6
695.808	37461.5
696.155	37486.81
696.501	37254.73
696.847	37284.33
697.193	37111
697.539	37150.1
697.885	36965.69
698.231	36830.78
698.577	36868.97
698.923	36783.55
699.269	36506.72
699.614	36409.55
699.96	36489.78
700.306	36489.32
700.651	36184.02
700.997	36074.64
701.342	35965.27
701.688	35900.64
702.033	35845.95
702.379	35874.88
702.724	35769.12
703.069	35721.21
703.415	35339.97
703.76	35436.47
704.105	35435.79
704.45	35409.35
704.795	35218.4
705.14	35152.41
705.485	35199.19
705.83	34929.82
706.175	34951.51
706.52	34854.34
706.865	34764.85
707.209	34695.02
707.554	34556.04
707.899	34618.19
708.243	34488.25
708.588	34411.64
708.932	34099.78
709.277	34220.68
709.621	34247.8
709.966	33990.18
710.31	34042.61
710.654	33820.24
710.998	34019.33
711.342	33827.47
711.687	33768.94
712.031	33551.55
712.375	33481.94
712.719	33580.25
713.063	33479.01
713.407	33523.07
713.75	33272.23
714.094	33355.17
714.438	33120.6
714.782	33106.36
715.125	33058.68
715.469	33149.75
715.812	32959.47
716.156	32800.38
716.499	32820.49
716.843	32808.74
717.186	32626.83
717.53	32656.66
717.873	32580.95
718.216	32492.82
718.559	32553.61
718.902	32302.54
719.246	32306.38
719.589	32265.03
719.932	32218.25
720.275	32162.66
720.617	32127.4
720.96	32081.08
721.303	32102.55
721.646	32017.35
721.989	31912.72
722.331	31833.4
722.674	31739.84
723.016	31902.78
723.359	31806.73
723.701	31879.27
724.044	31575.55
724.386	31473.86
724.729	31507.53
725.071	31494.2
725.413	31440.19
725.755	31427.76
726.097	31324.04
726.439	31234.09
726.782	31177.37
727.124	31295.79
727.465	31117.26
727.807	31146.86
728.149	30999.75
728.491	30962.69
728.833	30942.58
729.175	30954.55
729.516	30767.89
729.858	30762.47
730.199	30853.09
730.541	30727.89
730.882	30699.87
731.224	30833.43
731.565	30546.65
731.906	30495.36
732.248	30596.6
732.589	30394.79
732.93	30284.29
733.271	30321.8
733.612	30373.33
733.953	30364.96
734.294	30231.18
734.635	30083.62
734.976	30148.7
735.317	29888.82
735.658	30108.7
735.999	29960.46
736.339	29964.52
736.68	29966.78
737.021	29796.84
737.361	29742.38
737.702	29810.63
738.042	29723.4
738.383	29744.64
738.723	29684.53
739.063	29517.08
739.404	29680.91
739.744	29575.38
740.084	29423.97
740.424	29538.77
740.764	29312.79
741.104	29515.04
741.444	29298.1
741.784	29254.26
742.124	29413.12
742.464	29160.25
742.804	29235.28
743.143	29122.74
743.483	29270.53
743.823	29087.48
744.162	29066.47
744.502	29066.47
744.841	28931.56
745.181	29021.5
745.52	28879.58
745.86	28949.86
746.199	28921.84
746.538	28859.24
746.877	28898.34
747.216	28836.64
747.556	28815.63
747.895	28788.28
748.234	28677.33
748.573	28583.99
748.911	28578.57
749.25	28598.46
749.589	28424
749.928	28423.77
750.267	28405.24
750.605	28301.06
750.944	28217.68
751.283	28169.32
751.621	28212.93
751.96	28000.05
752.298	28025.14
752.636	28112.59
752.975	27987.85
753.313	27840.96
753.651	27943.11
753.989	27846.16
754.327	27652.27
754.666	27552.61
755.004	27638.03
755.342	27677.8
755.679	27562.1
756.017	27522.33
756.355	27588.09
756.693	27313.07
757.031	27376.57
