Data from hue_300_FLMS001491_00056.txt Node
Date: Tue Feb 07 15:50:55 GMT 2017
User: dcchb
Spectrometer: FLMS00149
Trigger mode: 0
Integration Time (sec): 2.000000E-2
Scans to average: 10
Electric dark correction enabled: true
Nonlinearity correction enabled: false
Boxcar width: 0
XAxis mode: Wavelengths
Number of Pixels in Spectrum: 2048
>>>>>Begin Spectral Data<<<<<
341.393	7.63
341.776	7.63
342.16	7.63
342.543	-71.02
342.927	-73.5
343.31	-84.35
343.693	-68.3
344.077	-66.72
344.46	-60.62
344.843	-60.85
345.226	-48.19
345.61	-17.23
345.993	-9.55
346.376	0.17
346.759	11.24
347.142	41.07
347.525	25.71
347.908	63.22
348.291	77
348.674	87.62
349.057	109.77
349.44	127.4
349.823	128.08
350.206	175.98
350.588	184.8
350.971	195.87
351.354	242.2
351.737	228.41
352.119	238.81
352.502	274.06
352.884	272.03
353.267	260.28
353.65	285.81
354.032	302.99
354.414	297.79
354.797	307.96
355.179	289.43
355.562	317
355.944	298.24
356.326	303.89
356.709	342.53
357.091	327.39
357.473	341.86
357.855	327.62
358.238	324.91
358.62	336.21
359.002	332.36
359.384	320.61
359.766	315.87
360.148	342.99
360.53	335.98
360.912	324.45
361.294	313.16
361.676	326.71
362.057	337.34
362.439	311.35
362.821	328.75
363.203	321.97
363.584	330.56
363.966	337.56
364.348	323.55
364.729	314.74
365.111	298.69
365.493	324.45
365.874	315.19
366.256	301.18
366.637	305.47
367.019	314.51
367.4	317.68
367.781	312.7
368.163	306.6
368.544	285.13
368.925	288.07
369.306	293.95
369.688	301.63
370.069	310.44
370.45	338.01
370.831	310.67
371.212	311.8
371.593	302.99
371.974	338.01
372.355	325.81
372.736	317.22
373.117	302.53
373.498	323.78
373.879	328.75
374.26	317.9
374.641	333.95
375.021	315.64
375.402	330.33
375.783	334.4
376.163	328.3
376.544	306.38
376.925	330.56
377.305	337.11
377.686	325.58
378.066	322.65
378.447	314.06
378.827	346.15
379.208	335.08
379.588	293.04
379.968	326.26
380.349	345.7
380.729	321.97
381.109	337.11
381.489	329.88
381.87	322.65
382.25	341.63
382.63	320.16
383.01	343.44
383.39	340.95
383.77	339.37
384.15	353.61
384.53	332.82
384.91	353.61
385.29	361.97
385.67	347.05
386.049	337.11
386.429	336.66
386.809	365.81
387.189	335.75
387.568	342.53
387.948	351.57
388.328	344.12
388.707	370.1
389.087	353.61
389.466	357.67
389.846	378.92
390.225	371.91
390.605	339.14
390.984	356.54
391.363	369.43
391.743	372.36
392.122	381.85
392.501	394.06
392.881	364
393.26	384.11
393.639	363.78
394.018	386.37
394.397	374.17
394.776	373.04
395.155	387.73
395.534	383.44
395.913	383.89
396.292	379.14
396.671	405.81
397.05	399.71
397.429	399.93
397.808	401.97
398.186	389.09
398.565	397.67
398.944	410.1
399.323	401.74
399.701	408.52
400.08	397.22
400.458	413.72
400.837	433.83
401.215	420.72
401.594	407.39
401.972	404.23
402.351	398.13
402.729	427.28
403.107	417.11
403.486	420.95
403.864	418.92
404.242	427.73
404.62	437.67
404.999	450.1
405.377	467.95
405.755	442.64
406.133	441.51
406.511	447.39
406.889	473.38
407.267	461.17
407.645	489.2
408.023	467.05
408.401	485.81
408.779	479.03
409.156	500.04
409.534	493.72
409.912	495.07
410.29	515.64
410.667	504.56
411.045	517.22
411.422	524.22
411.8	545.01
412.178	560.83
412.555	575.3
412.933	570.1
413.31	564.22
413.687	555.64
414.065	592.24
414.442	601.28
414.819	612.36
415.197	608.97
415.574	600.61
415.951	621.4
416.328	629.31
416.705	630.89
417.082	626.37
417.46	642.41
417.837	676.54
418.214	668.4
418.591	666.59
418.967	677.21
419.344	719.25
419.721	701.62
420.098	704.56
420.475	726.7
420.852	736.87
421.228	741.62
421.605	748.85
421.982	744.78
422.358	774.39
422.735	759.47
423.111	770.54
423.488	800.6
423.864	805.8
424.241	777.55
424.617	798.34
424.994	812.8
425.37	834.95
425.746	832.69
426.123	868.4
426.499	843.54
426.875	859.13
427.251	876.3
427.627	879.02
428.003	912.01
428.379	912.01
428.756	903.42
429.132	930.31
429.507	935.29
429.883	934.83
430.259	945.91
430.635	936.87
431.011	959.92
431.387	1007.15
431.763	1008.5
432.138	1006.47
432.514	1020.93
432.89	1018
433.265	1030.88
433.641	1076.75
434.016	1049.63
434.392	1066.36
434.767	1075.4
435.143	1101.38
435.518	1110.42
435.894	1129.86
436.269	1138.67
436.644	1125.11
437.02	1162.62
437.395	1137.54
437.77	1178.67
438.145	1197.2
438.52	1206.24
438.895	1189.06
439.271	1213.47
439.646	1227.93
440.021	1236.07
440.395	1222.28
440.77	1236.97
441.145	1262.51
441.52	1260.25
441.895	1268.16
442.27	1289.18
442.645	1247.82
443.019	1290.53
443.394	1256.86
443.769	1325.56
444.143	1291.21
444.518	1316.52
444.892	1301.15
445.267	1353.58
445.641	1327.82
446.016	1336.86
446.39	1336.41
446.764	1347.48
447.139	1331.66
447.513	1352.9
447.887	1327.14
448.262	1367.82
448.636	1359.46
449.01	1397.65
449.384	1372.56
449.758	1381.38
450.132	1409.85
450.506	1381.38
450.88	1383.41
451.254	1389.74
451.628	1402.39
452.002	1407.14
452.376	1430.87
452.75	1438.32
453.123	1434.26
453.497	1465.44
453.871	1479
454.244	1441.94
454.618	1496.18
454.992	1467.93
455.365	1488.72
455.739	1498.21
456.112	1530.98
456.486	1503.86
456.859	1515.84
457.232	1587.02
457.606	1555.16
457.979	1547.47
458.352	1606
458.725	1592.67
459.099	1619.34
459.472	1594.93
459.845	1631.99
460.218	1654.14
460.591	1640.8
460.964	1657.3
461.337	1669.28
461.71	1660.01
462.083	1709.05
462.456	1701.82
462.829	1699.56
463.201	1693.01
463.574	1730.07
463.947	1723.74
464.32	1766.22
464.692	1782.5
465.065	1768.71
465.438	1785.89
465.81	1838.09
466.183	1824.3
466.555	1879.89
466.928	1864.53
467.3	1829.73
467.672	1896.39
468.045	1923.73
468.417	1895.71
468.789	1889.61
469.161	1957.63
469.534	1946.11
469.906	1965.09
470.278	1993.11
470.65	2020
471.022	2031.98
471.394	2071.3
471.766	2044.64
472.138	2057.29
472.51	2104.52
472.882	2143.84
473.253	2120.11
473.625	2166.21
473.997	2185.87
474.369	2218.87
474.74	2209.38
475.112	2242.6
475.484	2267.23
475.855	2272.43
476.227	2264.52
476.598	2329.15
476.97	2362.14
477.341	2388.81
477.713	2380.9
478.084	2403.27
478.455	2474.45
478.827	2478.07
479.198	2512.19
479.569	2490.05
479.94	2541.35
480.311	2527.11
480.682	2566.66
481.053	2617.73
481.424	2658.63
481.795	2652.98
482.166	2690.27
482.537	2712.19
482.908	2763.71
483.279	2756.48
483.65	2799.64
484.021	2838.74
484.391	2873.54
484.762	2864.27
485.133	2895.23
485.503	2943.37
485.874	2961.67
486.244	2975.46
486.615	3032.18
486.985	3018.4
487.356	3073.54
487.726	3118.51
488.097	3108.34
488.467	3122.35
488.837	3185.4
489.207	3175.68
489.578	3232.63
489.948	3239.86
490.318	3241.89
490.688	3306.07
491.058	3316.69
491.428	3360.31
491.798	3362.11
492.168	3437.82
492.538	3396.24
492.908	3436.92
493.278	3479.85
493.648	3462.45
494.017	3509.46
494.387	3524.82
494.757	3550.13
495.126	3574.54
495.496	3547.19
495.866	3597.36
496.235	3625.84
496.605	3657.93
496.974	3659.28
497.344	3658.38
497.713	3689.56
498.082	3692.95
498.452	3730.47
498.821	3719.62
499.19	3724.82
499.559	3767.3
499.928	3753.29
500.298	3812.95
500.667	3771.14
501.036	3833.06
501.405	3845.04
501.774	3846.17
502.143	3848.43
502.512	3848.88
502.88	3873.97
503.249	3881.65
503.618	3913.51
503.987	3911.71
504.356	3926.17
504.724	3950.8
505.093	3945.38
505.462	3960.29
505.83	3981.99
506.199	3970.01
506.567	4003.91
506.936	4063.11
507.304	4110.12
507.672	4031.48
508.041	4079.38
508.409	4047.52
508.777	4085.71
509.145	4109.21
509.514	4113.06
509.882	4098.14
510.25	4157.35
510.618	4143.11
510.986	4127.74
511.354	4182.43
511.722	4169.1
512.09	4225.82
512.458	4195.99
512.826	4225.82
513.193	4257.01
513.561	4233.5
513.929	4288.42
514.297	4262.88
514.664	4283.67
515.032	4296.33
515.4	4326.84
515.767	4308.3
516.135	4314.18
516.502	4264.69
516.869	4376.1
517.237	4331.81
517.604	4342.65
517.972	4360.51
518.339	4412.03
518.706	4370.9
519.073	4370
519.44	4417.91
519.808	4434.63
520.175	4421.3
520.542	4483.67
520.909	4501.07
521.276	4461.07
521.643	4468.3
522.009	4518.69
522.376	4509.88
522.743	4588.07
523.11	4573.83
523.477	4582.42
523.843	4607.73
524.21	4614.51
524.577	4665.58
524.943	4676.66
525.31	4684.79
525.676	4718.01
526.043	4733.83
526.409	4707.16
526.776	4775.86
527.142	4768.86
527.508	4776.54
527.874	4831.23
528.241	4840.04
528.607	4886.59
528.973	4877.33
529.339	4919.36
529.705	4977.21
530.071	4969.98
530.437	4967.72
530.803	5025.12
531.169	5021.96
531.535	5004.11
531.901	5035.74
532.267	5065.8
532.632	5093.37
532.998	5099.92
533.364	5126.59
533.73	5153.93
534.095	5142.86
534.461	5211.56
534.826	5205.46
535.192	5240.03
535.557	5255.4
535.923	5279.8
536.288	5298.79
536.653	5327.71
537.019	5303.53
537.384	5403.64
537.749	5332.23
538.114	5407.94
538.479	5380.37
538.845	5376.75
539.21	5400.71
539.575	5437.09
539.94	5482.74
540.305	5544.88
540.67	5527.93
541.034	5539.46
541.399	5592.56
541.764	5620.81
542.129	5653.35
542.494	5633.47
542.858	5699
543.223	5673.69
543.587	5731.09
543.952	5669.4
544.316	5785.78
544.681	5755.95
545.045	5781.94
545.41	5796.63
545.774	5837.3
546.138	5821.49
546.503	5889.05
546.867	5875.95
547.231	5951.2
547.595	5960.46
547.959	5986.23
548.324	5990.07
548.688	6007.24
549.052	6078.43
549.416	6075.26
549.779	6074.81
550.143	6079.11
550.507	6140.8
550.871	6119.78
551.235	6124.3
551.599	6192.1
551.962	6196.84
552.326	6193
552.689	6206.11
553.053	6206.11
553.417	6248.14
553.78	6291.53
554.143	6297.18
554.507	6313
554.87	6354.13
555.234	6378.76
555.597	6343.05
555.96	6338.08
556.323	6417.18
556.686	6411.98
557.05	6459.21
557.413	6461.24
557.776	6449.94
558.139	6517.29
558.502	6485.42
558.865	6489.26
559.228	6569.49
559.59	6595.93
559.953	6601.35
560.316	6614.68
560.679	6593.89
561.041	6609.04
561.404	6688.36
561.767	6696.04
562.129	6763.61
562.492	6756.38
562.854	6734.68
563.217	6775.81
563.579	6765.42
563.941	6835.47
564.304	6845.19
564.666	6878.41
565.028	6920.67
565.39	6904.62
565.753	6903.49
566.115	6978.74
566.477	7010.38
566.839	6975.81
567.201	7024.84
567.563	6977.39
567.925	7090.6
568.287	7084.73
568.648	7109.36
569.01	7197.72
569.372	7201.79
569.734	7176.03
570.095	7225.74
570.457	7317.72
570.819	7352.52
571.18	7295.8
571.542	7368.56
571.903	7391.16
572.265	7464.61
572.626	7454.89
572.987	7540.08
573.349	7611.95
573.71	7635.9
574.071	7714.99
574.432	7764.03
574.794	7792.06
575.155	7851.26
575.516	7895.1
575.877	7952.95
576.238	8015.1
576.599	8105.27
576.96	8160.41
577.32	8246.73
577.681	8303
578.042	8384.13
578.403	8462.09
578.763	8590
579.124	8639.94
579.485	8777.11
579.845	8890.56
580.206	8952.48
580.566	9069.31
580.927	9238.57
581.287	9349.98
581.648	9420.26
582.008	9622.52
582.368	9751.1
582.728	9898.44
583.089	10001.94
583.449	10162.61
583.809	10452.32
584.169	10597.18
584.529	10745.2
584.889	11047.11
585.249	11218.18
585.609	11386.76
585.969	11550.6
586.329	11864.49
586.688	12070.81
587.048	12276.46
587.408	12430.58
587.768	12744.24
588.127	12957.79
588.487	13209.09
588.846	13497.67
589.206	13708.96
589.565	13985.11
589.925	14315.5
590.284	14479.11
590.643	14802.04
591.003	15073.45
591.362	15374
591.721	15593.66
592.08	15966.76
592.44	16290.81
592.799	16620.3
593.158	16787.07
593.517	17095.99
593.876	17508.41
594.235	17655.75
594.593	18037.44
594.952	18340.93
595.311	18647.59
595.67	18906.34
596.029	19420.45
596.387	19739.99
596.746	20014.11
597.104	20169.58
597.463	20570.02
597.822	20936.34
598.18	21095.66
598.538	21460.62
598.897	21831.91
599.255	21958.46
599.613	22524.1
599.972	22731.55
600.33	23060.13
600.688	23107.58
601.046	23580.57
601.404	23892.65
601.762	24111.17
602.12	24523.37
602.478	24792.29
602.836	25052.62
603.194	25240.86
603.552	25580.74
603.91	25653.96
604.268	26066.38
604.625	26237.67
604.983	26591.79
605.341	26873.36
605.698	27224.09
606.056	27467.47
606.413	27626.79
606.771	27939.1
607.128	28236.26
607.485	28228.58
607.843	28603.94
608.2	28875.57
608.557	29160.53
608.914	29358.72
609.272	29622.44
609.629	29869.44
609.986	30030.57
610.343	30165.48
610.7	30703.54
611.057	30786.48
611.414	30893.14
611.771	31210.42
612.127	31464.88
612.484	31625.78
612.841	31760.24
613.198	31938.99
613.554	31940.35
613.911	32404.97
614.267	32501.91
614.624	32705.3
614.98	32777.16
615.337	33021.45
615.693	33193.87
616.05	33275
616.406	33628.21
616.762	33623.24
617.118	33799.28
617.475	33917.24
617.831	34093.51
618.187	34326.27
618.543	34365.59
618.899	34738.47
619.255	34645.59
619.611	34736.21
619.967	35060.94
620.323	35194.27
620.678	35138.91
621.034	35316.3
621.39	35447.83
621.746	35426.36
622.101	36025.66
622.457	35834.48
622.812	35901.82
623.168	36003.06
623.523	36062.5
623.879	36172.55
624.234	36234.92
624.589	36296.16
624.945	36523.95
625.3	36520.11
625.655	36658.87
626.01	36729.6
626.365	36794.23
626.72	36921.23
627.075	36892.08
627.43	36955.58
627.785	36789.48
628.14	37078.97
628.495	37282.35
628.85	37159.42
629.205	37102.47
629.559	37367.32
629.914	37178.63
630.269	37411.39
630.623	37218.63
630.978	37246.65
631.332	37385.18
631.687	37530.93
632.041	37407.55
632.396	37441.44
632.75	37446.19
633.104	37563.93
633.459	37450.71
633.813	37472.63
634.167	37438.51
634.521	37391.5
634.875	37654.55
635.229	37672.85
635.583	37368.45
635.937	37566.87
636.291	37592.4
636.645	37575.9
636.999	37609.58
637.352	37668.78
637.706	37424.04
638.06	37687.54
638.413	37723.47
638.767	37508.11
639.121	37666.07
639.474	37523.7
639.828	37486.64
640.181	37584.94
640.534	37613.87
640.888	37571.16
641.241	37416.36
641.594	37415.91
641.947	37391.05
642.301	37428.34
642.654	37531.16
643.007	37588.56
643.36	37421.11
643.713	37339.75
644.066	37595.57
644.419	37296.82
644.771	37241.45
645.124	36783.38
645.477	36728.24
645.83	36615.48
646.182	36502.26
646.535	36333.23
646.888	36431.08
647.24	36265.43
647.593	36486.67
647.945	36501.13
648.298	36239.44
648.65	36331.87
649.002	36161.93
649.355	36400.12
649.707	36315.37
650.059	36536.84
650.411	36788.81
650.763	36979.08
651.115	37412.07
651.467	37196.25
651.819	37179.53
652.171	37043.26
652.523	36872.19
652.875	36987.67
653.227	36922.14
653.578	37177.05
653.93	37073.09
654.282	36957.39
654.633	36881.91
654.985	36898.63
655.337	37034
655.688	36946.09
656.039	37231.51
656.391	36834.68
656.742	37016.37
657.094	36905.64
657.445	37021.79
657.796	36932.31
658.147	36873.78
658.498	36876.71
658.849	36937.73
659.2	36953.1
659.551	36804.85
659.902	36941.57
660.253	36910.84
660.604	36851.86
660.955	36737.73
661.306	36976.15
661.656	36883.72
662.007	36848.47
662.358	36878.3
662.708	36861.57
663.059	36925.07
663.409	36648.7
663.76	36994.23
664.11	36830.39
664.461	36956.71
664.811	36895.47
665.161	36776.15
665.511	36712.88
665.862	36811.18
666.212	36709.26
666.562	36905.41
666.912	36769.15
667.262	36750.39
667.612	36785.87
667.962	36850.5
668.312	36768.47
668.662	36879.2
669.011	36653.44
669.361	36648.47
669.711	36807.34
670.06	36708.13
670.41	36668.58
670.76	36578.42
671.109	36711.97
671.459	36601.92
671.808	36627.68
672.157	36624.52
672.507	36341.59
672.856	36423.17
673.205	36506.55
673.554	36473.11
673.904	36450.28
674.253	36660
674.602	36439.44
674.951	35945.89
675.3	35814.14
675.649	36333.68
675.998	36487.35
676.346	36484.86
676.695	36493.22
677.044	36191.99
677.393	36533.9
677.741	36471.98
678.09	36257.07
678.438	36127.81
678.787	36351.53
679.135	36322.15
679.484	36020.92
679.832	36172.1
680.181	36060.69
680.529	36044.65
680.877	35944.99
681.225	36015.95
681.573	36140.24
681.922	35884.65
682.27	35812.34
682.618	35863.63
682.966	35758.55
683.314	35742.05
683.661	35616.41
684.009	35558.56
684.357	35599.23
684.705	35401.5
685.053	35457.54
685.4	35572.12
685.748	35399.01
686.095	35345
686.443	35201.28
686.79	35038.8
687.138	35211.22
687.485	35155.4
687.832	34921.06
688.18	35146.59
688.527	34900.27
688.874	34898.69
689.221	34700.95
689.568	34630.45
689.915	34532.37
690.262	34611.69
690.609	34403.33
690.956	34403.11
691.303	34376.67
691.65	34284.69
691.997	34237.91
692.344	34022.55
692.69	33963.8
693.037	34020.52
693.383	33864.36
693.73	33994.3
694.077	33734.65
694.423	33677.93
694.769	33575.78
695.116	33537.14
695.462	33518.16
695.808	33432.51
696.155	33370.82
696.501	33096.02
696.847	33212.4
697.193	32971.51
697.539	33031.39
697.885	32755.69
698.231	32682.02
698.577	32662.81
698.923	32588.24
699.269	32541.01
699.614	32349.38
699.96	32273.45
700.306	32255.59
700.651	32173.79
700.997	32116.84
701.342	32033.45
701.688	31864.42
702.033	32012.66
702.379	31812.21
702.724	31706.91
703.069	31907.81
703.415	31491.77
703.76	31442.96
704.105	31523.86
704.45	31454.26
704.795	31241.16
705.14	31157.32
705.485	31147.6
705.83	31110.09
706.175	31082.06
706.52	31058.56
706.865	30887.94
707.209	30809.98
707.554	30672.13
707.899	30829.87
708.243	30612.02
708.588	30544.23
708.932	30318.24
709.277	30425.81
709.621	30390.1
709.966	30269.88
710.31	30203.9
710.654	29987.63
710.998	30125.48
711.342	30079.83
711.687	29947.18
712.031	29780.18
712.375	29753.29
712.719	29715.09
713.063	29736.56
713.407	29834.41
713.75	29595.1
714.094	29575.44
714.438	29394.88
714.782	29468.77
715.125	29396.91
715.469	29460.41
715.812	29271.72
716.156	29217.03
716.499	29110.36
716.843	29139.74
717.186	29019.07
717.53	29152.4
717.873	29129.35
718.216	28928.45
718.559	28715.57
718.902	28632.41
719.246	28781.56
719.589	28602.81
719.932	28617.5
720.275	28467.44
720.617	28519.42
720.96	28471.06
721.303	28463.38
721.646	28448.91
721.989	28282.59
722.331	28374.79
722.674	28289.14
723.016	28348.8
723.359	28137.73
723.701	28273.78
724.044	28005.99
724.386	27903.16
724.729	27978.64
725.071	27940.68
725.413	27866.56
725.755	27965.76
726.097	27662.49
726.439	27548.15
726.782	27761.7
727.124	27746.11
727.465	27660.01
727.807	27654.58
728.149	27588.82
728.491	27570.97
728.833	27539.78
729.175	27429.96
729.516	27457.53
729.858	27486.45
730.199	27357.42
730.541	27336.63
730.882	27278.32
731.224	27316.51
731.565	27102.06
731.906	27159.68
732.248	27114.03
732.589	27111.55
732.93	27018.22
733.271	26918.11
733.612	27024.77
733.953	26980.93
734.294	26790.2
734.635	26848.28
734.976	26867.03
735.317	26809.86
735.658	26752.91
735.999	26741.61
736.339	26596.53
736.68	26730.99
737.021	26631.79
737.361	26591.11
737.702	26687.15
738.042	26539.81
738.383	26534.84
738.723	26577.78
739.063	26460.04
739.404	26485.57
739.744	26381.4
740.084	26270.21
740.424	26371
740.764	26297.56
741.104	26414.84
741.444	26223.43
741.784	26033.38
742.124	26171.01
742.464	26082.2
742.804	26127.62
743.143	26108.41
743.483	26015.98
743.823	25851.24
744.162	25919.71
744.502	25853.05
744.841	25751.36
745.181	25899.6
745.52	25841.07
745.86	25844.69
746.199	25715.65
746.538	25725.82
746.877	25712.49
747.216	25693.28
747.556	25675.88
747.895	25657.57
748.234	25539.16
748.573	25479.73
748.911	25479.95
749.25	25479.05
749.589	25468.65
749.928	25392.72
750.267	25512.04
750.605	25386.39
750.944	25214.2
751.283	25212.39
751.621	25193.41
751.96	25033.41
752.298	25144.82
752.636	25075.89
752.975	25045.61
753.313	25003.58
753.651	25053.52
753.989	24884.49
754.327	24969.68
754.666	24747.32
755.004	24830.48
755.342	24827.77
755.679	24870.93
756.017	24681.55
756.355	24741.67
756.693	24540.99
757.031	24675.9
757.368	24588.45
757.706	24529.24
758.044	24460.54
758.381	24492.18
758.719	24395.01
759.056	24449.24
759.394	24302.36
759.731	24060.33
760.068	24081.8
