Data from hue_40_FLMS001491_21.txt Node
Date: Mon Feb 06 15:07:39 GMT 2017
User: dcchb
Spectrometer: FLMS00149
Trigger mode: 0
Integration Time (sec): 2.000000E-2
Scans to average: 10
Electric dark correction enabled: true
Nonlinearity correction enabled: false
Boxcar width: 0
XAxis mode: Wavelengths
Number of Pixels in Spectrum: 2048
>>>>>Begin Spectral Data<<<<<
341.393	-7.2
341.776	-7.2
342.16	-7.2
342.543	-49.69
342.927	-67.54
343.31	-53.53
343.693	-62.12
344.077	-56.47
344.46	-67.99
344.843	-58.28
345.226	-42.23
345.61	-31.84
345.993	-22.12
346.376	13.36
346.759	10.42
347.142	4.77
347.525	60.59
347.908	45.45
348.291	63.53
348.674	94.94
349.057	101.49
349.44	141.49
349.823	136.07
350.206	164.09
350.588	179.23
350.971	221.94
351.354	217.2
351.737	263.98
352.119	239.34
352.502	252
352.884	278.89
353.267	287.7
353.65	280.02
354.032	309.62
354.414	317.31
354.797	320.02
355.179	334.71
355.562	330.64
355.944	335.61
356.326	329.29
356.709	338.55
357.091	335.39
357.473	335.84
357.855	364.54
358.238	357.08
358.62	361.83
359.002	327.03
359.384	323.18
359.766	350.98
360.148	335.16
360.53	347.36
360.912	346.23
361.294	348.49
361.676	339.91
362.057	347.14
362.439	348.49
362.821	341.49
363.203	342.39
363.584	327.03
363.966	327.48
364.348	334.71
364.729	340.81
365.111	335.16
365.493	325.67
365.874	341.04
366.256	314.37
366.637	335.84
367.019	311.21
367.4	338.55
367.781	313.24
368.163	305.1
368.544	304.65
368.925	314.82
369.306	318.44
369.688	310.75
370.069	322.05
370.45	322.28
370.831	311.88
371.212	320.25
371.593	333.35
371.974	310.75
372.355	319.57
372.736	309.17
373.117	316.63
373.498	329.51
373.879	331.32
374.26	317.08
374.641	344.43
375.021	321.6
375.402	319.12
375.783	330.64
376.163	347.14
376.544	346.46
376.925	323.18
377.305	327.93
377.686	324.31
378.066	335.16
378.447	338.1
378.827	333.35
379.208	333.8
379.588	349.85
379.968	333.35
380.349	338.78
380.729	345.56
381.109	358.66
381.489	347.59
381.87	346.23
382.25	361.6
382.63	365.22
383.01	339.91
383.39	329.29
383.77	345.56
384.15	339.23
384.53	350.53
384.91	345.56
385.29	348.27
385.67	347.82
386.049	361.6
386.429	364.09
386.809	375.84
387.189	366.57
387.568	357.08
387.948	363.86
388.328	353.47
388.707	367.93
389.087	363.63
389.466	360.7
389.846	350.98
390.225	404.31
390.605	365.44
390.984	389.62
391.363	360.24
391.743	379
392.122	379
392.501	384.42
392.881	370.19
393.26	380.13
393.639	375.16
394.018	386.46
394.397	372.67
394.776	398.21
395.155	376.52
395.534	375.16
395.913	395.27
396.292	396.18
396.671	383.75
397.05	413.58
397.429	384.42
397.808	388.27
398.186	408.83
398.565	398.21
398.944	410.64
399.323	418.77
399.701	410.64
400.08	406.35
400.458	424.2
400.837	413.8
401.215	397.08
401.594	405.67
401.972	399.79
402.351	421.71
402.729	421.03
403.107	405.89
403.486	435.27
403.864	405.22
404.242	421.49
404.62	418.32
404.999	416.74
405.377	427.81
405.755	427.59
406.133	431.66
406.511	422.39
406.889	443.18
407.267	434.14
407.645	419.9
408.023	435.05
408.401	440.92
408.779	425.33
409.156	435.27
409.534	472.11
409.912	469.17
410.29	470.07
410.667	446.8
411.045	471.43
411.422	480.24
411.8	483.63
412.178	449.73
412.555	483.86
412.933	491.54
413.31	503.74
413.687	478.21
414.065	496.96
414.442	492.67
414.819	512.56
415.197	510.98
415.574	489.73
415.951	489.73
416.328	529.73
416.705	494.03
417.082	491.31
417.46	542.16
417.837	499
418.214	508.94
418.591	508.49
418.967	508.49
419.344	526.57
419.721	538.55
420.098	542.16
420.475	536.06
420.852	573.57
421.228	557.53
421.605	541.71
421.982	547.58
422.358	581.71
422.735	562.5
423.111	566.34
423.488	568.15
423.864	564.76
424.241	592.33
424.617	582.39
424.994	574.25
425.37	598.66
425.746	567.92
426.123	627.81
426.499	585.32
426.875	590.52
427.251	625.55
427.627	610.63
428.003	613.57
428.379	623.97
428.756	615.15
429.132	643.4
429.507	605.21
429.883	615.83
430.259	641.14
430.635	642.5
431.011	673.46
431.387	667.36
431.763	691.54
432.138	675.72
432.514	661.93
432.89	655.15
433.265	673
433.641	684.76
434.016	693.8
434.392	700.8
434.767	717.07
435.143	709.61
435.518	737.18
435.894	708.26
436.269	747.13
436.644	737.41
437.02	738.54
437.395	756.62
437.77	762.72
438.145	769.5
438.52	771.99
438.895	770.86
439.271	776.28
439.646	796.84
440.021	793.45
440.395	820.35
440.77	790.06
441.145	800.23
441.52	813.11
441.895	787.13
442.27	810.63
442.645	838.2
443.019	829.16
443.394	828.93
443.769	840.91
444.143	826.45
444.518	859.21
444.892	838.2
445.267	852.89
445.641	889.5
446.016	857.86
446.39	875.26
446.764	856.05
447.139	844.3
447.513	883.17
447.887	888.14
448.262	891.3
448.636	898.76
449.01	909.83
449.384	888.14
449.758	909.83
450.132	927.24
450.506	938.31
450.88	925.43
451.254	926.56
451.628	934.01
452.002	955.48
452.376	956.84
452.75	964.07
453.123	961.81
453.497	975.14
453.871	983.05
454.244	1004.97
454.618	1004.07
454.992	1029.15
455.365	1033.22
455.739	1041.58
456.112	1029.15
456.486	1054.92
456.859	1075.48
457.232	1054.92
457.606	1087.91
457.979	1100.34
458.352	1098.98
458.725	1110.06
459.099	1131.52
459.472	1125.65
459.845	1148.7
460.218	1136.5
460.591	1186.44
460.964	1169.94
461.337	1191.86
461.71	1239.09
462.083	1227.11
462.456	1252.2
462.829	1261.01
463.201	1271.86
463.574	1282.03
463.947	1322.93
464.32	1340.56
464.692	1349.15
465.065	1344.63
465.438	1352.31
465.81	1388.92
466.183	1407
466.555	1426.21
466.928	1437.73
467.3	1484.28
467.672	1475.24
468.045	1497.16
468.417	1524.51
468.789	1541.91
469.161	1531.29
469.534	1551.85
469.906	1624.17
470.278	1608.8
470.65	1645.86
471.022	1697.38
471.394	1717.05
471.766	1733.32
472.138	1770.83
472.51	1811.51
472.882	1815.8
473.253	1855.35
473.625	1935.8
473.997	1956.14
474.369	1980.54
474.74	2020.99
475.112	2039.75
475.484	2083.59
475.855	2130.82
476.227	2173.76
476.598	2237.71
476.97	2273.64
477.341	2383.47
477.713	2365.39
478.084	2433.41
478.455	2507.31
478.827	2594.31
479.198	2620.52
479.569	2675.89
479.94	2750.01
480.311	2827.3
480.682	2910.69
481.053	2994.53
481.424	3040.4
481.795	3096.44
482.166	3188.42
482.537	3262.32
482.908	3321.75
483.279	3456.21
483.65	3509.99
484.021	3632.02
484.391	3682.87
484.762	3794.28
485.133	3842.19
485.503	3914.5
485.874	4047.61
486.244	4067.04
486.615	4222.74
486.985	4361.27
487.356	4427.48
487.726	4545.9
488.097	4669.06
488.467	4739.56
488.837	4909.5
489.207	4924.64
489.578	5084.41
489.948	5204.86
490.318	5342.26
490.688	5351.3
491.058	5516.49
491.428	5640.78
491.798	5728.69
492.168	5934.11
492.538	6007.78
492.908	6054.56
493.278	6171.17
493.648	6246.42
494.017	6458.84
494.387	6513.98
494.757	6655.67
495.126	6766.86
495.496	6827.19
495.866	6881.2
496.235	7045.27
496.605	7195.55
496.974	7226.28
497.344	7364.13
497.713	7440.28
498.082	7518.7
498.452	7671.24
498.821	7761.41
499.19	7837.34
499.559	8010.89
499.928	8052.25
500.298	8134.96
500.667	8263.77
501.036	8261.96
501.405	8412.24
501.774	8425.12
502.143	8551.89
502.512	8708.73
502.88	8779.23
503.249	8768.84
503.618	8819.23
503.987	8941.71
504.356	9068.26
504.724	9136.06
505.093	9237.07
505.462	9327.47
505.83	9468.48
506.199	9528.37
506.567	9648.36
506.936	9727.91
507.304	9786.44
507.672	9869.37
508.041	9960.22
508.409	10056.49
508.777	10089.48
509.145	10264.17
509.514	10256.26
509.882	10355.01
510.25	10378.29
510.618	10510.94
510.986	10508
511.354	10564.27
511.722	10716.81
512.09	10878.16
512.458	10780.08
512.826	10970.59
513.193	11002.9
513.561	11123.13
513.929	11175.55
514.297	11237.47
514.664	11336.68
515.032	11342.1
515.4	11522.44
515.767	11516.11
516.135	11677.46
516.502	11615.77
516.869	11844.69
517.237	11820.06
517.604	11799.94
517.972	11980.5
518.339	12060.5
518.706	12051.46
519.073	12166.71
519.44	12216.43
519.808	12366.93
520.175	12383.88
520.542	12590.21
520.909	12567.16
521.276	12622.52
521.643	12718.34
522.009	12808.51
522.376	13014.83
522.743	12992.45
523.11	13040.36
523.477	13198.55
523.843	13226.8
524.21	13327.14
524.577	13467.92
524.943	13519.67
525.31	13560.58
525.676	13793.34
526.043	13762.6
526.409	13901.58
526.776	13969.6
527.142	14081.92
527.508	14157.4
527.874	14288.47
528.241	14304.06
528.607	14359.42
528.973	14537.05
529.339	14489.59
529.705	14697.72
530.071	14736.36
530.437	14735.46
530.803	14844.16
531.169	14949.24
531.535	14930.03
531.901	15021.33
532.267	15181.78
532.632	15203.24
532.998	15279.63
533.364	15290.7
533.73	15375.44
534.095	15537.92
534.461	15536.57
534.826	15637.13
535.192	15692.05
535.557	15903.34
535.923	15867.86
536.288	15965.94
536.653	16008.19
537.019	16037.12
537.384	16109.66
537.749	16178.81
538.114	16224.23
538.479	16190.79
538.845	16380.61
539.21	16324.12
539.575	16431.01
539.94	16597.56
540.305	16582.42
540.67	16585.13
541.034	16568.41
541.399	16788.74
541.764	16797.33
542.129	16811.56
542.494	16979.02
542.858	16963.2
543.223	17049.07
543.587	17090.43
543.952	17226.92
544.316	17219.91
544.681	17266.47
545.045	17273.02
545.41	17491.55
545.774	17497.65
546.138	17478.44
546.503	17548.72
546.867	17682.05
547.231	17795.27
547.595	17827.13
547.959	17842.72
548.324	17856.06
548.688	18047.92
549.052	18027.8
549.416	18015.6
549.779	18131.75
550.143	18193.45
550.507	18298.3
550.871	18324.07
551.235	18346.89
551.599	18456.72
551.962	18412.43
552.326	18621.91
552.689	18661.01
553.053	18624.17
553.417	18699.65
553.78	18914.56
554.143	18761.79
554.507	18893.32
554.87	19021
555.234	19197.72
555.597	19053.09
555.96	19209.24
556.323	19290.14
556.686	19324.49
557.05	19466.86
557.413	19423.25
557.776	19513.41
558.139	19649.91
558.502	19631.83
558.865	19740.75
559.228	19916.11
559.59	19925.61
559.953	19950.01
560.316	20137.58
560.679	20122.44
561.041	20130.8
561.404	20312.71
561.767	20436.1
562.129	20373.5
562.492	20548.41
562.854	20672.71
563.217	20613.5
563.579	20641.97
563.941	20794.28
564.304	20879.71
564.666	21093.03
565.028	21086.03
565.39	21149.98
565.753	21244.22
566.115	21246.02
566.477	21424.32
566.839	21492.34
567.201	21569.63
567.563	21601.72
567.925	21772.56
568.287	21734.6
568.648	21805.78
569.01	21942.5
569.372	22095.49
569.734	22111.09
570.095	22168.48
570.457	22246.9
570.819	22410.06
571.18	22356.5
571.542	22540
571.903	22553.56
572.265	22560.34
572.626	22743.39
572.987	22863.38
573.349	22953.55
573.71	23057.73
574.071	23166.42
574.432	23294.78
574.794	23462.01
575.155	23402.35
575.516	23398.06
575.877	23649.12
576.238	23793.75
576.599	23929.12
576.96	24022
577.32	24050.7
577.681	24177.7
578.042	24408.43
578.403	24429.22
578.763	24529.78
579.124	24731.58
579.485	24900.39
579.845	25086.15
580.206	25080.05
580.566	25170.44
580.927	25375.41
581.287	25589.86
581.648	25585.12
582.008	25843.64
582.368	26019.23
582.728	26048.83
583.089	26255.61
583.449	26406.79
583.809	26518.2
584.169	26723.39
584.529	26823.73
584.889	27282.02
585.249	27107.79
585.609	27273.44
585.969	27670.26
586.329	27808.79
586.688	27995.22
587.048	28129.01
587.408	28206.97
587.768	28509.56
588.127	28506.4
588.487	28728.54
588.846	29162.2
589.206	29049.21
589.565	29280.39
589.925	29691
590.284	29764.22
590.643	29963.08
591.003	30273.36
591.362	30432.9
591.721	30494.82
592.08	30914.02
592.44	31012.32
592.799	31134.58
593.158	31292.99
593.517	31456.38
593.876	31684.62
594.235	31855.01
594.593	32094.1
594.952	32312.4
595.311	32454.32
595.67	32594.43
596.029	32999.39
596.387	33043.68
596.746	33323.45
597.104	33298.14
597.463	33431.47
597.822	33756.88
598.18	33853.15
598.538	34017.89
598.897	34238.45
599.255	34160.71
599.613	34748.27
599.972	34773.58
600.33	34877.76
600.688	34937.64
601.046	35223.28
601.404	35484.07
601.762	35529.94
602.12	35809.03
602.478	35993.21
602.836	36119.76
603.194	35981.46
603.552	36175.8
603.91	36295.12
604.268	36698.72
604.625	36593.87
604.983	36749.34
605.341	36765.16
605.698	37166.51
606.056	37229.78
606.413	37338.93
606.771	37428.87
607.128	37639.94
607.485	37549.32
607.843	37686.27
608.2	38057.56
608.557	38188.85
608.914	38259.81
609.272	38451.67
609.629	38540.71
609.986	38673.81
610.343	38693.93
610.7	39114.03
611.057	38985.44
611.414	39177.3
611.771	39154.7
612.127	39363.96
612.484	39493.68
612.841	39566.9
613.198	39538.88
613.554	39653.22
613.911	39956.94
614.267	40019.54
614.624	39973.89
614.98	40245.98
615.337	40342.7
615.693	40429.93
616.05	40400.32
616.406	40620.43
616.762	40595.57
617.118	40691.84
617.475	40799.63
617.831	40935.9
618.187	41043.92
618.543	41107.42
618.899	41342.44
619.255	41367.75
619.611	41305.16
619.967	41518.26
620.323	41600.74
620.678	41443.46
621.034	41371.6
621.39	41416.79
621.746	41645.94
622.101	41998.25
622.457	41678.71
622.812	41916.89
623.168	41886.38
623.523	41885.93
623.879	42031.69
624.234	41948.98
624.589	42122.08
624.945	42171.57
625.3	42278.46
625.655	42198.69
626.01	42168.41
626.365	42251.12
626.72	42344
627.075	42399.14
627.43	42312.36
627.785	42364.56
628.14	42389.65
628.495	42520.04
628.85	42426.71
629.205	42376.77
629.559	42672.35
629.914	42343.1
630.269	42562.75
630.623	42447.95
630.978	42406.82
631.332	42579.93
631.687	42631.68
632.041	42507.16
632.396	42589.87
632.75	42504
633.104	42460.38
633.459	42258.58
633.813	42374.51
634.167	42188.98
634.521	42426.71
634.875	42339.93
635.229	42309.2
635.583	42281.18
635.937	42257
636.291	42063.33
636.645	42279.82
636.999	42176.32
637.352	42387.61
637.706	42183.78
638.06	42213.83
638.413	42106.27
638.767	42010.68
639.121	42130.9
639.474	41930.45
639.828	41871.92
640.181	42150.78
640.534	41985.59
640.888	41956.21
641.241	41837.12
641.594	41907.85
641.947	41971.13
642.301	41873.28
642.654	41919.6
643.007	41844.8
643.36	41764.35
643.713	41654.3
644.066	41841.19
644.419	41663.11
644.771	41426.96
645.124	41158.49
645.477	41100.19
645.83	40678.28
646.182	40571.84
646.535	40480.32
646.888	40616.59
647.24	40333.43
647.593	40533.2
647.945	40540.88
648.298	40387.21
648.65	40219.31
649.002	40242.13
649.355	40487.1
649.707	40269.25
650.059	40564.39
650.411	40948.1
650.763	40884.6
651.115	41443.91
651.467	41356.23
651.819	41349
652.171	41127.53
652.523	41107.65
652.875	41166.63
653.227	40988.56
653.578	41176.57
653.93	41043.47
654.282	41012.06
654.633	40909.91
654.985	41026.52
655.337	40885.28
655.688	40949.23
656.039	41033.53
656.391	40716.92
656.742	40949.91
657.094	40709.01
657.445	40884.6
657.796	40837.37
658.147	40828.33
658.498	40847.09
658.849	40805.73
659.2	40779.52
659.551	40742.69
659.902	40971.15
660.253	40613.2
660.604	40790.59
660.955	40533.88
661.306	40696.13
661.656	40640.54
662.007	40648.45
662.358	40695.46
662.708	40673.08
663.059	40595.8
663.409	40402.13
663.76	40675.79
664.11	40643.71
664.461	40589.02
664.811	40751.05
665.161	40539.08
665.511	40682.8
665.862	40518.74
666.212	40728.45
666.562	40663.82
666.912	40535.01
667.262	40652.97
667.612	40602.35
667.962	40541.79
668.312	40483.48
668.662	40678.96
669.011	40483.71
669.361	40496.14
669.711	40447.55
670.06	40350.38
670.41	40379.53
670.76	40289.36
671.109	40483.48
671.459	40379.08
671.808	40280.1
672.157	40462.92
672.507	39974.8
672.856	40117.17
673.205	40201.68
673.554	40309.93
673.904	40304.96
674.253	40259.76
674.602	40186.54
674.951	39688.93
675.3	39586.33
675.649	40032.87
675.998	40072.65
676.346	40094.57
676.695	40264.96
677.044	39951.07
677.393	39959.2
677.741	40115.58
678.09	39930.73
678.438	39848.02
678.787	39889.83
679.135	39903.61
679.484	39691.41
679.832	39762.37
680.181	39604.18
680.529	39788.13
680.877	39677.18
681.225	39556.28
681.573	39784.97
681.922	39579.78
682.27	39415.94
682.618	39322.38
682.966	39339.56
683.314	39453.45
683.661	39270.86
684.009	39025.22
684.357	39070.41
684.705	38946.35
685.053	39084.42
685.4	38993.13
685.748	38833.81
686.095	38889.4
686.443	38499.58
686.79	38500.26
687.138	38626.13
687.485	38651.22
687.832	38627.49
688.18	38606.47
688.527	38242.86
688.874	38243.09
689.221	38348.4
689.568	38176.43
689.915	38133.94
690.262	38020.05
690.609	37877.68
690.956	37821.86
691.303	37836.77
691.65	37487.63
691.997	37680.62
692.344	37480.62
692.69	37421.42
693.037	37407.86
693.383	37135.32
693.73	37222.33
694.077	37001.54
694.423	36989.79
694.769	36815.11
695.116	36750.02
695.462	36765.39
695.808	36734.2
696.155	36791.15
696.501	36460.76
696.847	36468.67
697.193	36275.68
697.539	36349.58
697.885	36027.78
698.231	35906.88
698.577	35988.01
698.923	35896.71
699.269	35539.43
699.614	35568.58
699.96	35613.1
700.306	35469.15
700.651	35404.52
700.997	35261.47
701.342	35179.89
701.688	35257.41
702.033	35220.35
702.379	35053.57
702.724	34860.35
703.069	35084.98
703.415	34710.98
703.76	34739
704.105	34480.48
704.45	34605.45
704.795	34378.11
705.14	34335.85
705.485	34325.23
705.83	34038.46
706.175	34194.84
706.52	33981.96
706.865	34046.59
707.209	33906.93
707.554	33804.56
707.899	33904.45
708.243	33613.61
708.588	33671.01
708.932	33388.08
709.277	33414.06
709.621	33470.33
709.966	33138.37
710.31	33310.11
710.654	33028.99
710.998	33076.22
711.342	33033.06
711.687	32976.11
712.031	32753.74
712.375	32736.57
712.719	32709.22
713.063	32739.51
713.407	32908.32
713.75	32640.53
714.094	32454.54
714.438	32335.45
714.782	32490.02
715.125	32230.82
715.469	32348.78
715.812	32137.04
716.156	32025.17
716.499	32036.47
716.843	32005.74
717.186	31761
717.53	31973.2
717.873	31978.85
718.216	31892.3
718.559	31746.76
718.902	31584.28
719.246	31634.45
719.589	31488.24
719.932	31346.1
720.275	31332.76
720.617	31385.64
720.96	31289.15
721.303	31369.15
721.646	31218.42
721.989	30985.2
722.331	31155.37
722.674	31018.42
723.016	31103.62
723.359	31153.11
723.701	30886.9
724.044	30806.45
724.386	30661.59
724.729	30728.49
725.071	30688.03
725.413	30590.18
725.755	30600.13
726.097	30573.69
726.439	30306.12
726.782	30290.98
727.124	30464.31
727.465	30321.49
727.807	30331.66
728.149	30237.43
728.491	30105
728.833	30244.88
729.175	30020.48
729.516	29979.13
729.858	30012.8
730.199	29989.07
730.541	30010.09
730.882	29893.48
731.224	29769.19
731.565	29797.44
731.906	29736.87
732.248	29650.55
732.589	29541.4
732.93	29497.56
733.271	29345.25
733.612	29595.63
733.953	29577.78
734.294	29376.88
734.635	29297.79
734.976	29323.55
735.317	29246.26
735.658	29247.62
735.999	29240.39
736.339	29204.23
736.68	29303.66
737.021	29158.81
737.361	29019.6
737.702	29078.81
738.042	28968.53
738.383	28994.07
738.723	28983.45
739.063	28809.44
739.404	28924.69
739.744	28830.68
740.084	28750.23
740.424	28817.58
740.764	28719.5
741.104	28692.61
741.444	28417.13
741.784	28429.56
742.124	28432.73
742.464	28531.03
742.804	28251.49
743.143	28279.96
743.483	28382.11
743.823	28187.31
744.162	28156.58
744.502	28093.98
744.841	28134.66
745.181	28214.2
745.52	28103.7
745.86	28072.74
746.199	27968.56
746.538	27938.28
746.877	28022.12
747.216	27924.72
747.556	27951.38
747.895	27915.68
748.234	27743.03
748.573	27650.6
748.911	27749.36
749.25	27650.15
749.589	27498.97
749.928	27473.66
750.267	27668.45
750.605	27569.47
750.944	27509.59
751.283	27398.63
751.621	27447.89
751.96	27205.87
752.298	27237.96
752.636	27309.82
752.975	27100.11
753.313	27098.98
753.651	27167.9
753.989	26842.26
754.327	26870.28
754.666	26742.38
755.004	26840
755.342	26893.56
755.679	26745.99
756.017	26621.48
756.355	26622.61
756.693	26556.84
757.031	26530.63
757.368	26377.19
