Data from hue_110_FLMS001491_00060.txt Node
Date: Tue Feb 07 17:01:32 GMT 2017
User: dcchb
Spectrometer: FLMS00149
Trigger mode: 0
Integration Time (sec): 2.000000E-2
Scans to average: 10
Electric dark correction enabled: true
Nonlinearity correction enabled: false
Boxcar width: 0
XAxis mode: Wavelengths
Number of Pixels in Spectrum: 2048
>>>>>Begin Spectral Data<<<<<
341.393	-11.03
341.776	-11.03
342.16	-11.03
342.543	-56.68
342.927	-74.98
343.31	-61.2
343.693	-66.85
344.077	-54.65
344.46	-83.35
344.843	-54.87
345.226	-41.54
345.61	-29.34
345.993	-20.75
346.376	4.56
346.759	12.02
347.142	40.04
347.525	40.49
347.908	50.89
348.291	72.13
348.674	96.76
349.057	95.63
349.44	136.76
349.823	163.43
350.206	168.4
350.588	181.51
350.971	196.87
351.354	238.68
351.737	223.09
352.119	234.61
352.502	240.26
352.884	271.9
353.267	290.2
353.65	299.02
354.032	299.24
354.414	337.21
354.797	308.06
355.179	319.13
355.562	328.62
355.944	302.86
356.326	334.72
356.709	329.75
357.091	334.04
357.473	325.68
357.855	334.27
358.238	339.02
358.62	329.75
359.002	365
359.384	373.14
359.766	342.63
360.148	342.86
360.53	357.1
360.912	305.12
361.294	336.98
361.676	341.95
362.057	333.37
362.439	338.56
362.821	341.05
363.203	336.53
363.584	337.43
363.966	339.69
364.348	320.49
364.729	322.75
365.111	325.01
365.493	310.77
365.874	311.22
366.256	327.94
366.637	318.45
367.019	287.72
367.4	303.99
367.781	307.38
368.163	315.06
368.544	305.35
368.925	306.47
369.306	334.72
369.688	311.22
370.069	327.27
370.45	318.23
370.831	317.77
371.212	298.11
371.593	318.9
371.974	311.45
372.355	324.33
372.736	317.77
373.117	334.95
373.498	318.68
373.879	318.23
374.26	324.1
374.641	299.7
375.021	340.6
375.402	313.93
375.783	304.89
376.163	322.29
376.544	325.91
376.925	339.69
377.305	310.32
377.686	347.15
378.066	313.48
378.447	314.38
378.827	327.72
379.208	325.46
379.588	333.14
379.968	336.3
380.349	324.78
380.729	325.68
381.109	329.98
381.489	345.57
381.87	323.2
382.25	333.82
382.63	332.01
383.01	357.77
383.39	331.33
383.77	331.79
384.15	344.44
384.53	347.15
384.91	364.78
385.29	338.79
385.67	351.67
386.049	334.72
386.429	373.59
386.809	339.24
387.189	342.41
387.568	337.21
387.948	331.79
388.328	333.37
388.707	358.45
389.087	344.89
389.466	335.17
389.846	348.28
390.225	343.54
390.605	341.28
390.984	352.8
391.363	378.34
391.743	378.34
392.122	390.99
392.501	374.27
392.881	367.72
393.26	361.39
393.639	378.34
394.018	359.13
394.397	380.15
394.776	384.44
395.155	371.11
395.534	367.26
395.913	369.75
396.292	370.2
396.671	383.54
397.05	367.26
397.429	403.42
397.808	369.07
398.186	380.6
398.565	396.19
398.944	401.84
399.323	383.99
399.701	412.91
400.08	403.42
400.458	390.09
400.837	397.55
401.215	399.58
401.594	407.26
401.972	397.09
402.351	422.86
402.729	416.75
403.107	415.85
403.486	425.79
403.864	428.05
404.242	423.99
404.62	416.53
404.999	423.76
405.377	425.79
405.755	407.72
406.133	426.47
406.511	405
406.889	453.59
407.267	420.82
407.645	419.01
408.023	432.35
408.401	435.29
408.779	416.3
409.156	437.32
409.534	443.87
409.912	432.8
410.29	444.1
410.667	435.74
411.045	426.47
411.422	441.61
411.8	454.72
412.178	462.63
412.555	438.22
412.933	452.91
413.31	471.89
413.687	470.76
414.065	473.25
414.442	486.58
414.819	477.09
415.197	493.59
415.574	495.85
415.951	471.22
416.328	474.38
416.705	475.74
417.082	492.46
417.46	479.35
417.837	499.24
418.214	506.24
418.591	502.85
418.967	502.4
419.344	518.22
419.721	516.19
420.098	519.58
420.475	511.44
420.852	517.99
421.228	538.56
421.605	529.29
421.982	540.82
422.358	527.26
422.735	545.11
423.111	534.94
423.488	522.74
423.864	540.14
424.241	533.14
424.617	541.5
424.994	546.02
425.37	558.45
425.746	553.47
426.123	579.69
426.499	572.23
426.875	557.99
427.251	578.33
427.627	586.24
428.003	593.02
428.379	591.89
428.756	596.86
429.132	604.09
429.507	602.74
429.883	619.24
430.259	621.04
430.635	615.85
431.011	596.86
431.387	623.08
431.763	646.13
432.138	638.9
432.514	629.86
432.89	626.92
433.265	655.17
433.641	655.62
434.016	662.62
434.392	659.01
434.767	674.83
435.143	664.66
435.518	665.11
435.894	694.49
436.269	693.36
436.644	679.12
437.02	704.66
437.395	705.11
437.77	695.84
438.145	698.78
438.52	703.3
438.895	725.22
439.271	736.29
439.646	742.62
440.021	749.18
440.395	752.34
440.77	748.72
441.145	745.79
441.52	774.49
441.895	789.85
442.27	766.8
442.645	779.23
443.019	781.94
443.394	761.6
443.769	795.95
444.143	789.63
444.518	800.93
444.892	800.7
445.267	800.02
445.641	802.06
446.016	827.82
446.39	821.04
446.764	811.55
447.139	821.04
447.513	836.4
447.887	834.14
448.262	852.22
448.636	838.44
449.01	852
449.384	872.34
449.758	862.17
450.132	876.18
450.506	878.21
450.88	888.61
451.254	879.12
451.628	897.19
452.002	924.99
452.376	934.03
452.75	915.95
453.123	906.69
453.497	946.68
453.871	940.13
454.244	942.62
454.618	948.72
454.992	955.72
455.365	962.05
455.739	984.2
456.112	1000.92
456.486	1009.06
456.859	1002.95
457.232	1029.17
457.606	1035.95
457.979	1031.43
458.352	1055.38
458.725	1089.51
459.099	1093.8
459.472	1118.21
459.845	1105.32
460.218	1126.34
460.591	1129.96
460.964	1115.04
461.337	1190.52
461.71	1181.71
462.083	1204.53
462.456	1208.6
462.829	1228.48
463.201	1261.93
463.574	1250.4
463.947	1262.83
464.32	1291.99
464.692	1278.43
465.065	1323.4
465.438	1313
465.81	1329.27
466.183	1376.05
466.555	1397.29
466.928	1401.14
467.3	1425.77
467.672	1440.23
468.045	1484.07
468.417	1475.94
468.789	1480
469.161	1538.53
469.534	1564.97
469.906	1574.69
470.278	1592.54
470.65	1624.18
471.022	1673.67
471.394	1696.04
471.766	1760
472.138	1753.89
472.51	1784.85
472.882	1835.25
473.253	1840.67
473.625	1869.82
473.997	1972.87
474.369	1973.32
474.74	2024.85
475.112	2073.43
475.484	2116.37
475.855	2166.54
476.227	2209.7
476.598	2282.24
476.97	2293.99
477.341	2348
477.713	2439.98
478.084	2508.45
478.455	2561.33
478.827	2605.85
479.198	2706.64
479.569	2769.01
479.94	2847.88
480.311	2914.32
480.682	3010.13
481.053	3069.34
481.424	3171.26
481.795	3258.94
482.166	3317.47
482.537	3402.89
482.908	3541.87
483.279	3544.36
483.65	3667.29
484.021	3809.66
484.391	3898.7
484.762	3999.71
485.133	4086.04
485.503	4246.94
485.874	4279.48
486.244	4388.63
486.615	4556.08
486.985	4629.75
487.356	4810.76
487.726	4865
488.097	5045.79
488.467	5142.96
488.837	5242.84
489.207	5362.84
489.578	5506.79
489.948	5631.98
490.318	5767.8
490.688	5841.24
491.058	6021.8
491.428	6145.64
491.798	6289.37
492.168	6468.57
492.538	6575.91
492.908	6704.95
493.278	6789.92
493.648	6914.66
494.017	7116.92
494.387	7191.72
494.757	7295.9
495.126	7424.71
495.496	7538.15
495.866	7617.02
496.235	7811.81
496.605	7891.13
496.974	7986.05
497.344	8155.31
497.713	8249.99
498.082	8351.69
498.452	8497.67
498.821	8637.78
499.19	8720.27
499.559	8789.64
499.928	8923.2
500.298	8974.72
500.667	9125
501.036	9133.36
501.405	9261.95
501.774	9348.95
502.143	9513.46
502.512	9530.87
502.88	9658.55
503.249	9736.51
503.618	9836.62
503.987	9946
504.356	9913.45
504.724	10024.86
505.093	10134.01
505.462	10146.89
505.83	10266.21
506.199	10389.6
506.567	10505.98
506.936	10648.12
507.304	10716.6
507.672	10706.43
508.041	10804.28
508.409	10842.47
508.777	10959.53
509.145	11068
509.514	11145.51
509.882	11098.51
510.25	11158.39
510.618	11256.92
510.986	11317.48
511.354	11382.34
511.722	11390.03
512.09	11521.32
512.458	11490.81
512.826	11565.39
513.193	11681.77
513.561	11679.74
513.929	11702.56
514.297	11822.56
514.664	11956.34
515.032	11923.57
515.4	11945.49
515.767	11978.94
516.135	12120.85
516.502	11986.62
516.869	12211.92
517.237	12176.9
517.604	12142.55
517.972	12279.04
518.339	12156.78
518.706	12246.5
519.073	12300.28
519.44	12377.57
519.808	12459.83
520.175	12455.53
520.542	12624.57
520.909	12592.03
521.276	12589.32
521.643	12635.87
522.009	12648.3
522.376	12703.89
522.743	12728.07
523.11	12861.85
523.477	12863.21
523.843	12964
524.21	13011.23
524.577	12993.83
524.943	13008.51
525.31	13022.75
525.676	13158.79
526.043	13195.63
526.409	13212.35
526.776	13182.75
527.142	13190.88
527.508	13122.86
527.874	13247.83
528.241	13193.37
528.607	13303.65
528.973	13262.52
529.339	13279.02
529.705	13311.56
530.071	13417.99
530.437	13353.36
530.803	13367.15
531.169	13377.32
531.535	13348.84
531.901	13226.59
532.267	13340.71
532.632	13415.06
532.998	13259.35
533.364	13393.59
533.73	13325.12
534.095	13439.01
534.461	13383.65
534.826	13343.19
535.192	13368.28
535.557	13349.52
535.923	13358.56
536.288	13364.21
536.653	13256.42
537.019	13289.18
537.384	13224.1
537.749	13272.91
538.114	13207.15
538.479	13155.85
538.845	13154.72
539.21	13070.66
539.575	13075.63
539.94	13133.03
540.305	13126.25
540.67	13027.95
541.034	13012.58
541.399	13074.27
541.764	13016.88
542.129	12993.6
542.494	12998.34
542.858	12814.85
543.223	12856.2
543.587	12929.42
543.952	12788.63
544.316	12816.2
544.681	12743.44
545.045	12749.54
545.41	12752.02
545.774	12708.41
546.138	12639.71
546.503	12646.72
546.867	12553.38
547.231	12720.84
547.595	12566.49
547.959	12568.07
548.324	12527.85
548.688	12481.97
549.052	12470.67
549.416	12476.32
549.779	12391.58
550.143	12393.61
550.507	12480.39
550.871	12399.94
551.235	12312.26
551.599	12341.86
551.962	12387.74
552.326	12232.49
552.689	12270
553.053	12232.94
553.417	12235.88
553.78	12300.74
554.143	12158.14
554.507	12130.57
554.87	12194.3
555.234	12190
555.597	12096
555.96	12097.35
556.323	12131.02
556.686	12042.89
557.05	12132.15
557.413	12079.95
557.776	11972.38
558.139	12073.4
558.502	12110.23
558.865	12040.86
559.228	12159.04
559.59	12096.9
559.953	12040.63
560.316	12119.5
560.679	12071.82
561.041	12112.72
561.404	12125.83
561.767	12146.39
562.129	12040.86
562.492	12151.81
562.854	12148.42
563.217	12091.93
563.579	12091.02
563.941	12125.83
564.304	12168.31
564.666	12136.22
565.028	12184.35
565.39	12170.34
565.753	12208.76
566.115	12151.36
566.477	12195.65
566.839	12185.94
567.201	12243.34
567.563	12177.8
567.925	12285.82
568.287	12293.96
568.648	12306.61
569.01	12325.14
569.372	12280.62
569.734	12358.36
570.095	12420.73
570.457	12388.42
570.819	12349.55
571.18	12365.59
571.542	12382.54
571.903	12342.09
572.265	12494.86
572.626	12351.58
572.987	12395.2
573.349	12493.73
573.71	12379.38
574.071	12414.86
574.432	12518.81
574.794	12474.74
575.155	12533.5
575.516	12481.07
575.877	12470.9
576.238	12516.1
576.599	12509.77
576.96	12521.97
577.32	12561.52
577.681	12510.45
578.042	12571.92
578.403	12577.34
578.763	12503.67
579.124	12500.28
579.485	12568.53
579.845	12624.34
580.206	12611.46
580.566	12569.66
580.927	12581.41
581.287	12516.78
581.648	12552.03
582.008	12547.96
582.368	12534.85
582.728	12568.53
583.089	12564.23
583.449	12443.56
583.809	12582.76
584.169	12577.34
584.529	12514.52
584.889	12612.37
585.249	12481.52
585.609	12467.96
585.969	12464.35
586.329	12433.39
586.688	12521.52
587.048	12531.24
587.408	12451.24
587.768	12472.71
588.127	12463.67
588.487	12309.78
588.846	12513.39
589.206	12369.89
589.565	12388.64
589.925	12389.1
590.284	12302.32
590.643	12329.21
591.003	12401.3
591.362	12411.69
591.721	12382.09
592.08	12297.35
592.44	12317.23
592.799	12373.95
593.158	12306.84
593.517	12295.54
593.876	12326.05
594.235	12264.58
594.593	12330.57
594.952	12423.9
595.311	12279.49
595.67	12272.94
596.029	12357.68
596.387	12358.81
596.746	12367.4
597.104	12301.19
597.463	12271.81
597.822	12358.36
598.18	12262.32
598.538	12340.96
598.897	12351.13
599.255	12164.47
599.613	12396.78
599.972	12315.42
600.33	12299.61
600.688	12220.96
601.046	12265.26
601.404	12209.66
601.762	12290.57
602.12	12408.3
602.478	12333.28
602.836	12332.37
603.194	12252.15
603.552	12309.78
603.91	12300.74
604.268	12242.43
604.625	12249.44
604.983	12342.99
605.341	12260.96
605.698	12370.56
606.056	12287.85
606.413	12253.51
606.771	12300.51
607.128	12388.42
607.485	12279.04
607.843	12325.82
608.2	12388.19
608.557	12356.1
608.914	12339.38
609.272	12311.81
609.629	12355.2
609.986	12368.53
610.343	12381.64
610.7	12439.49
611.057	12428.19
611.414	12389.55
611.771	12394.07
612.127	12478.81
612.484	12497.34
612.841	12427.74
613.198	12424.35
613.554	12451.01
613.911	12541.41
614.267	12405.59
614.624	12472.71
614.98	12513.61
615.337	12552.03
615.693	12563.1
616.05	12565.59
616.406	12542.99
616.762	12442.88
617.118	12557.23
617.475	12529.66
617.831	12603.55
618.187	12608.52
618.543	12573.72
618.899	12640.39
619.255	12670.44
619.611	12613.04
619.967	12654.85
620.323	12611.24
620.678	12594.06
621.034	12672.25
621.39	12603.1
621.746	12554.74
622.101	12678.13
622.457	12625.93
622.812	12711.12
623.168	12698.69
623.523	12699.14
623.879	12703.66
624.234	12623.21
624.589	12646.26
624.945	12636.55
625.3	12703.44
625.655	12606.72
626.01	12688.07
626.365	12633.38
626.72	12655.08
627.075	12537.79
627.43	12590.22
627.785	12635.42
628.14	12618.24
628.495	12694.17
628.85	12591.8
629.205	12565.36
629.559	12552.25
629.914	12558.13
630.269	12622.08
630.623	12538.7
630.978	12531.69
631.332	12636.32
631.687	12527.17
632.041	12532.37
632.396	12572.59
632.75	12489.21
633.104	12539.37
633.459	12439.49
633.813	12441.98
634.167	12440.17
634.521	12450.11
634.875	12436.33
635.229	12417.79
635.583	12340.06
635.937	12350.68
636.291	12371.47
636.645	12378.02
636.999	12349.32
637.352	12334.41
637.706	12285.82
638.06	12314.75
638.413	12279.27
638.767	12279.95
639.121	12351.81
639.474	12240.17
639.828	12260.51
640.181	12239.49
640.534	12168.08
640.888	12181.87
641.241	12042.21
641.594	12110.01
641.947	12158.37
642.301	12125.83
642.654	12165.15
643.007	12255.09
643.36	12233.39
643.713	12142.55
644.066	12182.77
644.419	12114.3
644.771	12006.28
645.124	11846.74
645.477	11858.04
645.83	11743.46
646.182	11785.72
646.535	11812.39
646.888	11783.91
647.24	11713.18
647.593	11778.49
647.945	11757.47
648.298	11758.38
648.65	11671.37
649.002	11624.6
649.355	11696.91
649.707	11662.79
650.059	11693.52
650.411	11970.12
650.763	11925.83
651.115	12027.07
651.467	11943.01
651.819	12020.74
652.171	11945.04
652.523	11931.03
652.875	11915.66
653.227	11937.58
653.578	11860.07
653.93	12020.29
654.282	11950.24
654.633	11944.59
654.985	11871.37
655.337	11874.76
655.688	11938.26
656.039	11983.23
656.391	11894.19
656.742	11897.36
657.094	11973.29
657.445	12003.57
657.796	11952.27
658.147	11971.25
658.498	11989.56
658.849	12015.77
659.2	11984.59
659.551	11956.56
659.902	11971.25
660.253	11933.29
660.604	12049.44
660.955	11947.3
661.306	11975.09
661.656	11975.32
662.007	11986.39
662.358	11941.2
662.708	11995.66
663.059	11989.11
663.409	11926.28
663.76	12011.03
664.11	12032.95
664.461	12000.18
664.811	11967.41
665.161	12014.42
665.511	11972.16
665.862	12036.79
666.212	12068.65
666.562	12065.26
666.912	12019.61
667.262	11959.28
667.612	12050.8
667.962	11967.64
668.312	12002.44
668.662	11990.46
669.011	12023.68
669.361	11978.26
669.711	11943.23
670.06	11973.74
670.41	11927.64
670.76	11973.74
671.109	12046.05
671.459	11935.32
671.808	11942.1
672.157	11901.65
672.507	11816.68
672.856	11885.15
673.205	11853.97
673.554	11940.07
673.904	11916.34
674.253	11932.16
674.602	11909.56
674.951	11786.17
675.3	11625.73
675.649	11871.14
675.998	11822.56
676.346	11857.81
676.695	11825.49
677.044	11783.69
677.393	11865.49
677.741	11934.64
678.09	11754.08
678.438	11752.05
678.787	11764.48
679.135	11739.17
679.484	11724.71
679.832	11690.13
680.181	11671.15
680.529	11697.59
680.877	11640.41
681.225	11597.7
681.573	11706.18
681.922	11548.89
682.27	11541.89
682.618	11569.68
682.966	11568.78
683.314	11554.31
683.661	11541.43
684.009	11422.11
684.357	11482.9
684.705	11392.51
685.053	11411.04
685.4	11394.55
685.748	11312.29
686.095	11328.78
686.443	11351.61
686.79	11283.59
687.138	11346.64
687.485	11239.52
687.832	11317.71
688.18	11244.27
688.527	11206.3
688.874	11115.23
689.221	11105.97
689.568	11123.37
689.915	11016.25
690.262	10985.74
690.609	11060.77
690.956	10970.6
691.303	10945.74
691.65	10846.76
691.997	10951.84
692.344	10832.3
692.69	10776.71
693.037	10835.92
693.383	10662.81
693.73	10690.16
694.077	10581.23
694.423	10613.1
694.769	10609.93
695.116	10542.36
695.462	10553.44
695.808	10494.23
696.155	10456.72
696.501	10346.21
696.847	10371.97
697.193	10319.77
697.539	10324.97
697.885	10272.54
698.231	10228.02
698.577	10197.06
698.923	10181.47
699.269	10123.17
699.614	10091.98
699.96	10045.65
700.306	10013.11
700.651	9930.18
700.997	9907.35
701.342	9893.12
701.688	9887.69
702.033	9869.39
702.379	9818.09
702.724	9900.57
703.069	9818.77
703.415	9665.1
703.76	9729.5
704.105	9707.81
704.45	9671.2
704.795	9603.18
705.14	9569.28
705.485	9580.13
705.83	9549.85
706.175	9543.07
706.52	9477.76
706.865	9479.79
707.209	9418.1
707.554	9340.81
707.899	9427.59
708.243	9332.45
708.588	9395.73
708.932	9273.92
709.277	9273.24
709.621	9247.93
709.966	9203.64
710.31	9230.53
710.654	9186.92
710.998	9149.63
711.342	9075.51
711.687	9097.66
712.031	9098.11
712.375	9023.99
712.719	9004.1
713.063	9047.49
713.407	9097.88
713.75	8943.76
714.094	8939.47
714.438	8905.34
714.782	8873.48
715.125	8862.41
715.469	8899.24
715.812	8852.24
716.156	8845.91
716.499	8877.78
716.843	8837.55
717.186	8824.9
717.53	8742.41
717.873	8773.6
718.216	8797.78
718.559	8782.18
718.902	8709.64
719.246	8765.46
719.589	8668.06
719.932	8662.19
720.275	8723.65
720.617	8684.79
720.96	8674.16
721.303	8662.87
721.646	8668.06
721.989	8605.69
722.331	8598.23
722.674	8553.04
723.016	8628.52
723.359	8618.8
723.701	8619.02
724.044	8544.45
724.386	8557.56
724.729	8580.16
725.071	8577.9
725.413	8513.72
725.755	8567.73
726.097	8506.26
726.439	8507.39
726.782	8495.64
727.124	8517.78
727.465	8494.96
727.807	8504.23
728.149	8481.4
728.491	8431.46
728.833	8499.71
729.175	8437.11
729.516	8370.44
729.858	8439.37
730.199	8418.8
730.541	8428.3
730.882	8472.14
731.224	8447.05
731.565	8378.81
731.906	8411.57
732.248	8461.97
732.589	8427.62
732.93	8441.18
733.271	8398.92
733.612	8473.04
733.953	8415.41
734.294	8440.05
734.635	8393.04
734.976	8464.45
735.317	8360.27
735.658	8367.28
735.999	8443.66
736.339	8367.51
736.68	8484.11
737.021	8465.13
737.361	8384.45
737.702	8516.43
738.042	8480.5
738.383	8428.75
738.723	8492.02
739.063	8467.16
739.404	8542.87
739.744	8495.86
740.084	8509.88
740.424	8544
740.764	8547.61
741.104	8511.46
741.444	8548.29
741.784	8513.94
742.124	8556.88
742.464	8553.94
742.804	8650.66
743.143	8609.76
743.483	8605.24
743.823	8598.91
744.162	8639.82
744.502	8693.15
744.841	8682.75
745.181	8842.3
745.52	8734.5
745.86	8814.95
746.199	8824.44
746.538	8824.22
746.877	8965.68
747.216	8972.01
747.556	9006.81
747.895	9032.12
748.234	9031.67
748.573	9132.46
748.911	9218.33
749.25	9251.32
749.589	9254.49
749.928	9387.82
750.267	9441.6
750.605	9478.44
750.944	9539.23
751.283	9582.62
751.621	9666.68
751.96	9748.49
752.298	9880.46
752.636	9996.39
752.975	10048.59
753.313	10126.78
753.651	10308.47
753.989	10317.96
754.327	10454.91
754.666	10507.34
755.004	10637.73
755.342	10775.13
755.679	10881.79
756.017	10939.19
756.355	11112.29
756.693	11185.06
757.031	11379.86
757.368	11506.86
757.706	11654.65
758.044	11663.92
758.381	11933.97
758.719	12166.28
759.056	12238.82
759.394	12482.65
759.731	12482.65
