Data from hue_70_FLMS001491_43.txt Node
Date: Mon Feb 06 15:20:57 GMT 2017
User: dcchb
Spectrometer: FLMS00149
Trigger mode: 0
Integration Time (sec): 2.000000E-2
Scans to average: 10
Electric dark correction enabled: true
Nonlinearity correction enabled: false
Boxcar width: 0
XAxis mode: Wavelengths
Number of Pixels in Spectrum: 2048
>>>>>Begin Spectral Data<<<<<
341.393	-8.98
341.776	-8.98
342.16	-8.98
342.543	-68.64
342.927	-47.17
343.31	-87.17
343.693	-53.5
344.077	-66.38
344.46	-63.9
344.843	-64.12
345.226	-38.59
345.61	-42.65
345.993	-22.77
346.376	25.37
346.759	6.61
347.142	27.85
347.525	30.34
347.908	44.35
348.291	87.96
348.674	111.69
349.057	104.91
349.44	126.61
349.823	134.06
350.206	176.32
350.588	193.95
350.971	207.96
351.354	248.41
351.737	236.21
352.119	251.58
352.502	253.38
352.884	263.78
353.267	292.7
353.65	288.18
354.032	289.31
354.414	302.65
354.797	308.07
355.179	318.24
355.562	311.91
355.944	331.35
356.326	324.79
356.709	337.22
357.091	339.03
357.473	347.62
357.855	345.58
358.238	350.1
358.62	342.19
359.002	312.36
359.384	332.93
359.766	327.51
360.148	336.54
360.53	341.06
360.912	343.1
361.294	339.03
361.676	345.81
362.057	325.47
362.439	318.92
362.821	339.03
363.203	326.83
363.584	340.39
363.966	342.87
364.348	329.77
364.729	301.74
365.111	312.82
365.493	326.38
365.874	313.49
366.256	314.4
366.637	331.12
367.019	319.14
367.4	306.72
367.781	310.1
368.163	302.65
368.544	327.51
368.925	307.85
369.306	336.54
369.688	333.83
370.069	320.27
370.45	320.95
370.831	310.33
371.212	307.85
371.593	317.79
371.974	318.47
372.355	313.49
372.736	289.99
373.117	305.81
373.498	317.56
373.879	303.55
374.26	314.17
374.641	299.48
375.021	302.2
375.402	309.88
375.783	334.06
376.163	339.71
376.544	331.57
376.925	313.27
377.305	306.49
377.686	324.12
378.066	336.32
378.447	313.49
378.827	334.74
379.208	334.51
379.588	317.11
379.968	313.72
380.349	335.87
380.729	317.56
381.109	335.19
381.489	327.73
381.87	334.51
382.25	320.05
382.63	326.15
383.01	363.44
383.39	329.99
383.77	328.86
384.15	341.06
384.53	334.06
384.91	356.66
385.29	338.13
385.67	325.7
386.049	331.12
386.429	345.81
386.809	343.32
387.189	333.38
387.568	334.51
387.948	322.31
388.328	343.78
388.707	359.37
389.087	370.22
389.466	363.66
389.846	369.31
390.225	377.22
390.605	374.51
390.984	338.8
391.363	350.33
391.743	351.69
392.122	383.78
392.501	368.63
392.881	387.39
393.26	368.63
393.639	377.22
394.018	383.1
394.397	351.01
394.776	351.23
395.155	363.89
395.534	361.63
395.913	362.08
396.292	383.55
396.671	381.52
397.05	362.08
397.429	361.18
397.808	367.96
398.186	371.57
398.565	374.51
398.944	397.79
399.323	388.07
399.701	378.58
400.08	373.15
400.458	405.7
400.837	397.56
401.215	384.68
401.594	388.97
401.972	393.27
402.351	402.53
402.729	392.81
403.107	401.63
403.486	398.01
403.864	401.63
404.242	394.62
404.62	399.37
404.999	393.72
405.377	409.99
405.755	415.19
406.133	395.07
406.511	401.4
406.889	392.14
407.267	415.86
407.645	421.97
408.023	417.67
408.401	409.31
408.779	432.14
409.156	421.29
409.534	434.17
409.912	430.78
410.29	443.21
410.667	439.14
411.045	430.1
411.422	448.18
411.8	451.57
412.178	424.68
412.555	463.1
412.933	448.41
413.31	455.41
413.687	445.69
414.065	464.23
414.442	448.86
414.819	472.36
415.197	473.26
415.574	470.55
415.951	469.42
416.328	473.04
416.705	483.43
417.082	478.91
417.46	475.52
417.837	480.5
418.214	476.88
418.591	496.09
418.967	476.43
419.344	517.33
419.721	507.16
420.098	487.05
420.475	492.7
420.852	496.77
421.228	494.96
421.605	503.09
421.982	503.32
422.358	510.33
422.735	523.21
423.111	528.4
423.488	534.28
423.864	517.11
424.241	519.14
424.617	519.59
424.994	534.05
425.37	546.03
425.746	543.55
426.123	535.86
426.499	554.84
426.875	538.12
427.251	552.36
427.627	553.04
428.003	582.41
428.379	558.01
428.756	573.37
429.132	586.71
429.507	585.58
429.883	581.74
430.259	589.65
430.635	611.11
431.011	599.14
431.387	593.26
431.763	602.98
432.138	602.3
432.514	614.96
432.89	631.68
433.265	619.48
433.641	634.39
434.016	607.95
434.392	621.51
434.767	632.58
435.143	638.23
435.518	614.05
435.894	640.49
436.269	665.35
436.644	692.69
437.02	673.03
437.395	660.6
437.77	681.62
438.145	684.11
438.52	696.31
438.895	694.05
439.271	685.91
439.646	698.34
440.021	693.82
440.395	697.44
440.77	696.08
441.145	721.17
441.52	734.5
441.895	722.3
442.27	733.82
442.645	739.7
443.019	720.49
443.394	726.37
443.769	754.61
444.143	731.11
444.518	748.51
444.892	736.31
445.267	733.6
445.641	765.01
446.016	770.88
446.39	758.68
446.764	770.66
447.139	780.83
447.513	785.57
447.887	787.15
448.262	762.75
448.636	803.88
449.01	794.16
449.384	817.44
449.758	800.94
450.132	798.23
450.506	824.89
450.88	822.41
451.254	802.3
451.628	842.75
452.002	828.06
452.376	827.38
452.75	847.49
453.123	853.59
453.497	847.27
453.871	846.81
454.244	869.41
454.618	877.55
454.992	894.27
455.365	904.44
455.739	889.3
456.112	898.79
456.486	940.6
456.859	953.03
457.232	924.55
457.606	952.35
457.979	961.16
458.352	968.17
458.725	978.79
459.099	993.25
459.472	986.25
459.845	1005.91
460.218	1045.23
460.591	1034.38
460.964	1049.75
461.337	1057.43
461.71	1049.07
462.083	1096.3
462.456	1082.51
462.829	1090.2
463.201	1141.72
463.574	1122.51
463.947	1165.22
464.32	1191.44
464.692	1190.08
465.065	1162.06
465.438	1215.39
465.81	1223.98
466.183	1228.05
466.555	1271.21
466.928	1288.84
467.3	1286.8
467.672	1298.1
468.045	1342.39
468.417	1345.11
468.789	1381.04
469.161	1398.89
469.534	1428.72
469.906	1447.02
470.278	1454.93
470.65	1480.92
471.022	1544.42
471.394	1539.68
471.766	1570.41
472.138	1595.95
472.51	1639.34
472.882	1667.58
473.253	1706.68
473.625	1725.21
473.997	1781.25
474.369	1819.67
474.74	1809.05
475.112	1884.07
475.484	1910.97
475.855	1965.88
476.227	2049.49
476.598	2098.53
476.97	2099.66
477.341	2157.74
477.713	2237.29
478.084	2320.45
478.455	2336.72
478.827	2389.37
479.198	2509.14
479.569	2479.31
479.94	2579.42
480.311	2658.52
480.682	2759.53
481.053	2832.07
481.424	2932.86
481.795	2988.9
482.166	3089.01
482.537	3129.47
482.908	3297.37
483.279	3337.6
483.65	3419.63
484.021	3554.31
484.391	3617.59
484.762	3741.43
485.133	3812.84
485.503	3888.09
485.874	4042.89
486.244	4108.2
486.615	4221.87
486.985	4388.87
487.356	4527.62
487.726	4578.69
488.097	4699.82
488.467	4861.62
488.837	4989.3
489.207	5129.41
489.578	5236.08
489.948	5398.56
490.318	5487.6
490.688	5610.76
491.058	5753.35
491.428	5882.84
491.798	6037.86
492.168	6194.02
492.538	6315.6
492.908	6464.97
493.278	6611.86
493.648	6645.98
494.017	6840.1
494.387	6977.73
494.757	7135.46
495.126	7295.46
495.496	7362.12
495.866	7514.21
496.235	7711.49
496.605	7784.26
496.974	7937.25
497.344	8127.98
497.713	8274.42
498.082	8385.15
498.452	8577.23
498.821	8623.11
499.19	8732.93
499.559	8890.9
499.928	9000.5
500.298	9196.2
500.667	9271.45
501.036	9358.45
501.405	9530.43
501.774	9572.23
502.143	9731.33
502.512	9829.18
502.88	10073.01
503.249	10031.21
503.618	10199.34
503.987	10301.71
504.356	10402.72
504.724	10518.2
505.093	10627.12
505.462	10702.83
505.83	10875.48
506.199	11030.27
506.567	11192.08
506.936	11208.12
507.304	11413.32
507.672	11423.03
508.041	11536.02
508.409	11694.21
508.777	11779.63
509.145	11905.28
509.514	11973.3
509.882	12169
510.25	12116.8
510.618	12342.78
510.986	12372.16
511.354	12575.77
511.722	12670.46
512.09	12774.86
512.458	12761.3
512.826	12903.9
513.193	13043.78
513.561	13066.83
513.929	13163.78
514.297	13382.3
514.664	13450.78
515.032	13540.49
515.4	13627.49
515.767	13714.05
516.135	13806.02
516.502	13713.37
516.869	14025.45
517.237	14134.83
517.604	14108.39
517.972	14193.36
518.339	14303.41
518.706	14299.57
519.073	14453.69
519.44	14545.89
519.808	14719.67
520.175	14653.23
520.542	14857.74
520.909	14878.54
521.276	14923.05
521.643	15126.89
522.009	15247.57
522.376	15318.98
522.743	15362.14
523.11	15538.4
523.477	15666.76
523.843	15653.2
524.21	15933.87
524.577	15949.47
524.943	16020.43
525.31	16005.29
525.676	16223.81
526.043	16292.74
526.409	16396.91
526.776	16521.66
527.142	16564.14
527.508	16615.44
527.874	16731.14
528.241	16746.96
528.607	16810.01
528.973	16965.26
529.339	16902.66
529.705	17136.1
530.071	17175.42
530.437	17273.73
530.803	17342.65
531.169	17463.33
531.535	17291.58
531.901	17493.83
532.267	17420.16
532.632	17609.31
532.998	17671.23
533.364	17629.88
533.73	17748.74
534.095	17790.1
534.461	17821.28
534.826	17893.37
535.192	17941.96
535.557	18090.2
535.923	17958.23
536.288	17998
536.653	18133.14
537.019	17923.2
537.384	18078
537.749	18211.78
538.114	18240.93
538.479	18193.02
538.845	18311.44
539.21	18264.44
539.575	18347.37
539.94	18261.05
540.305	18393.92
540.67	18306.47
541.034	18414.26
541.399	18412.68
541.764	18381.72
542.129	18484.54
542.494	18479.34
542.858	18494.94
543.223	18527.03
543.587	18525.22
543.952	18523.19
544.316	18634.14
544.681	18587.14
545.045	18693.58
545.41	18692.45
545.774	18610.64
546.138	18667.14
546.503	18674.59
546.867	18656.06
547.231	18839.34
547.595	18812.44
547.959	18864.42
548.324	18742.84
548.688	18845.44
549.052	18891.31
549.416	18908.71
549.779	18830.97
550.143	18868.03
550.507	18951.65
550.871	19022.61
551.235	18898.09
551.599	19028.93
551.962	19046.11
552.326	18988.94
552.689	19102.38
553.053	19053.57
553.417	19006.11
553.78	19251.98
554.143	19106.22
554.507	19170.85
554.87	19156.39
555.234	19349.15
555.597	19181.47
555.96	19339.21
556.323	19307.35
556.686	19364.52
557.05	19501.69
557.413	19503.27
557.776	19502.82
558.139	19607
558.502	19552.54
558.865	19570.16
559.228	19825.75
559.59	19731.06
559.953	19633.89
560.316	19926.31
560.679	19916.59
561.041	19923.83
561.404	19969.7
561.767	20156.36
562.129	20040.89
562.492	20149.81
562.854	20183.25
563.217	20135.35
563.579	20249.69
563.941	20338.28
564.304	20444.04
564.666	20511.61
565.028	20566.97
565.39	20628.44
565.753	20685.16
566.115	20766.06
566.477	20726.29
566.839	20746.63
567.201	20906.17
567.563	20909.34
567.925	21038.6
568.287	20962.9
568.648	20920.86
569.01	21094.87
569.372	21230.68
569.734	21156.79
570.095	21330.12
570.457	21252.61
570.819	21369.21
571.18	21401.08
571.542	21501.86
571.903	21447.18
572.265	21456.67
572.626	21547.29
572.987	21575.08
573.349	21581.41
573.71	21649.66
574.071	21724.01
574.432	21695.08
574.794	21938.91
575.155	21858.92
575.516	21784.79
575.877	21788.86
576.238	21917.9
576.599	22021.85
576.96	21970.78
577.32	22028.63
577.681	22071.34
578.042	22133.03
578.403	22186.82
578.763	22225.91
579.124	22177.1
579.485	22264.56
579.845	22351.79
580.206	22183.88
580.566	22190.43
580.927	22262.97
581.287	22400.82
581.648	22248.74
582.008	22364.44
582.368	22207.61
582.728	22341.62
583.089	22408.28
583.449	22290.32
583.809	22349.75
584.169	22368.51
584.529	22364.89
584.889	22527.6
585.249	22310.43
585.609	22305.23
585.969	22404.44
586.329	22335.74
586.688	22424.33
587.048	22391.11
587.408	22251.67
587.768	22339.58
588.127	22274.27
588.487	22305.46
588.846	22581.84
589.206	22264.78
589.565	22253.03
589.925	22315.18
590.284	22296.65
590.643	22358.11
591.003	22348.85
591.362	22416.64
591.721	22374.16
592.08	22382.29
592.44	22342.52
592.799	22313.82
593.158	22342.75
593.517	22375.97
593.876	22340.94
594.235	22339.81
594.593	22294.39
594.952	22380.26
595.311	22354.27
595.67	22346.81
596.029	22468.84
596.387	22380.48
596.746	22427.04
597.104	22421.61
597.463	22418
597.822	22515.62
598.18	22372.58
598.538	22396.98
598.897	22622.06
599.255	22382.97
599.613	22561.05
599.972	22512.01
600.33	22474.04
600.688	22425.91
601.046	22604.43
601.404	22626.81
601.762	22513.81
602.12	22583.64
602.478	22621.61
602.836	22661.61
603.194	22505.68
603.552	22582.51
603.91	22589.75
604.268	22680.59
604.625	22610.31
604.983	22678.56
605.341	22494.38
605.698	22624.55
606.056	22719.69
606.413	22676.75
606.771	22707.93
607.128	22724.43
607.485	22636.75
607.843	22719.69
608.2	22898.21
608.557	22918.78
608.914	22904.54
609.272	22997.42
609.629	22839.46
609.986	23047.59
610.343	22968.72
610.7	23073.8
611.057	23041.94
611.414	23048.72
611.771	23111.77
612.127	23223.85
612.484	23223.63
612.841	23286.9
613.198	23291.2
613.554	23138.21
613.911	23330.52
614.267	23375.94
614.624	23380.91
614.98	23392.66
615.337	23455.48
615.693	23396.05
616.05	23483.05
616.406	23572.77
616.762	23450.74
617.118	23571.64
617.475	23484.86
617.831	23578.42
618.187	23566.67
618.543	23671.52
618.899	23747.45
619.255	23677.17
619.611	23637.4
619.967	23735.25
620.323	23853.89
620.678	23709.49
621.034	23655.48
621.39	23718.75
621.746	23592.88
622.101	23922.37
622.457	23628.36
622.812	23714.91
623.168	23850.73
623.523	23809.37
623.879	23851.18
624.234	23741.58
624.589	23834.46
624.945	23920.78
625.3	23798.98
625.655	23816.15
626.01	23834.91
626.365	23910.84
626.72	23957.39
627.075	23883.04
627.43	23953.1
627.785	23854.34
628.14	23941.12
628.495	23932.31
628.85	23897.06
629.205	23915.81
629.559	23970.05
629.914	23802.14
630.269	23900.45
630.623	23850.28
630.978	23778.64
631.332	23914.23
631.687	23836.04
632.041	23792.65
632.396	23800.33
632.75	23739.55
633.104	23828.13
633.459	23669.72
633.813	23672.2
634.167	23644.86
634.521	23728.92
634.875	23793.56
635.229	23679.21
635.583	23571.87
635.937	23534.58
636.291	23561.92
636.645	23632.2
636.999	23389.72
637.352	23564.86
637.706	23502.26
638.06	23559.21
638.413	23386.56
638.767	23397.41
639.121	23387.69
639.474	23268.37
639.828	23213.01
640.181	23258.2
640.534	23318.99
640.888	23226.79
641.241	23188.6
641.594	23239.22
641.947	23252.55
642.301	23209.84
642.654	23304.08
643.007	23269.05
643.36	23069.51
643.713	23122.16
644.066	23268.82
644.419	23170.29
644.771	22923.97
645.124	22732.34
645.477	22751.77
645.83	22624.09
646.182	22452.12
646.535	22473.59
646.888	22444.44
647.24	22340.49
647.593	22575.28
647.945	22435.85
648.298	22305.91
648.65	22264.56
649.002	22293.26
649.355	22410.99
649.707	22317.66
650.059	22397.66
650.411	22621.16
650.763	22688.05
651.115	22933.46
651.467	22796.52
651.819	22806.46
652.171	22723.98
652.523	22792.9
652.875	22868.16
653.227	22667.94
653.578	22806.01
653.93	22809.4
654.282	22737.31
654.633	22618.44
654.985	22763.75
655.337	22736.18
655.688	22731.21
656.039	22919
656.391	22611.67
656.742	22676.75
657.094	22733.24
657.445	22823.19
657.796	22690.99
658.147	22583.87
658.498	22646.47
658.849	22811.89
659.2	22780.93
659.551	22639.46
659.902	22740.02
660.253	22693.7
660.604	22751.32
660.955	22651.66
661.306	22771.44
661.656	22709.97
662.007	22716.07
662.358	22671.55
662.708	22572.57
663.059	22736.41
663.409	22617.54
663.76	22763.53
664.11	22749.06
664.461	22813.24
664.811	22756.52
665.161	22654.83
665.511	22633.81
665.862	22773.92
666.212	22774.15
666.562	22809.17
666.912	22716.3
667.262	22772.57
667.612	22776.86
667.962	22743.41
668.312	22703.87
668.662	22727.37
669.011	22721.72
669.361	22765.79
669.711	22667.71
670.06	22633.13
670.41	22571.21
670.76	22675.62
671.109	22696.18
671.459	22573.25
671.808	22529.18
672.157	22784.99
672.507	22556.98
672.856	22605.34
673.205	22537.77
673.554	22617.54
673.904	22532.8
674.253	22613.7
674.602	22521.27
674.951	22312.46
675.3	22152.02
675.649	22485.34
675.998	22462.74
676.346	22424.1
676.695	22490.76
677.044	22253.93
677.393	22351.11
677.741	22502.06
678.09	22266.36
678.438	22227.49
678.787	22311.11
679.135	22326.93
679.484	22060.95
679.832	22251.45
680.181	22195.63
680.529	22233.37
680.877	22140.94
681.225	22135.52
681.573	22197.66
681.922	22057.78
682.27	21926.26
682.618	22005.13
682.966	21932.36
683.314	21953.15
683.661	21819.37
684.009	21761.74
684.357	21717.9
684.705	21785.7
685.053	21760.16
685.4	21721.07
685.748	21626.83
686.095	21545.03
686.443	21466.38
686.79	21384.35
687.138	21476.33
687.485	21459.38
687.832	21275.66
688.18	21396.33
688.527	21297.8
688.874	21207.18
689.221	21145.72
689.568	21163.79
689.915	21070.24
690.262	21064.81
690.609	21031.14
690.956	20905.95
691.303	20951.82
691.65	20799.74
691.997	20897.36
692.344	20684.03
692.69	20660.98
693.037	20658.5
693.383	20415.56
693.73	20432.06
694.077	20328.79
694.423	20439.97
694.769	20288.79
695.116	20266.42
695.462	20150.71
695.808	20128.79
696.155	20154.33
696.501	20002.02
696.847	20030.49
697.193	19876.82
697.539	19839.53
697.885	19750.95
698.231	19648.58
698.577	19689.26
698.923	19611.29
699.269	19529.03
699.614	19400.68
699.96	19360.68
700.306	19273.67
700.651	19285.2
700.997	19185.54
701.342	19208.36
701.688	19119.33
702.033	19051.76
702.379	18970.86
702.724	18994.36
703.069	18922.5
703.415	18795.95
703.76	18795.49
704.105	18738.09
704.45	18770.86
704.795	18690.19
705.14	18625.78
705.485	18586.46
705.83	18403.64
706.175	18500.14
706.52	18439.35
706.865	18355.51
707.209	18356.41
707.554	18242.97
707.899	18206.13
708.243	18167.49
708.588	18040.49
708.932	18000.26
709.277	17902.41
709.621	18039.36
709.966	17847.5
710.31	17936.99
710.654	17746.03
710.998	17844.56
711.342	17735.18
711.687	17699.48
712.031	17661.74
712.375	17588.75
712.719	17555.53
713.063	17600.95
713.407	17565.7
713.75	17502.87
714.094	17493.61
714.438	17446.6
714.782	17408.41
715.125	17310.11
715.469	17336.78
715.812	17249.77
716.156	17176.1
716.499	17088.65
716.843	17131.13
717.186	17157.8
717.53	17105.14
717.873	17197.12
718.216	17071.25
718.559	16907.41
718.902	16798.48
719.246	16881.42
719.589	16828.31
719.932	16822.21
720.275	16857.24
720.617	16781.76
720.96	16819.5
721.303	16681.88
721.646	16877.13
721.989	16701.76
722.331	16813.63
722.674	16659.05
723.016	16729.11
723.359	16569.11
723.701	16556.23
724.044	16527.53
724.386	16534.09
724.729	16557.14
725.071	16511.49
725.413	16504.93
725.755	16506.06
726.097	16400.76
726.439	16355.78
726.782	16348.1
727.124	16468.78
727.465	16289.12
727.807	16313.98
728.149	16296.58
728.491	16237.37
728.833	16266.3
729.175	16316.92
729.516	16212.29
729.858	16222.68
730.199	16249.35
730.541	16217.26
730.882	16161.44
731.224	16243.02
731.565	16169.57
731.906	16075.34
732.248	16094.1
732.589	16126.86
732.93	15997.15
733.271	16022.69
733.612	16058.84
733.953	16084.61
734.294	15949.24
734.635	16021.56
734.976	16103.36
735.317	16027.43
735.658	16001.9
735.999	16014.78
736.339	15952.41
736.68	15967.55
737.021	16049.58
737.361	15987.66
737.702	16064.04
738.042	16057.94
738.383	16055.91
738.723	15918.28
739.063	15958.73
739.404	15968.68
739.744	15998.51
740.084	15876.02
740.424	15979.75
740.764	15961.67
741.104	15968.22
741.444	15957.38
741.784	15866.53
742.124	15923.93
742.464	15950.15
742.804	15934.1
743.143	15890.03
743.483	15963.03
743.823	15967.55
744.162	15930.94
744.502	15986.53
744.841	15986.53
745.181	16088
745.52	16153.98
745.86	16039.41
746.199	16127.32
746.538	16132.29
746.877	16226.52
747.216	16135.9
747.556	16229.23
747.895	16184.26
748.234	16180.65
748.573	16269.46
748.911	16289.12
749.25	16307.2
749.589	16276.24
749.928	16386.07
750.267	16488.89
750.605	16472.84
750.944	16487.08
751.283	16636.46
751.621	16628.09
751.96	16613.86
752.298	16692.95
752.636	16812.95
752.975	16829.22
753.313	16811.37
753.651	16940.63
753.989	16915.32
754.327	17040.51
754.666	17057.24
755.004	17169.1
755.342	17249.09
755.679	17288.64
756.017	17325.25
756.355	17481.18
