Data from hue_100_FLMS001491_00010.txt Node
Date: Tue Feb 07 17:02:35 GMT 2017
User: dcchb
Spectrometer: FLMS00149
Trigger mode: 0
Integration Time (sec): 2.000000E-2
Scans to average: 10
Electric dark correction enabled: true
Nonlinearity correction enabled: false
Boxcar width: 0
XAxis mode: Wavelengths
Number of Pixels in Spectrum: 2048
>>>>>Begin Spectral Data<<<<<
341.393	-10.58
341.776	-10.58
342.16	-10.58
342.543	-80.86
342.927	-54.87
343.31	-73.4
343.693	-63.01
344.077	-67.07
344.46	-70.69
344.843	-67.07
345.226	-32.95
345.61	-38.6
345.993	-9
346.376	-10.13
346.759	20.15
347.142	45.69
347.525	59.7
347.908	53.37
348.291	57.89
348.674	100.6
349.057	94.5
349.44	121.17
349.823	154.39
350.206	163.65
350.588	203.65
350.971	196.65
351.354	219.02
351.737	248.17
352.119	266.7
352.502	247.49
352.884	266.93
353.267	302.18
353.65	276.65
354.032	288.17
354.414	312.35
354.797	320.49
355.179	324.33
355.562	329.3
355.944	313.71
356.326	338.11
356.709	354.61
357.091	333.59
357.473	332.91
357.855	330.66
358.238	342.41
358.62	330.2
359.002	342.18
359.384	342.18
359.766	324.1
360.148	348.51
360.53	355.97
360.912	331.11
361.294	352.58
361.676	342.63
362.057	329.07
362.439	330.66
362.821	326.36
363.203	344.21
363.584	326.14
363.966	334.95
364.348	321.62
364.729	316.42
365.111	321.16
365.493	301.73
365.874	310.09
366.256	308.96
366.637	326.36
367.019	318.9
367.4	321.39
367.781	309.19
368.163	321.84
368.544	312.12
368.925	325.46
369.306	326.36
369.688	315.29
370.069	335.4
370.45	305.57
370.831	307.38
371.212	321.62
371.593	325.46
371.974	297.66
372.355	313.03
372.736	338.79
373.117	318.68
373.498	321.39
373.879	320.26
374.26	307.6
374.641	309.86
375.021	322.75
375.402	305.12
375.783	316.42
376.163	328.85
376.544	341.28
376.925	325.91
377.305	339.24
377.686	327.49
378.066	342.86
378.447	350.09
378.827	325.23
379.208	329.98
379.588	328.62
379.968	338.79
380.349	344.44
380.729	348.28
381.109	357.1
381.489	373.37
381.87	343.08
382.25	345.12
382.63	347.15
383.01	356.19
383.39	348.06
383.77	355.74
384.15	374.27
384.53	374.72
384.91	338.34
385.29	342.86
385.67	366.81
386.049	366.59
386.429	371.56
386.809	363.2
387.189	367.72
387.568	367.04
387.948	354.38
388.328	389.86
388.707	380.82
389.087	351.22
389.466	379.24
389.846	376.76
390.225	391.44
390.605	373.82
390.984	396.19
391.363	398.45
391.743	372.91
392.122	392.57
392.501	374.5
392.881	391.22
393.26	403.2
393.639	386.47
394.018	387.38
394.397	396.42
394.776	396.87
395.155	396.19
395.534	395.51
395.913	403.42
396.292	388.28
396.671	401.16
397.05	414.95
397.429	392.57
397.808	413.59
398.186	395.74
398.565	400.26
398.944	407.49
399.323	418.34
399.701	421.73
400.08	423.76
400.458	407.94
400.837	440.03
401.215	423.53
401.594	422.18
401.972	435.29
402.351	412.69
402.729	414.27
403.107	438.22
403.486	441.16
403.864	440.48
404.242	437.54
404.62	433.93
404.999	461.95
405.377	450.65
405.755	434.38
406.133	452.91
406.511	454.72
406.889	451.33
407.267	458.34
407.645	466.7
408.023	470.99
408.401	475.28
408.779	479.35
409.156	494.94
409.534	484.55
409.912	470.99
410.29	485.91
410.667	486.58
411.045	480.48
411.422	480.93
411.8	487.04
412.178	522.74
412.555	513.02
412.933	493.81
413.31	504.89
413.687	517.77
414.065	528.62
414.442	526.36
414.819	527.26
415.197	526.58
415.574	561.16
415.951	546.92
416.328	569.52
416.705	569.52
417.082	572
417.46	545.79
417.837	568.16
418.214	586.69
418.591	574.26
418.967	569.52
419.344	563.42
419.721	589.63
420.098	574.26
420.475	579.46
420.852	586.02
421.228	579.24
421.605	602.51
421.982	604.77
422.358	604.55
422.735	588.5
423.111	600.93
423.488	628.27
423.864	621.27
424.241	647.71
424.617	646.58
424.994	658.1
425.37	629.18
425.746	658.56
426.123	640.25
426.499	656.75
426.875	653.81
427.251	669.63
427.627	667.14
428.003	698.1
428.379	684.77
428.756	679.35
429.132	700.36
429.507	722.51
429.883	733.36
430.259	703.75
430.635	737.42
431.011	739.23
431.387	730.42
431.763	717.76
432.138	755.28
432.514	750.76
432.89	757.99
433.265	771.1
433.641	784.88
434.016	779.23
434.392	783.3
434.767	781.72
435.143	843.41
435.518	837.76
435.894	812.45
436.269	812.45
436.644	819.91
437.02	827.37
437.395	843.18
437.77	857.87
438.145	868.27
438.52	860.58
438.895	902.39
439.271	894.26
439.646	884.76
440.021	901.71
440.395	922.96
440.77	906.01
441.145	902.39
441.52	916.4
441.895	917.53
442.27	916.4
442.645	941.71
443.019	982.84
443.394	939
443.769	954.59
444.143	940.81
444.518	979.45
444.892	982.62
445.267	988.72
445.641	1013.58
446.016	986.46
446.39	991.2
446.764	1014.7
447.139	1012.9
447.513	1000.69
447.887	1021.48
448.262	1025.1
448.636	1039.56
449.01	1019.9
449.384	1054.93
449.758	1049.51
450.132	1089.73
450.506	1070.07
450.88	1093.57
451.254	1101.93
451.628	1129.28
452.002	1117.75
452.376	1131.09
452.75	1118.66
453.123	1147.81
453.497	1151.88
453.871	1163.4
454.244	1178.77
454.618	1191.42
454.992	1214.93
455.365	1211.76
455.739	1235.49
456.112	1254.02
456.486	1257.18
456.859	1284.3
457.232	1308.48
457.606	1290.18
457.979	1322.27
458.352	1316.17
458.725	1352.78
459.099	1407.46
459.472	1384.19
459.845	1429.84
460.218	1409.72
460.591	1443.17
460.964	1421.47
461.337	1475.26
461.71	1500.79
462.083	1503.05
462.456	1520.91
462.829	1515.93
463.201	1532.88
463.574	1564.52
463.947	1588.7
464.32	1623.05
464.692	1636.16
465.065	1678.87
465.438	1692.65
465.81	1709.15
466.183	1738.98
466.555	1765.19
466.928	1798.41
467.3	1795.25
467.672	1791.63
468.045	1863.5
468.417	1893.55
468.789	1890.16
469.161	1928.58
469.534	1975.81
469.906	2046.09
470.278	2040.21
470.65	2068.46
471.022	2113.43
471.394	2185.07
471.766	2217.84
472.138	2213.09
472.51	2278.85
472.882	2317.27
473.253	2397.27
473.625	2442.69
473.997	2469.58
474.369	2534.44
474.74	2585.74
475.112	2635
475.484	2668.45
475.855	2749.8
476.227	2788.9
476.598	2934.2
476.97	2937.59
477.341	3007.19
477.713	3061.88
478.084	3125.61
478.455	3240.41
478.827	3293.29
479.198	3399.05
479.569	3466.17
479.94	3580.51
480.311	3623.45
480.682	3772.6
481.053	3830.22
481.424	3957.45
481.795	4004
482.166	4159.26
482.537	4217.33
482.908	4335.3
483.279	4425.91
483.65	4567.15
484.021	4693.48
484.391	4814.83
484.762	4913.13
485.133	4975.28
485.503	5141.83
485.874	5342.73
486.244	5420.24
486.615	5509.28
486.985	5652.1
487.356	5798.99
487.726	5973.22
488.097	6139.09
488.467	6151.29
488.837	6391.51
489.207	6517.84
489.578	6676.7
489.948	6793.76
490.318	6960.09
490.688	7041.89
491.058	7249.34
491.428	7481.2
491.798	7531.37
492.168	7803.68
492.538	7864.69
492.908	8094.74
493.278	8167.96
493.648	8283.67
494.017	8454.06
494.387	8603.66
494.757	8725.91
495.126	8837.78
495.496	9029.64
495.866	9120.71
496.235	9219.23
496.605	9423.98
496.974	9508.49
497.344	9666
497.713	9823.51
498.082	9949.84
498.452	10058.08
498.821	10169.94
499.19	10298.3
499.559	10431.63
499.928	10511.18
500.298	10666.43
500.667	10863.03
501.036	10874.78
501.405	10999.3
501.774	11053.09
502.143	11220.76
502.512	11279.07
502.88	11406.75
503.249	11466.18
503.618	11595.22
503.987	11719.96
504.356	11819.17
504.724	11890.8
505.093	11938.94
505.462	12013.74
505.83	12102.55
506.199	12235.65
506.567	12452.6
506.936	12474.74
507.304	12583.89
507.672	12688.07
508.041	12731.69
508.409	12891.45
508.777	12991.34
509.145	13034.73
509.514	12972.36
509.882	13099.81
510.25	13258
510.618	13266.36
510.986	13390.88
511.354	13395.62
511.722	13604.2
512.09	13608.5
512.458	13633.36
512.826	13768.95
513.193	13872.67
513.561	13846.91
513.929	13940.92
514.297	14004.65
514.664	14127.35
515.032	14206.22
515.4	14303.4
515.767	14285.09
516.135	14382.49
516.502	14218.88
516.869	14550.85
517.237	14599.43
517.604	14513.79
517.972	14657.96
518.339	14717.17
518.706	14676.27
519.073	14732.99
519.44	14744.06
519.808	14890.5
520.175	14875.58
520.542	14986.99
520.909	15046.43
521.276	15064.96
521.643	15212.75
522.009	15168.01
522.376	15208.46
522.743	15295.91
523.11	15418.17
523.477	15506.75
523.843	15471.5
524.21	15594.89
524.577	15673.53
524.943	15645.51
525.31	15725.05
525.676	15822.9
526.043	15782.9
526.409	15883.92
526.776	15934.54
527.142	15963.69
527.508	15922.34
527.874	16086.63
528.241	16090.47
528.607	15938.15
528.973	16141.31
529.339	16167.98
529.705	16148.32
530.071	16210.92
530.437	16239.16
530.803	16269.22
531.169	16344.47
531.535	16270.12
531.901	16227.41
532.267	16283.68
532.632	16246.17
532.998	16275.09
533.364	16332.04
533.73	16353.51
534.095	16403.9
534.461	16328.65
534.826	16384.02
535.192	16271.03
535.557	16395.77
535.923	16383.34
536.288	16390.57
536.653	16395.77
537.019	16288.2
537.384	16179.05
537.749	16317.13
538.114	16323.45
538.479	16221.99
538.845	16270.35
539.21	16123.01
539.575	16217.47
539.94	16206.17
540.305	16147.41
540.67	16144.02
541.034	16153.74
541.399	16133.63
541.764	16103.12
542.129	16102.44
542.494	16055.67
542.858	16104.93
543.223	16018.38
543.587	16028.1
543.952	15960.75
544.316	15971.15
544.681	15927.53
545.045	15937.25
545.41	15953.3
545.774	15921.66
546.138	15865.61
546.503	15774.77
546.867	15897.93
547.231	15754.2
547.595	15764.37
547.959	15730.93
548.324	15765.73
548.688	15715.34
549.052	15697.93
549.416	15647.99
549.779	15554.44
550.143	15532.74
550.507	15597.82
550.871	15586.3
551.235	15511.72
551.599	15594.89
551.962	15492.74
552.326	15429.24
552.689	15452.74
553.053	15408.22
553.417	15407.09
553.78	15474.66
554.143	15426.08
554.507	15456.59
554.87	15362.35
555.234	15577.94
555.597	15448.45
555.96	15442.8
556.323	15368.23
556.686	15409.81
557.05	15424.5
557.413	15401.67
557.776	15462.01
558.139	15435.12
558.502	15356.7
558.865	15371.39
559.228	15475.34
559.59	15530.93
559.953	15433.99
560.316	15496.58
560.679	15431.5
561.041	15445.29
561.404	15509.47
561.767	15497.04
562.129	15534.55
562.492	15594.66
562.854	15521.44
563.217	15531.16
563.579	15542.01
563.941	15633.76
564.304	15647.77
564.666	15654.32
565.028	15612.29
565.39	15676.69
565.753	15698.61
566.115	15788.55
566.477	15746.52
566.839	15775.9
567.201	15877.82
567.563	15804.82
567.925	15821.1
568.287	15910.36
568.648	15951.49
569.01	15913.97
569.372	15956.23
569.734	15901.32
570.095	16042.56
570.457	16031.26
570.819	16031.94
571.18	15970.24
571.542	16012.28
571.903	16072.39
572.265	16129.56
572.626	16175.89
572.987	16174.98
573.349	16106.06
573.71	16206.4
574.071	16227.64
574.432	16152.39
574.794	16300.4
575.155	16249.11
575.516	16092.95
575.877	16263.34
576.238	16235.77
576.599	16289.33
576.96	16291.14
577.32	16259.05
577.681	16297.24
578.042	16373.4
578.403	16322.1
578.763	16364.13
579.124	16389.44
579.485	16423.79
579.845	16429.44
580.206	16391.48
580.566	16327.52
580.927	16367.3
581.287	16374.53
581.648	16310.12
582.008	16545.6
582.368	16382.44
582.728	16348.77
583.089	16292.04
583.449	16356.67
583.809	16420.63
584.169	16407.75
584.529	16320.52
584.889	16496.33
585.249	16242.78
585.609	16209.79
585.969	16421.08
586.329	16251.37
586.688	16272.83
587.048	16287.52
587.408	16246.62
587.768	16304.7
588.127	16226.06
588.487	16243.01
588.846	16314.64
589.206	16080.07
589.565	16066.96
589.925	16261.31
590.284	16263.12
590.643	16240.97
591.003	16220.41
591.362	16228.99
591.721	16158.49
592.08	16174.76
592.44	16183.35
592.799	16212.95
593.158	16210.46
593.517	16174.76
593.876	16188.54
594.235	16072.61
594.593	16122.56
594.952	16206.17
595.311	16019.96
595.67	16078.26
596.029	16276.45
596.387	16187.41
596.746	16258.82
597.104	16111.48
597.463	16092.73
597.822	16172.05
598.18	16090.69
598.538	16086.17
598.897	16096.34
599.255	16042.11
599.613	16250.46
599.972	16130.47
600.33	16200.52
600.688	16153.74
601.046	16115.1
601.404	16270.12
601.762	16149.9
602.12	16243.91
602.478	16172.27
602.836	16172.5
603.194	16068.77
603.552	16032.84
603.91	16087.3
604.268	16144.25
604.625	16050.69
604.983	16120.07
605.341	16098.15
605.698	16195.1
606.056	16199.16
606.413	16095.44
606.771	16234.64
607.128	16228.32
607.485	16165.04
607.843	16137.02
608.2	16204.36
608.557	16184.7
608.914	16188.77
609.272	16227.64
609.629	16300.18
609.986	16322.1
610.343	16223.8
610.7	16382.66
611.057	16301.99
611.414	16333.17
611.771	16288.43
612.127	16437.8
612.484	16319.16
612.841	16401.42
613.198	16361.42
613.554	16390.57
613.911	16453.62
614.267	16431.93
614.624	16457.91
614.98	16457.01
615.337	16572.49
615.693	16506.5
616.05	16447.75
616.406	16590.79
616.762	16526.16
617.118	16499.95
617.475	16563.67
617.831	16578.36
618.187	16567.29
618.543	16597.12
618.899	16636.89
619.255	16618.14
619.611	16540.17
619.967	16687.97
620.323	16669.66
620.678	16674.63
621.034	16639.83
621.39	16595.54
621.746	16633.28
622.101	16774.97
622.457	16670.11
622.812	16636.89
623.168	16741.52
623.523	16660.85
623.879	16750.34
624.234	16609.78
624.589	16689.77
624.945	16686.61
625.3	16644.35
625.655	16679.83
626.01	16628.53
626.365	16648.42
626.72	16622.43
627.075	16588.08
627.43	16580.62
627.785	16545.82
628.14	16586.95
628.495	16626.05
628.85	16537.46
629.205	16465.37
629.559	16678.93
629.914	16457.69
630.269	16668.76
630.623	16467.63
630.978	16390.8
631.332	16500.4
631.687	16555.31
632.041	16443.9
632.396	16486.16
632.75	16430.57
633.104	16481.87
633.459	16422.44
633.813	16435.77
634.167	16415.66
634.521	16488.87
634.875	16377.46
635.229	16394.87
635.583	16283.46
635.937	16258.15
636.291	16244.59
636.645	16278.48
636.999	16275.09
637.352	16312.61
637.706	16105.38
638.06	16209.56
638.413	16158.71
638.767	16158.04
639.121	16132.95
639.474	16037.36
639.828	16054.76
640.181	16027.19
640.534	16077.13
640.888	15957.36
641.241	15992.62
641.594	15996.46
641.947	16024.03
642.301	16028.77
642.654	15986.29
643.007	15932.96
643.36	15917.82
643.713	15864.71
644.066	15917.82
644.419	15897.25
644.771	15799.85
645.124	15727.54
645.477	15653.19
645.83	15589.01
646.182	15453.65
646.535	15407.09
646.888	15444.61
647.24	15297.27
647.593	15314.89
647.945	15353.54
648.298	15314.22
648.65	15345.63
649.002	15301.79
649.355	15422.01
649.707	15368.68
650.059	15547.43
650.411	15595.11
650.763	15528.67
651.115	15775.9
651.467	15753.07
651.819	15746.07
652.171	15656.13
652.523	15576.13
652.875	15692.96
653.227	15581.78
653.578	15650.7
653.93	15630.14
654.282	15678.27
654.633	15599.63
654.985	15699.74
655.337	15640.54
655.688	15672.85
656.039	15750.14
656.391	15617.94
656.742	15662.46
657.094	15632.17
657.445	15726.41
657.796	15666.07
658.147	15625.17
658.498	15638.28
658.849	15666.07
659.2	15655.22
659.551	15597.6
659.902	15692.96
660.253	15644.38
660.604	15664.72
660.955	15588.79
661.306	15728.22
661.656	15676.69
662.007	15666.07
662.358	15669.91
662.708	15667.2
663.059	15688.67
663.409	15532.06
663.76	15775.9
664.11	15598.05
664.461	15791.94
664.811	15688.44
665.161	15712.4
665.511	15579.52
665.862	15720.76
666.212	15776.58
666.562	15826.29
666.912	15767.31
667.262	15728.22
667.612	15727.54
667.962	15744.94
668.312	15692.29
668.662	15709.46
669.011	15619.07
669.361	15611.38
669.711	15639.63
670.06	15568.67
670.41	15563.7
670.76	15686.18
671.109	15642.34
671.459	15614.1
671.808	15659.29
672.157	15549.69
672.507	15502.91
672.856	15536.13
673.205	15567.77
673.554	15623.13
673.904	15480.09
674.253	15621.55
674.602	15577.71
674.951	15343.14
675.3	15250.71
675.649	15454.55
675.998	15448.68
676.346	15450.71
676.695	15433.31
677.044	15276.25
677.393	15353.76
677.741	15424.27
678.09	15406.64
678.438	15302.01
678.787	15316.02
679.135	15375.01
679.484	15283.26
679.832	15293.88
680.181	15190.83
680.529	15271.05
680.877	15141.57
681.225	15119.42
681.573	15274.44
681.922	15215.69
682.27	15075.8
682.618	15099.98
682.966	15095.69
683.314	15060.44
683.661	14970.95
684.009	14927.56
684.357	14845.98
684.705	14898.18
685.053	14906.77
685.4	14806.66
685.748	14736.38
686.095	14772.54
686.443	14659.54
686.79	14690.05
687.138	14697.06
687.485	14684.18
687.832	14659.54
688.18	14622.26
688.527	14520.56
688.874	14485.76
689.221	14427.69
689.568	14435.6
689.915	14364.86
690.262	14473.56
690.609	14392.43
690.956	14277.41
691.303	14313.79
691.65	14166.22
691.997	14243.74
692.344	14081.71
692.69	14053.68
693.037	14091.65
693.383	13965.55
693.73	13989.96
694.077	13949.96
694.423	13914.7
694.769	13753.58
695.116	13834.71
695.462	13719
695.808	13700.47
696.155	13673.58
696.501	13553.58
696.847	13503.87
697.193	13420.48
697.539	13552.23
697.885	13433.36
698.231	13390.42
698.577	13379.13
698.923	13351.1
699.269	13134.16
699.614	13189.75
699.96	13182.97
700.306	13095.07
700.651	13086.7
700.997	13014.62
701.342	13016.42
701.688	12969.19
702.033	12873.83
702.379	12931.45
702.724	12792.7
703.069	12850.55
703.415	12718.35
703.76	12710.22
704.105	12737.11
704.45	12710.89
704.795	12602.87
705.14	12506.15
705.485	12549.54
705.83	12383.45
706.175	12468.64
706.52	12390.45
706.865	12380.51
707.209	12294.18
707.554	12315.88
707.899	12282.21
708.243	12179.84
708.588	12087.86
708.932	12090.35
709.277	12047.86
709.621	12066.17
709.966	11991.82
710.31	11985.72
710.654	11980.74
710.998	11986.62
711.342	11998.37
711.687	11842.67
712.031	11812.61
712.375	11812.61
712.719	11804.7
713.063	11809.22
713.407	11802.67
713.75	11749.56
714.094	11765.38
714.438	11745.27
714.782	11677.25
715.125	11588.66
715.469	11648.1
715.812	11533.98
716.156	11464.15
716.499	11539.63
716.843	11543.47
717.186	11427.76
717.53	11549.8
717.873	11573.52
718.216	11413.3
718.559	11390.03
718.902	11400.65
719.246	11390.03
719.589	11321.55
719.932	11332.4
720.275	11286.75
720.617	11315.45
720.96	11259.18
721.303	11253.76
721.646	11274.55
721.989	11274.55
722.331	11235.23
722.674	11193.65
723.016	11176.47
723.359	11252.85
723.701	11251.72
724.044	11227.09
724.386	11125.4
724.729	11205.17
725.071	11171.27
725.413	11108
725.755	11152.52
726.097	11077.72
726.439	10966.08
726.782	11013.99
727.124	11108
727.465	11036.81
727.807	11025.29
728.149	10972.86
728.491	11012.41
728.833	11066.64
729.175	10985.06
729.516	10951.39
729.858	10991.17
730.199	11031.39
730.541	10919.3
730.882	10859.64
731.224	10958.85
731.565	10882.69
731.906	10903.94
732.248	10825.29
732.589	10907.33
732.93	10788.91
733.271	10919.98
733.612	10936.48
733.953	10974.9
734.294	10883.37
734.635	10881.34
734.976	10929.47
735.317	10830.72
735.658	10844.28
735.999	10828.91
736.339	10853.09
736.68	10873.2
737.021	10821.23
737.361	10886.76
737.702	10906.42
738.042	10921.56
738.383	10853.77
738.723	10927.21
739.063	10893.54
739.404	10926.53
739.744	10858.51
740.084	10865.75
740.424	10886.99
740.764	10933.09
741.104	10889.25
741.444	10936.25
741.784	10875.01
742.124	10994.78
742.464	11009.02
742.804	10971.51
743.143	11037.27
743.483	11025.74
743.823	10983.26
744.162	10997.95
744.502	11115.91
744.841	11105.29
745.181	11215.57
745.52	11163.36
745.86	11286.3
746.199	11274.55
746.538	11346.41
746.877	11336.92
747.216	11409.23
747.556	11520.19
747.895	11446.07
748.234	11498.72
748.573	11538.95
748.911	11665.95
749.25	11675.67
749.589	11694.2
749.928	11843.57
750.267	11916.57
750.605	11910.92
750.944	12060.06
751.283	11965.6
751.621	12203.34
751.96	12182.32
752.298	12312.26
752.636	12432.71
752.975	12478.13
753.313	12502.31
753.651	12675.42
753.989	12790.89
754.327	12816.2
754.666	12996.54
755.004	13149.08
755.342	13271.56
755.679	13370.31
756.017	13469.52
