Data from hue_50_FLMS001491_86.txt Node
Date: Mon Feb 06 15:11:09 GMT 2017
User: dcchb
Spectrometer: FLMS00149
Trigger mode: 0
Integration Time (sec): 2.000000E-2
Scans to average: 10
Electric dark correction enabled: true
Nonlinearity correction enabled: false
Boxcar width: 0
XAxis mode: Wavelengths
Number of Pixels in Spectrum: 2048
>>>>>Begin Spectral Data<<<<<
341.393	-13.86
341.776	-13.86
342.16	-13.86
342.543	-48.66
342.927	-69
343.31	-56.57
343.693	-50.24
344.077	-68.77
344.46	-51.82
344.843	-59.28
345.226	-42.78
345.61	-18.15
345.993	-27.41
346.376	-14.08
346.759	23.43
347.142	23.43
347.525	34.28
347.908	56.43
348.291	61.62
348.674	85.12
349.057	104.79
349.44	141.17
349.823	129.42
350.206	166.93
350.588	181.62
350.971	211.9
351.354	216.65
351.737	233.6
352.119	260.04
352.502	264.56
352.884	260.94
353.267	299.58
353.65	302.97
354.032	295.74
354.414	309.75
354.797	316.08
355.179	333.48
355.562	328.73
355.944	323.08
356.326	333.93
356.709	346.36
357.091	314.27
357.473	347.94
357.855	344.78
358.238	329.86
358.62	357.21
359.002	322.41
359.384	327.38
359.766	347.04
360.148	351.11
360.53	312.01
360.912	328.06
361.294	337.32
361.676	336.87
362.057	338.9
362.439	342.07
362.821	316.53
363.203	336.19
363.584	313.82
363.966	322.63
364.348	334.16
364.729	316.76
365.111	296.42
365.493	336.87
365.874	332.58
366.256	322.41
366.637	340.94
367.019	318.79
367.4	307.04
367.781	310.66
368.163	307.04
368.544	317.89
368.925	341.16
369.306	326.7
369.688	312.01
370.069	309.07
370.45	307.72
370.831	326.47
371.212	315.85
371.593	317.21
371.974	313.82
372.355	316.98
372.736	310.66
373.117	333.71
373.498	322.63
373.879	329.41
374.26	301.84
374.641	279.47
375.021	330.77
375.402	326.47
375.783	333.03
376.163	326.25
376.544	316.76
376.925	319.47
377.305	324.67
377.686	316.98
378.066	338.9
378.447	327.6
378.827	324.44
379.208	365.57
379.588	308.17
379.968	346.59
380.349	318.57
380.729	328.73
381.109	347.72
381.489	345.68
381.87	343.2
382.25	349.52
382.63	327.38
383.01	321.05
383.39	330.32
383.77	341.84
384.15	340.94
384.53	338.9
384.91	350.88
385.29	343.42
385.67	357.66
386.049	367.6
386.429	347.49
386.809	349.98
387.189	353.59
387.568	361.05
387.948	368.28
388.328	359.24
388.707	348.39
389.087	366.25
389.466	361.28
389.846	353.82
390.225	361.95
390.605	360.6
390.984	359.47
391.363	356.53
391.743	370.77
392.122	357.43
392.501	355.17
392.881	358.79
393.26	385.46
393.639	340.03
394.018	391.56
394.397	380.94
394.776	390.43
395.155	370.54
395.534	374.16
395.913	368.28
396.292	367.6
396.671	380.71
397.05	369.19
397.429	375.29
397.808	373.03
398.186	363.76
398.565	366.7
398.944	381.16
399.323	412.8
399.701	385.46
400.08	387.49
400.458	396.98
400.837	389.52
401.215	398.34
401.594	404.44
401.972	415.51
402.351	397.43
402.729	402.18
403.107	406.92
403.486	425.45
403.864	418
404.242	413.48
404.62	410.54
404.999	409.64
405.377	400.82
405.755	411.22
406.133	421.16
406.511	437.43
406.889	435.62
407.267	450.54
407.645	401.5
408.023	429.07
408.401	428.84
408.779	409.86
409.156	413.93
409.534	451.44
409.912	445.79
410.29	446.7
410.667	450.99
411.045	446.02
411.422	437.43
411.8	433.82
412.178	435.17
412.555	456.64
412.933	445.57
413.31	450.76
413.687	488.96
414.065	453.93
414.442	470.2
414.819	480.37
415.197	470.88
415.574	477.66
415.951	483.31
416.328	480.14
416.705	497.54
417.082	501.84
417.46	481.5
417.837	510.2
418.214	500.48
418.591	509.97
418.967	510.2
419.344	500.48
419.721	513.14
420.098	495.74
420.475	541.38
420.852	531.21
421.228	514.72
421.605	511.78
421.982	526.24
422.358	518.11
422.735	522.4
423.111	524.21
423.488	533.47
423.864	552.46
424.241	552.01
424.617	546.58
424.994	540.48
425.37	534.6
425.746	566.24
426.123	565.34
426.499	541.38
426.875	560.82
427.251	564.89
427.627	567.6
428.003	587.94
428.379	584.32
428.756	603.53
429.132	604.21
429.507	594.26
429.883	577.77
430.259	601.04
430.635	596.75
431.011	617.09
431.387	651.44
431.763	626.81
432.138	614.83
432.514	608.5
432.89	622.74
433.265	657.31
433.641	649.63
434.016	632
434.392	644.43
434.767	663.41
435.143	643.53
435.518	670.19
435.894	656.64
436.269	676.52
436.644	694.6
437.02	683.53
437.395	686.01
437.77	699.12
438.145	692.79
438.52	717.2
438.895	709.29
439.271	709.97
439.646	742.73
440.021	733.7
440.395	734.37
440.77	728.5
441.145	745.67
441.52	764.66
441.895	728.5
442.27	756.75
442.645	781.15
443.019	762.17
443.394	743.64
443.769	743.41
444.143	764.2
444.518	798.1
444.892	798.1
445.267	761.72
445.641	780.02
446.016	775.05
446.39	813.69
446.764	807.59
447.139	779.8
447.513	824.31
447.887	817.76
448.262	798.1
448.636	819.34
449.01	821.38
449.384	821.83
449.758	832.45
450.132	833.35
450.506	854.82
450.88	835.39
451.254	851.21
451.628	874.93
452.002	840.81
452.376	865.22
452.75	875.16
453.123	899.34
453.497	914.03
453.871	893.92
454.244	903.86
454.618	935.5
454.992	940.47
455.365	948.38
455.739	961.94
456.112	936.63
456.486	980.02
456.859	983.86
457.232	985.21
457.606	987.25
457.979	1023.18
458.352	1002.16
458.725	1001.48
459.099	1040.13
459.472	1056.85
459.845	1066.34
460.218	1060.24
460.591	1084.19
460.964	1084.87
461.337	1097.08
461.71	1111.76
462.083	1120.13
462.456	1118.09
462.829	1140.92
463.201	1167.36
463.574	1166.68
463.947	1144.98
464.32	1184.31
464.692	1199.45
465.065	1199.22
465.438	1259.33
465.81	1265.88
466.183	1275.83
466.555	1299.1
466.928	1325.77
467.3	1316.73
467.672	1352.21
468.045	1375.03
468.417	1393.57
468.789	1405.77
469.161	1418.2
469.534	1437.41
469.906	1471.98
470.278	1464.75
470.65	1498.42
471.022	1540.45
471.394	1589.27
471.766	1590.62
472.138	1627.46
472.51	1695.93
472.882	1710.39
473.253	1710.17
473.625	1760.79
473.997	1830.39
474.369	1850.5
474.74	1849.37
475.112	1913.78
475.484	1975.24
475.855	1995.58
476.227	2066.77
476.598	2120.55
476.97	2154.22
477.341	2208.01
477.713	2228.12
478.084	2288.46
478.455	2371.84
478.827	2431.5
479.198	2509.92
479.569	2556.92
479.94	2651.16
480.311	2698.84
480.682	2816.58
481.053	2905.16
481.424	2939.06
481.795	3008.44
482.166	3135.89
482.537	3186.51
482.908	3294.76
483.279	3375.43
483.65	3463.79
484.021	3604.58
484.391	3647.07
484.762	3767.74
485.133	3817.68
485.503	3948.98
485.874	4111.91
486.244	4153.49
486.615	4301.96
486.985	4359.14
487.356	4506.93
487.726	4678.45
488.097	4793.02
488.467	4871.67
488.837	5027.37
489.207	5153.24
489.578	5270.98
489.948	5383.52
490.318	5571.53
490.688	5635.26
491.058	5776.27
491.428	5921.58
491.798	6078.64
492.168	6272.98
492.538	6353.66
492.908	6477.73
493.278	6641.34
493.648	6708.91
494.017	6959.97
494.387	7023.47
494.757	7162.68
495.126	7386.85
495.496	7430.69
495.866	7562.22
496.235	7761.08
496.605	7885.82
496.974	8038.14
497.344	8165.14
497.713	8206.95
498.082	8360.39
498.452	8562.64
498.821	8620.72
499.19	8813.71
499.559	8941.84
499.928	9084.89
500.298	9183.87
500.667	9379.12
501.036	9357.88
501.405	9614.59
501.774	9692.33
502.143	9820.69
502.512	9928.93
502.88	10079.66
503.249	10128.7
503.618	10294.8
503.987	10357.62
504.356	10449.37
504.724	10637.39
505.093	10654.11
505.462	10766.2
505.83	10950.38
506.199	11009.36
506.567	11159.64
506.936	11238.28
507.304	11465.39
507.672	11560.3
508.041	11597.36
508.409	11752.39
508.777	11913.06
509.145	12028.54
509.514	12156.9
509.882	12227.4
510.25	12328.19
510.618	12396.21
510.986	12497.68
511.354	12711.69
511.722	12822.42
512.09	12920.72
512.458	12889.31
512.826	13114.61
513.193	13118.68
513.561	13205.46
513.929	13368.84
514.297	13468.95
514.664	13663.52
515.032	13760.02
515.4	13904.2
515.767	13918.89
516.135	14064.42
516.502	13959.79
516.869	14308.48
517.237	14305.99
517.604	14259.44
517.972	14586.44
518.339	14666.66
518.706	14736.49
519.073	14784.63
519.44	14927.22
519.808	15137.61
520.175	15167.89
520.542	15343.71
520.909	15391.39
521.276	15358.17
521.643	15635.9
522.009	15654.88
522.376	15769.01
522.743	16030.92
523.11	16068.89
523.477	16256.23
523.843	16331.25
524.21	16500.06
524.577	16615.09
524.943	16771.92
525.31	16778.92
525.676	16914.74
526.043	17103.66
526.409	17109.08
526.776	17286.48
527.142	17303.2
527.508	17469.07
527.874	17610.09
528.241	17691.22
528.607	17771.89
528.973	17938.21
529.339	18036.52
529.705	18211.65
530.071	18270.64
530.437	18370.97
530.803	18517.86
531.169	18615.94
531.535	18681.92
531.901	18646.9
532.267	18858.19
532.632	18977.51
532.998	19024.51
533.364	19189.93
533.73	19149.26
534.095	19389.7
534.461	19417.5
534.826	19471.73
535.192	19495.69
535.557	19775.45
535.923	19751.73
536.288	19759.18
536.653	19881.44
537.019	19972.29
537.384	19978.61
537.749	20092.51
538.114	20180.87
538.479	20170.7
538.845	20307.87
539.21	20258.83
539.575	20374.53
539.94	20546.96
540.305	20692.27
540.67	20600.52
541.034	20739.05
541.399	20867.18
541.764	20817.91
542.129	20872.6
542.494	21069.88
542.858	21085.25
543.223	21160.73
543.587	21355.3
543.952	21329.76
544.316	21417.22
544.681	21485.69
545.045	21568.63
545.41	21689.98
545.774	21706.93
546.138	21780.37
546.503	21767.49
546.867	21886.13
547.231	22028.5
547.595	22112.34
547.959	22158.89
548.324	22229.4
548.688	22273.24
549.052	22395.72
549.416	22405.22
549.779	22409.28
550.143	22524.31
550.507	22675.72
550.871	22779.22
551.235	22701.03
551.599	22982.6
551.962	22867.12
552.326	23018.76
552.689	23138.53
553.053	22885.43
553.417	23021.92
553.78	23468.01
554.143	23385.76
554.507	23454.45
554.87	23558.86
555.234	23636.37
555.597	23615.58
555.96	23693.54
556.323	23822.81
556.686	23826.65
557.05	24103.25
557.413	24096.02
557.776	24256.01
558.139	24350.7
558.502	24428.89
558.865	24422.11
559.228	24738.71
559.59	24703.01
559.953	24798.15
560.316	25060.51
560.679	25009.44
561.041	25309.77
561.404	25384.12
561.767	25380.05
562.129	25307.74
562.492	25683.32
562.854	25623.21
563.217	25680.84
563.579	25715.64
563.941	25824.79
564.304	25973.26
564.666	26156.53
565.028	26103.42
565.39	26223.65
565.753	26479.69
566.115	26521.94
566.477	26676.97
566.839	26754.25
567.201	26831.54
567.563	26829.73
567.925	26998.09
568.287	27135.49
568.648	27200.12
569.01	27362.83
569.372	27534.12
569.734	27478.53
570.095	27651.41
570.457	27678.3
570.819	27850.04
571.18	27774.34
571.542	28107.89
571.903	28120.32
572.265	28136.59
572.626	28224.5
572.987	28357.38
573.349	28508.56
573.71	28574.09
574.071	28570.48
574.432	28844.82
574.794	29043.01
575.155	29075.32
575.516	28972.73
575.877	29179.95
576.238	29385.15
576.599	29285.26
576.96	29350.12
577.32	29501.53
577.681	29759.15
578.042	29884.57
578.403	29809.32
578.763	29910.56
579.124	30070.1
579.485	30241.17
579.845	30333.6
580.206	30374.05
580.566	30501.73
580.927	30618.11
581.287	30804.54
581.648	30825.56
582.008	31057.87
582.368	31074.37
582.728	31227.36
583.089	31284.53
583.449	31355.04
583.809	31540.79
584.169	31610.17
584.529	31706.89
584.889	31947.79
585.249	32052.65
585.609	31967.68
585.969	32336.48
586.329	32361.56
586.688	32437.04
587.048	32483.82
587.408	32578.28
587.768	32711.84
588.127	32928.1
588.487	32930.81
588.846	33232.73
589.206	33013.52
589.565	33261.65
589.925	33538.93
590.284	33503.23
590.643	33665.03
591.003	33872.26
591.362	33990
591.721	34033.61
592.08	34250.1
592.44	34312.93
592.799	34422.3
593.158	34513.82
593.517	34695.06
593.876	34818.45
594.235	34911.78
594.593	34864.32
594.952	35180.93
595.311	35031.55
595.67	35275.39
596.029	35627.92
596.387	35570.52
596.746	35718.99
597.104	35631.99
597.463	35692.55
597.822	36148.81
598.18	36009.6
598.538	36155.14
598.897	36327.79
599.255	36197.4
599.613	36686.65
599.972	36521.45
600.33	36670.38
600.688	36702.24
601.046	36866.53
601.404	37185.17
601.762	37066.75
602.12	37191.49
602.478	37366.86
602.836	37291.15
603.194	37344.03
603.552	37490.7
603.91	37595.33
604.268	37735.21
604.625	37593.29
604.983	37938.82
605.341	37757.58
605.698	38023.79
606.056	38107.63
606.413	38156.44
606.771	38226.72
607.128	38300.62
607.485	38344.68
607.843	38268.53
608.2	38631
608.557	38712.81
608.914	38511.23
609.272	38991.9
609.629	38975.85
609.986	39138.79
610.343	38987.38
610.7	39367.71
611.057	39353.7
611.414	39348.95
611.771	39506.24
612.127	39638.89
612.484	39593.92
612.841	39840.69
613.198	39661.49
613.554	39852.67
613.911	40025.77
614.267	40023.51
614.624	40081.14
614.98	40193.22
615.337	40481.35
615.693	40356.61
616.05	40298.53
616.406	40542.37
616.762	40319.32
617.118	40622.82
617.475	40558.41
617.831	40692.42
618.187	40744.17
618.543	40727.9
618.899	41069.36
619.255	40976.93
619.611	41058.51
619.967	41311.84
620.323	41187.55
620.678	41116.14
621.034	41090.37
621.39	41236.13
621.746	41149.36
622.101	41568.55
622.457	41295.34
622.812	41413.76
623.168	41545.05
623.523	41539.85
623.879	41595.67
624.234	41411.27
624.589	41622.56
624.945	41629.8
625.3	41726.52
625.655	41689.45
626.01	41861.2
626.365	41848.32
626.72	41696.91
627.075	41798.6
627.43	41788.89
627.785	41696.69
628.14	41804.48
628.495	41882.9
628.85	41868.21
629.205	41763.13
629.559	42053.29
629.914	41786.85
630.269	41883.57
630.623	41787.31
630.978	41777.36
631.332	41876.34
631.687	42015.32
632.041	41835.21
632.396	41918.38
632.75	41746.4
633.104	41794.76
633.459	41641.77
633.813	41587.54
634.167	41625.28
634.521	41726.97
634.875	41677.25
635.229	41634.77
635.583	41607.2
635.937	41646.74
636.291	41554.54
636.645	41506.86
636.999	41384.38
637.352	41634.99
637.706	41543.7
638.06	41544.37
638.413	41481.55
638.767	41456.01
639.121	41431.16
639.474	41176.02
639.828	41159.98
640.181	41306.41
640.534	41212.41
640.888	41141.22
641.241	41012.64
641.594	41180.54
641.947	41197.94
642.301	41076.59
642.654	41202.24
643.007	41198.39
643.36	41055.12
643.713	40932.86
644.066	41077.04
644.419	40807.44
644.771	40613.78
645.124	40196.39
645.477	40279.32
645.83	40068.48
646.182	39885.66
646.535	39758.88
646.888	39788.94
647.24	39607.48
647.593	39905.77
647.945	39758.43
648.298	39604.09
648.65	39492.45
649.002	39485.9
649.355	39721.14
649.707	39626.68
650.059	39844.53
650.411	40145.77
650.763	40154.35
651.115	40602.03
651.467	40333.33
651.819	40395.48
652.171	40227.57
652.523	40362.71
652.875	40265.76
653.227	40182.6
653.578	40460.56
653.93	40154.58
654.282	40116.16
654.633	40012.21
654.985	40136.5
655.337	40169.27
655.688	40145.99
656.039	40178.99
656.391	39849.96
656.742	39933.79
657.094	39950.07
657.445	40160.23
657.796	39930.86
658.147	39947.58
658.498	39915.04
658.849	39872.78
659.2	39978.54
659.551	39992.32
659.902	39980.12
660.253	39884.53
660.604	39956.84
660.955	39776.74
661.306	39892.44
661.656	39833.91
662.007	39829.39
662.358	39936.51
662.708	39875.49
663.059	39768.15
663.409	39711.88
663.76	39831.2
664.11	39865.32
664.461	40061.93
664.811	39825.55
665.161	39791.2
665.511	39786.68
665.862	39709.39
666.212	39928.6
666.562	39880.69
666.912	39797.08
667.262	39707.81
667.612	39766.34
667.962	39767.92
668.312	39747.81
668.662	39853.34
669.011	39803.4
669.361	39505.33
669.711	39667.81
670.06	39606.8
670.41	39490.87
670.76	39454.49
671.109	39710.98
671.459	39527.03
671.808	39372.91
672.157	39406.58
672.507	39294.49
672.856	39316.41
673.205	39402.28
673.554	39408.16
673.904	39380.14
674.253	39420.81
674.602	39365.67
674.951	38683.43
675.3	38721.17
675.649	39185.11
675.998	39199.12
676.346	39246.13
676.695	39349.63
677.044	38936.08
677.393	39130.43
677.741	39295.62
678.09	39105.34
678.438	38912.35
678.787	39038.22
679.135	38997.32
679.484	38941.05
679.832	39002.52
680.181	38627.39
680.529	38878
680.877	38650.89
681.225	38834.39
681.573	38836.42
681.922	38525.02
682.27	38637.56
682.618	38549.2
682.966	38369.99
683.314	38592.59
683.661	38421.07
684.009	38217.46
684.357	38191.47
684.705	38087.06
685.053	38264.23
685.4	38080.06
685.748	37926.84
686.095	38063.34
686.443	37812.49
686.79	37757.13
687.138	37844.58
687.485	37812.72
687.832	37762.78
688.18	37578.38
688.527	37468.32
688.874	37474.2
689.221	37372.96
689.568	37300.42
689.915	37152.17
690.262	37119.63
690.609	36983.82
690.956	36945.17
691.303	36909.47
691.65	36734.56
691.997	36804.61
692.344	36532.75
692.69	36699.76
693.037	36519.87
693.383	36258.19
693.73	36465.64
694.077	36192.42
694.423	36335.92
694.769	36141.8
695.116	36002.82
695.462	35909.72
695.808	35789.27
696.155	35921.24
696.501	35530.07
696.847	35768.71
697.193	35411.2
697.539	35369.17
697.885	35229.96
698.231	35106.58
698.577	34996.98
698.923	35039.01
699.269	34829.52
699.614	34883.53
699.96	34682.63
700.306	34699.58
700.651	34511.11
700.997	34544.78
701.342	34480.38
701.688	34296.65
702.033	34230.89
702.379	34335.07
702.724	34098.24
703.069	34295.07
703.415	33753.17
703.76	33910.68
704.105	33929.88
704.45	33653.51
704.795	33507.07
705.14	33502.78
705.485	33422.78
705.83	33332.39
706.175	33387.3
706.52	33356.57
706.865	33034.54
707.209	33141.2
707.554	32996.35
707.899	33060.08
708.243	33049.46
708.588	32904.37
708.932	32752.51
709.277	32666.87
709.621	32716.58
709.966	32479.3
710.31	32400.43
710.654	32242.7
710.998	32278.18
711.342	32307.78
711.687	32193.43
712.031	32051.74
712.375	31955.7
712.719	31948.92
713.063	31912.99
713.407	31898.98
713.75	31833.89
714.094	31735.37
714.438	31680.45
714.782	31716.84
715.125	31569.72
715.469	31653.56
715.812	31420.57
716.156	31247.24
716.499	31301.03
716.843	31225.1
717.186	31143.74
717.53	31243.63
717.873	31223.74
718.216	31122.95
718.559	31107.36
718.902	30661.72
719.246	30867.82
719.589	30671.21
719.932	30687.94
720.275	30582.63
720.617	30545.11
720.96	30565.68
721.303	30509.18
721.646	30550.54
721.989	30380.83
722.331	30379.24
722.674	30266.48
723.016	30320.26
723.359	30310.32
723.701	30294.5
724.044	30123.88
724.386	29995.3
724.729	30083.21
725.071	29999.59
725.413	29963.44
725.755	29926.37
726.097	29692.93
726.439	29622.88
726.782	29798.69
727.124	29737
727.465	29518.7
727.807	29705.81
728.149	29520.96
728.491	29618.36
728.833	29458.82
729.175	29451.81
729.516	29315.77
729.858	29183.57
730.199	29219.27
730.541	29270.12
730.882	29189.44
731.224	29256.11
731.565	29028.54
731.906	29001.2
732.248	29052.5
732.589	28897.25
732.93	28848.21
733.271	28828.55
733.612	28790.81
733.953	28882.11
734.294	28666.07
734.635	28600.99
734.976	28680.53
735.317	28577.48
735.658	28434.89
735.999	28531.38
736.339	28473.08
736.68	28567.77
737.021	28545.85
737.361	28269.02
737.702	28447.77
738.042	28344.95
738.383	28244.61
738.723	28286.42
739.063	28104.28
739.404	28132.3
739.744	28141.34
740.084	27998.52
740.424	28102.02
740.764	28004.39
741.104	28113.77
741.444	27771.4
741.784	27819.99
742.124	27954.45
742.464	27853.21
742.804	27731.63
743.143	27739.54
743.483	27728.47
743.823	27475.37
744.162	27619.09
744.502	27580.67
744.841	27540.67
745.181	27503.16
745.52	27368.02
745.86	27518.75
746.199	27330.28
746.538	27413.22
746.877	27354.92
747.216	27303.62
747.556	27192.89
747.895	27275.14
748.234	27149.05
748.573	27219.55
748.911	27109.5
749.25	27020.24
749.589	26903.4
749.928	26904.08
750.267	26863.18
750.605	26920.58
750.944	26752.22
751.283	26683.52
751.621	26697.31
751.96	26570.98
752.298	26542.73
752.636	26592.45
752.975	26418.44
753.313	26279.24
753.651	26455.96
753.989	26267.26
754.327	26169.41
754.666	26100.03
755.004	26167.6
755.342	26167.6
755.679	26101.39
756.017	25861.4
756.355	26018.45
756.693	25875.41
