Data from hue_34_FLMS001491_00086.txt Node
Date: Tue Feb 07 17:26:19 GMT 2017
User: dcchb
Spectrometer: FLMS00149
Trigger mode: 0
Integration Time (sec): 2.000000E-2
Scans to average: 10
Electric dark correction enabled: true
Nonlinearity correction enabled: false
Boxcar width: 0
XAxis mode: Wavelengths
Number of Pixels in Spectrum: 2048
>>>>>Begin Spectral Data<<<<<
341.393	-20.47
341.776	-20.47
342.16	-20.47
342.543	-62.05
342.927	-71.09
343.31	-68.6
343.693	-92.78
344.077	-79.45
344.46	-66.34
344.843	-51.43
345.226	-42.16
345.61	-30.86
345.993	-12.33
346.376	-0.58
346.759	9.14
347.142	22.7
347.525	49.36
347.908	76.71
348.291	70.61
348.674	114.22
349.057	101.79
349.44	119.19
349.823	134.33
350.206	174.11
350.588	196.93
350.971	217.27
351.354	206.87
351.737	236.93
352.119	237.61
352.502	270.83
352.884	258.4
353.267	259.98
353.65	289.36
354.032	304.27
354.414	292.52
354.797	312.18
355.179	298.85
355.562	325.97
355.944	310.15
356.326	345.4
356.709	323.03
357.091	336.36
357.473	349.92
357.855	331.84
358.238	334.1
358.62	325.29
359.002	322.58
359.384	328.68
359.766	327.32
360.148	328.23
360.53	360.99
360.912	337.72
361.294	349.92
361.676	329.13
362.057	328
362.439	335.46
362.821	343.82
363.203	309.7
363.584	306.31
363.966	331.16
364.348	330.03
364.729	306.31
365.111	341.33
365.493	329.81
365.874	305.85
366.256	327.32
366.637	301.79
367.019	320.99
367.4	320.09
367.781	317.15
368.163	305.63
368.544	306.98
368.925	311.96
369.306	316.7
369.688	291.84
370.069	319.19
370.45	292.97
370.831	315.34
371.212	320.99
371.593	330.49
371.974	305.63
372.355	302.24
372.736	332.07
373.117	321.67
373.498	304.72
373.879	325.51
374.26	319.86
374.641	319.86
375.021	313.08
375.402	312.41
375.783	300.43
376.163	331.62
376.544	330.26
376.925	350.6
377.305	342.69
377.686	325.06
378.066	307.44
378.447	319.41
378.827	323.71
379.208	337.04
379.588	337.94
379.968	350.15
380.349	330.49
380.729	322.8
381.109	336.81
381.489	325.06
381.87	334.55
382.25	349.02
382.63	343.37
383.01	357.6
383.39	328.23
383.77	335.91
384.15	333.42
384.53	337.49
384.91	331.39
385.29	366.42
385.67	330.94
386.049	355.8
386.429	358.06
386.809	347.66
387.189	370.48
387.568	349.02
387.948	331.62
388.328	336.36
388.707	354.89
389.087	347.66
389.466	357.15
389.846	367.77
390.225	366.42
390.605	375
390.984	372.97
391.363	357.83
391.743	374.55
392.122	372.97
392.501	378.39
392.881	380.65
393.26	368.68
393.639	359.64
394.018	388.79
394.397	390.37
394.776	379.75
395.155	384.95
395.534	389.69
395.913	375.91
396.292	401.9
396.671	352.18
397.05	385.4
397.429	392.86
397.808	394.89
398.186	383.37
398.565	402.35
398.944	395.12
399.323	397.83
399.701	388.11
400.08	382.24
400.458	389.47
400.837	404.16
401.215	385.17
401.594	420.43
401.972	398.28
402.351	404.38
402.729	408.45
403.107	415
403.486	405.96
403.864	413.65
404.242	426.75
404.62	400.54
404.999	414.78
405.377	422.91
405.755	427.88
406.133	404.16
406.511	437.15
406.889	435.12
407.267	426.75
407.645	424.72
408.023	428.56
408.401	454.78
408.779	435.79
409.156	403.25
409.534	434.89
409.912	459.3
410.29	462.69
410.667	430.37
411.045	458.39
411.422	460.43
411.8	448
412.178	472.85
412.555	451.39
412.933	478.05
413.31	472.85
413.687	459.3
414.065	452.52
414.442	475.57
414.819	478.73
415.197	486.19
415.574	490.71
415.951	480.09
416.328	501.33
416.705	474.44
417.082	502.23
417.46	497.49
417.837	490.26
418.214	505.17
418.591	500.42
418.967	522.35
419.344	527.77
419.721	511.5
420.098	493.87
420.475	511.95
420.852	516.02
421.228	502.23
421.605	519.63
421.982	523.47
422.358	511.27
422.735	518.73
423.111	550.82
423.488	558.28
423.864	539.29
424.241	535.9
424.617	554.66
424.994	571.61
425.37	540.88
425.746	553.76
426.123	550.37
426.499	545.62
426.875	584.94
427.251	565.28
427.627	569.35
428.003	599.41
428.379	563.93
428.756	563.47
429.132	605.51
429.507	620.65
429.883	606.41
430.259	615.68
430.635	623.59
431.011	606.86
431.387	615.68
431.763	620.42
432.138	627.43
432.514	639.4
432.89	643.02
433.265	621.55
433.641	644.83
434.016	644.38
434.392	674.66
434.767	678.95
435.143	657.03
435.518	662.45
435.894	672.17
436.269	683.24
436.644	709.91
437.02	686.86
437.395	692.06
437.77	712.4
438.145	713.07
438.52	704.26
438.895	728.67
439.271	730.25
439.646	722.11
440.021	726.18
440.395	754.43
440.77	743.58
441.145	742
441.52	743.81
441.895	756.01
442.27	770.93
442.645	762.11
443.019	769.8
443.394	765.95
443.769	764.6
444.143	798.95
444.518	788.55
444.892	792.62
445.267	788.78
445.641	798.72
446.016	792.39
446.39	812.51
446.764	797.59
447.139	808.44
447.513	807.08
447.887	811.83
448.262	823.13
448.636	816.8
449.01	831.26
449.384	832.39
449.758	837.59
450.132	859.74
450.506	835.56
450.88	862.9
451.254	854.31
451.628	858.16
452.002	854.31
452.376	896.8
452.75	859.96
453.123	900.64
453.497	904.48
453.871	928.44
454.244	952.39
454.618	946.51
454.992	946.97
455.365	957.81
455.739	930.02
456.112	980.86
456.486	972.73
456.859	968.21
457.232	968.89
457.606	988.55
457.979	1002.33
458.352	1029.9
458.725	1036.68
459.099	1047.53
459.472	1069.22
459.845	1046.17
460.218	1063.8
460.591	1094.53
460.964	1095.44
461.337	1099.28
461.71	1127.53
462.083	1121.88
462.456	1137.7
462.829	1133.85
463.201	1165.49
463.574	1175.44
463.947	1173.85
464.32	1197.13
464.692	1198.49
465.065	1224.47
465.438	1235.32
465.81	1237.35
466.183	1257.47
466.555	1260.86
466.928	1276
467.3	1289.33
467.672	1320.52
468.045	1372.04
468.417	1355.77
468.789	1376.11
469.161	1379.27
469.534	1431.47
469.906	1429.89
470.278	1454.07
470.65	1494.07
471.022	1510.79
471.394	1552.6
471.766	1548.98
472.138	1567.52
472.51	1608.87
472.882	1632.37
473.253	1687.06
473.625	1671.47
473.997	1679.38
474.369	1738.58
474.74	1760.05
475.112	1835.08
475.484	1829.66
475.855	1895.87
476.227	1923.21
476.598	1990.78
476.97	1984.91
477.341	2045.92
477.713	2076.88
478.084	2107.39
478.455	2188.52
478.827	2195.3
479.198	2266.93
479.569	2330.66
479.94	2401.84
480.311	2418.57
480.682	2474.16
481.053	2579.47
481.424	2589.41
481.795	2674.83
482.166	2714.38
482.537	2769.52
482.908	2824.21
483.279	2892.23
483.65	2978.1
484.021	3060.36
484.391	3100.81
484.762	3210.86
485.133	3286.57
485.503	3343.74
485.874	3400.24
486.244	3456.05
486.615	3554.81
486.985	3631.42
487.356	3713.67
487.726	3786.21
488.097	3887.23
488.467	3888.81
488.837	4053.78
489.207	4125.87
489.578	4180.55
489.948	4313.88
490.318	4352.98
490.688	4407.21
491.058	4479.08
491.428	4578.06
491.798	4704.16
492.168	4801.33
492.538	4869.58
492.908	4967.88
493.278	5028.22
493.648	5102.79
494.017	5191.15
494.387	5296
494.757	5328.09
495.126	5434.08
495.496	5529.22
495.866	5598.82
496.235	5669.33
496.605	5773.05
496.974	5809.44
497.344	5939.15
497.713	5969.21
498.082	6086.72
498.452	6117.45
498.821	6148.19
499.19	6185.25
499.559	6334.17
499.928	6396.99
500.298	6458.01
500.667	6544.79
501.036	6536.88
501.405	6666.82
501.774	6690.77
502.143	6769.86
502.512	6838.79
502.88	6889.86
503.249	6942.74
503.618	7023.87
503.987	7042.85
504.356	7092.34
504.724	7209.85
505.093	7175.28
505.462	7271.55
505.83	7332.11
506.199	7397.87
506.567	7528.04
506.936	7457.3
507.304	7654.36
507.672	7697.98
508.041	7703.85
508.409	7824.98
508.777	7869.95
509.145	7939.78
509.514	7958.53
509.882	8072.43
510.25	8057.29
510.618	8144.07
510.986	8205.53
511.354	8226.78
511.722	8326.21
512.09	8386.77
512.458	8377.96
512.826	8436.94
513.193	8495.47
513.561	8551.29
513.929	8619.53
514.297	8675.13
514.664	8735.24
515.032	8722.81
515.4	8849.58
515.767	8878.74
516.135	8933.65
516.502	8891.62
516.869	9050.26
517.237	8996.25
517.604	9071.05
517.972	9167.54
518.339	9186.07
518.706	9176.35
519.073	9203.02
519.44	9317.14
519.808	9438.27
520.175	9452.73
520.542	9492.73
520.909	9577.47
521.276	9582.67
521.643	9667.19
522.009	9694.99
522.376	9728.66
522.743	9797.13
523.11	9943.79
523.477	9953.51
523.843	10009.33
524.21	10102.88
524.577	10165.93
524.943	10205.48
525.31	10263.33
525.676	10371.58
526.043	10442.76
526.409	10471.01
526.776	10540.61
527.142	10595.98
527.508	10653.6
527.874	10760.49
528.241	10729.76
528.607	10878
528.973	10889.98
529.339	10909.19
529.705	11010.2
530.071	11085.68
530.437	11137.21
530.803	11203.42
531.169	11299.24
531.535	11238.22
531.901	11312.34
532.267	11351.89
532.632	11440.48
532.998	11427.37
533.364	11614.03
533.73	11623.07
534.095	11693.58
534.461	11789.17
534.826	11742.84
535.192	11840.01
535.557	11818.77
535.923	11879.11
536.288	11915.04
536.653	12049.05
537.019	12023.74
537.384	12077.3
537.749	12112.32
538.114	12216.5
538.479	12206.33
538.845	12241.58
539.21	12321.58
539.575	12341.02
539.94	12370.17
540.305	12398.87
540.67	12500.56
541.034	12553.89
541.399	12566.32
541.764	12568.13
542.129	12744.85
542.494	12714.79
542.858	12721.35
543.223	12825.3
543.587	12882.02
543.952	12901.45
544.316	12870.04
544.681	12954.79
545.045	13050.38
545.41	13099.64
545.774	13173.76
546.138	13169.47
546.503	13205.63
546.867	13261.9
547.231	13315.91
547.595	13388.45
547.959	13442.46
548.324	13446.3
548.688	13506.41
549.052	13583.47
549.416	13498.95
549.779	13619.63
550.143	13641.32
550.507	13711.83
550.871	13783.92
551.235	13783.47
551.599	13970.13
551.962	13892.16
552.326	13993.18
552.689	14095.77
553.053	14016
553.417	14112.5
553.78	14309.33
554.143	14082.44
554.507	14223.45
554.87	14365.6
555.234	14322.66
555.597	14364.92
555.96	14406.5
556.323	14406.5
556.686	14479.04
557.05	14585.25
557.413	14573.28
557.776	14606.27
558.139	14792.25
558.502	14804.46
558.865	14822.31
559.228	14880.16
559.59	14953.38
559.953	15012.13
560.316	15166.03
560.679	15175.07
561.041	15251.9
561.404	15288.06
561.767	15393.14
562.129	15276.76
562.492	15444.21
562.854	15465
563.217	15411.67
563.579	15627.03
563.941	15564.44
564.304	15665.68
564.666	15791.32
565.028	15657.99
565.39	15749.06
565.753	15828.84
566.115	15895.95
566.477	16000.58
566.839	16024.31
567.201	16270.86
567.563	16148.37
567.925	16308.6
568.287	16191.31
568.648	16283.06
569.01	16474.24
569.372	16504.75
569.734	16498.65
570.095	16590.62
570.457	16781.13
570.819	16688.25
571.18	16764.4
571.542	16938.86
571.903	16914.68
572.265	16956.26
572.626	17081.23
572.987	17131.17
573.349	17239.87
573.71	17336.82
574.071	17372.3
574.432	17506.98
574.794	17596.47
575.155	17740.65
575.516	17626.98
575.877	17811.83
576.238	17975.9
576.599	18069.45
576.96	18185.84
577.32	18250.47
577.681	18395.32
578.042	18520.74
578.403	18586.73
578.763	18677.57
579.124	18824.91
579.485	19099.48
579.845	19229.65
580.206	19372.7
580.566	19379.25
580.927	19551
581.287	19745.57
581.648	19943.98
582.008	20045.67
582.368	20173.81
582.728	20359.79
583.089	20489.28
583.449	20675.26
583.809	20966.78
584.169	21046.33
584.529	21238.64
584.889	21710.26
585.249	21651.06
585.609	21881.78
585.969	22171.95
586.329	22272.28
586.688	22569.9
587.048	22775.77
587.408	22921.98
587.768	23063.45
588.127	23383.66
588.487	23641.29
588.846	23847.38
589.206	24020.48
589.565	24186.13
589.925	24607.81
590.284	24811.65
590.643	25082.15
591.003	25230.17
591.362	25563.72
591.721	25736.15
592.08	25987.21
592.44	26400.31
592.799	26630.59
593.158	26786.06
593.517	27080.74
593.876	27326.84
594.235	27494.07
594.593	27820.84
594.952	28085.46
595.311	28196.42
595.67	28462.4
596.029	28874.59
596.387	29179.9
596.746	29460.57
597.104	29476.16
597.463	29638.64
597.822	30011.06
598.18	30093.77
598.538	30369.92
598.897	30744.83
599.255	30808.55
599.613	31336.45
599.972	31348.65
600.33	31533.06
600.688	31698.47
601.046	32121.29
601.404	32333.71
601.762	32480.15
602.12	32781.61
602.478	33052.79
602.836	33215.04
603.194	33151.09
603.552	33342.05
603.91	33517.18
604.268	33889.6
604.625	33834.24
604.983	34181.12
605.341	34279.65
605.698	34641.22
606.056	34725.06
606.413	34887.54
606.771	35111.49
607.128	35283.24
607.485	35324.37
607.843	35718.26
608.2	35888.65
608.557	36092.94
608.914	36110.34
609.272	36374.28
609.629	36607.5
609.986	36816.53
610.343	36707.16
610.7	37230.53
611.057	37201.83
611.414	37249.06
611.771	37488.83
612.127	37715.94
612.484	37821.7
612.841	37980.34
613.198	38015.6
613.554	38087.23
613.911	38258.08
614.267	38491.97
614.624	38522.93
614.98	38631.63
615.337	38905.74
615.693	38938.28
616.05	38940.54
616.406	39302.57
616.762	39327.43
617.118	39293.98
617.475	39422.79
617.831	39720.64
618.187	39886.96
618.543	39748.66
618.899	40076.79
619.255	40069.33
619.611	40139.61
619.967	40296.89
620.323	40517.68
620.678	40365.14
621.034	40367.63
621.39	40471.8
621.746	40590.22
622.101	40947.04
622.457	40735.98
622.812	40915.63
623.168	40885.8
623.523	41047.38
623.879	41183.65
624.234	40959.7
624.589	41222.29
624.945	41288.28
625.3	41351.55
625.655	41243.53
626.01	41436.52
626.365	41380.48
626.72	41487.6
627.075	41486.47
627.43	41427.94
627.785	41446.92
628.14	41605.56
628.495	41685.56
628.85	41630.64
629.205	41620.7
629.559	41842.84
629.914	41780.92
630.269	41776.63
630.623	41829.73
630.978	41576.41
631.332	41822.95
631.687	41971.65
632.041	41715.61
632.396	41813.01
632.75	41663.18
633.104	41853.69
633.459	41566.24
633.813	41637.65
634.167	41653.92
634.521	41789.06
634.875	41935.27
635.229	41754.71
635.583	41597.88
635.937	41665.9
636.291	41614.6
636.645	41744.09
636.999	41686.23
637.352	41836.06
637.706	41476.97
638.06	41836.96
638.413	41620.93
638.767	41431.33
639.121	41455.28
639.474	41488.5
639.828	41452.34
640.181	41584.32
640.534	41433.59
640.888	41443.08
641.241	41239.01
641.594	41445.34
641.947	41424.32
642.301	41399.91
642.654	41345
643.007	41456.86
643.36	41370.08
643.713	41243.99
644.066	41441.04
644.419	41282.18
644.771	40972.35
645.124	40586.83
645.477	40547.06
645.83	40223.22
646.182	40194.52
646.535	40013.74
646.888	40139.61
647.24	40000.18
647.593	40136.44
647.945	40241.3
648.298	39942.1
648.65	40021.19
649.002	39768.32
649.355	39949.56
649.707	39966.05
650.059	40062.55
650.411	40452.59
650.763	40629.77
651.115	40886.03
651.467	40858.23
651.819	40857.56
652.171	40734.4
652.523	40604
652.875	40745.02
653.227	40429.77
653.578	40813.04
653.93	40742.3
654.282	40682.64
654.633	40489.2
654.985	40684
655.337	40519.71
655.688	40571.01
656.039	40760.16
656.391	40498.7
656.742	40562.2
657.094	40540.05
657.445	40724.68
657.796	40585.02
658.147	40518.13
658.498	40409.43
658.849	40618.01
659.2	40622.31
659.551	40466.61
659.902	40554.96
660.253	40440.62
660.604	40513.16
660.955	40298.47
661.306	40490.33
661.656	40430.9
662.007	40442.43
662.358	40337.57
662.708	40557.45
663.059	40415.76
663.409	40137.12
663.76	40450.11
664.11	40280.62
664.461	40504.8
664.811	40341.41
665.161	40379.83
665.511	40136.9
665.862	40387.74
666.212	40474.51
666.562	40249.66
666.912	40220.96
667.262	40076.33
667.612	40203.34
667.962	40269.1
668.312	40238.36
668.662	40358.36
669.011	40272.71
669.361	40205.37
669.711	40150.91
670.06	40232.94
670.41	40173.73
670.76	40131.25
671.109	40248.53
671.459	40112.04
671.808	40029.55
672.157	40055.99
672.507	39871.14
672.856	39979.16
673.205	39867.75
673.554	40030.68
673.904	39989.1
674.253	40090.8
674.602	39863.68
674.951	39513.41
675.3	39125.85
675.649	39910.46
675.998	39855.32
676.346	39814.42
676.695	39963.12
677.044	39606.97
677.393	39768.32
677.741	39868.66
678.09	39679.73
678.438	39634.76
678.787	39776.23
679.135	39725.61
679.484	39500.76
679.832	39590.24
680.181	39446.97
680.529	39458.04
680.877	39402.9
681.225	39537.82
681.573	39596.12
681.922	39275.45
682.27	39157.49
682.618	39258.28
682.966	39150.93
683.314	39225.28
683.661	39106.87
684.009	38878.62
684.357	38842.47
684.705	38921.11
685.053	38923.14
685.4	38719.31
685.748	38529.48
686.095	38627.33
686.443	38493.1
686.79	38504.4
687.138	38418.98
687.485	38583.94
687.832	38416.72
688.18	38458.75
688.527	38312.31
688.874	38102.83
689.221	38250.84
689.568	37870.52
689.915	37788.94
690.262	37893.79
690.609	37666.91
690.956	37699.22
691.303	37537.87
691.65	37479.79
691.997	37445.67
692.344	37345.33
692.69	37233.47
693.037	37205
693.383	36927.04
693.73	37059.92
694.077	36839.36
694.423	36973.59
694.769	36828.74
695.116	36791.22
695.462	36595.07
695.808	36511.46
696.155	36668.29
696.501	36217.9
696.847	36209.54
697.193	36014.97
697.539	36292.03
697.885	36023.78
698.231	35787.18
698.577	35868.99
698.923	35848.65
699.269	35609.78
699.614	35501.76
699.96	35370.69
700.306	35578.6
700.651	35377.25
700.997	35138.61
701.342	35081.89
701.688	35054.32
702.033	34830.6
702.379	34860.2
702.724	34832.18
703.069	34846.19
703.415	34454.56
703.76	34534.56
704.105	34532.52
704.45	34530.04
704.795	34208.01
705.14	34131.86
705.485	34147.22
705.83	34065.42
706.175	34019.77
706.52	34013.22
706.865	33906.55
707.209	33831.07
707.554	33605.09
707.899	33654.58
708.243	33398.99
708.588	33423.85
708.932	33279.9
709.277	33295.04
709.621	33341.6
709.966	33123.3
710.31	33184.76
710.654	32873.36
710.998	32939.8
711.342	33011.66
711.687	32955.39
712.031	32751.1
712.375	32608.96
712.719	32713.36
713.063	32614.16
713.407	32639.69
713.75	32469.08
714.094	32462.52
714.438	32339.14
714.782	32299.36
715.125	32226.37
715.469	32171
715.812	32072.25
716.156	31941.18
716.499	31926.72
716.843	31970.56
717.186	31787.51
717.53	31872.26
717.873	31864.8
718.216	31701.19
718.559	31514.07
718.902	31312.95
719.246	31574.86
719.589	31346.62
719.932	31266.85
720.275	31281.54
720.617	31111.37
720.96	31261.42
721.303	31177.13
721.646	31162.22
721.989	30973.52
722.331	31033.41
722.674	30956.12
723.016	31100.52
723.359	30829.12
723.701	31046.74
724.044	30741.89
724.386	30729.46
724.729	30730.36
725.071	30715.22
725.413	30604.27
725.755	30651.27
726.097	30583.7
726.439	30342.58
726.782	30314.33
727.124	30497.38
727.465	30280.21
727.807	30235.91
728.149	30156.14
728.491	30208.8
728.833	30145.52
729.175	30178.74
729.516	30108.46
729.858	30019.42
730.199	29962.47
730.541	29954.34
730.882	29858.07
731.224	29964.96
731.565	29761.58
731.906	29760.22
732.248	29838.64
732.589	29693.56
732.93	29529.94
733.271	29597.29
733.612	29540.34
733.953	29592.32
734.294	29616.04
734.635	29384.41
734.976	29473.45
735.317	29306.45
735.658	29301.7
735.999	29266
736.339	29203.17
736.68	29283.17
737.021	29176.51
737.361	29021.48
737.702	29111.2
738.042	29025.1
738.383	28922.5
738.723	29023.52
739.063	28883.86
739.404	28913.24
739.744	28803.86
740.084	28693.58
740.424	28726.12
740.764	28714.6
741.104	28755.73
741.444	28520.7
741.784	28602.74
742.124	28710.98
742.464	28613.81
742.804	28507.15
743.143	28544.66
743.483	28461.05
743.823	28258.79
744.162	28383.76
744.502	28453.36
744.841	28190.32
745.181	28403.42
745.52	28153.71
745.86	28162.75
746.199	28190.77
746.538	28086.59
746.877	28101.05
747.216	28090.43
747.556	27966.14
747.895	27980.15
748.234	27951
748.573	27967.27
748.911	27841.17
749.25	27833.94
749.589	27739.26
749.928	27704.46
750.267	27785.13
750.605	27703.1
750.944	27541.75
751.283	27557.79
751.621	27584.68
751.96	27396.21
752.298	27434.41
752.636	27465.14
752.975	27326.16
753.313	27114.19
753.651	27268.53
753.989	27201.64
754.327	27131.59
754.666	26990.35
755.004	26963.91
755.342	27011.37
755.679	26987.41
756.017	26850.92
756.355	26938.15
756.693	26684.37
757.031	26635.33
757.368	26646.18
757.706	26536.12
758.044	26412.29
