Data from hue_24_FLMS001491_00039.txt Node
Date: Tue Feb 07 17:12:12 GMT 2017
User: dcchb
Spectrometer: FLMS00149
Trigger mode: 0
Integration Time (sec): 2.000000E-2
Scans to average: 10
Electric dark correction enabled: true
Nonlinearity correction enabled: false
Boxcar width: 0
XAxis mode: Wavelengths
Number of Pixels in Spectrum: 2048
>>>>>Begin Spectral Data<<<<<
341.393	-1.5
341.776	-1.5
342.16	-1.5
342.543	-51.21
342.927	-78.33
343.31	-71.1
343.693	-71.1
344.077	-56.64
344.46	-68.61
344.843	-50.08
345.226	-51.67
345.61	-31.55
345.993	-26.58
346.376	-17.54
346.759	17.26
347.142	32.63
347.525	32.17
347.908	64.72
348.291	78.27
348.674	99.07
349.057	120.76
349.44	115.79
349.823	148.1
350.206	170.02
350.588	202.79
350.971	201.44
351.354	248.44
351.737	230.59
352.119	246.63
352.502	266.52
352.884	283.47
353.267	263.13
353.65	311.26
354.032	299.96
354.414	317.14
354.797	328.66
355.179	336.57
355.562	323.47
355.944	336.12
356.326	320.3
356.709	347.87
357.091	338.38
357.473	339.28
357.855	347.87
358.238	346.74
358.62	345.61
359.002	339.96
359.384	341.54
359.766	345.84
360.148	346.74
360.53	313.52
360.912	327.08
361.294	323.47
361.676	320.98
362.057	337.48
362.439	327.76
362.821	308.78
363.203	323.69
363.584	321.66
363.966	317.14
364.348	335.44
364.729	329.79
365.111	312.62
365.493	319.4
365.874	349.68
366.256	305.39
366.637	303.81
367.019	315.78
367.4	328.66
367.781	331.38
368.163	303.35
368.544	304.94
368.925	321.66
369.306	312.39
369.688	314.2
370.069	313.3
370.45	332.96
370.831	320.08
371.212	305.39
371.593	311.49
371.974	322.34
372.355	314.65
372.736	342
373.117	311.71
373.498	334.77
373.879	322.79
374.26	336.12
374.641	342.9
375.021	340.87
375.402	336.57
375.783	321.43
376.163	337.93
376.544	309.68
376.925	340.41
377.305	331.38
377.686	346.52
378.066	326.4
378.447	318.27
378.827	322.79
379.208	331.6
379.588	343.13
379.968	333.18
380.349	332.05
380.729	339.51
381.109	350.81
381.489	324.14
381.87	337.7
382.25	341.32
382.63	337.03
383.01	330.7
383.39	327.99
383.77	347.87
384.15	344.03
384.53	365.72
384.91	361.66
385.29	354.65
385.67	362.11
386.049	366.63
386.429	349.23
386.809	358.27
387.189	364.82
387.568	361.66
387.948	372.73
388.328	351.94
388.707	357.36
389.087	389
389.466	351.49
389.846	352.17
390.225	374.99
390.605	380.87
390.984	393.29
391.363	373.86
391.743	395.55
392.122	363.69
392.501	387.42
392.881	383.35
393.26	380.64
393.639	378.83
394.018	398.04
394.397	390.36
394.776	392.16
395.155	398.72
395.534	398.49
395.913	402.79
396.292	398.49
396.671	405.05
397.05	396.46
397.429	385.84
397.808	392.62
398.186	400.53
398.565	405.72
398.944	405.72
399.323	407.53
399.701	392.84
400.08	411.37
400.458	405.95
400.837	424.25
401.215	428.32
401.594	392.39
401.972	402.11
402.351	432.16
402.729	419.96
403.107	422.67
403.486	438.49
403.864	430.58
404.242	410.02
404.62	438.94
404.999	450.69
405.377	432.39
405.755	439.17
406.133	451.6
406.511	445.5
406.889	458.15
407.267	432.84
407.645	457.02
408.023	457.02
408.401	458.38
408.779	436.23
409.156	462.45
409.534	456.12
409.912	461.32
410.29	467.19
410.667	477.36
411.045	482.11
411.422	487.3
411.8	450.47
412.178	501.77
412.555	475.78
412.933	485.27
413.31	492.73
413.687	493.63
414.065	497.25
414.442	487.98
414.819	508.32
415.197	499.73
415.574	511.71
415.951	519.39
416.328	517.13
416.705	513.97
417.082	549.9
417.46	530.01
417.837	511.48
418.214	543.8
418.591	544.7
418.967	522.78
419.344	533.63
419.721	560.07
420.098	555.1
420.475	550.58
420.852	565.95
421.228	562.1
421.605	547.64
421.982	560.52
422.358	556.91
422.735	599.39
423.111	556.45
423.488	576.79
423.864	595.78
424.241	586.74
424.617	573.63
424.994	606.4
425.37	627.86
425.746	599.39
426.123	624.25
426.499	565.95
426.875	629.22
427.251	630.35
427.627	624.25
428.003	639.39
428.379	629.22
428.756	657.69
429.132	647.98
429.507	662.67
429.883	673.97
430.259	634.42
430.635	683
431.011	678.03
431.387	679.16
431.763	687.3
432.138	696.34
432.514	688.65
432.89	682.33
433.265	711.93
433.641	739.27
434.016	742.89
434.392	730.46
434.767	730.24
435.143	725.26
435.518	730.46
435.894	751.93
436.269	758.48
436.644	750.8
437.02	763.68
437.395	755.55
437.77	759.16
438.145	761.42
438.52	798.48
438.895	800.29
439.271	791.25
439.646	811.14
440.021	823.57
440.395	811.36
440.77	793.96
441.145	817.01
441.52	844.81
441.895	828.76
442.27	859.05
442.645	854.53
443.019	831.93
443.394	842.77
443.769	856.79
444.143	867.18
444.518	870.57
444.892	861.76
445.267	850.91
445.641	856.11
446.016	881.87
446.39	909.67
446.764	900.63
447.139	895.2
447.513	901.98
447.887	922.32
448.262	923.45
448.636	918.93
449.01	935.43
449.384	922.55
449.758	920.51
450.132	949.44
450.506	960.74
450.88	953.28
451.254	948.53
451.628	954.41
452.002	980.17
452.376	983.34
452.75	989.44
453.123	1009.55
453.497	1037.12
453.871	1006.84
454.244	1016.1
454.618	1045.26
454.992	1048.64
455.365	1035.54
455.739	1070.57
456.112	1096.78
456.486	1119.6
456.859	1113.28
457.232	1100.39
457.606	1122.54
457.979	1130
458.352	1174.07
458.725	1189.21
459.099	1139.94
459.472	1163.22
459.845	1184.46
460.218	1224.46
460.591	1227.85
460.964	1226.72
461.337	1240.5
461.71	1277.11
462.083	1289.99
462.456	1264.23
462.829	1298.81
463.201	1309.43
463.574	1295.19
463.947	1343.1
464.32	1381.74
464.692	1348.98
465.065	1376.32
465.438	1381.52
465.81	1427.84
466.183	1440.72
466.555	1458.35
466.928	1428.3
467.3	1470.1
467.672	1507.16
468.045	1549.42
468.417	1526.6
468.789	1537.9
469.161	1560.27
469.534	1586.94
469.906	1631.91
470.278	1630.55
470.65	1687.72
471.022	1693.83
471.394	1689.76
471.766	1690.44
472.138	1740.38
472.51	1783.77
472.882	1808.62
473.253	1851.34
473.625	1886.59
473.997	1889.3
474.369	1905.12
474.74	1933.82
475.112	1974.95
475.484	2038.68
475.855	2039.13
476.227	2091.56
476.598	2135.85
476.97	2100.59
477.341	2191.89
477.713	2245
478.084	2258.78
478.455	2327.26
478.827	2321.61
479.198	2405.22
479.569	2411.55
479.94	2454.48
480.311	2492
480.682	2578.77
481.053	2614.25
481.424	2671.65
481.795	2718.66
482.166	2745.78
482.537	2805.21
482.908	2858.77
483.279	2880.46
483.65	2946.9
484.021	3065.09
484.391	3075.48
484.762	3095.37
485.133	3116.61
485.503	3196.16
485.874	3249.72
486.244	3319.55
486.615	3390.28
486.985	3409.71
487.356	3461.91
487.726	3549.37
488.097	3608.35
488.467	3607
488.837	3730.38
489.207	3783.04
489.578	3843.15
489.948	3861.68
490.318	3931.51
490.688	3945.29
491.058	4024.61
491.428	4039.98
491.798	4098.06
492.168	4181.67
492.538	4256.24
492.908	4291.05
493.278	4323.36
493.648	4356.81
494.017	4399.07
494.387	4440.87
494.757	4518.38
495.126	4550.25
495.496	4580.08
495.866	4612.62
496.235	4669.34
496.605	4749.11
496.974	4753.86
497.344	4812.61
497.713	4846.51
498.082	4847.87
498.452	4948.2
498.821	4920.86
499.19	5004.25
499.559	5058.71
499.928	5072.72
500.298	5107.3
500.667	5143
501.036	5203.79
501.405	5205.37
501.774	5247.4
502.143	5292.83
502.512	5290.57
502.88	5322.88
503.249	5310.23
503.618	5393.16
503.987	5425.48
504.356	5469.77
504.724	5497.12
505.093	5496.44
505.462	5538.24
505.83	5548.87
506.199	5575.31
506.567	5643.1
506.936	5673.61
507.304	5702.31
507.672	5744.11
508.041	5755.64
508.409	5806.26
508.777	5818.69
509.145	5884.9
509.514	5880.83
509.882	5912.92
510.25	5949.98
510.618	5952.47
510.986	5964
511.354	6082.64
511.722	6100.94
512.09	6175.52
512.458	6171.45
512.826	6195.85
513.193	6196.31
513.561	6212.35
513.929	6295.06
514.297	6332.12
514.664	6382.06
515.032	6373.02
515.4	6309.75
515.767	6430.65
516.135	6458.22
516.502	6440.37
516.869	6585.45
517.237	6528.05
517.604	6504.09
517.972	6554.49
518.339	6613.92
518.706	6550.87
519.073	6628.39
519.44	6694.6
519.808	6740.7
520.175	6734.6
520.542	6792.67
520.909	6828.61
521.276	6834.93
521.643	6874.48
522.009	6888.04
522.376	6961.71
522.743	6991.99
523.11	7046.68
523.477	7092.33
523.843	7186.34
524.21	7208.48
524.577	7302.27
524.943	7236.96
525.31	7269.5
525.676	7396.27
526.043	7362.15
526.409	7420.23
526.776	7532.54
527.142	7496.84
527.508	7565.54
527.874	7531.86
528.241	7645.31
528.607	7659.32
528.973	7790.61
529.339	7779.54
529.705	7793.55
530.071	7918.97
530.437	7887.33
530.803	7923.72
531.169	7953.1
531.535	8014.11
531.901	8015.02
532.267	8155.58
532.632	8079.87
532.998	8101.34
533.364	8157.38
533.73	8150.6
534.095	8197.61
534.461	8309.02
534.826	8371.84
535.192	8368.9
535.557	8406.19
535.923	8428.34
536.288	8385.85
536.653	8485.29
537.019	8509.69
537.384	8481.9
537.749	8530.26
538.114	8652.74
538.479	8635.34
538.845	8655
539.21	8687.77
539.575	8723.92
539.94	8757.14
540.305	8847.54
540.67	8807.08
541.034	8872.85
541.399	8908.1
541.764	8859.06
542.129	8929.34
542.494	8994.65
542.858	9062.9
543.223	9080.75
543.587	9181.99
543.952	9190.58
544.316	9163.23
544.681	9193.74
545.045	9153.97
545.41	9287.52
545.774	9344.47
546.138	9348.99
546.503	9399.16
546.867	9395.32
547.231	9467.86
547.595	9483
547.959	9547.18
548.324	9491.81
548.688	9548.53
549.052	9586.5
549.416	9637.12
549.779	9638.02
550.143	9699.49
550.507	9684.35
550.871	9740.62
551.235	9800.73
551.599	9918.92
551.962	9919.37
552.326	9894.51
552.689	9946.72
553.053	9920.95
553.417	9948.07
553.78	10079.82
554.143	10018.8
554.507	10030.78
554.87	10110.1
555.234	10180.83
555.597	10144
555.96	10135.19
556.323	10290.66
556.686	10263.54
557.05	10328.17
557.413	10295.41
557.776	10350.32
558.139	10447.49
558.502	10423.77
558.865	10464.22
559.228	10480.04
559.59	10565
559.953	10545.8
560.316	10706.7
560.679	10694.04
561.041	10735.17
561.404	10756.86
561.767	10859.91
562.129	10833.25
562.492	10966.8
562.854	10910.76
563.217	10939.46
563.579	10944.43
563.941	11038.44
564.304	11018.78
564.666	11153.24
565.028	11167.93
565.39	11113.46
565.753	11252.44
566.115	11336.51
566.477	11311.65
566.839	11381.25
567.201	11375.38
567.563	11388.26
567.925	11487.69
568.287	11466.45
568.648	11577.63
569.01	11633.45
569.372	11589.16
569.734	11603.17
570.095	11772.2
570.457	11742.15
570.819	11812.66
571.18	11895.14
571.542	11889.49
571.903	11963.61
572.265	11959.54
572.626	12073.67
572.987	12157.05
573.349	12170.61
573.71	12240.67
574.071	12267.11
574.432	12400.21
574.794	12432.98
575.155	12483.15
575.516	12446.76
575.877	12592.75
576.238	12773.99
576.599	12808.56
576.96	12787.55
577.32	12886.53
577.681	12972.85
578.042	13098.27
578.403	13109.8
578.763	13237.25
579.124	13413.29
579.485	13529.45
579.845	13541.65
580.206	13724.47
580.566	13771.93
580.927	13888.31
581.287	14077.23
581.648	14199.03
582.008	14349.99
582.368	14471.34
582.728	14704.78
583.089	14786.81
583.449	14887.15
583.809	15106.58
584.169	15295.05
584.529	15386.8
584.889	15733.23
585.249	15754.47
585.609	15971.64
585.969	16198.08
586.329	16416.6
586.688	16578.41
587.048	16861.79
587.408	16978.17
587.768	17274.66
588.127	17445.5
588.487	17696.79
588.846	18012.49
589.206	18117.12
589.565	18516.43
589.925	18694.28
590.284	19181.28
590.643	19264.89
591.003	19581.94
591.362	19971.76
591.721	20176.96
592.08	20499.43
592.44	20759.76
592.799	21035.46
593.158	21383.93
593.517	21680.64
593.876	21919.96
594.235	22317.46
594.593	22642.2
594.952	22920.61
595.311	23114.51
595.67	23471.56
596.029	23969.17
596.387	24210.75
596.746	24603.73
597.104	24765.31
597.463	24949.49
597.822	25368.46
598.18	25506.31
598.538	25956.24
598.897	26457.47
599.255	26398.26
599.613	27112.37
599.972	27149.88
600.33	27683.88
600.688	27794.16
601.046	28218.33
601.404	28620.8
601.762	28823.51
602.12	29226.89
602.478	29475.47
602.836	29731.51
603.194	29869.58
603.552	30225.05
603.91	30344.82
604.268	30778.48
604.625	31046.73
604.983	31284.69
605.341	31519.26
605.698	31930.32
606.056	32253.25
606.413	32394.26
606.771	32734.59
607.128	32880.58
607.485	33034.02
607.843	33190.85
608.2	33756.49
608.557	33956.71
608.914	34087.55
609.272	34566.63
609.629	34829
609.986	35080.29
610.343	35200.74
610.7	35708.3
611.057	35648.19
611.414	35855.87
611.771	36143.99
612.127	36558.9
612.484	36590.99
612.841	36851.09
613.198	36957.98
613.554	37317.3
613.911	37580.34
614.267	37643.16
614.624	37858.07
614.98	37889.03
615.337	38185.3
615.693	38350.71
616.05	38561.1
616.406	38834.32
616.762	38697.6
617.118	38952.28
617.475	39186.17
617.831	39440.86
618.187	39494.87
618.543	39648.31
618.899	39963.78
619.255	40014.85
619.611	40166.49
619.967	40284.45
620.323	40674.72
620.678	40486.7
621.034	40671.78
621.39	40721.5
621.746	40887.6
622.101	41290.07
622.457	41173.69
622.812	41515.15
623.168	41516.73
623.523	41563.51
623.879	41761.02
624.234	41450.07
624.589	41707.01
624.945	41982.71
625.3	42060.45
625.655	42131.41
626.01	42140.45
626.365	42143.16
626.72	42152.87
627.075	42262.48
627.43	42381.8
627.785	42341.12
628.14	42614.33
628.495	42668.34
628.85	42715.57
629.205	42539.08
629.559	42806.42
629.914	42736.81
630.269	42886.19
630.623	42741.56
630.978	42802.58
631.332	42954.89
631.687	43074.88
632.041	42864.49
632.396	43043.47
632.75	42962.12
633.104	43159.18
633.459	42878.73
633.813	42908.56
634.167	43064.04
634.521	43097.71
634.875	43174.32
635.229	42960.09
635.583	42938.16
635.937	42984.72
636.291	43036.47
636.645	43078.73
636.999	42944.94
637.352	43185.39
637.706	42902.23
638.06	43046.86
638.413	43091.83
638.767	42987.88
639.121	43063.59
639.474	42930.93
639.828	43010.71
640.181	43095.67
640.534	43177.71
640.888	42955.57
641.241	42843.7
641.594	42918.28
641.947	43132.96
642.301	43076.92
642.654	42989.46
643.007	42998.5
643.36	42939.29
643.713	42855
644.066	42993.98
644.419	42748.11
644.771	42661.34
645.124	42211.4
645.477	42222.25
645.83	42073.1
646.182	41913.78
646.535	41842.6
646.888	41802.15
647.24	41659.33
647.593	41854.8
647.945	41655.71
648.298	41617.3
648.65	41469.95
649.002	41391.54
649.355	41622.27
649.707	41646.45
650.059	41859.1
650.411	42197.39
650.763	42359.2
651.115	42753.31
651.467	42511.96
651.819	42507.22
652.171	42501.34
652.523	42414.79
652.875	42363.26
653.227	42333.43
653.578	42566.65
653.93	42433.77
654.282	42302.02
654.633	42135.93
654.985	42322.36
655.337	42310.16
655.688	42308.8
656.039	42537.05
656.391	42150.84
656.742	42262.02
657.094	42291.63
657.445	42444.62
657.796	42417.5
658.147	42166.66
658.498	42145.64
658.849	42262.93
659.2	42226.55
659.551	42130.95
659.902	42364.62
660.253	42270.84
660.604	42190.61
660.955	42089.83
661.306	42350.38
661.656	42215.7
662.007	42152.65
662.358	42188.13
662.708	42294.11
663.059	42269.03
663.409	42029.71
663.76	42373.43
664.11	42261.12
664.461	42298.63
664.811	42188.58
665.161	42202.14
665.511	42084.63
665.862	42192.42
666.212	42301.8
666.562	42304.28
666.912	42135.47
667.262	42025.19
667.612	42196.26
667.962	42210.73
668.312	42075.14
668.662	42163.27
669.011	42150.61
669.361	42081.69
669.711	41933.67
670.06	41921.02
670.41	41900
670.76	41798.76
671.109	41878.76
671.459	41915.82
671.808	41783.84
672.157	41894.35
672.507	41686.9
672.856	41721.93
673.205	41829.49
673.554	41980.45
673.904	41844.41
674.253	41864.97
674.602	41719.89
674.951	41309.96
675.3	41137.31
675.649	41807.35
675.998	41551.99
676.346	41771.42
676.695	41909.72
677.044	41533
677.393	41600.12
677.741	41673.34
678.09	41457.3
678.438	41531.65
678.787	41414.14
679.135	41375.04
679.484	41253.92
679.832	41463.4
680.181	41119
680.529	41360.58
680.877	41184.54
681.225	41168.72
681.573	41356.06
681.922	41043.07
682.27	40972.57
682.618	41061.6
682.966	40884.21
683.314	40893.02
683.661	40813.93
684.009	40739.13
684.357	40567.61
684.705	40655.51
685.053	40733.7
685.4	40774.38
685.748	40448.74
686.095	40471.34
686.443	40443.77
686.79	40265.47
687.138	40379.59
687.485	40327.84
687.832	40242.64
688.18	40248.74
688.527	39870.45
688.874	39930.11
689.221	40003.33
689.568	39794.97
689.915	39706.39
690.262	39847.17
690.609	39618.48
690.956	39366.06
691.303	39377.81
691.65	39219.17
691.997	39173.97
692.344	39037.7
692.69	39085.84
693.037	39048.55
693.383	38739.41
693.73	38942.79
694.077	38592.52
694.423	38661.22
694.769	38543.48
695.116	38474.55
695.462	38313.65
695.808	38239.53
696.155	38290.83
696.501	37911.86
696.847	37982.59
697.193	37764.74
697.539	37969.93
697.885	37775.36
698.231	37658.76
698.577	37608.36
698.923	37595.03
699.269	37395.26
699.614	37311.87
699.96	37263.74
700.306	37184.87
700.651	36983.52
700.997	36959.79
701.342	36858.78
701.688	36838.66
702.033	36539.01
702.379	36530.65
702.724	36501.5
703.069	36712.57
703.415	36195.74
703.76	36320.94
704.105	36147.16
704.45	36146.48
704.795	35944.22
705.14	35899.71
705.485	35771.8
705.83	35595.98
706.175	35761.18
706.52	35656.32
706.865	35506.72
707.209	35519.83
707.554	35364.8
707.899	35458.14
708.243	35238.48
708.588	35256.56
708.932	34920.3
709.277	34896.34
709.621	34827.42
709.966	34784.48
710.31	34892.05
710.654	34598.27
710.998	34589.23
711.342	34534.32
711.687	34396.69
712.031	34278.73
712.375	34252.29
712.719	34202.58
713.063	34228.56
713.407	34160.54
713.75	34066.53
714.094	34086.87
714.438	33999.19
714.782	34011.17
715.125	33799.2
715.469	33766.88
715.812	33618.64
716.156	33543.16
716.499	33537.51
716.843	33593.1
717.186	33389.49
717.53	33375.48
717.873	33446.44
718.216	33255.93
718.559	33113.11
718.902	33041.48
719.246	33081.02
719.589	33036.73
719.932	32791.76
720.275	32971.42
720.617	32832.89
720.96	32827.47
721.303	32762.39
721.646	32709.73
721.989	32492.11
722.331	32676.29
722.674	32459.8
723.016	32597.87
723.359	32462.96
723.701	32560.13
724.044	32203.98
724.386	32192.23
724.729	32300.03
725.071	32204.89
725.413	32184.55
725.755	32084.21
726.097	31945.91
726.439	31836.76
726.782	31780.72
727.124	31954.72
727.465	31773.71
727.807	31628.18
728.149	31786.59
728.491	31632.02
728.833	31689.2
729.175	31451.01
729.516	31453.5
729.858	31453.27
730.199	31396.1
730.541	31347.74
730.882	31361.75
731.224	31460.73
731.565	31183.9
731.906	31161.07
732.248	31278.36
732.589	31174.18
732.93	31005.15
733.271	30987.74
733.612	31041.75
733.953	31091.7
734.294	30834.53
734.635	30834.08
734.976	30878.82
735.317	30852.15
735.658	30750.69
735.999	30659.62
736.339	30680.18
736.68	30687.19
737.021	30569.45
737.361	30433.86
737.702	30571.48
738.042	30489
738.383	30503.24
738.723	30496.23
739.063	30369.91
739.404	30410.36
739.744	30243.81
740.084	30206.3
740.424	30143.7
740.764	29974.21
741.104	30263.02
741.444	30189.57
741.784	30051.05
742.124	29964.49
742.464	29973.31
742.804	29917.72
743.143	29831.62
743.483	29989.58
743.823	29739.42
744.162	29877.27
744.502	29804.05
744.841	29627.55
745.181	29763.14
745.52	29694.9
745.86	29646.31
746.199	29561.79
746.538	29594.79
746.877	29572.64
747.216	29596.59
747.556	29471.63
747.895	29486.99
748.234	29385.53
748.573	29368.35
748.911	29195.25
749.25	29195.48
749.589	29136.04
749.928	29210.62
750.267	29308.01
750.605	29001.13
750.944	29006.55
751.283	28995.48
751.621	29097.4
751.96	28865.77
752.298	28858.08
752.636	28901.92
752.975	28702.15
753.313	28633
753.651	28746.9
753.989	28549.84
754.327	28602.95
754.666	28365.21
755.004	28364.99
755.342	28407.93
755.679	28297.87
756.017	28186.46
756.355	28324.76
756.693	28153.92
757.031	28252.68
757.368	27940.82
757.706	28050.19
758.044	27952.34
758.381	27919.8
758.719	27877.77
759.056	27910.09
759.394	27728.17
759.731	27637.1
