Data from hue_38_FLMS001491_00089.txt Node
Date: Tue Feb 07 17:32:06 GMT 2017
User: dcchb
Spectrometer: FLMS00149
Trigger mode: 0
Integration Time (sec): 2.000000E-2
Scans to average: 10
Electric dark correction enabled: true
Nonlinearity correction enabled: false
Boxcar width: 0
XAxis mode: Wavelengths
Number of Pixels in Spectrum: 2048
>>>>>Begin Spectral Data<<<<<
341.393	-4.63
341.776	-4.63
342.16	-4.63
342.543	-53.44
342.927	-74.69
343.31	-82.14
343.693	-64.29
344.077	-57.51
344.46	-38.08
344.843	-68.36
345.226	-35.59
345.61	-49.83
345.993	-21.58
346.376	-5.08
346.759	17.06
347.142	31.75
347.525	33.78
347.908	58.19
348.291	82.14
348.674	83.27
349.057	116.27
349.44	126.89
349.823	128.92
350.206	158.98
350.588	202.37
350.971	208.7
351.354	252.54
351.737	218.19
352.119	248.47
352.502	252.99
352.884	276.26
353.267	277.39
353.65	301.57
354.032	312.65
354.414	292.53
354.797	307.9
355.179	323.49
355.562	318.97
355.944	335.7
356.326	351.97
356.709	338.64
357.091	330.95
357.473	354
357.855	317.17
358.238	345.64
358.62	332.31
359.002	366.43
359.384	354
359.766	339.77
360.148	356.04
360.53	331.63
360.912	348.35
361.294	342.25
361.676	346.09
362.057	339.99
362.439	351.74
362.821	325.08
363.203	329.82
363.584	320.33
363.966	327.34
364.348	339.54
364.729	328.01
365.111	339.54
365.493	321.46
365.874	335.47
366.256	317.84
366.637	316.49
367.019	306.77
367.4	318.97
367.781	333.66
368.163	306.09
368.544	312.65
368.925	312.87
369.306	305.87
369.688	321.01
370.069	316.26
370.45	340.44
370.831	320.78
371.212	317.84
371.593	311.07
371.974	325.98
372.355	327.56
372.736	321.46
373.117	325.75
373.498	340.22
373.879	299.99
374.26	309.26
374.641	310.39
375.021	328.92
375.402	318.75
375.783	329.14
376.163	322.59
376.544	328.24
376.925	330.27
377.305	332.99
377.686	343.61
378.066	343.61
378.447	340.89
378.827	332.76
379.208	344.06
379.588	333.21
379.968	324.4
380.349	336.83
380.729	340.44
381.109	317.17
381.489	357.62
381.87	341.57
382.25	361.23
382.63	320.56
383.01	338.86
383.39	351.06
383.77	333.89
384.15	338.64
384.53	356.49
384.91	335.7
385.29	348.13
385.67	345.64
386.049	364.17
386.429	342.7
386.809	347.22
387.189	364.62
387.568	356.94
387.948	351.52
388.328	349.48
388.707	380.44
389.087	362.36
389.466	364.62
389.846	381.8
390.225	368.46
390.605	363.95
390.984	370.5
391.363	379.09
391.743	391.97
392.122	384.74
392.501	358.52
392.881	367.79
393.26	388.58
393.639	386.77
394.018	367.79
394.397	391.29
394.776	380.44
395.155	375.7
395.534	379.54
395.913	371.18
396.292	396.94
396.671	383.83
397.05	375.47
397.429	382.7
397.808	396.94
398.186	401.68
398.565	391.52
398.944	386.09
399.323	425.19
399.701	404.62
400.08	401.68
400.458	397.39
400.837	396.94
401.215	413.21
401.594	414.57
401.972	448.46
402.351	389.03
402.729	422.93
403.107	428.8
403.486	405.98
403.864	408.46
404.242	418.63
404.62	410.72
404.999	434.9
405.377	427.22
405.755	392.87
406.133	429.71
406.511	417.96
406.889	427.22
407.267	460.44
407.645	441.91
408.023	425.64
408.401	426.32
408.779	444.4
409.156	438.75
409.534	458.86
409.912	476.71
410.29	468.12
410.667	478.29
411.045	458.86
411.422	476.48
411.8	447.56
412.178	472.19
412.555	479.65
412.933	469.25
413.31	470.16
413.687	483.94
414.065	467.9
414.442	482.81
414.819	504.51
415.197	506.54
415.574	497.5
415.951	506.54
416.328	504.05
416.705	502.25
417.082	491.85
417.46	520.55
417.837	513.32
418.214	519.87
418.591	521.46
418.967	514.22
419.344	517.61
419.721	528.01
420.098	546.77
420.475	530.27
420.852	536.82
421.228	549.03
421.605	534.34
421.982	532.53
422.358	557.16
422.735	557.61
423.111	562.81
423.488	542.92
423.864	546.09
424.241	568.69
424.617	556.48
424.994	595.8
425.37	580.44
425.746	583.15
426.123	582.24
426.499	569.36
426.875	582.02
427.251	615.92
427.627	599.65
428.003	605.75
428.379	582.02
428.756	605.52
429.132	608.91
429.507	643.49
429.883	646.2
430.259	633.32
430.635	656.14
431.011	656.37
431.387	666.99
431.763	654.11
432.138	651.4
432.514	655.24
432.89	669.25
433.265	673.77
433.641	671.96
434.016	703.15
434.392	695.91
434.767	713.77
435.143	697.5
435.518	699.3
435.894	707.21
436.269	721
436.644	732.07
437.02	699.53
437.395	731.62
437.77	731.62
438.145	755.57
438.52	746.99
438.895	747.89
439.271	765.29
439.646	769.81
440.021	760.77
440.395	786.76
440.77	770.49
441.145	783.37
441.52	794.22
441.895	770.49
442.27	784.5
442.645	800.32
443.019	811.84
443.394	801.9
443.769	817.72
444.143	808.23
444.518	806.19
444.892	817.27
445.267	847.32
445.641	814.1
446.016	811.62
446.39	834.22
446.764	853.2
447.139	833.31
447.513	843.48
447.887	845.29
448.262	827.21
448.636	863.37
449.01	876.93
449.384	873.54
449.758	864.72
450.132	867.66
450.506	900.43
450.88	893.2
451.254	898.17
451.628	915.34
452.002	912.63
452.376	932.29
452.75	928.9
453.123	935.46
453.497	958.28
453.871	955.12
454.244	954.21
454.618	971.16
454.992	998.5
455.365	990.14
455.739	1009.35
456.112	1020.65
456.486	1024.72
456.859	1055.23
457.232	1037.6
457.606	1042.8
457.979	1077.82
458.352	1067.66
458.725	1093.87
459.099	1094.1
459.472	1102.46
459.845	1117.6
460.218	1128.9
460.591	1134.09
460.964	1147.88
461.337	1184.26
461.71	1199.18
462.083	1209.8
462.456	1209.12
462.829	1241.21
463.201	1236.46
463.574	1258.38
463.947	1252.96
464.32	1274.43
464.692	1284.6
465.065	1290.02
465.438	1328.44
465.81	1355.78
466.183	1327.31
466.555	1370.92
466.928	1407.76
467.3	1417.25
467.672	1416.8
468.045	1431.49
468.417	1466.06
468.789	1490.47
469.161	1518.94
469.534	1548.55
469.906	1566.4
470.278	1586.29
470.65	1562.78
471.022	1651.82
471.394	1694.31
471.766	1700.18
472.138	1710.58
472.51	1756.68
472.882	1795.55
473.253	1839.84
473.625	1860.86
473.997	1892.94
474.369	1939.05
474.74	1934.75
475.112	1984.47
475.484	2040.06
475.855	2091.36
476.227	2112.15
476.598	2185.59
476.97	2208.64
477.341	2301.07
477.713	2358.47
478.084	2359.6
478.455	2447.28
478.827	2480.5
479.198	2595.07
479.569	2613.15
479.94	2678.69
480.311	2760.49
480.682	2851.79
481.053	2928.17
481.424	2975.63
481.795	3027.83
482.166	3122.29
482.537	3217.2
482.908	3298.56
483.279	3314.83
483.65	3400.7
484.021	3535.84
484.391	3596.4
484.762	3694.25
485.133	3750.07
485.503	3879.56
485.874	3953.91
486.244	4020.12
486.615	4164.07
486.985	4252.43
487.356	4367.68
487.726	4428.25
488.097	4531.07
488.467	4598.18
488.837	4762.7
489.207	4834.56
489.578	4948.46
489.948	5029.13
490.318	5155.68
490.688	5209.47
491.058	5380.08
491.428	5479.97
491.798	5580.76
492.168	5740.75
492.538	5784.14
492.908	5948.88
493.278	6040.41
493.648	6074.98
494.017	6258.03
494.387	6353.39
494.757	6406.72
495.126	6525.59
495.496	6579.6
495.866	6743.89
496.235	6826.6
496.605	6868.86
496.974	7002.19
497.344	7079.25
497.713	7206.03
498.082	7279.02
498.452	7428.17
498.821	7499.12
499.19	7536.19
499.559	7630.19
499.928	7779.34
500.298	7832.45
500.667	7979.79
501.036	8007.13
501.405	8125.78
501.774	8158.99
502.143	8249.16
502.512	8322.61
502.88	8429.95
503.249	8529.83
503.618	8540.91
503.987	8688.92
504.356	8799.2
504.724	8852.99
505.093	8845.08
505.462	8928.47
505.83	9052.3
506.199	9125.3
506.567	9254.33
506.936	9365.74
507.304	9342.01
507.672	9429.7
508.041	9542.23
508.409	9624.72
508.777	9702
509.145	9751.04
509.514	9845.05
509.882	9950.13
510.25	9989
510.618	10066.29
510.986	10146.74
511.354	10213.4
511.722	10288.88
512.09	10388.77
512.458	10306.06
512.826	10467.63
513.193	10537.69
513.561	10635.99
513.929	10810.45
514.297	10792.37
514.664	10901.3
515.032	10912.37
515.4	11007.28
515.767	11065.81
516.135	11135.19
516.502	11061.52
516.869	11318.69
517.237	11313.94
517.604	11293.38
517.972	11411.11
518.339	11565.46
518.706	11577.66
519.073	11606.36
519.44	11711.44
519.808	11856.07
520.175	11888.16
520.542	12005.45
520.909	12057.2
521.276	12040.93
521.643	12223.29
522.009	12274.59
522.376	12383.97
522.743	12343.07
523.11	12552.1
523.477	12633.45
523.843	12679.33
524.21	12731.3
524.577	12889.94
524.943	12948.47
525.31	13009.94
525.676	13081.12
526.043	13285.64
526.409	13207
526.776	13405.18
527.142	13383.04
527.508	13517.27
527.874	13621.22
528.241	13697.38
528.607	13758.4
528.973	13886.53
529.339	13863.93
529.705	14006.75
530.071	14147.31
530.437	14113.87
530.803	14255.78
531.169	14266.63
531.535	14362.9
531.901	14313.63
532.267	14435.89
532.632	14514.08
532.998	14595.89
533.364	14721.53
533.73	14758.82
534.095	14776
534.461	14928.76
534.826	14951.36
535.192	14937.57
535.557	15097.57
535.923	15157
536.288	15258.02
536.653	15265.25
537.019	15237.45
537.384	15306.38
537.749	15375.08
538.114	15439.93
538.479	15538.91
538.845	15608.52
539.21	15579.59
539.575	15714.28
539.94	15727.38
540.305	15917.43
540.67	15871.33
541.034	15936.87
541.399	15849.41
541.764	16047.6
542.129	16172.34
542.494	16090.99
542.858	16212.34
543.223	16291.66
543.587	16379.34
543.952	16356.07
544.316	16495.72
544.681	16492.56
545.045	16561.71
545.41	16654.82
545.774	16863.17
546.138	16714.02
546.503	16782.95
546.867	16858.88
547.231	17002.38
547.595	17024.98
547.959	17034.47
548.324	17062.26
548.688	17182.94
549.052	17275.59
549.416	17303.16
549.779	17325.08
550.143	17438.98
550.507	17455.93
550.871	17480.33
551.235	17564.62
551.599	17668.57
551.962	17669.93
552.326	17800.77
552.689	17916.03
553.053	17765.3
553.417	17853.43
553.78	18049.13
554.143	18025.63
554.507	18102.69
554.87	18127.55
555.234	18332.06
555.597	18311.5
555.96	18338.16
556.323	18388.78
556.686	18357.6
557.05	18554.2
557.413	18613.18
557.776	18620.19
558.139	18812.27
558.502	18772.27
558.865	18876
559.228	18980.18
559.59	18964.13
559.953	19110.57
560.316	19229.89
560.679	19257.01
561.041	19325.93
561.404	19393.95
561.767	19545.36
562.129	19469.66
562.492	19720.27
562.854	19708.07
563.217	19655.42
563.579	19789.2
563.941	19941.96
564.304	20037.1
564.666	20031.45
565.028	20039.59
565.39	20184.89
565.753	20206.36
566.115	20292.69
566.477	20405.68
566.839	20470.76
567.201	20513.92
567.563	20673.02
567.925	20744.65
568.287	20812.22
568.648	20796.63
569.01	20953.69
569.372	21073.68
569.734	21046.11
570.095	21303.28
570.457	21291.98
570.819	21328.59
571.18	21409.49
571.542	21549.83
571.903	21584.63
572.265	21638.87
572.626	21733.1
572.987	21795.02
573.349	21962.7
573.71	22125.41
574.071	22072.98
574.432	22199.3
574.794	22357.72
575.155	22415.34
575.516	22423.48
575.877	22602.68
576.238	22750.93
576.599	22906.18
576.96	22969.45
577.32	23001.54
577.681	23272.5
578.042	23250.12
578.403	23458.25
578.763	23572.15
579.124	23715.42
579.485	23808.75
579.845	24066.82
580.206	24201.06
580.566	24262.53
580.927	24366.03
581.287	24700.03
581.648	24595.85
582.008	24963.3
582.368	25036.29
582.728	25206.46
583.089	25286.68
583.449	25506.11
583.809	25844.63
584.169	25803.73
584.529	26075.13
584.889	26466.76
585.249	26408.01
585.609	26492.98
585.969	26928.9
586.329	26938.61
586.688	27149
587.048	27389.68
587.408	27528.88
587.768	27739.5
588.127	27966.38
588.487	28162.76
588.846	28549.64
589.206	28502.64
589.565	28757.77
589.925	29132.45
590.284	29167.48
590.643	29458.55
591.003	29713.68
591.362	29906.22
591.721	30166.33
592.08	30298.3
592.44	30611.96
592.799	30838.62
593.158	30865.06
593.517	31090.82
593.876	31285.17
594.235	31501.43
594.593	31709.56
594.952	31984.81
595.311	32154.07
595.67	32299.83
596.029	32649.88
596.387	32905.01
596.746	33079.47
597.104	32989.53
597.463	33201.05
597.822	33717.64
598.18	33704.76
598.538	33918.77
598.897	34237.18
599.255	34170.06
599.613	34714
599.972	34619.77
600.33	34909.48
600.688	35047.78
601.046	35329.58
601.404	35413.87
601.762	35692.96
602.12	35832.17
602.478	36113.74
602.836	36126.85
603.194	36140.41
603.552	36322.1
603.91	36285.71
604.268	36704.68
604.625	36698.13
604.983	37007.5
605.341	36958.46
605.698	37278.91
606.056	37533.14
606.413	37595.73
606.771	37740.59
607.128	37946.23
607.485	37891.09
607.843	37982.39
608.2	38254.25
608.557	38535.14
608.914	38515.26
609.272	38646.1
609.629	38832.09
609.986	39122.47
610.343	38973.1
610.7	39422.13
611.057	39297.38
611.414	39587.55
611.771	39647.88
612.127	39925.84
612.484	39952.73
612.841	40138.04
613.198	40049.68
613.554	40150.24
613.911	40437.69
614.267	40411.93
614.624	40531.48
614.98	40736.44
615.337	40939.15
615.693	40688.99
616.05	40795.42
616.406	41133.27
616.762	41124.68
617.118	41250.33
617.475	41261.63
617.831	41339.14
618.187	41528.51
618.543	41654.61
618.899	41851.44
619.255	41776.19
619.611	41859.35
619.967	42073.13
620.323	42183.18
620.678	42027.03
621.034	42037.65
621.39	42161.04
621.746	42120.81
622.101	42721.7
622.457	42310.86
622.812	42427.25
623.168	42662.95
623.523	42596.96
623.879	42794.92
624.234	42576.62
624.589	42748.59
624.945	42901.58
625.3	42860.68
625.655	42846.9
626.01	42894.35
626.365	43070.62
626.72	43001.92
627.075	42981.36
627.43	42995.82
627.785	42940.9
628.14	43092.77
628.495	43190.62
628.85	43090.96
629.205	42976.38
629.559	43305.64
629.914	43102.71
630.269	43167.34
630.623	43134.57
630.978	43105.65
631.332	43379.09
631.687	43243.27
632.041	43267.9
632.396	43397.84
632.75	43289.6
633.104	43361.68
633.459	43055.25
633.813	43122.37
634.167	43216.15
634.521	43163.5
634.875	43204.85
635.229	43328.24
635.583	42999.43
635.937	43163.27
636.291	43111.07
636.645	43269.71
636.999	43054.8
637.352	43259.99
637.706	42900.91
638.06	43156.04
638.413	43166.44
638.767	43005.99
639.121	43007.34
639.474	42853.68
639.828	42781.14
640.181	42907.01
640.534	42918.76
640.888	42862.71
641.241	42718.76
641.594	42851.64
641.947	42914.92
642.301	42777.75
642.654	42653.91
643.007	42784.3
643.36	42684.41
643.713	42726.45
644.066	42737.97
644.419	42461.14
644.771	42250.98
645.124	41921.72
645.477	41867.26
645.83	41775.96
646.182	41560.83
646.535	41533.94
646.888	41539.59
647.24	41264.34
647.593	41614.84
647.945	41516.54
648.298	41152.25
648.65	41277.67
649.002	41204.45
649.355	41354.05
649.707	41307.05
650.059	41444.9
650.411	41959.69
650.763	41869.07
651.115	42366.91
651.467	42266.57
651.819	42277.87
652.171	42185.9
652.523	41971.21
652.875	42033.13
653.227	41976.64
653.578	42191.77
653.93	42080.36
654.282	41889.63
654.633	41926.92
654.985	41958.11
655.337	42047.14
655.688	41997.88
656.039	42138.44
656.391	41766.02
656.742	41843.53
657.094	42051.89
657.445	42044.43
657.796	41881.72
658.147	41792.69
658.498	41786.13
658.849	41840.14
659.2	41744.33
659.551	41773.93
659.902	41864.32
660.253	41808.28
660.604	41809.64
660.955	41586.14
661.306	41692.35
661.656	41658.23
662.007	41605.8
662.358	41749.75
662.708	41628.4
663.059	41693.03
663.409	41448.74
663.76	41729.86
664.11	41657.55
664.461	41571.9
664.811	41695.29
665.161	41654.84
665.511	41673.59
665.862	41578.23
666.212	41739.58
666.562	41666.14
666.912	41625.91
667.262	41491.68
667.612	41680.37
667.962	41657.32
668.312	41500.26
668.662	41681.28
669.011	41695.29
669.361	41572.58
669.711	41656.42
670.06	41505.69
670.41	41408.06
670.76	41291
671.109	41533.26
671.459	41397.44
671.808	41321.51
672.157	41427.72
672.507	41213.04
672.856	41269.31
673.205	41319.93
673.554	41507.95
673.904	41314.28
674.253	41469.76
674.602	41325.58
674.951	40846.95
675.3	40738.93
675.649	41152.93
675.998	41401.28
676.346	41202.42
676.695	41308.18
677.044	40979.15
677.393	41127.85
677.741	41136.21
678.09	41037.45
678.438	41087.85
678.787	41133.72
679.135	41208.52
679.484	40781.41
679.832	41025.02
680.181	40744.58
680.529	40840.17
680.877	40776.89
681.225	40647.63
681.573	40912.03
681.922	40660.74
682.27	40579.38
682.618	40505.94
682.966	40441.76
683.314	40489.67
683.661	40418.94
684.009	40205.61
684.357	40212.84
684.705	40110.47
685.053	40212.16
685.4	40269.34
685.748	39851.49
686.095	39857.14
686.443	39829.12
686.79	39709.8
687.138	39821.21
687.485	39871.16
687.832	39730.14
688.18	39580.32
688.527	39310.04
688.874	39471.17
689.221	39447.44
689.568	39227.33
689.915	39263.94
690.262	39172.42
690.609	39143.49
690.956	39030.5
691.303	38940.11
691.65	38848.81
691.997	38800.45
692.344	38528.37
692.69	38614.24
693.037	38610.4
693.383	38346.9
693.73	38377.41
694.077	38092.9
694.423	38158.21
694.769	37989.17
695.116	37918.44
695.462	37882.73
695.808	37830.76
696.155	37718.44
696.501	37518.9
696.847	37662.17
697.193	37229.64
697.539	37395.29
697.885	37072.58
698.231	37045.92
698.577	37016.54
698.923	37048.4
699.269	36967.05
699.614	36739.71
699.96	36619.04
700.306	36654.29
700.651	36488.65
700.997	36322.32
701.342	36430.57
701.688	36279.16
702.033	36168.65
702.379	36149.9
702.724	36049.11
703.069	36104.02
703.415	35667.42
703.76	35677.82
704.105	35812.73
704.45	35697.93
704.795	35486.19
705.14	35364.61
705.485	35318.96
705.83	35153.54
706.175	35253.2
706.52	35102.47
706.865	35061.34
707.209	34955.58
707.554	34771.4
707.899	34916.48
708.243	34710.16
708.588	34612.99
708.932	34476.27
709.277	34467.46
709.621	34413.9
709.966	34248.03
710.31	34380
710.654	34057.3
710.998	34103.17
711.342	34083.74
711.687	34069.73
712.031	33854.59
712.375	33724.2
712.719	33773.24
713.063	33713.12
713.407	33843.52
713.75	33708.15
714.094	33552.45
714.438	33356.75
714.782	33396.3
715.125	33296.41
715.469	33489.4
715.812	33238.34
716.156	33047.38
716.499	33114.95
716.843	33223.87
717.186	32909.98
717.53	32921.96
717.873	33066.36
718.216	33014.16
718.559	32866.59
718.902	32578.69
719.246	32662.76
719.589	32488.07
719.932	32320.17
720.275	32410.79
720.617	32488.52
720.96	32315.87
721.303	32338.47
721.646	32278.59
721.989	32108.87
722.331	32086.73
722.674	32044.47
723.016	32005.6
723.359	31971.25
723.701	32063.68
724.044	31813.51
724.386	31636.57
724.729	31813.74
725.071	31663.69
725.413	31652.61
725.755	31679.28
726.097	31471.38
726.439	31407.42
726.782	31477.7
727.124	31484.93
727.465	31440.87
727.807	31376.01
728.149	31260.08
728.491	31084.95
728.833	31225.28
729.175	31206.07
729.516	31095.11
729.858	30956.81
730.199	30991.16
730.541	30901.45
730.882	30971.5
731.224	31060.09
731.565	30728.57
731.906	30778.06
732.248	30780.55
732.589	30584.17
732.93	30537.16
733.271	30570.61
733.612	30544.39
733.953	30624.39
734.294	30399.54
734.635	30284.74
734.976	30401.35
735.317	30242.26
735.658	30259.66
735.999	30319.77
736.339	30317.51
736.68	30246.1
737.021	30070.73
737.361	29975.14
737.702	30135.37
738.042	30049.04
738.383	29926.56
738.723	30058.08
739.063	30039.55
739.404	29954.35
739.744	29913.45
740.084	29784.19
740.424	29926.33
740.764	29832.55
741.104	29876.16
741.444	29701.7
741.784	29588.04
742.124	29573.12
742.464	29527.47
742.804	29597.3
743.143	29545.1
743.483	29515.27
743.823	29380.13
744.162	29311.66
744.502	29476.63
744.841	29097.2
745.181	29318.89
745.52	29171.1
745.86	29241.83
746.199	29186.46
746.538	29167.03
746.877	29132
747.216	29082.96
747.556	28932.91
747.895	28936.53
748.234	28881.84
748.573	28809.3
748.911	28792.8
749.25	28809.52
749.589	28591.9
749.928	28660.15
750.267	28641.17
750.605	28579.93
750.944	28423.09
751.283	28390.33
751.621	28439.59
751.96	28247.96
752.298	28310.56
752.636	28248.18
752.975	28057.91
753.313	28052.03
753.651	28007.29
753.989	27986.04
754.327	27993.73
754.666	27870.79
755.004	27813.39
755.342	27969.1
755.679	27888.87
756.017	27718.25
756.355	27728.42
756.693	27547.19
757.031	27648.43
757.368	27517.58
