Data from hue_140_FLMS001491_00042.txt Node
Date: Tue Feb 07 16:55:58 GMT 2017
User: dcchb
Spectrometer: FLMS00149
Trigger mode: 0
Integration Time (sec): 2.000000E-2
Scans to average: 10
Electric dark correction enabled: true
Nonlinearity correction enabled: false
Boxcar width: 0
XAxis mode: Wavelengths
Number of Pixels in Spectrum: 2048
>>>>>Begin Spectral Data<<<<<
341.393	-24.46
341.776	-24.46
342.16	-24.46
342.543	-65.82
342.927	-78.25
343.31	-59.72
343.693	-59.72
344.077	-67.63
344.46	-66.95
344.843	-62.2
345.226	-39.6
345.61	-33.95
345.993	-33.05
346.376	-5.93
346.759	15.31
347.142	23.67
347.525	44.91
347.908	50.34
348.291	75.87
348.674	92.82
349.057	125.82
349.44	119.94
349.823	131.01
350.206	174.18
350.588	203.33
350.971	214.4
351.354	203.55
351.737	229.77
352.119	260.95
352.502	260.05
352.884	267.96
353.267	268.19
353.65	300.95
354.032	302.76
354.414	312.93
354.797	302.08
355.179	327.17
355.562	327.39
355.944	312.93
356.326	315.19
356.709	331.91
357.091	342.08
357.473	347.05
357.855	326.49
358.238	336.43
358.62	323.55
359.002	326.49
359.384	307.51
359.766	312.25
360.148	339.14
360.53	323.1
360.912	316.32
361.294	335.53
361.676	293.72
362.057	322.87
362.439	311.8
362.821	330.33
363.203	335.53
363.584	321.74
363.966	337.11
364.348	325.81
364.729	339.14
365.111	304.57
365.493	342.31
365.874	321.07
366.256	311.8
366.637	298.01
367.019	304.57
367.4	291.01
367.781	295.08
368.163	305.02
368.544	291.46
368.925	312.93
369.306	319.94
369.688	333.04
370.069	316.32
370.45	302.99
370.831	310.22
371.212	302.76
371.593	291.46
371.974	316.77
372.355	308.18
372.736	312.48
373.117	301.63
373.498	308.18
373.879	346.38
374.26	316.32
374.641	322.19
375.021	327.17
375.402	298.92
375.783	311.8
376.163	322.87
376.544	335.3
376.925	316.32
377.305	317.9
377.686	340.73
378.066	338.47
378.447	307.51
378.827	328.75
379.208	311.12
379.588	315.42
379.968	349.09
380.349	326.94
380.729	344.79
381.109	335.53
381.489	334.17
381.87	325.81
382.25	329.88
382.63	330.56
383.01	322.65
383.39	334.62
383.77	326.94
384.15	345.25
384.53	331.01
384.91	313.38
385.29	333.04
385.67	338.92
386.049	338.47
386.429	338.01
386.809	347.05
387.189	341.86
387.568	361.29
387.948	371.23
388.328	358.35
388.707	350.22
389.087	355.64
389.466	350.67
389.846	347.5
390.225	353.38
390.605	361.74
390.984	362.42
391.363	340.27
391.743	368.52
392.122	372.82
392.501	368.3
392.881	373.27
393.26	376.88
393.639	384.11
394.018	377.11
394.397	379.82
394.776	371.01
395.155	390.89
395.534	384.79
395.913	375.3
396.292	395.64
396.671	382.08
397.05	382.08
397.429	382.53
397.808	367.39
398.186	372.82
398.565	374.17
398.944	391.12
399.323	377.79
399.701	356.09
400.08	411.68
400.458	375.53
400.837	395.87
401.215	389.76
401.594	394.06
401.972	398.58
402.351	388.41
402.729	415.98
403.107	413.49
403.486	392.93
403.864	409.88
404.242	407.39
404.62	423.66
404.999	406.71
405.377	422.53
405.755	424.34
406.133	406.49
406.511	386.15
406.889	417.79
407.267	429.54
407.645	442.42
408.023	413.94
408.401	430.44
408.779	425.7
409.156	427.05
409.534	447.16
409.912	446.49
410.29	431.57
410.667	460.04
411.045	444.45
411.422	434.73
411.8	457.78
412.178	469.31
412.555	459.37
412.933	460.95
413.31	468.18
413.687	456.65
414.065	455.75
414.442	467.95
414.819	469.31
415.197	478.8
415.574	490.78
415.951	484.22
416.328	500.04
416.705	507.05
417.082	502.53
417.46	492.13
417.837	514.73
418.214	507.95
418.591	511.12
418.967	502.76
419.344	511.34
419.721	509.76
420.098	519.25
420.475	532.81
420.852	524.45
421.228	525.13
421.605	516.77
421.982	538.69
422.358	521.29
422.735	532.13
423.111	529.65
423.488	535.07
423.864	548.4
424.241	561.74
424.617	546.37
424.994	562.19
425.37	547.05
425.746	555.64
426.123	574.39
426.499	570.78
426.875	578.46
427.251	566.48
427.627	556.99
428.003	581.17
428.379	588.63
428.756	603.09
429.132	588.18
429.507	609.19
429.883	611.23
430.259	627.05
430.635	636.08
431.011	615.52
431.387	632.7
431.763	653.71
432.138	634.5
432.514	632.7
432.89	660.72
433.265	668.17
433.641	658.23
434.016	665.91
434.392	671.56
434.767	686.25
435.143	662.75
435.518	685.8
435.894	693.94
436.269	693.71
436.644	700.04
437.02	714.05
437.395	706.59
437.77	749.08
438.145	724.9
438.52	721.28
438.895	729.19
439.271	759.92
439.646	743.2
440.021	745.23
440.395	764.22
440.77	756.53
441.145	735.97
441.52	764.44
441.895	754.5
442.27	772.58
442.645	792.92
443.019	772.35
443.394	798.57
443.769	807.38
444.143	801.28
444.518	822.75
444.892	801.5
445.267	834.5
445.641	823.65
446.016	821.39
446.39	812.58
446.764	815.97
447.139	838.79
447.513	848.06
447.887	835.4
448.262	856.19
448.636	872.91
449.01	861.16
449.384	854.84
449.758	890.09
450.132	905.46
450.506	890.32
450.88	883.08
451.254	868.4
451.628	892.35
452.002	935.96
452.376	917.43
452.75	946.59
453.123	925.57
453.497	953.82
453.871	972.12
454.244	965.34
454.618	981.84
454.992	966.25
455.365	960.14
455.739	1008.5
456.112	1027.26
456.486	1050.54
456.859	1053.02
457.232	1057.99
457.606	1063.87
457.979	1084.66
458.352	1070.65
458.725	1101.16
459.099	1097.54
459.472	1123.53
459.845	1121.04
460.218	1108.61
460.591	1166.24
460.964	1141.61
461.337	1194.94
461.71	1220.48
462.083	1181.61
462.456	1207.6
462.829	1222.06
463.201	1220.7
463.574	1226.8
463.947	1281.27
464.32	1311.1
464.692	1284.88
465.065	1317.2
465.438	1322.39
465.81	1351.09
466.183	1337.76
466.555	1374.82
466.928	1389.51
467.3	1400.36
467.672	1448.94
468.045	1465.67
468.417	1510.19
468.789	1512.9
469.161	1508.83
469.534	1547.93
469.906	1588.6
470.278	1619.56
470.65	1608.04
471.022	1686.45
471.394	1699.56
471.766	1729.84
472.138	1749.05
472.51	1801.48
472.882	1821.14
473.253	1845.09
473.625	1895.49
473.997	1933.68
474.369	1939.55
474.74	1982.26
475.112	2055.03
475.484	2125.76
475.855	2167.57
476.227	2196.27
476.598	2231.3
476.97	2302.93
477.341	2362.59
477.713	2436.72
478.084	2456.15
478.455	2535.02
478.827	2591.51
479.198	2666.77
479.569	2747.44
479.94	2818.63
480.311	2890.94
480.682	2954.22
481.053	3063.37
481.424	3155.79
481.795	3230.59
482.166	3310.59
482.537	3365.73
482.908	3473.3
483.279	3536.35
483.65	3669.45
484.021	3772.5
484.391	3856.79
484.762	3967.52
485.133	4022.21
485.503	4103.34
485.874	4300.62
486.244	4350.11
486.615	4458.81
486.985	4549.65
487.356	4737.9
487.726	4807.5
488.097	4988.96
488.467	5063.77
488.837	5184.67
489.207	5297.21
489.578	5434.83
489.948	5595.5
490.318	5677.53
490.688	5761.37
491.058	5951.43
491.428	6102.16
491.798	6177.86
492.168	6390.74
492.538	6453.56
492.908	6566.78
493.278	6745.75
493.648	6864.17
494.017	6956.6
494.387	7119.08
494.757	7186.42
495.126	7310.03
495.496	7395.91
495.866	7472.97
496.235	7670.7
496.605	7820.75
496.974	7947.98
497.344	8031.82
497.713	8083.8
498.082	8256.45
498.452	8390.01
498.821	8425.26
499.19	8486.73
499.559	8689.66
499.928	8753.84
500.298	8867.51
500.667	8979.82
501.036	9051.68
501.405	9139.36
501.774	9194.96
502.143	9352.24
502.512	9407.61
502.88	9455.51
503.249	9568.05
503.618	9636.07
503.987	9736.64
504.356	9859.57
504.724	9884.43
505.093	9953.13
505.462	9986.57
505.83	10055.27
506.199	10191.54
506.567	10364.64
506.936	10328.49
507.304	10509.72
507.672	10496.84
508.041	10518.54
508.409	10618.2
508.777	10748.59
509.145	10789.72
509.514	10820.22
509.882	10902.71
510.25	10900.9
510.618	11017.73
510.986	11026.32
511.354	11150.16
511.722	11223.83
512.09	11264.28
512.458	11233.09
512.826	11328.69
513.193	11480.77
513.561	11462.24
513.929	11461.34
514.297	11534.33
514.664	11582.24
515.032	11596.7
515.4	11727.09
515.767	11754.89
516.135	11709.69
516.502	11765.06
516.869	11890.25
517.237	11831.04
517.604	11869.01
517.972	11858.61
518.339	11895.68
518.706	11898.84
519.073	11961.44
519.44	12053.64
519.808	12151.04
520.175	12075.33
520.542	12192.84
520.909	12254.99
521.276	12163.24
521.643	12264.03
522.009	12279.17
522.376	12393.52
522.743	12351.48
523.11	12458.6
523.477	12472.61
523.843	12419.5
524.21	12490.46
524.577	12553.29
524.943	12557.58
525.31	12650.23
525.676	12650.91
526.043	12645.03
526.409	12693.85
526.776	12774.3
527.142	12738.82
527.508	12744.24
527.874	12841.19
528.241	12716.9
528.607	12770.23
528.973	12827.18
529.339	12833.28
529.705	12804.35
530.071	12796.67
530.437	12867.18
530.803	12948.98
531.169	12913.95
531.535	12839.38
531.901	12815.65
532.267	12778.14
532.632	12826.95
532.998	12859.94
533.364	12860.4
533.73	12842.09
534.095	12837.35
534.461	12885.71
534.826	12787.4
535.192	12881.64
535.557	12898.81
535.923	12784.24
536.288	12798.03
536.653	12874.41
537.019	12660.4
537.384	12670.57
537.749	12661.98
538.114	12632.15
538.479	12590.35
538.845	12601.65
539.21	12577.92
539.575	12533.17
539.94	12544.25
540.305	12525.94
540.67	12470.8
541.034	12447.07
541.399	12433.97
541.764	12365.95
542.129	12400.52
542.494	12400.97
542.858	12348.09
543.223	12368.88
543.587	12260.86
543.952	12244.59
544.316	12224.25
544.681	12163.69
545.045	12155.56
545.41	12176.35
545.774	12132.96
546.138	12111.49
546.503	12013.41
546.867	12060.87
547.231	12111.72
547.595	11965.96
547.959	12021.32
548.324	11992.4
548.688	11866.3
549.052	11917.82
549.416	11881.44
549.779	11807.09
550.143	11790.82
550.507	11847.32
550.871	11800.99
551.235	11734.32
551.599	11630.37
551.962	11733.87
552.326	11722.12
552.689	11623.59
553.053	11555.35
553.417	11657.49
553.78	11683.25
554.143	11616.59
554.507	11546.53
554.87	11604.84
555.234	11644.16
555.597	11521
555.96	11558.28
556.323	11568.45
556.686	11512.18
557.05	11535.91
557.413	11451.62
557.776	11488
558.139	11483.03
558.502	11483.71
558.865	11454.78
559.228	11456.82
559.59	11495.69
559.953	11467.89
560.316	11514.67
560.679	11492.97
561.041	11471.73
561.404	11488.91
561.767	11554.89
562.129	11522.58
562.492	11535.23
562.854	11519.87
563.217	11569.36
563.579	11465.63
563.941	11507.44
564.304	11496.82
564.666	11554.22
565.028	11562.35
565.39	11496.36
565.753	11567.77
566.115	11629.47
566.477	11572.07
566.839	11582.24
567.201	11681.9
567.563	11701.56
567.925	11659.75
568.287	11690.94
568.648	11742.91
569.01	11735.91
569.372	11799.86
569.734	11657.49
570.095	11683.48
570.457	11755.79
570.819	11774.32
571.18	11748.11
571.542	11765.06
571.903	11815
572.265	11754.89
572.626	11850.48
572.987	11891.38
573.349	11746.08
573.71	11864.04
574.071	11826.3
574.432	11899.07
574.794	11863.59
575.155	11870.37
575.516	11923.02
575.877	11917.6
576.238	11889.8
576.599	11901.33
576.96	11911.27
577.32	11926.41
577.681	11964.37
578.042	11966.63
578.403	12054.99
578.763	11909.01
579.124	12002.79
579.485	11956.47
579.845	11999.18
580.206	11975.22
580.566	11920.53
580.927	11940.87
581.287	12009.8
581.648	11932.29
582.008	11932.29
582.368	11968.67
582.728	12026.29
583.089	11947.43
583.449	11841.89
583.809	11958.27
584.169	11970.25
584.529	11940.42
584.889	11980.19
585.249	11948.1
585.609	11937.03
585.969	11920.76
586.329	11850.25
586.688	11889.57
587.048	11905.17
587.408	11789.01
587.768	11895
588.127	11777.71
588.487	11858.39
588.846	11842.34
589.206	11766.19
589.565	11873.08
589.925	11895.68
590.284	11829.24
590.643	11799.41
591.003	11846.64
591.362	11810.03
591.721	11832.63
592.08	11808.22
592.44	11801.22
592.799	11815.45
593.158	11832.4
593.517	11796.92
593.876	11791.95
594.235	11732.74
594.593	11802.12
594.952	11741.33
595.311	11722.8
595.67	11776.36
596.029	11755.11
596.387	11789.24
596.746	11807.77
597.104	11743.14
597.463	11738.17
597.822	11756.02
598.18	11709.24
598.538	11672.86
598.897	11734.55
599.255	11642.35
599.613	11812.29
599.972	11732.52
600.33	11744.49
600.688	11677.38
601.046	11776.13
601.404	11728.67
601.762	11673.76
602.12	11714.21
602.478	11722.35
602.836	11798.96
603.194	11800.76
603.552	11784.04
603.91	11756.24
604.268	11736.13
604.625	11724.61
604.983	11781.1
605.341	11681.44
605.698	11738.62
606.056	11793.53
606.413	11744.95
606.771	11843.47
607.128	11801.22
607.485	11722.8
607.843	11844.38
608.2	11792.18
608.557	11826.75
608.914	11772.97
609.272	11888.9
609.629	11929.57
609.986	11861.78
610.343	11857.71
610.7	11971.15
611.057	11859.29
611.414	11857.48
611.771	11774.32
612.127	11906.98
612.484	11895
612.841	11981.1
613.198	11859.07
613.554	11936.8
613.911	11990.36
614.267	11977.71
614.624	11943.13
614.98	11972.51
615.337	12027.65
615.693	11954.88
616.05	11979.29
616.406	12025.84
616.762	11979.29
617.118	12004.6
617.475	11868.78
617.831	12019.74
618.187	12078.27
618.543	12120.3
618.899	12166.18
619.255	12111.49
619.611	12107.87
619.967	12249.34
620.323	12068.33
620.678	12087.99
621.034	12077.82
621.39	12106.97
621.746	12073.52
622.101	12219.96
622.457	12084.6
622.812	12154.43
623.168	12116.01
623.523	12064.26
623.879	12223.35
624.234	12053.41
624.589	12097.7
624.945	12114.88
625.3	12130.02
625.655	12171.15
626.01	12208.89
626.365	12115.11
626.72	12100.87
627.075	12135.44
627.43	12093.86
627.785	12123.92
628.14	12150.36
628.495	12104.48
628.85	12079.4
629.205	12084.82
629.559	12104.03
629.914	12005.73
630.269	12134.09
630.623	12036.69
630.978	12005.05
631.332	12050.25
631.687	12025.16
632.041	12007.99
632.396	12002.34
632.75	11889.35
633.104	11998.5
633.459	11966.86
633.813	12006.86
634.167	12009.57
634.521	11907.2
634.875	11970.48
635.229	11940.42
635.583	11781.33
635.937	11850.03
636.291	11869.69
636.645	11839.86
636.999	11813.87
637.352	11823.81
637.706	11736.13
638.06	11878.05
638.413	11743.36
638.767	11773.42
639.121	11787.43
639.474	11679.86
639.828	11744.49
640.181	11725.28
640.534	11695.68
640.888	11716.25
641.241	11650.03
641.594	11661.11
641.947	11663.14
642.301	11675.57
642.654	11622.91
643.007	11645.74
643.36	11621.11
643.713	11614.33
644.066	11648.22
644.419	11597.15
644.771	11530.04
645.124	11481.9
645.477	11392.86
645.83	11354.22
646.182	11196.94
646.535	11273.55
646.888	11236.03
647.24	11114
647.593	11229.03
647.945	11232.87
648.298	11232.64
648.65	11147.45
649.002	11165.53
649.355	11220.21
649.707	11254.56
650.059	11269.48
650.411	11363.49
650.763	11456.59
651.115	11582.69
651.467	11534.56
651.819	11466.08
652.171	11525.52
652.523	11384.73
652.875	11455.91
653.227	11422.02
653.578	11471.73
653.93	11462.47
654.282	11335.69
654.633	11405.07
654.985	11456.59
655.337	11384.73
655.688	11436.93
656.039	11450.72
656.391	11380.21
656.742	11472.64
657.094	11392.86
657.445	11444.16
657.796	11404.39
658.147	11379.53
658.498	11394.45
658.849	11426.99
659.2	11428.12
659.551	11367.78
659.902	11405.97
660.253	11393.32
660.604	11439.42
660.955	11439.64
661.306	11405.97
661.656	11449.36
662.007	11474.9
662.358	11457.95
662.708	11448.68
663.059	11436.25
663.409	11387.44
663.76	11422.02
664.11	11479.42
664.461	11476.7
664.811	11453.65
665.161	11438.51
665.511	11434.67
665.862	11440.32
666.212	11525.97
666.562	11538.17
666.912	11481.9
667.262	11475.35
667.612	11427.21
667.962	11440.09
668.312	11452.07
668.662	11466.53
669.011	11436.48
669.361	11431.06
669.711	11465.86
670.06	11443.26
670.41	11395.12
670.76	11446.2
671.109	11388.12
671.459	11391.73
671.808	11410.49
672.157	11459.3
672.507	11323.94
672.856	11372.98
673.205	11361
673.554	11317.39
673.904	11317.39
674.253	11427.44
674.602	11361
674.951	11182.02
675.3	11197.62
675.649	11321.45
675.998	11341.34
676.346	11284.17
676.695	11336.59
677.044	11230.16
677.393	11304.73
677.741	11310.38
678.09	11243.72
678.438	11152.87
678.787	11285.52
679.135	11234.68
679.484	11144.06
679.832	11214.34
680.181	11173.89
680.529	11061.35
680.877	11123.49
681.225	11088.24
681.573	11125.98
681.922	11074.45
682.27	11011.86
682.618	10968.02
682.966	11010.5
683.314	10921.01
683.661	11017.73
684.009	10907
684.357	10975.25
684.705	10901.35
685.053	10887.11
685.4	10838.53
685.748	10850.73
686.095	10782.03
686.443	10741.36
686.79	10703.84
687.138	10795.37
687.485	10770.06
687.832	10635.82
688.18	10711.07
688.527	10658.19
688.874	10695.03
689.221	10603.51
689.568	10564.41
689.915	10525.32
690.262	10594.69
690.609	10445.54
690.956	10436.73
691.303	10360.35
691.65	10389.73
691.997	10373.91
692.344	10390.86
692.69	10351.76
693.037	10318.54
693.383	10246
693.73	10251.65
694.077	10167.81
694.423	10189.05
694.769	10079.45
695.116	10122.84
695.462	10056.4
695.808	9986.35
696.155	10113.35
696.501	9880.81
696.847	9977.53
697.193	9885.56
697.539	9829.06
697.885	9855.73
698.231	9756.07
698.577	9817.54
698.923	9839.01
699.269	9698.45
699.614	9679.69
699.96	9694.83
700.306	9684.21
700.651	9571.44
700.997	9587.26
701.342	9489.19
701.688	9404.22
702.033	9391.79
702.379	9408.06
702.724	9414.16
703.069	9442.63
703.415	9291.45
703.76	9320.38
704.105	9268.17
704.45	9265.01
704.795	9268.4
705.14	9204.45
705.485	9194.05
705.83	9146.6
706.175	9167.84
706.52	9084.9
706.865	9057.56
707.209	9027.05
707.554	8961.97
707.899	9014.62
708.243	8927.39
708.588	8960.16
708.932	8848.3
709.277	8866.15
709.621	8886.72
709.966	8819.82
710.31	8883.33
710.654	8739.37
710.998	8791.12
711.342	8761.52
711.687	8657.79
712.031	8667.96
712.375	8602.66
712.719	8709.77
713.063	8649.66
713.407	8653.05
713.75	8667.29
714.094	8569.44
714.438	8591.36
714.782	8569.44
715.125	8528.98
715.469	8587.74
715.812	8507.52
716.156	8536.22
716.499	8473.84
716.843	8452.83
717.186	8398.14
717.53	8448.99
717.873	8455.31
718.216	8436.33
718.559	8385.94
718.902	8338.48
719.246	8398.14
719.589	8367.41
719.932	8349.78
720.275	8312.04
720.617	8327.18
720.96	8304.13
721.303	8235.66
721.646	8350.23
721.989	8270.23
722.331	8398.59
722.674	8283.79
723.016	8260.52
723.359	8355.43
723.701	8245.15
724.044	8170.58
724.386	8241.53
724.729	8201.08
725.071	8183.68
725.413	8128.77
725.755	8206.96
726.097	8133.29
726.439	8140.07
726.782	8123.8
727.124	8176.45
727.465	8085.61
727.807	8126.51
728.149	8149.33
728.491	8126.74
728.833	8088.32
729.175	8124.93
729.516	8120.41
729.858	8159.05
730.199	8210.35
730.541	8070.47
730.882	8099.84
731.224	8130.13
731.565	8073.86
731.906	8086.96
732.248	8148.2
732.589	8049.9
732.93	8106.17
733.271	8087.87
733.612	8103.46
733.953	8070.24
734.294	8055.32
734.635	8038.83
734.976	8057.36
735.317	7992.05
735.658	8053.52
735.999	8045.38
736.339	8024.82
736.68	8047.19
737.021	8089.22
737.361	8025.72
737.702	8099.17
738.042	8094.42
738.383	8122.22
738.723	8081.31
739.063	8083.57
739.404	8138.71
739.744	8054.42
740.084	8100.07
740.424	8170.8
740.764	8153.18
741.104	8168.99
741.444	8172.61
741.784	8166.06
742.124	8179.62
742.464	8179.39
742.804	8244.25
743.143	8190.24
743.483	8208.32
743.823	8218.26
744.162	8209.45
744.502	8254.64
744.841	8312.04
745.181	8403.79
745.52	8314.53
745.86	8433.85
746.199	8397.69
746.538	8486.95
746.877	8566.72
747.216	8564.46
747.556	8567.63
747.895	8691.24
748.234	8697.79
748.573	8745.7
748.911	8763.1
749.25	8835.64
749.589	8856.43
749.928	8908.18
750.267	9001.74
750.605	9063.89
750.944	9108.4
751.283	9176.43
751.621	9269.08
751.96	9336.87
752.298	9400.6
752.636	9559.01
752.975	9488.73
753.313	9516.76
753.651	9750.42
753.989	9838.1
754.327	9933.24
754.666	10017.31
755.004	10170.3
755.342	10266.57
755.679	10316.96
756.017	10457.07
756.355	10641.47
756.693	10655.03
757.031	10831.75
757.368	10920.33
757.706	11076.04
758.044	11177.5
758.381	11394.45
758.719	11519.87
759.056	11657.04
759.394	11791.5
759.731	11951.72
