Data from hue_300_FLMS001491_00098.txt Node
Date: Tue Feb 07 15:51:28 GMT 2017
User: dcchb
Spectrometer: FLMS00149
Trigger mode: 0
Integration Time (sec): 2.000000E-2
Scans to average: 10
Electric dark correction enabled: true
Nonlinearity correction enabled: false
Boxcar width: 0
XAxis mode: Wavelengths
Number of Pixels in Spectrum: 2048
>>>>>Begin Spectral Data<<<<<
341.393	-20.17
341.776	-20.17
342.16	-20.17
342.543	-72.37
342.927	-74.63
343.31	-88.42
343.693	-80.96
344.077	-59.49
344.46	-67.4
344.843	-41.19
345.226	-37.34
345.61	-18.81
345.993	-15.42
346.376	-26.95
346.759	16.44
347.142	30.9
347.525	37
347.908	69.32
348.291	79.04
348.674	89.43
349.057	113.84
349.44	138.7
349.823	125.59
350.206	143.44
350.588	173.05
350.971	198.13
351.354	218.92
351.737	225.02
352.119	235.87
352.502	247.39
352.884	263.21
353.267	256.66
353.65	278.81
354.032	288.98
354.414	313.16
354.797	291.46
355.179	312.7
355.562	313.38
355.944	305.7
356.326	323.1
356.709	323.78
357.091	314.51
357.473	328.3
357.855	341.63
358.238	333.49
358.62	339.6
359.002	352.93
359.384	324.68
359.766	309.54
360.148	338.01
360.53	318.81
360.912	340.73
361.294	325.13
361.676	357
362.057	308.41
362.439	324.45
362.821	323.1
363.203	321.74
363.584	307.51
363.966	332.36
364.348	308.41
364.729	305.92
365.111	318.13
365.493	327.84
365.874	315.19
366.256	303.44
366.637	331.23
367.019	309.09
367.4	312.7
367.781	300.27
368.163	313.38
368.544	296.88
368.925	309.54
369.306	305.02
369.688	302.08
370.069	311.57
370.45	307.51
370.831	288.98
371.212	296.43
371.593	299.82
371.974	309.77
372.355	325.13
372.736	302.08
373.117	301.63
373.498	295.75
373.879	311.35
374.26	307.51
374.641	299.37
375.021	299.82
375.402	305.7
375.783	309.77
376.163	317.9
376.544	317.45
376.925	311.8
377.305	327.84
377.686	312.93
378.066	317.45
378.447	306.15
378.827	317
379.208	304.57
379.588	325.13
379.968	331.69
380.349	330.33
380.729	317.9
381.109	308.18
381.489	318.58
381.87	324.45
382.25	336.88
382.63	328.07
383.01	333.95
383.39	333.72
383.77	329.43
384.15	341.18
384.53	338.47
384.91	334.4
385.29	345.92
385.67	334.4
386.049	339.82
386.429	342.76
386.809	334.85
387.189	343.89
387.568	327.84
387.948	338.01
388.328	334.62
388.707	341.63
389.087	338.01
389.466	359.26
389.846	352.48
390.225	345.47
390.605	359.93
390.984	348.86
391.363	369.65
391.743	358.8
392.122	359.71
392.501	359.71
392.881	362.65
393.26	359.26
393.639	355.41
394.018	362.42
394.397	368.3
394.776	377.79
395.155	370.56
395.534	375.98
395.913	372.82
396.292	376.43
396.671	398.8
397.05	392.48
397.429	369.65
397.808	388.86
398.186	388.63
398.565	373.49
398.944	401.06
399.323	396.32
399.701	404.68
400.08	401.51
400.458	401.29
400.837	394.51
401.215	418.24
401.594	399.48
401.972	416.43
402.351	401.97
402.729	403.1
403.107	434.96
403.486	441.06
403.864	413.04
404.242	427.5
404.62	416.2
404.999	427.28
405.377	438.12
405.755	414.4
406.133	442.42
406.511	466.15
406.889	442.64
407.267	436.99
407.645	448.75
408.023	458.24
408.401	450.55
408.779	471.34
409.156	448.97
409.534	480.38
409.912	487.16
410.29	491
410.667	463.66
411.045	512.02
411.422	508.4
411.8	519.93
412.178	533.26
412.555	533.49
412.933	554.51
413.31	542.08
413.687	546.14
414.065	552.25
414.442	575.52
414.819	588.4
415.197	561.51
415.574	604.67
415.951	595.41
416.328	601.74
416.705	607.84
417.082	610.55
417.46	638.34
417.837	661.17
418.214	653.49
418.591	661.17
418.967	683.77
419.344	691.9
419.721	677.21
420.098	693.94
420.475	693.71
420.852	702.52
421.228	707.04
421.605	735.52
421.982	720.38
422.358	745.23
422.735	750.21
423.111	748.17
423.488	753.6
423.864	787.95
424.241	762.18
424.617	812.13
424.994	795.85
425.37	801.05
425.746	824.33
426.123	838.79
426.499	822.07
426.875	821.84
427.251	841.96
427.627	855.51
428.003	875.63
428.379	867.94
428.756	884.44
429.132	893.93
429.507	912.01
429.883	898.68
430.259	910.88
430.635	940.26
431.011	936.64
431.387	963.76
431.763	1024.32
432.138	990.43
432.514	1001.05
432.89	1011.67
433.265	1022.06
433.641	1030.88
434.016	1004.21
434.392	1058.45
434.767	1053.25
435.143	1069.97
435.518	1079.69
435.894	1112.23
436.269	1102.74
436.644	1112.91
437.02	1128.5
437.395	1130.99
437.77	1142.29
438.145	1121.5
438.52	1154.94
438.895	1200.59
439.271	1158.78
439.646	1179.57
440.021	1187.71
440.395	1220.25
440.77	1183.87
441.145	1239.23
441.52	1241.49
441.895	1225.22
442.27	1228.16
442.645	1255.73
443.019	1269.29
443.394	1238.1
443.769	1273.13
444.143	1275.62
444.518	1266.12
444.892	1269.29
445.267	1273.58
445.641	1307.71
446.016	1281.27
446.39	1301.38
446.764	1291.66
447.139	1314.26
447.513	1333.02
447.887	1293.69
448.262	1290.53
448.636	1302.51
449.01	1337.08
449.384	1323.75
449.758	1336.41
450.132	1351.55
450.506	1346.12
450.88	1362.39
451.254	1372.34
451.628	1310.64
452.002	1401.26
452.376	1394.71
452.75	1388.83
453.123	1380.02
453.497	1401.26
453.871	1417.76
454.244	1433.35
454.618	1458.66
454.992	1450.07
455.365	1450.3
455.739	1467.48
456.112	1515.61
456.486	1496.63
456.859	1492.56
457.232	1518.1
457.606	1534.59
457.979	1531.2
458.352	1520.81
458.725	1534.14
459.099	1563.07
459.472	1562.84
459.845	1576.17
460.218	1604.42
460.591	1611.43
460.964	1591.31
461.337	1644.65
461.71	1631.31
462.083	1669.96
462.456	1672.67
462.829	1646.91
463.201	1663.4
463.574	1683.29
463.947	1689.62
464.32	1752.21
464.692	1721.71
465.065	1773.68
465.438	1759.67
465.81	1781.14
466.183	1759.22
466.555	1801.93
466.928	1806.45
467.3	1819.33
467.672	1811.87
468.045	1831.76
468.417	1847.8
468.789	1859.1
469.161	1882.61
469.534	1923.51
469.906	1916.28
470.278	1941.59
470.65	1968.71
471.022	1959.89
471.394	1991.08
471.766	2048.93
472.138	2017.74
472.51	2049.38
472.882	2055.48
473.253	2067.69
473.625	2105.42
473.997	2126.22
474.369	2152.66
474.74	2162.82
475.112	2159.43
475.484	2171.64
475.855	2197.85
476.227	2214.57
476.598	2257.06
476.97	2250.96
477.341	2301.58
477.713	2319.2
478.084	2301.58
478.455	2372.08
478.827	2403.95
479.198	2429.03
479.569	2426.77
479.94	2479.2
480.311	2469.48
480.682	2536.83
481.053	2556.49
481.424	2592.64
481.795	2599.65
482.166	2584.06
482.537	2648.91
482.908	2646.65
483.279	2683.49
483.65	2707.67
484.021	2742.7
484.391	2786.76
484.762	2775.92
485.133	2759.87
485.503	2813.2
485.874	2864.73
486.244	2891.62
486.615	2912.86
486.985	2993.54
487.356	2998.73
487.726	2970.26
488.097	3094.78
488.467	3029.69
488.837	3070.82
489.207	3095.91
489.578	3135.45
489.948	3151.5
490.318	3195.34
490.688	3162.12
491.058	3219.75
491.428	3217.94
491.798	3211.61
492.168	3325.73
492.538	3313.53
492.908	3309.24
493.278	3358.05
493.648	3343.81
494.017	3382.68
494.387	3415.67
494.757	3421.55
495.126	3480.53
495.496	3462.9
495.866	3462
496.235	3530.7
496.605	3537.25
496.974	3532.28
497.344	3546.29
497.713	3551.49
498.082	3574.76
498.452	3609.79
498.821	3584.48
499.19	3645.95
499.559	3653.63
499.928	3662.9
500.298	3667.87
500.667	3687.76
501.036	3687.98
501.405	3722.11
501.774	3737.7
502.143	3703.12
502.512	3749.68
502.88	3785.15
503.249	3739.28
503.618	3784.93
503.987	3793.97
504.356	3792.84
504.724	3789.45
505.093	3802.1
505.462	3803.91
505.83	3844.59
506.199	3833.52
506.567	3884.36
506.936	3886.85
507.304	3901.54
507.672	3928.43
508.041	3964.81
508.409	3974.75
508.777	3985.6
509.145	3990.57
509.514	3949.67
509.882	4042.55
510.25	3988.31
510.618	4018.82
510.986	3982.66
511.354	4016.56
511.722	4029.67
512.09	4069.67
512.458	4068.31
512.826	4071.25
513.193	4126.39
513.561	4133.85
513.929	4134.52
514.297	4144.24
514.664	4133.17
515.032	4131.59
515.4	4182.21
515.767	4171.36
516.135	4141.08
516.502	4170.68
516.869	4228.76
517.237	4202.32
517.604	4180.4
517.972	4202.77
518.339	4278.25
518.706	4230.34
519.073	4246.39
519.44	4273.96
519.808	4297.68
520.175	4249.1
520.542	4301.07
520.909	4360.05
521.276	4332.26
521.643	4308.98
522.009	4360.51
522.376	4368.42
522.743	4378.36
523.11	4410
523.477	4386.72
523.843	4439.37
524.21	4467.62
524.577	4508.53
524.943	4452.71
525.31	4511.24
525.676	4538.36
526.043	4551.46
526.409	4510.56
526.776	4585.36
527.142	4551.46
527.508	4602.99
527.874	4668.3
528.241	4699.03
528.607	4657
528.973	4751.46
529.339	4728.86
529.705	4791
530.071	4781.74
530.437	4794.85
530.803	4809.08
531.169	4866.93
531.535	4800.95
531.901	4849.08
532.267	4922.98
532.632	4891.34
532.998	4938.8
533.364	4944.67
533.73	4974.28
534.095	5009.3
534.461	5046.82
534.826	5033.48
535.192	5047.95
535.557	5073.48
535.923	5052.24
536.288	5087.49
536.653	5143.54
537.019	5083.65
537.384	5149.19
537.749	5166.59
538.114	5146.02
538.479	5144.22
538.845	5267.15
539.21	5219.02
539.575	5213.14
539.94	5273.7
540.305	5287.94
540.67	5264.89
541.034	5298.11
541.399	5357.99
541.764	5337.43
542.129	5403.64
542.494	5404.1
542.858	5409.52
543.223	5453.13
543.587	5524.32
543.952	5525.9
544.316	5514.15
544.681	5536.07
545.045	5539.46
545.41	5571.55
545.774	5541.49
546.138	5590.76
546.503	5696.97
546.867	5636.63
547.231	5640.7
547.595	5684.99
547.959	5770.41
548.324	5763.18
548.688	5675.05
549.052	5781.94
549.416	5788.27
549.779	5786.68
550.143	5808.83
550.507	5852.44
550.871	5854.48
551.235	5838.66
551.599	5951.88
551.962	5894.7
552.326	5935.61
552.689	5949.62
553.053	5936.96
553.417	5964.98
553.78	6024.64
554.143	5998.66
554.507	6013.57
554.87	6005.44
555.234	6115.71
555.597	6093.57
555.96	6096.96
556.323	6127.24
556.686	6124.98
557.05	6160.46
557.413	6145.54
557.776	6152.55
558.139	6204.75
558.502	6237.07
558.865	6289.04
559.228	6240.68
559.59	6223.06
559.953	6296.28
560.316	6351.19
560.679	6316.61
561.041	6327.69
561.404	6412.43
561.767	6384.41
562.129	6390.06
562.492	6460.11
562.854	6405.42
563.217	6423.73
563.579	6473.45
563.941	6468.25
564.304	6549.6
564.666	6549.6
565.028	6557.74
565.39	6555.93
565.753	6588.24
566.115	6588.7
566.477	6691.52
566.839	6630.28
567.201	6704.17
567.563	6670.05
567.925	6736.49
568.287	6741.24
568.648	6773.1
569.01	6778.3
569.372	6880.89
569.734	6831.85
570.095	6891.51
570.457	6926.99
570.819	6932.42
571.18	6999.31
571.542	6993.43
571.903	7026.2
572.265	7097.84
572.626	7093.77
572.987	7110.72
573.349	7210.15
573.71	7197.72
574.071	7277.27
574.432	7385.51
574.794	7477.26
575.155	7422.8
575.516	7476.13
575.877	7593.42
576.238	7648.56
576.599	7800.42
576.96	7738.72
577.32	7812.17
577.681	7919.74
578.042	7959.73
578.403	8047.64
578.763	8151.37
579.124	8279.27
579.485	8417.35
579.845	8441.08
580.206	8529.89
580.566	8650.56
580.927	8787.06
581.287	8903.44
581.648	9045.58
582.008	9232.92
582.368	9273.82
582.728	9506.36
583.089	9604.66
583.449	9808.27
583.809	9954.48
584.169	10189.28
584.529	10305.44
584.889	10558.54
585.249	10705.65
585.609	10905.42
585.969	11129.59
586.329	11312.19
586.688	11545.18
587.048	11809.35
587.408	11915.56
587.768	12189.45
588.127	12440.07
588.487	12602.55
588.846	12956.66
589.206	13105.36
589.565	13295.87
589.925	13683.88
590.284	13858.79
590.643	14294.48
591.003	14524.99
591.362	14855.37
591.721	15112.09
592.08	15301.46
592.44	15685.41
592.799	16008.34
593.158	16228.9
593.517	16568.77
593.876	16818.71
594.235	17114.52
594.593	17422.99
594.952	17723.77
595.311	18015.74
595.67	18289.86
596.029	18800.58
596.387	18970.29
596.746	19362.82
597.104	19579.99
597.463	19840.33
597.822	20215.01
598.18	20312.18
598.538	20674.43
598.897	21045.72
599.255	21172.72
599.613	21687.51
599.972	21884.57
600.33	22227.83
600.688	22319.81
601.046	22705.79
601.404	23194.59
601.762	23305.55
602.12	23708.02
602.478	23974
602.836	24236.37
603.194	24350.49
603.552	24615.79
603.91	24846.52
604.268	25164.48
604.625	25391.82
604.983	25770.79
605.341	25972.14
605.698	26211.01
606.056	26587.72
606.413	26720.82
606.771	27065.45
607.128	27233.58
607.485	27361.26
607.843	27615.49
608.2	27979.09
608.557	28183.16
608.914	28430.83
609.272	28626.54
609.629	28915.79
609.986	29175.9
610.343	29159.63
610.7	29587.19
611.057	29801.42
611.414	29994.64
611.771	30032.15
612.127	30297
612.484	30468.75
612.841	30720.94
613.198	30925.23
613.554	31048.84
613.911	31330.42
614.267	31454.71
614.624	31631.43
614.98	31742.84
615.337	32075.48
615.693	32161.81
616.05	32257.85
616.406	32565.64
616.762	32573.1
617.118	32672.76
617.475	32773.77
617.831	33088.57
618.187	33228.22
618.543	33354.77
618.899	33490.14
619.255	33594.77
619.611	33660.3
619.967	33873.18
620.323	34171.25
620.678	34151.36
621.034	34129.22
621.39	34162.44
621.746	34311.58
622.101	34702.53
622.457	34562.2
622.812	34717.9
623.168	34849.42
623.523	34946.14
623.879	35184.78
624.234	34844.45
624.589	35151.56
624.945	35216.19
625.3	35266.59
625.655	35405.79
626.01	35556.97
626.365	35592.45
626.72	35642.17
627.075	35749.06
627.43	35663.64
627.785	35792.22
628.14	35850.53
628.495	35900.69
628.85	35793.58
629.205	35926
629.559	36075.15
629.914	35887.59
630.269	36124.42
630.623	36062.27
630.978	36015.72
631.332	36126.23
631.687	36253.91
632.041	36279.67
632.396	36307.46
632.75	36132.55
633.104	36223.62
633.459	36084.64
633.813	36292.77
634.167	36274.24
634.521	36285.54
634.875	36248.03
635.229	36298.88
635.583	36242.61
635.937	36176.39
636.291	36262.72
636.645	36292.77
636.999	36229.95
637.352	36373.22
637.706	36126.45
638.06	36361.02
638.413	36344.07
638.767	36220.23
639.121	36224.98
639.474	36060.01
639.828	36310.85
640.181	36220.01
640.534	36226.11
640.888	36098.88
641.241	35969.17
641.594	36065.21
641.947	36176.62
642.301	36160.57
642.654	36201.93
643.007	36137.52
643.36	36078.99
643.713	36174.13
644.066	36248.48
644.419	36080.8
644.771	35962.61
645.124	35609.63
645.477	35517.65
645.83	35405.11
646.182	35201.96
646.535	35228.17
646.888	35349.97
647.24	35137.78
647.593	35396.75
647.945	35244.21
648.298	35057.33
648.65	35034.05
649.002	34938.69
649.355	35274.04
649.707	35210.77
650.059	35156.31
650.411	35504.32
650.763	35547.26
651.115	35988.83
651.467	35949.05
651.819	35922.39
652.171	35714.71
652.523	35852.56
652.875	35946.34
653.227	35625.67
653.578	35809.85
653.93	35797.87
654.282	35669.29
654.633	35542.96
654.985	35664.09
655.337	35652.79
655.688	35672.23
656.039	35742.28
656.391	35512.91
656.742	35578.67
657.094	35556.3
657.445	35639.23
657.796	35673.36
658.147	35772.79
658.498	35618.22
658.849	35657.31
659.2	35491.44
659.551	35594.94
659.902	35582.51
660.253	35576.64
660.604	35732.34
660.955	35528.95
661.306	35735.73
661.656	35552.23
662.007	35565.79
662.358	35553.58
662.708	35533.02
663.059	35507.94
663.409	35451.21
663.76	35660.47
664.11	35516.07
664.461	35592.23
664.811	35620.02
665.161	35624.54
665.511	35465
665.862	35429.52
666.212	35489.41
666.562	35645.79
666.912	35596.52
667.262	35432.01
667.612	35554.94
667.962	35619.57
668.312	35471.55
668.662	35641.27
669.011	35526.24
669.361	35475.39
669.711	35468.16
670.06	35456.64
670.41	35225.91
670.76	35435.4
671.109	35368.73
671.459	35312.01
671.808	35283.54
672.157	35310.65
672.507	35055.07
672.856	35144.33
673.205	35303.2
673.554	35347.04
673.904	35261.84
674.253	35316.98
674.602	35215.97
674.951	34719.03
675.3	34605.14
675.649	35224.33
675.998	35099.36
676.346	35202.63
676.695	35278.34
677.044	35026.14
677.393	35217.55
677.741	34999.7
678.09	34968.52
678.438	34829.99
678.787	34970.55
679.135	34807.84
679.484	34613.27
679.832	34834.51
680.181	34729.2
680.529	34668.86
680.877	34678.13
681.225	34709.99
681.573	34838.8
681.922	34649.2
682.27	34446.5
682.618	34476.78
682.966	34545.48
683.314	34464.8
683.661	34446.27
684.009	34233.62
684.357	34218.48
684.705	34155.88
685.053	34307.74
685.4	34090.57
685.748	33958.15
686.095	34098.71
686.443	33820.3
686.79	33735.78
687.138	33844.25
687.485	33887.41
687.832	33712.5
688.18	33730.13
688.527	33517.25
688.874	33638.61
689.221	33469.8
689.568	33307.09
689.915	33344.15
690.262	33265.51
690.609	33147.77
690.956	33045.18
691.303	33065.97
691.65	33006.99
691.997	32908.46
692.344	32678.63
692.69	32654
693.037	32753.43
693.383	32557.05
693.73	32639.31
694.077	32432.99
694.423	32353.9
694.769	32321.81
695.116	32161.58
695.462	32208.59
695.808	32036.84
696.155	32118.42
696.501	31902.61
696.847	31909.61
697.193	31730.63
697.539	31826.68
697.885	31602.73
698.231	31437.08
698.577	31438.44
698.923	31425.78
699.269	31247.71
699.614	31094.49
699.96	31171.55
700.306	31099.69
700.651	30913.93
700.997	30882.75
701.342	30901.05
701.688	30813.6
702.033	30654.73
702.379	30584.68
702.724	30581.51
703.069	30694.05
703.415	30300.39
703.76	30323.89
704.105	30420.84
704.45	30112.82
704.795	30089.55
705.14	29990.12
705.485	30023.56
705.83	29838.03
706.175	29833.74
706.52	29809.56
706.865	29582.89
707.209	29639.39
707.554	29497.25
707.899	29587.19
708.243	29277.14
708.588	29297.25
708.932	29220.64
709.277	29192.85
709.621	29146.07
709.966	28880.99
710.31	29006.86
710.654	28737.72
710.998	28847.09
711.342	28871.05
711.687	28681
712.031	28673.09
712.375	28545.41
712.719	28587.21
713.063	28513.77
713.407	28636.25
713.75	28419.08
714.094	28363.27
714.438	28240.33
714.782	28267.67
715.125	28162.37
715.469	28159.43
715.812	28111.97
716.156	27973.22
716.499	27938.19
716.843	27969.6
717.186	27843.51
717.53	27882.83
717.873	27829.04
718.216	27828.14
718.559	27714.47
718.902	27499.56
719.246	27545.21
719.589	27491.2
719.932	27405.1
720.275	27516.28
720.617	27333.24
720.96	27287.81
721.303	27173.92
721.646	27349.28
721.989	27143.18
722.331	27179.34
722.674	27086.46
723.016	27204.2
723.359	27102.73
723.701	27048.05
724.044	26879.91
724.386	26859.8
724.729	26958.33
725.071	26759.69
725.413	26906.81
725.755	26752.69
726.097	26748.39
726.439	26519.92
726.782	26654.61
727.124	26761.73
727.465	26527.61
727.807	26509.98
728.149	26481.73
728.491	26408.51
728.833	26533.26
729.175	26289.65
729.516	26411.45
729.858	26303.88
730.199	26286.94
730.541	26270.44
730.882	26175.75
731.224	26338.69
731.565	26083.1
731.906	26230.89
732.248	26094.85
732.589	26000.16
732.93	25973.05
733.271	25957.68
733.612	26025.02
733.953	26076.55
734.294	25818.02
734.635	25689.44
734.976	25834.29
735.317	25732.15
735.658	25797.01
735.999	25754.97
736.339	25617.12
736.68	25722.21
737.021	25667.29
737.361	25517.24
737.702	25695.54
738.042	25592.04
738.383	25401.99
738.723	25496
739.063	25330.58
739.404	25483.12
739.744	25354.98
740.084	25321.09
740.424	25179.17
740.764	25223.91
741.104	25391.82
741.444	25105.72
741.784	25116.57
742.124	25168.77
742.464	25169.9
742.804	24960.19
743.143	25037.03
743.483	24876.35
743.823	24910.25
744.162	24912.06
744.502	24958.38
744.841	24760.42
745.181	24934.88
745.52	24835.67
745.86	24866.18
746.199	24813.53
746.538	24757.03
746.877	24787.31
747.216	24705.28
747.556	24745.51
747.895	24763.81
748.234	24583.7
748.573	24613.31
748.911	24559.52
749.25	24566.3
749.589	24506.64
749.928	24510.49
750.267	24410.6
750.605	24461.45
750.944	24457.38
751.283	24353.88
751.621	24387.78
751.96	24250.83
752.298	24273.43
752.636	24257.16
752.975	24201.57
753.313	24061.68
753.651	24178.06
753.989	24017.39
754.327	24087.67
754.666	23965.19
755.004	24074.56
755.342	23972.19
755.679	23846.1
756.017	23884.74
756.355	23931.07
756.693	23846.77
757.031	23865.53
757.368	23657.85
757.706	23795.7
758.044	23607.91
758.381	23670.51
758.719	23469.38
759.056	23560.45
759.394	23437.97
759.731	23291.99
