Data from hue_230_FLMS001491_00084.txt Node
Date: Tue Feb 07 16:37:51 GMT 2017
User: dcchb
Spectrometer: FLMS00149
Trigger mode: 0
Integration Time (sec): 2.000000E-2
Scans to average: 10
Electric dark correction enabled: true
Nonlinearity correction enabled: false
Boxcar width: 0
XAxis mode: Wavelengths
Number of Pixels in Spectrum: 2048
>>>>>Begin Spectral Data<<<<<
341.393	-15.44
341.776	-15.44
342.16	-15.44
342.543	-65.61
342.927	-83.68
343.31	-68.54
343.693	-84.81
344.077	-72.39
344.46	-57.92
344.843	-53.4
345.226	-43.23
345.61	-47.08
345.993	-8.66
346.376	6.93
346.759	0.38
347.142	19.59
347.525	64.79
347.908	54.62
348.291	83.32
348.674	94.39
349.057	112.02
349.44	118.34
349.823	152.24
350.206	179.13
350.588	187.04
350.971	186.59
351.354	194.73
351.737	216.19
352.119	248.28
352.502	227.72
352.884	248.74
353.267	283.54
353.65	279.02
354.032	283.76
354.414	281.96
354.797	281.5
355.179	300.03
355.562	321.95
355.944	350.65
356.326	318.57
356.709	346.13
357.091	326.02
357.473	316.31
357.855	338.23
358.238	319.92
358.62	334.16
359.002	322.63
359.384	315.4
359.766	340.49
360.148	312.46
360.53	317.44
360.912	333.93
361.294	321.73
361.676	321.73
362.057	310.66
362.439	329.64
362.821	334.16
363.203	309.3
363.584	301.39
363.966	326.93
364.348	320.82
364.729	321.73
365.111	316.98
365.493	284.44
365.874	316.76
366.256	287.15
366.637	307.49
367.019	286.25
367.4	323.31
367.781	320.82
368.163	306.36
368.544	298.45
368.925	303.88
369.306	322.86
369.688	288.51
370.069	273.59
370.45	283.09
370.831	308.85
371.212	306.14
371.593	297.32
371.974	307.49
372.355	304.1
372.736	304.33
373.117	311.33
373.498	310.88
373.879	307.04
374.26	308.17
374.641	313.14
375.021	322.18
375.402	313.37
375.783	317.21
376.163	312.01
376.544	340.03
376.925	309.53
377.305	304.78
377.686	309.3
378.066	338.9
378.447	329.41
378.827	304.1
379.208	311.79
379.588	333.03
379.968	310.2
380.349	328.51
380.729	311.56
381.109	307.49
381.489	333.71
381.87	323.99
382.25	329.86
382.63	339.36
383.01	324.44
383.39	326.02
383.77	316.53
384.15	347.94
384.53	335.97
384.91	328.96
385.29	334.84
385.67	324.89
386.049	335.29
386.429	340.71
386.809	328.73
387.189	332.35
387.568	338.9
387.948	329.41
388.328	367.15
388.707	341.62
389.087	360.82
389.466	354.72
389.846	370.32
390.225	353.59
390.605	346.36
390.984	349.98
391.363	348.39
391.743	361.28
392.122	331.9
392.501	373.25
392.881	376.87
393.26	359.02
393.639	364.21
394.018	341.39
394.397	366.93
394.776	380.94
395.155	366.7
395.534	356.3
395.913	371.45
396.292	368.51
396.671	369.19
397.05	398.56
397.429	357.66
397.808	395.63
398.186	389.75
398.565	377.32
398.944	373.93
399.323	384.55
399.701	374.83
400.08	407.6
400.458	408.05
400.837	396.76
401.215	409.64
401.594	415.74
401.972	407.15
402.351	437.21
402.729	418.22
403.107	385.91
403.486	428.39
403.864	430.88
404.242	404.44
404.62	403.53
404.999	410.99
405.377	435.62
405.755	420.26
406.133	427.26
406.511	447.15
406.889	448.96
407.267	435.17
407.645	459.8
408.023	460.26
408.401	449.86
408.779	457.77
409.156	471.56
409.534	448.96
409.912	471.78
410.29	482.18
410.667	464.55
411.045	513.59
411.422	496.64
411.8	517.2
412.178	501.16
412.555	521.5
412.933	518.79
413.31	529.18
413.687	531.44
414.065	539.12
414.442	540.93
414.819	560.59
415.197	559.24
415.574	585.9
415.951	573.02
416.328	598.78
416.705	580.48
417.082	596.75
417.46	606.02
417.837	604.21
418.214	622.74
418.591	591.33
418.967	635.62
419.344	630.2
419.721	641.27
420.098	658.67
420.475	644.21
420.852	647.14
421.228	684.43
421.605	692.34
421.982	660.25
422.358	689.63
422.735	686.01
423.111	710.19
423.488	733.24
423.864	721.94
424.241	755.39
424.617	739.12
424.994	759.23
425.37	761.27
425.746	778.21
426.123	790.19
426.499	804.65
426.875	807.82
427.251	838.55
427.627	830.87
428.003	845.78
428.379	868.61
428.756	871.32
429.132	855.95
429.507	846.46
429.883	891.88
430.259	912.45
430.635	892.79
431.011	886.69
431.387	919
431.763	952.45
432.138	956.06
432.514	968.04
432.89	991.99
433.265	975.5
433.641	1007.81
434.016	1005.78
434.392	1041.48
434.767	1066.57
435.143	1045.55
435.518	1095.49
435.894	1115.38
436.269	1135.72
436.644	1137.75
437.02	1185.66
437.395	1149.5
437.77	1150.18
438.145	1215.49
438.52	1223.85
438.895	1221.82
439.271	1239.9
439.646	1284.19
440.021	1278.54
440.395	1286
440.77	1294.13
441.145	1303.62
441.52	1310.18
441.895	1367.58
442.27	1350.63
442.645	1369.84
443.019	1387.01
443.394	1364.87
443.769	1379.1
444.143	1388.37
444.518	1408.93
444.892	1439.21
445.267	1418.42
445.641	1449.16
446.016	1440.57
446.39	1469.72
446.764	1484.86
447.139	1477.63
447.513	1504.07
447.887	1507.01
448.262	1528.25
448.636	1518.08
449.01	1567.8
449.384	1556.72
449.758	1562.6
450.132	1582.03
450.506	1586.78
450.88	1594.46
451.254	1597.18
451.628	1641.69
452.002	1617.29
452.376	1637.4
452.75	1665.65
453.123	1668.13
453.497	1701.81
453.871	1702.03
454.244	1729.15
454.618	1766.44
454.992	1766.21
455.365	1750.84
455.739	1854.34
456.112	1841.69
456.486	1831.29
456.859	1829.03
457.232	1903.83
457.606	1904.96
457.979	1892.08
458.352	1979.76
458.725	1959.43
459.099	1948.58
459.472	1997.39
459.845	2020.44
460.218	2023.6
460.591	2095.24
460.964	2050.5
461.337	2078.29
461.71	2147.44
462.083	2156.93
462.456	2140.89
462.829	2153.09
463.201	2209.59
463.574	2188.8
463.947	2235.58
464.32	2271.51
464.692	2323.03
465.065	2281
465.438	2340.88
465.81	2380.88
466.183	2386.99
466.555	2431.05
466.928	2431.73
467.3	2449.58
467.672	2497.49
468.045	2565.74
468.417	2529.13
468.789	2569.13
469.161	2601.67
469.534	2629.01
469.906	2682.12
470.278	2675.34
470.65	2732.29
471.022	2758.5
471.394	2829.01
471.766	2838.72
472.138	2847.99
472.51	2911.94
472.882	2988.78
473.253	2983.58
473.625	3008.89
473.997	3042.56
474.369	3052.73
474.74	3103.8
475.112	3159.85
475.484	3245.72
475.855	3255.44
476.227	3275.55
476.598	3381.99
476.97	3362.33
477.341	3406.62
477.713	3506.73
478.084	3504.47
478.455	3604.81
478.827	3605.48
479.198	3706.95
479.569	3647.29
479.94	3766.84
480.311	3807.74
480.682	3885.7
481.053	3925.7
481.424	3949.66
481.795	4052.93
482.166	4078.47
482.537	4096.09
482.908	4146.71
483.279	4241.85
483.65	4347.39
484.021	4368.85
484.391	4404.33
484.762	4407.72
485.133	4424.9
485.503	4478
485.874	4624.44
486.244	4679.35
486.615	4720.03
486.985	4757.09
487.356	4813.36
487.726	4833.25
488.097	4992.79
488.467	4970.65
488.837	5066.24
489.207	5092
489.578	5169.51
489.948	5246.35
490.318	5240.92
490.688	5290.19
491.058	5277.76
491.428	5326.12
491.798	5468.71
492.168	5524.08
492.538	5561.14
492.908	5558.88
493.278	5636.39
493.648	5644.98
494.017	5673.68
494.387	5757.52
494.757	5743.73
495.126	5824.18
495.496	5858.98
495.866	5864.41
496.235	5904.18
496.605	5957.29
496.974	5995.48
497.344	6027.57
497.713	6079.32
498.082	6100.33
498.452	6111.18
498.821	6188.24
499.19	6158.64
499.559	6228.69
499.928	6216.26
500.298	6230.73
500.667	6269.14
501.036	6241.35
501.405	6338.52
501.774	6316.37
502.143	6334.23
502.512	6338.29
502.88	6445.18
503.249	6418.74
503.618	6500.78
503.987	6448.57
504.356	6530.38
504.724	6513.88
505.093	6550.72
505.462	6551.62
505.83	6604.05
506.199	6618.06
506.567	6647.89
506.936	6613.09
507.304	6736.48
507.672	6748.68
508.041	6735.57
508.409	6741.22
508.777	6773.31
509.145	6835.23
509.514	6827.55
509.882	6806.76
510.25	6809.47
510.618	6851.95
510.986	6906.41
511.354	6941.67
511.722	6926.98
512.09	6965.85
512.458	6954.32
512.826	6972.4
513.193	7042.46
513.561	7037.03
513.929	7054.89
514.297	7098.95
514.664	7100.31
515.032	7109.35
515.4	7065.96
515.767	7143.24
516.135	7161.77
516.502	7040.42
516.869	7187.31
517.237	7192.28
517.604	7131.49
517.972	7180.31
518.339	7207.88
518.706	7165.39
519.073	7190.47
519.44	7236.58
519.808	7273.41
520.175	7208.1
520.542	7283.81
520.909	7275.44
521.276	7293.07
521.643	7254.43
522.009	7317.48
522.376	7383.24
522.743	7377.36
523.11	7394.31
523.477	7435.67
523.843	7377.81
524.21	7506.17
524.577	7461.2
524.943	7499.62
525.31	7458.04
525.676	7499.62
526.043	7521.77
526.409	7551.6
526.776	7513.86
527.142	7547.98
527.508	7559.28
527.874	7648.99
528.241	7543.69
528.607	7614.87
528.973	7597.7
529.339	7596.11
529.705	7668.88
530.071	7711.37
530.437	7617.13
530.803	7666.62
531.169	7700.52
531.535	7694.64
531.901	7625.94
532.267	7643.8
532.632	7646.96
532.998	7624.36
533.364	7673.63
533.73	7691.03
534.095	7683.34
534.461	7650.35
534.826	7703.91
535.192	7671.14
535.557	7611.93
535.923	7637.24
536.288	7621.65
536.653	7643.12
537.019	7557.02
537.384	7541.43
537.749	7624.81
538.114	7590.46
538.479	7519.05
538.845	7592.95
539.21	7541.43
539.575	7506.85
539.94	7480.41
540.305	7550.24
540.67	7434.08
541.034	7516.34
541.399	7480.86
541.764	7417.36
542.129	7484.7
542.494	7505.49
542.858	7423.24
543.223	7348.89
543.587	7398.15
543.952	7444.03
544.316	7452.61
544.681	7372.39
545.045	7401.09
545.41	7308.89
545.774	7395.67
546.138	7340.3
546.503	7299.4
546.867	7268.21
547.231	7341.88
547.595	7315.44
547.959	7320.87
548.324	7258.27
548.688	7226.86
549.052	7222.11
549.416	7247.87
549.779	7162.23
550.143	7140.53
550.507	7272.73
550.871	7204.71
551.235	7202.68
551.599	7253.3
551.962	7197.48
552.326	7167.42
552.689	7229.12
553.053	7155.9
553.417	7092.62
553.78	7179.63
554.143	7097.37
554.507	7176.69
554.87	7103.47
555.234	7112.28
555.597	7114.09
555.96	7144.37
556.323	7091.72
556.686	7071.83
557.05	7134.43
557.413	7109.35
557.776	7139.18
558.139	7083.36
558.502	7135.56
558.865	7108.44
559.228	7189.57
559.59	7153.64
559.953	7121.55
560.316	7164.94
560.679	7187.76
561.041	7200.64
561.404	7173.75
561.767	7176.46
562.129	7185.96
562.492	7128.33
562.854	7171.49
563.217	7193.41
563.579	7221.21
563.941	7244.26
564.304	7210.81
564.666	7187.76
565.028	7306.86
565.39	7236.8
565.753	7286.97
566.115	7322.22
566.477	7297.82
566.839	7316.8
567.201	7354.76
567.563	7385.05
567.925	7341.21
568.287	7366.74
568.648	7380.75
569.01	7413.52
569.372	7420.98
569.734	7394.99
570.095	7481.54
570.457	7437.25
570.819	7434.76
571.18	7438.6
571.542	7528.54
571.903	7457.36
572.265	7525.38
572.626	7543.23
572.987	7562.44
573.349	7554.31
573.71	7544.36
574.071	7545.04
574.432	7588.88
574.794	7715.88
575.155	7621.88
575.516	7637.69
575.877	7644.02
576.238	7702.1
576.599	7700.29
576.96	7660.74
577.32	7722.21
577.681	7790.23
578.042	7735.09
578.403	7806.73
578.763	7788.2
579.124	7813.51
579.485	7879.5
579.845	7794.53
580.206	7812.15
580.566	7888.31
580.927	7896.9
581.287	7886.28
581.648	7946.61
582.008	7936.22
582.368	7938.93
582.728	7968.31
583.089	7995.65
583.449	7919.72
583.809	7949.1
584.169	7998.59
584.529	7975.99
584.889	8035.42
585.249	7969.21
585.609	7912.94
585.969	8024.35
586.329	8015.54
586.688	8005.82
587.048	7987.74
587.408	7988.87
587.768	8004.24
588.127	8031.81
588.487	8023
588.846	8079.49
589.206	8039.49
589.565	8073.39
589.925	8180.96
590.284	8102.99
590.643	8110.9
591.003	8173.95
591.362	8181.64
591.721	8136.44
592.08	8157.68
592.44	8137.34
592.799	8181.41
593.158	8212.59
593.517	8134.18
593.876	8199.26
594.235	8151.81
594.593	8158.58
594.952	8183.22
595.311	8204.46
595.67	8251.24
596.029	8291.01
596.387	8250.79
596.746	8286.49
597.104	8302.54
597.463	8234.97
597.822	8245.36
598.18	8317.68
598.538	8254.63
598.897	8364.23
599.255	8271.35
599.613	8366.49
599.972	8269.09
600.33	8331.46
600.688	8295.08
601.046	8302.31
601.404	8332.37
601.762	8304.12
602.12	8352.03
602.478	8340.5
602.836	8347.96
603.194	8312.71
603.552	8334.63
603.91	8295.53
604.268	8406.26
604.625	8340.95
604.983	8395.87
605.341	8307.06
605.698	8393.38
606.056	8362.87
606.413	8422.53
606.771	8420.5
607.128	8408.07
607.485	8281.97
607.843	8395.87
608.2	8391.57
608.557	8393.83
608.914	8413.49
609.272	8481.97
609.629	8466.15
609.986	8518.12
610.343	8472.47
610.7	8484.68
611.057	8499.14
611.414	8442.65
611.771	8462.53
612.127	8520.84
612.484	8452.59
612.841	8584.11
613.198	8477.22
613.554	8466.15
613.911	8564.68
614.267	8540.04
614.624	8594.05
614.98	8569.65
615.337	8626.6
615.693	8577.1
616.05	8570.78
616.406	8668.4
616.762	8573.26
617.118	8585.47
617.475	8638.8
617.831	8677.44
618.187	8625.69
618.543	8603.54
618.899	8700.27
619.255	8684.9
619.611	8674.5
619.967	8731.9
620.323	8711.56
620.678	8616.2
621.034	8664.33
621.39	8700.27
621.746	8653.71
622.101	8739.13
622.457	8692.58
622.812	8727.38
623.168	8700.94
623.523	8705.46
623.879	8699.14
624.234	8632.7
624.589	8721.73
624.945	8676.54
625.3	8761.05
625.655	8669.76
626.01	8676.31
626.365	8678.57
626.72	8652.58
627.075	8640.61
627.43	8681.74
627.785	8634.28
628.14	8665.92
628.495	8667.72
628.85	8697.33
629.205	8618.46
629.559	8663.2
629.914	8621.4
630.269	8595.86
630.623	8643.32
630.978	8587.95
631.332	8611
631.687	8623.21
632.041	8573.26
632.396	8553.83
632.75	8610.78
633.104	8498.69
633.459	8505.92
633.813	8491.68
634.167	8556.31
634.521	8478.35
634.875	8449.88
635.229	8504.56
635.583	8511.57
635.937	8463.44
636.291	8434.06
636.645	8489.42
636.999	8412.36
637.352	8481.51
637.706	8403.78
638.06	8417.34
638.413	8409.65
638.767	8396.54
639.121	8417.56
639.474	8377.79
639.828	8345.7
640.181	8400.39
640.534	8383.21
640.888	8338.24
641.241	8355.87
641.594	8356.09
641.947	8357.45
642.301	8312.48
642.654	8316.77
643.007	8319.48
643.36	8397.22
643.713	8322.87
644.066	8371.23
644.419	8295.3
644.771	8202.65
645.124	8121.3
645.477	8143.22
645.83	8048.98
646.182	8060.73
646.535	8084.69
646.888	8054.63
647.24	8026.61
647.593	8055.99
647.945	8028.19
648.298	8039.49
648.65	7985.93
649.002	7985.93
649.355	8030.45
649.707	7986.84
650.059	7992.49
650.411	8101.86
650.763	8147.06
651.115	8154.52
651.467	8154.07
651.819	8180.73
652.171	8212.37
652.523	8185.93
652.875	8203.1
653.227	8117.91
653.578	8143.9
653.93	8163.33
654.282	8134.18
654.633	8102.54
654.985	8091.69
655.337	8099.38
655.688	8112.03
656.039	8190.22
656.391	8090.11
656.742	8101.64
657.094	8161.52
657.445	8122.2
657.796	8214.63
658.147	8135.76
658.498	8126.95
658.849	8148.64
659.2	8176.21
659.551	8138.25
659.902	8164.69
660.253	8164.91
660.604	8121.98
660.955	8155.2
661.306	8215.76
661.656	8135.76
662.007	8172.82
662.358	8156.78
662.708	8082.65
663.059	8133.05
663.409	8129.89
663.76	8126.27
664.11	8115.65
664.461	8155.2
664.811	8116.55
665.161	8150.68
665.511	8180.05
665.862	8152.94
666.212	8118.36
666.562	8185.93
666.912	8186.15
667.262	8181.41
667.612	8171.24
667.962	8208.98
668.312	8146.16
668.662	8232.48
669.011	8137.79
669.361	8171.69
669.711	8146.61
670.06	8159.94
670.41	8154.97
670.76	8119.49
671.109	8182.99
671.459	8074.52
671.808	8103.9
672.157	8109.09
672.507	8055.08
672.856	8055.99
673.205	8093.28
673.554	8065.03
673.904	8037.01
674.253	8121.3
674.602	8106.16
674.951	7982.32
675.3	7940.29
675.649	8021.19
675.998	8049.44
676.346	8065.03
676.695	8078.59
677.044	8003.56
677.393	7959.49
677.741	8013.73
678.09	8005.14
678.438	7959.04
678.787	7997.01
679.135	7947.74
679.484	7944.81
679.832	7980.51
680.181	7910.68
680.529	7929.21
680.877	7907.97
681.225	7893.06
681.573	7936.9
681.922	7871.81
682.27	7816.22
682.618	7833.4
682.966	7855.77
683.314	7766.05
683.661	7778.48
684.009	7717.24
684.357	7693.74
684.705	7740.52
685.053	7758.14
685.4	7698.48
685.748	7707.52
686.095	7603.8
686.443	7671.59
686.79	7591.59
687.138	7632.95
687.485	7600.41
687.832	7591.14
688.18	7583.68
688.527	7637.92
688.874	7490.81
689.221	7520.18
689.568	7512.5
689.915	7466.85
690.262	7477.7
690.609	7467.08
690.956	7427.53
691.303	7391.6
691.65	7347.31
691.997	7353.41
692.344	7343.92
692.69	7319.28
693.037	7319.28
693.383	7298.72
693.73	7281.77
694.077	7191.38
694.423	7261.43
694.769	7148.89
695.116	7173.3
695.462	7183.92
695.808	7068.22
696.155	7091.27
696.501	7028.9
696.847	7109.12
697.193	7047.65
697.539	7032.96
697.885	6996.81
698.231	6964.04
698.577	6933.53
698.923	6936.92
699.269	6899.63
699.614	6872.07
699.96	6877.26
700.306	6840.88
700.651	6763.37
700.997	6800.2
701.342	6745.97
701.688	6761.79
702.033	6710.94
702.379	6747.77
702.724	6657.38
703.069	6715.91
703.415	6598.85
703.76	6597.95
704.105	6584.16
704.45	6572.19
704.795	6503.94
705.14	6507.33
705.485	6498.06
705.83	6485.18
706.175	6470.27
706.52	6475.47
706.865	6500.32
707.209	6399.31
707.554	6402.92
707.899	6404.73
708.243	6364.73
708.588	6390.5
708.932	6299.88
709.277	6327.67
709.621	6297.39
709.966	6332.42
710.31	6242.93
710.654	6219.43
710.998	6268.01
711.342	6258.52
711.687	6185.76
712.031	6193.21
712.375	6204.96
712.719	6217.62
713.063	6151.18
713.407	6230.05
713.75	6167.9
714.094	6162.48
714.438	6154.12
714.782	6090.62
715.125	6068.24
715.469	6112.09
715.812	6049.26
716.156	5973.78
716.499	6025.53
716.843	6049.04
717.186	6018.3
717.53	6006.1
717.873	6041.13
718.216	5992.77
718.559	5961.13
718.902	5926.33
719.246	5976.04
719.589	5937.17
719.932	5963.84
720.275	5970.17
720.617	5927.46
720.96	5910.51
721.303	5901.7
721.646	5908.02
721.989	5898.98
722.331	5881.81
722.674	5885.2
723.016	5914.35
723.359	5892.43
723.701	5944.63
724.044	5873
724.386	5902.37
724.729	5857.63
725.071	5854.69
725.413	5826.89
725.755	5830.96
726.097	5827.8
726.439	5834.8
726.782	5778.31
727.124	5885.42
727.465	5803.17
727.807	5776.95
728.149	5783.05
728.491	5815.82
728.833	5835.93
729.175	5816.73
729.516	5731.98
729.858	5814.92
730.199	5731.98
730.541	5751.64
730.882	5753.68
731.224	5763.62
731.565	5759.1
731.906	5816.27
732.248	5826.44
732.589	5763.62
732.93	5781.02
733.271	5757.52
733.612	5764.07
733.953	5820.12
734.294	5779.89
734.635	5755.48
734.976	5781.92
735.317	5754.35
735.658	5698.99
735.999	5756.61
736.339	5759.1
736.68	5776.27
737.021	5764.98
737.361	5743.73
737.702	5803.39
738.042	5778.08
738.383	5743.73
738.723	5803.62
739.063	5827.35
739.404	5765.88
739.744	5784.18
740.084	5778.76
740.424	5838.42
740.764	5789.38
741.104	5854.69
741.444	5829.61
741.784	5910.06
742.124	5854.24
742.464	5883.39
742.804	5843.62
743.143	5887.68
743.483	5929.72
743.823	5924.97
744.162	5919.77
744.502	5948.02
744.841	5936.95
745.181	5990.28
745.52	5994.8
745.86	6087.45
746.199	6095.36
746.538	6092.42
746.877	6148.47
747.216	6192.76
747.556	6174.46
747.895	6185.76
748.234	6237.28
748.573	6241.12
748.911	6236.38
749.25	6326.09
749.589	6315.24
749.928	6365.86
750.267	6460.78
750.605	6491.51
750.944	6510.27
751.283	6583.71
751.621	6658.29
751.96	6697.38
752.298	6721.79
752.636	6837.26
752.975	6879.97
753.313	6875.23
753.651	7052.17
753.989	7126.07
754.327	7154.54
754.666	7209.91
755.004	7352.73
755.342	7452.16
755.679	7504.14
756.017	7550.69
756.355	7745.71
756.693	7783.91
757.031	7882.21
757.368	7889.21
757.706	8010.11
758.044	8129.89
758.381	8227.28
758.719	8384.79
759.056	8482.42
759.394	8589.08
759.731	8659.36
760.068	8780.72
760.405	8910.43
760.743	8940.94
761.08	9123.98
761.417	9218.9
761.754	9333.02
762.091	9481.26
762.428	9547.02
762.765	9644.2
763.102	9782.72
763.438	9878.54
763.775	9925.32
764.112	10144.75
764.449	10307.23
764.785	10322.14
765.122	10497.51
765.458	10497.28
765.795	10622.93
766.131	10819.98
766.467	10861.56
766.804	10941.34
767.14	11020.43
767.476	11113.76
767.812	11146.3
768.148	11358.27
768.485	11398.73
768.821	11440.31
769.157	11574.99
