Data from hue_230_FLMS001491_00080.txt Node
Date: Tue Feb 07 16:37:44 GMT 2017
User: dcchb
Spectrometer: FLMS00149
Trigger mode: 0
Integration Time (sec): 2.000000E-2
Scans to average: 10
Electric dark correction enabled: true
Nonlinearity correction enabled: false
Boxcar width: 0
XAxis mode: Wavelengths
Number of Pixels in Spectrum: 2048
>>>>>Begin Spectral Data<<<<<
341.393	-19.86
341.776	-19.86
342.16	-19.86
342.543	-81.55
342.927	-67.77
343.31	-58.73
343.693	-54.66
344.077	-60.08
344.46	-59.18
344.843	-53.08
345.226	-42.46
345.61	-30.03
345.993	-30.93
346.376	-3.59
346.759	12.23
347.142	22.85
347.525	25.34
347.908	61.04
348.291	66.92
348.674	96.75
349.057	107.6
349.44	128.61
349.823	128.61
350.206	152.34
350.588	172.91
350.971	215.62
351.354	200.7
351.737	232.34
352.119	241.38
352.502	264.2
352.884	280.02
353.267	278.44
353.65	294.94
354.032	306.01
354.414	298.55
354.797	313.01
355.179	311.43
355.562	294.03
355.944	350.53
356.326	327.48
356.709	325.44
357.091	335.61
357.473	312.11
357.855	334.03
358.238	329.06
358.62	312.11
359.002	354.14
359.384	327.7
359.766	312.11
360.148	314.14
360.53	329.29
360.912	323.18
361.294	345.78
361.676	329.29
362.057	327.93
362.439	320.92
362.821	324.54
363.203	322.96
363.584	293.58
363.966	305.33
364.348	312.56
364.729	332.67
365.111	330.42
365.493	303.98
365.874	316.63
366.256	310.75
366.637	303.75
367.019	283.18
367.4	318.21
367.781	303.98
368.163	288.61
368.544	294.71
368.925	281.15
369.306	293.81
369.688	284.09
370.069	301.26
370.45	319.12
370.831	308.95
371.212	310.53
371.593	316.18
371.974	298.33
372.355	302.85
372.736	302.17
373.117	306.91
373.498	311.88
373.879	316.18
374.26	320.92
374.641	296.52
375.021	306.91
375.402	298.1
375.783	300.13
376.163	332.22
376.544	308.95
376.925	319.34
377.305	350.75
377.686	320.47
378.066	329.96
378.447	315.05
378.827	324.31
379.208	301.26
379.588	311.43
379.968	316.86
380.349	335.39
380.729	335.61
381.109	301.72
381.489	336.06
381.87	322.96
382.25	326.12
382.63	315.73
383.01	334.71
383.39	325.44
383.77	331.77
384.15	326.57
384.53	330.64
384.91	339.68
385.29	341.26
385.67	322.51
386.049	343.97
386.429	335.39
386.809	338.78
387.189	348.04
387.568	338.1
387.948	359.57
388.328	359.34
388.707	348.04
389.087	340.36
389.466	346.69
389.846	355.27
390.225	341.49
390.605	350.08
390.984	367.25
391.363	363.18
391.743	339.45
392.122	356.63
392.501	370.41
392.881	390.98
393.26	395.5
393.639	359.79
394.018	364.09
394.397	357.08
394.776	376.29
395.155	374.93
395.534	371.32
395.913	386.68
396.292	387.59
396.671	364.99
397.05	384.88
397.429	378.78
397.808	395.72
398.186	391.66
398.565	395.95
398.944	416.74
399.323	426.68
399.701	393.92
400.08	413.12
400.458	415.84
400.837	394.82
401.215	407.48
401.594	414.71
401.972	398.21
402.351	407.25
402.729	399.34
403.107	427.14
403.486	430.98
403.864	427.59
404.242	406.12
404.62	440.47
404.999	416.97
405.377	448.15
405.755	437.98
406.133	445.89
406.511	423.75
406.889	451.77
407.267	460.58
407.645	478.21
408.023	450.19
408.401	460.81
408.779	465.78
409.156	475.27
409.534	472.78
409.912	462.39
410.29	496.74
410.667	500.81
411.045	505.1
411.422	489.73
411.8	509.39
412.178	517.53
412.555	546
412.933	526.34
413.31	560.47
413.687	544.87
414.065	560.92
414.442	547.58
414.819	536.29
415.197	589.84
415.574	572.22
415.951	573.57
416.328	595.27
416.705	602.5
417.082	617.87
417.46	586.68
417.837	604.76
418.214	611.54
418.591	630.97
418.967	641.59
419.344	658.99
419.721	612.44
420.098	672.78
420.475	654.93
420.852	670.29
421.228	684.76
421.605	698.54
421.982	691.99
422.358	684.76
422.735	704.64
423.111	735.6
423.488	735.15
423.864	723.17
424.241	782.83
424.617	730.63
424.994	775.38
425.37	781.7
425.746	772.66
426.123	801.59
426.499	796.17
426.875	826.45
427.251	828.03
427.627	860.34
428.003	874.81
428.379	870.29
428.756	856.73
429.132	868.03
429.507	891.76
429.883	896.28
430.259	909.16
430.635	908.7
431.011	908.03
431.387	958.65
431.763	959.55
432.138	954.81
432.514	988.02
432.89	1004.97
433.265	992.54
433.641	1001.58
434.016	1025.31
434.392	1039.32
434.767	1087.68
435.143	1055.59
435.518	1098.76
435.894	1093.11
436.269	1129.72
436.644	1160.68
437.02	1144.63
437.395	1167.68
437.77	1177.4
438.145	1218.53
438.52	1217.85
438.895	1256.04
439.271	1250.39
439.646	1271.86
440.021	1279.99
440.395	1301.69
440.77	1310.05
441.145	1315.25
441.52	1326.1
441.895	1332.65
442.27	1361.12
442.645	1371.74
443.019	1391.63
443.394	1382.36
443.769	1409.71
444.143	1409.48
444.518	1398.18
444.892	1435.7
445.267	1465.53
445.641	1487.67
446.016	1459.65
446.39	1463.49
446.764	1512.98
447.139	1508.92
447.513	1516.37
447.887	1499.2
448.262	1521.57
448.636	1512.76
449.01	1543.94
449.384	1553.21
449.758	1583.94
450.132	1581.23
450.506	1596.82
450.88	1625.97
451.254	1599.53
451.628	1645.41
452.002	1669.36
452.376	1644.28
452.75	1673.88
453.123	1672.75
453.497	1698.74
453.871	1750.72
454.244	1755.24
454.618	1734.22
454.992	1786.42
455.365	1813.09
455.739	1849.7
456.112	1860.32
456.486	1880.88
456.859	1875.01
457.232	1891.73
457.606	1916.59
457.979	1919.07
458.352	1948.45
458.725	1972.86
459.099	1954.55
459.472	2034.33
459.845	2045.62
460.218	2052.63
460.591	2063.93
460.964	2043.14
461.337	2134.21
461.71	2132.4
462.083	2165.62
462.456	2182.12
462.829	2201.55
463.201	2228.9
463.574	2224.83
463.947	2256.69
464.32	2366.97
464.692	2345.5
465.065	2323.36
465.438	2366.52
465.81	2393.86
466.183	2434.77
466.555	2477.25
466.928	2494.43
467.3	2460.53
467.672	2500.08
468.045	2592.28
468.417	2589.11
468.789	2588.89
469.161	2658.94
469.534	2702.78
469.906	2708.66
470.278	2750.92
470.65	2778.49
471.022	2808.32
471.394	2822.33
471.766	2873.63
472.138	2903.68
472.51	2950.46
472.882	2949.78
473.253	3033.17
473.625	3065.48
473.997	3128.76
474.369	3127.18
474.74	3160.4
475.112	3184.58
475.484	3249.89
475.855	3274.97
476.227	3336.44
476.598	3379.83
476.97	3429.54
477.341	3521.29
477.713	3498.69
478.084	3550.9
478.455	3640.61
478.827	3674.96
479.198	3762.19
479.569	3736.2
479.94	3844.9
480.311	3892.58
480.682	3939.81
481.053	4025.23
481.424	4074.05
481.795	4136.87
482.166	4196.75
482.537	4193.59
482.908	4268.62
483.279	4322.63
483.65	4332.12
484.021	4444.21
484.391	4468.39
484.762	4530.98
485.133	4560.13
485.503	4666.35
485.874	4696.18
486.244	4801.26
486.615	4832.22
486.985	4872.44
487.356	4944.98
487.726	4965.77
488.097	5071.31
488.467	5060.23
488.837	5156.05
489.207	5194.24
489.578	5349.94
489.948	5327.12
490.318	5356.72
490.688	5398.3
491.058	5507.23
491.428	5523.95
491.798	5564.63
492.168	5702.93
492.538	5651.86
492.908	5709.93
493.278	5829.03
493.648	5784.96
494.017	5836.26
494.387	5937.95
494.757	5952.64
495.126	6029.93
495.496	5968.91
495.866	6031.06
496.235	6058.85
496.605	6170.04
496.974	6217.49
497.344	6221.11
497.713	6201.22
498.082	6257.04
498.452	6269.24
498.821	6355.34
499.19	6343.36
499.559	6420.42
499.928	6405.06
500.298	6485.51
500.667	6440.76
501.036	6545.84
501.405	6573.19
501.774	6525.05
502.143	6626.75
502.512	6628.78
502.88	6652.73
503.249	6686.86
503.618	6667.88
503.987	6679.63
504.356	6711.04
504.724	6833.07
505.093	6730.7
505.462	6787.42
505.83	6847.08
506.199	6838.27
506.567	6933.63
506.936	6908.1
507.304	6959.62
507.672	6967.53
508.041	7013.86
508.409	7058.83
508.777	7091.59
509.145	7120.29
509.514	7095.66
509.882	7108.09
510.25	7141.76
510.618	7134.53
510.986	7190.8
511.354	7188.77
511.722	7221.99
512.09	7301.98
512.458	7292.94
512.826	7313.73
513.193	7307.18
513.561	7305.37
513.929	7324.36
514.297	7377.69
514.664	7402.77
515.032	7396.22
515.4	7438.02
515.767	7431.47
516.135	7446.39
516.502	7408.65
516.869	7508.98
517.237	7532.49
517.604	7457.01
517.972	7578.13
518.339	7631.92
518.706	7504.69
519.073	7585.59
519.44	7615.87
519.808	7647.74
520.175	7637.12
520.542	7699.26
520.909	7643.44
521.276	7693.84
521.643	7734.51
522.009	7776.09
522.376	7735.19
522.743	7774.29
523.11	7853.16
523.477	7876.43
523.843	7794.63
524.21	7910.1
524.577	7975.64
524.943	7896.77
525.31	7930.67
525.676	7941.29
526.043	7929.09
526.409	7940.38
526.776	8018.35
527.142	8071.68
527.508	8044.56
527.874	8044.11
528.241	8088.18
528.607	8072.13
528.973	8064
529.339	8027.84
529.705	8130.66
530.071	8128.18
530.437	8091.11
530.803	8159.14
531.169	8122.3
531.535	8170.66
531.901	8102.64
532.267	8173.15
532.632	8229.42
532.998	8119.36
533.364	8179.7
533.73	8121.17
534.095	8171.56
534.461	8135.86
534.826	8165.24
535.192	8238
535.557	8290.88
535.923	8193.49
536.288	8176.99
536.653	8201.17
537.019	8160.49
537.384	8139.02
537.749	8096.99
538.114	8113.04
538.479	8109.42
538.845	8127.5
539.21	8066.93
539.575	8132.92
539.94	8143.77
540.305	8069.87
540.67	8108.97
541.034	8064.67
541.399	8118.68
541.764	8077.1
542.129	8065.35
542.494	8049.31
542.858	8025.58
543.223	8061.51
543.587	8058.35
543.952	7944.23
544.316	8007.28
544.681	7980.84
545.045	8003.66
545.41	8009.08
545.774	8038.23
546.138	7918.24
546.503	7976.77
546.867	7972.7
547.231	8071
547.595	8003.66
547.959	7959.82
548.324	7872.82
548.688	7954.4
549.052	7915.07
549.416	7831.01
549.779	7869.65
550.143	7858.35
550.507	7885.47
550.871	7883.89
551.235	7887.28
551.599	7878.47
551.962	7842.31
552.326	7911.91
552.689	7908.07
553.053	7803.66
553.417	7794.85
553.78	7848.18
554.143	7868.97
554.507	7814.96
554.87	7864.45
555.234	7881.18
555.597	7872.82
555.96	7795.08
556.323	7838.01
556.686	7803.89
557.05	7880.72
557.413	7803.21
557.776	7807.28
558.139	7835.3
558.502	7821.29
558.865	7819.94
559.228	7875.75
559.59	7862.87
559.953	7882.53
560.316	7895.87
560.679	7905.81
561.041	8016.09
561.404	8001.85
561.767	7966.82
562.129	7892.7
562.492	7972.7
562.854	7970.67
563.217	7901.97
563.579	7954.85
563.941	7974.96
564.304	7963.21
564.666	8054.05
565.028	8064.45
565.39	8026.71
565.753	8052.7
566.115	8029.2
566.477	8066.93
566.839	8075.52
567.201	8095.63
567.563	8141.51
567.925	8145.35
568.287	8232.58
568.648	8176.31
569.01	8187.84
569.372	8226.7
569.734	8239.13
570.095	8249.98
570.457	8265.12
570.819	8293.6
571.18	8279.13
571.542	8374.5
571.903	8249.75
572.265	8378.57
572.626	8374.05
572.987	8409.07
573.349	8418.79
573.71	8389.64
574.071	8441.16
574.432	8473.7
574.794	8498.79
575.155	8505.79
575.516	8495.4
575.877	8524.1
576.238	8512.12
576.599	8589.86
576.96	8559.58
577.32	8532.01
577.681	8616.98
578.042	8641.61
578.403	8637.77
578.763	8642.51
579.124	8666.47
579.485	8668.05
579.845	8733.58
580.206	8701.04
580.566	8769.29
580.927	8790.31
581.287	8837.08
581.648	8776.75
582.008	8776.52
582.368	8839.12
582.728	8826.01
583.089	8810.42
583.449	8823.53
583.809	8901.26
584.169	8834.37
584.529	8853.81
584.889	8916.4
585.249	8881.83
585.609	8910.75
585.969	8920.92
586.329	8890.87
586.688	8923.64
587.048	8936.52
587.408	8918.44
587.768	8908.27
588.127	8915.05
588.487	8946.01
588.846	9059.23
589.206	8913.01
589.565	8996.85
589.925	9052.9
590.284	8957.08
590.643	9066.23
591.003	9115.95
591.362	9122.5
591.721	9051.09
592.08	9085.21
592.44	9011.09
592.799	9051.09
593.158	9070.3
593.517	9086.57
593.876	9112.78
594.235	9074.82
594.593	9106.68
594.952	9183.52
595.311	9108.26
595.67	9120.47
596.029	9199.33
596.387	9199.11
596.746	9209.96
597.104	9140.13
597.463	9145.55
597.822	9169.73
598.18	9139.22
598.538	9161.82
598.897	9204.31
599.255	9105.1
599.613	9295.6
599.972	9163.86
600.33	9279.33
600.688	9184.65
601.046	9257.86
601.404	9233.01
601.762	9297.41
602.12	9264.19
602.478	9377.41
602.836	9272.55
603.194	9275.49
603.552	9266.68
603.91	9312.55
604.268	9270.97
604.625	9266.45
604.983	9282.27
605.341	9295.15
605.698	9295.83
606.056	9269.16
606.413	9281.82
606.771	9389.16
607.128	9349.39
607.485	9334.7
607.843	9366.11
608.2	9378.31
608.557	9381.02
608.914	9317.07
609.272	9420.35
609.629	9433
609.986	9439.1
610.343	9382.38
610.7	9451.31
611.057	9400.23
611.414	9447.69
611.771	9408.59
612.127	9448.59
612.484	9487.24
612.841	9500.12
613.198	9445.66
613.554	9499.67
613.911	9518.2
614.267	9465.09
614.624	9490.85
614.98	9461.02
615.337	9562.04
615.693	9558.42
616.05	9526.33
616.406	9581.25
616.762	9546.9
617.118	9571.53
617.475	9491.53
617.831	9524.07
618.187	9606.33
618.543	9597.52
618.899	9697.63
619.255	9680.23
619.611	9636.39
619.967	9679.1
620.323	9680.23
620.678	9579.89
621.034	9638.19
621.39	9663.5
621.746	9585.54
622.101	9746.44
622.457	9662.6
622.812	9649.49
623.168	9699.21
623.523	9657.63
623.879	9693.78
624.234	9662.15
624.589	9608.36
624.945	9692.2
625.3	9690.17
625.655	9661.24
626.01	9629.83
626.365	9707.8
626.72	9624.41
627.075	9612.88
627.43	9661.02
627.785	9628.48
628.14	9650.62
628.495	9680
628.85	9676.16
629.205	9614.92
629.559	9640.9
629.914	9588.48
630.269	9605.43
630.623	9562.71
630.978	9524.75
631.332	9567.46
631.687	9640.68
632.041	9548.93
632.396	9542.6
632.75	9513
633.104	9550.29
633.459	9479.33
633.813	9546.67
634.167	9510.51
634.521	9481.36
634.875	9456.05
635.229	9492.21
635.583	9371.31
635.937	9369.73
636.291	9437.75
636.645	9383.74
636.999	9376.73
637.352	9300.12
637.706	9364.98
638.06	9480.23
638.413	9398.88
638.767	9337.86
639.121	9319.33
639.474	9267.13
639.828	9283.4
640.181	9288.6
640.534	9308.71
640.888	9261.48
641.241	9234.36
641.594	9235.04
641.947	9264.19
642.301	9220.58
642.654	9259.45
643.007	9202.5
643.36	9320.91
643.713	9237.53
644.066	9229.62
644.419	9146.91
644.771	9103.07
645.124	9060.58
645.477	9117.53
645.83	8978.1
646.182	8907.36
646.535	8934.71
646.888	8949.17
647.24	8872.56
647.593	8890.64
647.945	8899.91
648.298	8876.86
648.65	8872.11
649.002	8825.78
649.355	8843.41
649.707	8859.23
650.059	8876.18
650.411	9038.66
650.763	9000.92
651.115	9096.96
651.467	9084.08
651.819	9076.63
652.171	9063.97
652.523	9052.9
652.875	9077.53
653.227	9034.14
653.578	9057.87
653.93	9044.08
654.282	9046.12
654.633	9073.91
654.985	8994.82
655.337	9039.79
655.688	9028.27
656.039	9099.9
656.391	9019.23
656.742	9035.95
657.094	8987.14
657.445	9036.17
657.796	8974.71
658.147	9040.47
658.498	9039.79
658.849	9064.65
659.2	9060.58
659.551	9010.41
659.902	9063.07
660.253	8980.81
660.604	9050.86
660.955	9025.1
661.306	9099.22
661.656	9088.83
662.007	9073.69
662.358	9088.6
662.708	9039.11
663.059	8956.85
663.409	8996.18
663.76	9115.72
664.11	9099.9
664.461	9114.14
664.811	9060.13
665.161	9044.76
665.511	9047.93
665.862	9017.87
666.212	9059.45
666.562	9115.04
666.912	9072.78
667.262	9059.45
667.612	9033.92
667.962	9050.64
668.312	9054.71
668.662	9092.9
669.011	9108.26
669.361	9065.33
669.711	9052.45
670.06	9040.69
670.41	8969.06
670.76	9042.95
671.109	9033.92
671.459	9009.51
671.808	8957.08
672.157	8986.68
672.507	9044.08
672.856	8970.41
673.205	8951.21
673.554	9021.71
673.904	8962.5
674.253	8997.76
674.602	8914.14
674.951	8885.9
675.3	8775.39
675.649	8888.61
675.998	8962.96
676.346	9025.78
676.695	8913.24
677.044	8904.65
677.393	8900.13
677.741	8962.5
678.09	8941.94
678.438	8884.09
678.787	8877.76
679.135	8863.52
679.484	8792.79
679.832	8796.63
680.181	8757.31
680.529	8783.98
680.877	8744.21
681.225	8757.31
681.573	8844.09
681.922	8711.89
682.27	8736.75
682.618	8678.67
682.966	8715.05
683.314	8624.43
683.661	8644.77
684.009	8571.78
684.357	8633.02
684.705	8535.17
685.053	8662.17
685.4	8560.03
685.748	8509.18
686.095	8515.96
686.443	8562.97
686.79	8487.04
687.138	8465.12
687.485	8529.52
687.832	8517.09
688.18	8458.11
688.527	8424.44
688.874	8415.4
689.221	8375.63
689.568	8357.32
689.915	8323.43
690.262	8304.67
690.609	8338.11
690.956	8238.91
691.303	8254.5
691.65	8224.67
691.997	8199.81
692.344	8138.57
692.69	8188.97
693.037	8138.12
693.383	8064.9
693.73	8131.34
694.077	8093.83
694.423	8065.58
694.769	8053.6
695.116	7965.24
695.462	7923.44
695.808	7921.18
696.155	7905.81
696.501	7858.58
696.847	7840.27
697.193	7741.75
697.539	7800.5
697.885	7761.86
698.231	7747.17
698.577	7728.86
698.923	7661.07
699.269	7674.18
699.614	7636.89
699.96	7589.43
700.306	7577.46
700.651	7567.29
700.997	7528.64
701.342	7518.93
701.688	7466.72
702.033	7464.69
702.379	7504.24
702.724	7412.71
703.069	7462.43
703.415	7383.56
703.76	7299.72
704.105	7325.94
704.45	7308.54
704.795	7251.14
705.14	7176.34
705.485	7282.1
705.83	7196
706.175	7213.4
706.52	7216.34
706.865	7146.96
707.209	7162.78
707.554	7081.88
707.899	7120.97
708.243	7077.13
708.588	7036.68
708.932	7021.76
709.277	6989.22
709.621	6996
709.966	6991.03
710.31	6972.5
710.654	6929.79
710.998	6951.03
711.342	6912.61
711.687	6868.32
712.031	6882.33
712.375	6842.79
712.719	6858.38
713.063	6857.7
713.407	6856.57
713.75	6810.92
714.094	6774.09
714.438	6773.64
714.782	6865.61
715.125	6779.06
715.469	6773.64
715.812	6699.06
716.156	6703.81
716.499	6741.55
716.843	6678.27
717.186	6666.75
717.53	6685.28
717.873	6661.77
718.216	6684.15
718.559	6642.11
718.902	6627.2
719.246	6641.89
719.589	6618.39
719.932	6558.95
720.275	6556.47
720.617	6594.66
720.96	6516.92
721.303	6530.7
721.646	6576.35
721.989	6566.64
722.331	6587.2
722.674	6545.62
723.016	6510.82
723.359	6546.75
723.701	6513.76
724.044	6527.99
724.386	6442.12
724.729	6549.69
725.071	6550.36
725.413	6482.12
725.755	6522.34
726.097	6514.66
726.439	6430.14
726.782	6389.01
727.124	6445.06
727.465	6439.86
727.807	6389.24
728.149	6415.68
728.491	6372.52
728.833	6443.02
729.175	6361.44
729.516	6384.27
729.858	6401.89
730.199	6335.45
730.541	6351.05
730.882	6354.21
731.224	6412.06
731.565	6348.11
731.906	6401.22
732.248	6450.03
732.589	6317.6
732.93	6340.2
733.271	6408.45
733.612	6367.54
733.953	6377.04
734.294	6414.55
734.635	6380.65
734.976	6377.71
735.317	6356.92
735.658	6394.21
735.999	6349.47
736.339	6418.62
736.68	6400.99
737.021	6381.56
737.361	6341.33
737.702	6363.7
738.042	6358.28
738.383	6369.13
738.723	6399.86
739.063	6357.38
739.404	6396.02
739.744	6372.97
740.084	6355.57
740.424	6394.66
740.764	6394.66
741.104	6475.34
741.444	6412.97
741.784	6417.49
742.124	6426.75
742.464	6471.72
742.804	6404.83
743.143	6438.5
743.483	6473.98
743.823	6483.93
744.162	6489.58
744.502	6526.18
744.841	6505.85
745.181	6602.79
745.52	6566.18
745.86	6591.95
746.199	6581.32
746.538	6650.02
746.877	6746.52
747.216	6707.65
747.556	6720.53
747.895	6729.12
748.234	6792.84
748.573	6828.55
748.911	6896.12
749.25	6920.52
749.589	6945.38
749.928	7012.5
750.267	7089.33
750.605	7103.34
750.944	7173.85
751.283	7148.99
751.621	7266.05
751.96	7280.29
752.298	7355.77
752.636	7364.35
752.975	7431.7
753.313	7517.12
753.651	7609.32
753.989	7662.65
754.327	7685.93
754.666	7743.55
755.004	7936.77
755.342	7974.51
755.679	8083.43
756.017	8114.39
756.355	8261.51
756.693	8314.84
757.031	8400.26
757.368	8539.01
757.706	8605.9
758.044	8682.74
758.381	8872.34
758.719	8860.13
759.056	9002.05
759.394	9151.88
759.731	9202.5
760.068	9345.77
760.405	9423.74
760.743	9502.38
761.08	9666.44
761.417	9762.26
761.754	9887.68
762.091	9952.08
762.428	10071.18
762.765	10116.37
763.102	10361.11
763.438	10442.01
763.775	10446.53
764.112	10607.88
764.449	10769.01
764.785	10797.26
765.122	10879.97
765.458	10939.18
765.795	11061.43
766.131	11256.68
766.467	11364.25
766.804	11374.64
767.14	11418.49
767.476	11560.4
767.812	11629.1
768.148	11769.66
768.485	11758.36
768.821	11778.48
