Data from hue_230_FLMS001491_00031.txt Node
Date: Tue Feb 07 16:37:07 GMT 2017
User: dcchb
Spectrometer: FLMS00149
Trigger mode: 0
Integration Time (sec): 2.000000E-2
Scans to average: 10
Electric dark correction enabled: true
Nonlinearity correction enabled: false
Boxcar width: 0
XAxis mode: Wavelengths
Number of Pixels in Spectrum: 2048
>>>>>Begin Spectral Data<<<<<
341.393	-27.36
341.776	-27.36
342.16	-27.36
342.543	-53.12
342.927	-82.95
343.31	-51.09
343.693	-66.23
344.077	-53.8
344.46	-67.81
344.843	-53.8
345.226	-44.76
345.61	-23.52
345.993	-18.77
346.376	-9.51
346.759	13.09
347.142	35.01
347.525	28.69
347.908	62.58
348.291	64.39
348.674	85.41
349.057	100.1
349.44	137.16
349.823	151.62
350.206	148
350.588	174.67
350.971	204.05
351.354	211.05
351.737	220.32
352.119	260.54
352.502	263.03
352.884	249.7
353.267	281.56
353.65	305.74
354.032	285.85
354.414	288.34
354.797	314.78
355.179	325.18
355.562	330.6
355.944	329.92
356.326	321.33
356.709	333.31
357.091	323.59
357.473	351.39
357.855	352.29
358.238	354.33
358.62	330.15
359.002	340.54
359.384	325.18
359.766	331.28
360.148	324.27
360.53	335.12
360.912	325.63
361.294	315.68
361.676	341.22
362.057	334.44
362.439	348.68
362.821	330.15
363.203	315.23
363.584	307.1
363.966	312.75
364.348	332.18
364.729	307.32
365.111	313.42
365.493	320.66
365.874	306.42
366.256	316.59
366.637	316.59
367.019	316.14
367.4	312.97
367.781	274.78
368.163	291.05
368.544	308.9
368.925	303.48
369.306	310.49
369.688	322.92
370.069	303.71
370.45	297.38
370.831	309.36
371.212	291.5
371.593	324.5
371.974	313.88
372.355	314.1
372.736	309.58
373.117	308.23
373.498	317.27
373.879	316.36
374.26	321.56
374.641	290.37
375.021	318.4
375.402	318.17
375.783	305.29
376.163	315.91
376.544	324.95
376.925	318.4
377.305	318.17
377.686	301.67
378.066	302.12
378.447	314.55
378.827	340.09
379.208	331.5
379.588	334.67
379.968	338.28
380.349	334.21
380.729	325.63
381.109	329.69
381.489	337.15
381.87	311.62
382.25	317.94
382.63	327.66
383.01	329.47
383.39	332.63
383.77	344.38
384.15	336.47
384.53	313.65
384.91	329.24
385.29	344.61
385.67	332.41
386.049	347.1
386.429	345.97
386.809	310.71
387.189	345.06
387.568	340.99
387.948	362.01
388.328	355.91
388.707	349.13
389.087	361.78
389.466	347.77
389.846	333.99
390.225	359.52
390.605	373.08
390.984	353.2
391.363	349.36
391.743	352.97
392.122	365.85
392.501	365.63
392.881	358.17
393.26	345.74
393.639	387.55
394.018	364.72
394.397	362.91
394.776	379.41
395.155	382.57
395.534	391.39
395.913	385.74
396.292	378.28
396.671	383.48
397.05	388
397.429	378.28
397.808	374.44
398.186	404.95
398.565	398.85
398.944	393.87
399.323	391.39
399.701	385.51
400.08	385.96
400.458	415.57
400.837	399.75
401.215	412.18
401.594	406.75
401.972	409.92
402.351	429.35
402.729	416.92
403.107	429.13
403.486	411.27
403.864	425.96
404.242	416.92
404.62	434.32
404.999	428.9
405.377	447.21
405.755	440.88
406.133	409.24
406.511	457.37
406.889	432.97
407.267	445.4
407.645	464.38
408.023	474.55
408.401	479.07
408.779	491.72
409.156	473.65
409.534	484.72
409.912	504.83
410.29	531.95
410.667	499.63
411.045	511.16
411.422	527.88
411.8	536.24
412.178	531.72
412.555	559.75
412.933	538.05
413.31	558.62
413.687	563.36
414.065	563.13
414.442	552.74
414.819	607.88
415.197	574.43
415.574	602.23
415.951	600.2
416.328	599.07
416.705	604.26
417.082	625.51
417.46	614.43
417.837	629.12
418.214	629.35
418.591	637.94
418.967	675.45
419.344	658.73
419.721	665.96
420.098	668.67
420.475	688.78
420.852	705.5
421.228	691.27
421.605	710.02
421.982	690.36
422.358	718.16
422.735	740.08
423.111	741.66
423.488	751.38
423.864	764.26
424.241	789.8
424.617	800.42
424.994	786.41
425.37	805.16
425.746	825.5
426.123	802
426.499	812.62
426.875	847.2
427.251	858.72
427.627	871.6
428.003	891.94
428.379	878.83
428.756	903.46
429.132	928.32
429.507	905.05
429.883	920.41
430.259	936.91
430.635	964.93
431.011	943.69
431.387	975.78
431.763	986.17
432.138	964.48
432.514	1017.81
432.89	1021.43
433.265	1062.33
433.641	1051.94
434.016	1072.95
434.392	1072.5
434.767	1123.12
435.143	1130.13
435.518	1137.13
435.894	1140.29
436.269	1184.36
436.644	1185.94
437.02	1189.11
437.395	1214.87
437.77	1217.81
438.145	1247.41
438.52	1278.82
438.895	1303
439.271	1257.81
439.646	1333.51
440.021	1313.62
440.395	1358.82
440.77	1337.58
441.145	1363.79
441.52	1403.34
441.895	1383
442.27	1416.67
442.645	1427.29
443.019	1418.71
443.394	1451.25
443.769	1439.72
444.143	1455.54
444.518	1471.81
444.892	1512.94
445.267	1519.72
445.641	1543.9
446.016	1528.08
446.39	1553.62
446.764	1578.25
447.139	1557.91
447.513	1543.22
447.887	1579.83
448.262	1594.97
448.636	1589.55
449.01	1608.31
449.384	1614.63
449.758	1632.49
450.132	1667.29
450.506	1683.33
450.88	1679.26
451.254	1672.48
451.628	1706.61
452.002	1727.4
452.376	1781.63
452.75	1754.06
453.123	1770.11
453.497	1764.23
453.871	1786.15
454.244	1829.54
454.618	1845.59
454.992	1851.01
455.365	1838.81
455.739	1917
456.112	1925.81
456.486	1918.35
456.859	1952.93
457.232	1982.08
457.606	1999.03
457.979	1978.92
458.352	2085.35
458.725	2068.41
459.099	2074.96
459.472	2089.87
459.845	2138.69
460.218	2140.04
460.591	2130.55
460.964	2193.15
461.337	2201.06
461.71	2230.89
462.083	2272.69
462.456	2281.96
462.829	2266.37
463.201	2318.57
463.574	2340.72
463.947	2336.42
464.32	2376.42
464.692	2392.01
465.065	2439.24
465.438	2469.98
465.81	2487.15
466.183	2474.05
466.555	2569.86
466.928	2553.14
467.3	2571.67
467.672	2623.42
468.045	2705.45
468.417	2696.64
468.789	2690.31
469.161	2737.09
469.534	2776.18
469.906	2810.99
470.278	2854.83
470.65	2867.03
471.022	2870.42
471.394	2972.56
471.766	2963.75
472.138	2972.34
472.51	3057.31
472.882	3105.44
473.253	3141.6
473.625	3161.26
473.997	3196.74
474.369	3257.98
474.74	3274.25
475.112	3366
475.484	3380.46
475.855	3411.42
476.227	3440.12
476.598	3525.32
476.97	3544.53
477.341	3617.29
477.713	3647.57
478.084	3671.98
478.455	3797.85
478.827	3785.42
479.198	3916.72
479.569	3867
479.94	3987.9
480.311	4023.83
480.682	4122.36
481.053	4182.93
481.424	4234.45
481.795	4210.27
482.166	4286.2
482.537	4373.66
482.908	4396.03
483.279	4506.08
483.65	4538.4
484.021	4613.65
484.391	4645.06
484.762	4734.78
485.133	4740.65
485.503	4775.68
485.874	4887.54
486.244	4915.79
486.615	5007.76
486.985	4993.53
487.356	5090.47
487.726	5126.4
488.097	5224.48
488.467	5207.76
488.837	5368.66
489.207	5381.09
489.578	5472.16
489.948	5507.64
490.318	5541.99
490.688	5548.99
491.058	5667.86
491.428	5764.81
491.798	5774.3
492.168	5819.04
492.538	5901.75
492.908	5942.88
493.278	6010.45
493.648	5966.16
494.017	6043.89
494.387	6111.92
494.757	6111.46
495.126	6237.11
495.496	6201.4
495.866	6210.44
496.235	6300.61
496.605	6323.44
496.974	6369.76
497.344	6416.54
497.713	6427.61
498.082	6456.31
498.452	6529.31
498.821	6527.95
499.19	6567.95
499.559	6614.28
499.928	6642.98
500.298	6657.44
500.667	6692.47
501.036	6684.78
501.405	6747.38
501.774	6803.87
502.143	6826.02
502.512	6784.44
502.88	6860.82
503.249	6899.24
503.618	6895.85
503.987	6964.55
504.356	6979.69
504.724	7046.81
505.093	7040.7
505.462	7008.16
505.83	7110.76
506.199	7067.37
506.567	7193.92
506.936	7058.11
507.304	7198.21
507.672	7198.21
508.041	7257.2
508.409	7229.4
508.777	7316.18
509.145	7334.03
509.514	7318.89
509.882	7367.93
510.25	7345.78
510.618	7419.23
510.986	7407.47
511.354	7429.62
511.722	7446.12
512.09	7538.32
512.458	7490.64
512.826	7546.68
513.193	7523.4
513.561	7532.67
513.929	7567.24
514.297	7678.2
514.664	7626.68
515.032	7673
515.4	7807.69
515.767	7687.47
516.135	7776.05
516.502	7716.17
516.869	7756.84
517.237	7797.52
517.604	7764.08
517.972	7810.4
518.339	7821.48
518.706	7849.05
519.073	7835.26
519.44	7866.45
519.808	7904.86
520.175	7869.16
520.542	7934.47
520.909	7997.06
521.276	7899.67
521.643	7968.82
522.009	7986.22
522.376	7937.86
522.743	8034.35
523.11	8085.42
523.477	8124.97
523.843	8148.02
524.21	8209.26
524.577	8200.9
524.943	8177.85
525.31	8158.42
525.676	8229.6
526.043	8267.34
526.409	8302.37
526.776	8351.18
527.142	8276.15
527.508	8298.52
527.874	8337.85
528.241	8315.02
528.607	8348.24
528.973	8402.7
529.339	8378.97
529.705	8407.22
530.071	8444.28
530.437	8417.39
530.803	8409.03
531.169	8407.9
531.535	8388.24
531.901	8413.32
532.267	8425.75
532.632	8393.21
532.998	8442.02
533.364	8425.53
533.73	8393.44
534.095	8457.39
534.461	8473.44
534.826	8437.05
535.192	8486.09
535.557	8524.06
535.923	8396.15
536.288	8470.95
536.653	8498.07
537.019	8433.21
537.384	8430.5
537.749	8456.26
538.114	8434.34
538.479	8348.47
538.845	8395.02
539.21	8313.89
539.575	8377.17
539.94	8374.91
540.305	8453.1
540.67	8329.94
541.034	8353.21
541.399	8387.56
541.764	8388.01
542.129	8337.62
542.494	8333.55
542.858	8303.04
543.223	8342.82
543.587	8386.88
543.952	8306.66
544.316	8270.05
544.681	8252.42
545.045	8215.59
545.41	8311.63
545.774	8264.18
546.138	8260.11
546.503	8315.7
546.867	8243.84
547.231	8295.36
547.595	8251.52
547.959	8189.6
548.324	8240
548.688	8171.97
549.052	8211.07
549.416	8178.98
549.779	8108.7
550.143	8177.85
550.507	8075.25
550.871	8148.25
551.235	8086.1
551.599	8174.91
551.962	8117.96
552.326	8106.67
552.689	8149.38
553.053	8035.48
553.417	8063.73
553.78	8100.79
554.143	8072.99
554.507	8103.5
554.87	8149.6
555.234	8132.88
555.597	8029.38
555.96	8127
556.323	8053.11
556.686	8111.64
557.05	8117.74
557.413	8060.56
557.776	8126.1
558.139	8055.37
558.502	8102.82
558.865	8089.72
559.228	8126.1
559.59	8076.16
559.953	8100.79
560.316	8204.97
560.679	8182.37
561.041	8151.64
561.404	8172.65
561.767	8168.81
562.129	8160.45
562.492	8175.82
562.854	8254.46
563.217	8183.27
563.579	8211.07
563.941	8291.97
564.304	8257.4
564.666	8296.04
565.028	8211.3
565.39	8266.89
565.753	8289.26
566.115	8273.89
566.477	8344.17
566.839	8322.03
567.201	8383.95
567.563	8442.93
567.925	8385.75
568.287	8435.47
568.648	8415.36
569.01	8454
569.372	8555.24
569.734	8506.65
570.095	8555.24
570.457	8504.85
570.819	8588.23
571.18	8530.38
571.542	8610.15
571.903	8597.5
572.265	8597.5
572.626	8593.43
572.987	8626.65
573.349	8629.14
573.71	8628.23
574.071	8694.45
574.432	8720.89
574.794	8741
575.155	8713.43
575.516	8754.56
575.877	8790.04
576.238	8731.28
576.599	8802.24
576.96	8805.86
577.32	8747.55
577.681	8850.15
578.042	8889.02
578.403	8850.37
578.763	8888.79
579.124	8850.6
579.485	8971.28
579.845	8978.73
580.206	8917.27
580.566	9046.3
580.927	8926.3
581.287	9082.01
581.648	9041.33
582.008	9012.4
582.368	9002.91
582.728	9043.82
583.089	9125.4
583.449	9142.8
583.809	9175.34
584.169	9143.7
584.529	9115.23
584.889	9213.53
585.249	9173.3
585.609	9166.98
585.969	9231.61
586.329	9218.27
586.688	9266.18
587.048	9226.64
587.408	9211.04
587.768	9227.54
588.127	9190.7
588.487	9188.22
588.846	9276.8
589.206	9274.32
589.565	9309.8
589.925	9304.15
590.284	9284.49
590.643	9320.42
591.003	9330.59
591.362	9383.24
591.721	9384.82
592.08	9371.49
592.44	9349.57
592.799	9394.09
593.158	9397.7
593.517	9400.42
593.876	9415.11
594.235	9377.37
594.593	9402.22
594.952	9451.71
595.311	9427.31
595.67	9455.56
596.029	9455.56
596.387	9456.01
596.746	9561.99
597.104	9538.49
597.463	9444.94
597.822	9501.66
598.18	9514.76
598.538	9482.22
598.897	9619.62
599.255	9495.33
599.613	9652.61
599.972	9567.64
600.33	9601.54
600.688	9578.94
601.046	9596.34
601.404	9683.35
601.762	9611.48
602.12	9672.27
602.478	9632.05
602.836	9613.52
603.194	9606.06
603.552	9612.16
603.91	9616
604.268	9622.33
604.625	9592.05
604.983	9609.22
605.341	9610.13
605.698	9689.22
606.056	9675.21
606.413	9653.97
606.771	9713.85
607.128	9671.37
607.485	9672.27
607.843	9691.71
608.2	9704.36
608.557	9751.37
608.914	9710.47
609.272	9746.85
609.629	9731.03
609.986	9769.9
610.343	9740.29
610.7	9776.9
611.057	9823
611.414	9700.75
611.771	9796.79
612.127	9749.11
612.484	9792.72
612.841	9773.06
613.198	9774.42
613.554	9795.21
613.911	9896.45
614.267	9828.2
614.624	9843.79
614.98	9945.49
615.337	9907.52
615.693	9848.99
616.05	9905.04
616.406	9897.8
616.762	9905.71
617.118	9927.63
617.475	9912.72
617.831	9973.51
618.187	9909.78
618.543	9969.89
618.899	10018.71
619.255	9964.47
619.611	9985.03
619.967	9990.68
620.323	9964.92
620.678	10010.57
621.034	9961.08
621.39	9933.28
621.746	10030.23
622.101	10101.19
622.457	9976.67
622.812	9973.06
623.168	10063
623.523	10023.23
623.879	10046.28
624.234	10038.14
624.589	10011.02
624.945	9982.32
625.3	10011.7
625.655	10023
626.01	10001.53
626.365	10006.95
626.72	9951.14
627.075	9988.65
627.43	10010.12
627.785	9974.64
628.14	9975.54
628.495	9980.74
628.85	9967.63
629.205	9927.18
629.559	10014.19
629.914	9968.76
630.269	9987.75
630.623	9956.33
630.978	9937.35
631.332	9966.05
631.687	9955.2
632.041	9852.16
632.396	9914.08
632.75	9827.52
633.104	9874.53
633.459	9813.97
633.813	9851.93
634.167	9824.36
634.521	9834.08
634.875	9856.9
635.229	9846.28
635.583	9788.43
635.937	9810.58
636.291	9781.2
636.645	9735.32
636.999	9715.21
637.352	9740.52
637.706	9725.83
638.06	9768.09
638.413	9730.13
638.767	9683.35
639.121	9676.34
639.474	9605.16
639.828	9626.4
640.181	9667.3
640.534	9630.92
640.888	9572.16
641.241	9591.15
641.594	9625.72
641.947	9618.94
642.301	9570.81
642.654	9606.74
643.007	9548.21
643.36	9611.26
643.713	9562.22
644.066	9579.17
644.419	9586.17
644.771	9529.45
645.124	9419.63
645.477	9415.11
645.83	9387.99
646.182	9327.42
646.535	9278.16
646.888	9261.89
647.24	9176.24
647.593	9301.66
647.945	9279.97
648.298	9196.81
648.65	9265.96
649.002	9134.66
649.355	9251.27
649.707	9197.94
650.059	9262.79
650.411	9419.63
650.763	9343.92
651.115	9498.49
651.467	9409.91
651.819	9470.47
652.171	9470.92
652.523	9390.93
652.875	9335.11
653.227	9410.36
653.578	9467.08
653.93	9404.26
654.282	9435.9
654.633	9381.21
654.985	9385.5
655.337	9422.79
655.688	9438.61
656.039	9435.22
656.391	9334.66
656.742	9409.46
657.094	9368.78
657.445	9448.33
657.796	9380.08
658.147	9390.02
658.498	9398.83
658.849	9426.18
659.2	9355.22
659.551	9396.12
659.902	9439.96
660.253	9391.6
660.604	9418.5
660.955	9431.38
661.306	9424.82
661.656	9461.66
662.007	9399.51
662.358	9421.43
662.708	9451.49
663.059	9453.07
663.409	9395.22
663.76	9433.18
664.11	9439.96
664.461	9445.16
664.811	9510.47
665.161	9457.36
665.511	9415.11
665.862	9451.71
666.212	9439.74
666.562	9437.7
666.912	9413.3
667.262	9403.35
667.612	9457.82
667.962	9498.95
668.312	9404.48
668.662	9469.34
669.011	9389.12
669.361	9400.87
669.711	9444.26
670.06	9417.14
670.41	9405.84
670.76	9372.85
671.109	9435.44
671.459	9386.86
671.808	9441.32
672.157	9350.7
672.507	9367.65
672.856	9345.73
673.205	9361.55
673.554	9372.17
673.904	9318.38
674.253	9386.63
674.602	9360.87
674.951	9200.2
675.3	9185.28
675.649	9316.35
675.998	9337.14
676.346	9247.65
676.695	9289.46
677.044	9275
677.393	9331.27
677.741	9317.48
678.09	9317.93
678.438	9277.26
678.787	9221.89
679.135	9233.42
679.484	9158.16
679.832	9250.36
680.181	9169.46
680.529	9170.82
680.877	9125.4
681.225	9150.71
681.573	9164.49
681.922	9062.8
682.27	9122.68
682.618	9076.36
682.966	9024.83
683.314	9084.49
683.661	9000.2
684.009	9024.61
684.357	8928.56
684.705	9018.05
685.053	9007.88
685.4	8890.83
685.748	8888.57
686.095	8968.79
686.443	8789.36
686.79	8852.41
687.138	8818.29
687.485	8869.13
687.832	8844.95
688.18	8831.17
688.527	8800.21
688.874	8721.56
689.221	8635.47
689.568	8638.4
689.915	8715.91
690.262	8686.09
690.609	8621
690.956	8548.91
691.303	8562.47
691.65	8559.31
691.997	8451.06
692.344	8525.41
692.69	8496.71
693.037	8411.06
693.383	8343.27
693.73	8384.85
694.077	8378.97
694.423	8367.9
694.769	8302.82
695.116	8317.96
695.462	8260.56
695.808	8219.43
696.155	8253.78
696.501	8162.71
696.847	8181.24
697.193	8085.42
697.539	8122.71
697.885	8094.46
698.231	8037.29
698.577	8031.87
698.923	8026.89
699.269	7948.25
699.614	7913.45
699.96	7880.68
700.306	7902.15
700.651	7857.41
700.997	7864.86
701.342	7812.66
701.688	7799.78
702.033	7797.75
702.379	7698.77
702.724	7686.34
703.069	7685.21
703.415	7595.72
703.76	7681.82
704.105	7588.49
704.45	7561.82
704.795	7514.82
705.14	7509.84
705.485	7486.12
705.83	7536.06
706.175	7448.15
706.52	7487.7
706.865	7404.31
707.209	7440.02
707.554	7330.87
707.899	7378.55
708.243	7344.65
708.588	7343.75
708.932	7262.39
709.277	7269.85
709.621	7303.3
709.966	7197.76
710.31	7195.95
710.654	7186.92
710.998	7167.03
711.342	7090.19
711.687	7124.54
712.031	7108.73
712.375	7102.17
712.719	7101.95
713.063	7120.25
713.407	7083.42
713.75	7020.37
714.094	7072.34
714.438	7017.65
714.782	6990.76
715.125	6948.28
715.469	7004.77
715.812	6969.07
716.156	6939.46
716.499	6949.18
716.843	6910.54
717.186	6916.87
717.53	6925.23
717.873	6898.79
718.216	6891.1
718.559	6911.67
718.902	6855.17
719.246	6828.51
719.589	6821.73
719.932	6807.04
720.275	6795.06
720.617	6807.94
720.96	6790.32
721.303	6814.27
721.646	6790.09
721.989	6755.97
722.331	6796.19
722.674	6774.5
723.016	6719.81
723.359	6738.11
723.701	6731.11
724.044	6711.45
724.386	6632.58
724.729	6744.44
725.071	6682.97
725.413	6769.75
725.755	6660.83
726.097	6678.45
726.439	6629.42
726.782	6628.06
727.124	6644.1
727.465	6701.73
727.807	6639.59
728.149	6610.89
728.491	6620.6
728.833	6644.78
729.175	6566.14
729.516	6635.97
729.858	6631.9
730.199	6632.58
730.541	6647.27
730.882	6637.1
731.224	6631.45
731.565	6614.05
731.906	6658.79
732.248	6585.58
732.589	6622.86
732.93	6576.99
733.271	6548.74
733.612	6577.21
733.953	6619.47
734.294	6569.76
734.635	6583.54
734.976	6579.93
735.317	6572.02
735.658	6568.4
735.999	6597.78
736.339	6577.89
736.68	6621.96
737.021	6561.85
737.361	6544.9
737.702	6566.82
738.042	6534.73
738.383	6547.61
738.723	6592.81
739.063	6563.88
739.404	6639.59
739.744	6588.74
740.084	6601.39
740.424	6588.06
740.764	6576.99
741.104	6680.71
741.444	6653.6
741.784	6658.34
742.124	6659.92
742.464	6658.79
742.804	6651.34
743.143	6719.81
743.483	6757.77
743.823	6710.09
744.162	6763.65
744.502	6769.53
744.841	6770.66
745.181	6828.51
745.52	6812.24
745.86	6813.59
746.199	6888.39
746.538	6957.09
746.877	6963.87
747.216	7016.07
747.556	6985.34
747.895	7101.04
748.234	7056.3
748.573	7199.8
748.911	7195.5
749.25	7258.78
749.589	7256.07
749.928	7238.67
750.267	7339.91
750.605	7389.62
750.944	7456.74
751.283	7486.57
751.621	7577.41
751.96	7637.98
752.298	7689.95
752.636	7728.6
752.975	7826.22
753.313	7901.92
753.651	8040.45
753.989	8022.83
754.327	8126.78
754.666	8202.71
755.004	8265.08
755.342	8417.84
755.679	8499.42
756.017	8527.67
756.355	8698.29
756.693	8803.6
757.031	8854.44
757.368	8910.49
757.706	9065.06
758.044	9161.33
758.381	9243.58
758.719	9376.91
759.056	9525.61
759.394	9675.44
759.731	9633.86
760.068	9851.93
760.405	9921.53
760.743	9993.17
761.08	10113.84
761.417	10269.32
761.754	10382.99
762.091	10484.91
762.428	10559.03
762.765	10665.69
763.102	10842.64
763.438	10945.46
763.775	11046.48
764.112	11166.92
764.449	11299.8
764.785	11334.38
765.122	11462.74
765.458	11521.72
765.795	11700.7
766.131	11796.96
766.467	11888.71
766.804	11916.06
767.14	12144.3
767.476	12156.28
767.812	12240.57
768.148	12343.39
768.485	12321.02
768.821	12431.3
769.157	12452.09
769.492	12685.53
