Data from hue_170_FLMS001491_00020.txt Node
Date: Tue Feb 07 16:48:20 GMT 2017
User: dcchb
Spectrometer: FLMS00149
Trigger mode: 0
Integration Time (sec): 2.000000E-2
Scans to average: 10
Electric dark correction enabled: true
Nonlinearity correction enabled: false
Boxcar width: 0
XAxis mode: Wavelengths
Number of Pixels in Spectrum: 2048
>>>>>Begin Spectral Data<<<<<
341.393	-9.27
341.776	-9.27
342.16	-9.27
342.543	-63.95
342.927	-68.47
343.31	-80.22
343.693	-69.15
344.077	-65.08
344.46	-58.76
344.843	-54.91
345.226	-41.13
345.61	-18.53
345.993	-27.8
346.376	-5.2
346.759	36.61
347.142	31.19
347.525	38.42
347.908	37.06
348.291	81.13
348.674	82.94
349.057	113.44
349.44	148.47
349.823	143.05
350.206	148.02
350.588	204.51
350.971	206.1
351.354	225.98
351.737	227.11
352.119	229.37
352.502	256.94
352.884	256.94
353.267	279.09
353.65	298.75
354.032	301.46
354.414	308.69
354.797	326.55
355.179	321.35
355.562	307.11
355.944	336.94
356.326	342.59
356.709	329.26
357.091	339.2
357.473	326.77
357.855	339.43
358.238	330.39
358.62	341.91
359.002	337.62
359.384	336.04
359.766	332.87
360.148	357.5
360.53	322.03
360.912	331.97
361.294	350.27
361.676	321.8
362.057	335.58
362.439	356.83
362.821	317.51
363.203	327.45
363.584	326.32
363.966	341.46
364.348	326.32
364.729	310.5
365.111	305.53
365.493	306.88
365.874	312.31
366.256	294.46
366.637	282.7
367.019	312.99
367.4	320.44
367.781	313.89
368.163	311.4
368.544	312.76
368.925	307.34
369.306	328.13
369.688	310.5
370.069	312.53
370.45	322.25
370.831	326.09
371.212	307.11
371.593	315.02
371.974	329.26
372.355	301.91
372.736	326.09
373.117	309.14
373.498	313.89
373.879	296.94
374.26	309.6
374.641	298.98
375.021	309.82
375.402	315.25
375.783	333.32
376.163	344.4
376.544	316.15
376.925	307.34
377.305	332.42
377.686	312.31
378.066	316.83
378.447	336.04
378.827	348.92
379.208	336.94
379.588	337.62
379.968	329.48
380.349	322.25
380.729	353.21
381.109	331.52
381.489	341.01
381.87	352.31
382.25	345.98
382.63	335.36
383.01	327.67
383.39	335.13
383.77	326.55
384.15	329.93
384.53	346.88
384.91	359.31
385.29	344.17
385.67	345.08
386.049	356.37
386.429	343.04
386.809	367.9
387.189	351.63
387.568	349.14
387.948	354.57
388.328	357.05
388.707	353.66
389.087	351.86
389.466	361.35
389.846	358.63
390.225	356.6
390.605	368.35
390.984	358.18
391.363	361.8
391.743	368.35
392.122	374.45
392.501	399.99
392.881	367.9
393.26	383.04
393.639	382.14
394.018	396.83
394.397	400.67
394.776	374
395.155	383.49
395.534	392.08
395.913	373.1
396.292	379.88
396.671	384.17
397.05	377.39
397.429	399.99
397.808	396.6
398.186	395.02
398.565	399.76
398.944	408.35
399.323	400.89
399.701	415.58
400.08	417.62
400.458	417.16
400.837	407.45
401.215	416.26
401.594	403.61
401.972	400.22
402.351	415.81
402.729	427.56
403.107	441.57
403.486	426.43
403.864	414.45
404.242	424.85
404.62	421.23
404.999	460.78
405.377	439.99
405.755	433.66
406.133	441.8
406.511	449.25
406.889	430.05
407.267	446.54
407.645	454.68
408.023	442.93
408.401	459.87
408.779	439.76
409.156	464.17
409.534	484.51
409.912	463.72
410.29	494
410.667	459.65
411.045	495.81
411.422	514.56
411.8	495.58
412.178	504.85
412.555	508.01
412.933	520.44
413.31	538.06
413.687	518.18
414.065	530.38
414.442	553.21
414.819	549.82
415.197	548.69
415.574	552.98
415.951	582.13
416.328	557.95
416.705	572.41
417.082	569.02
417.46	566.31
417.837	587.33
418.214	586.65
418.591	592.53
418.967	605.63
419.344	584.39
419.721	603.15
420.098	613.09
420.475	634.56
420.852	608.12
421.228	635.46
421.605	646.99
421.982	622.58
422.358	651.73
422.735	655.58
423.111	664.39
423.488	670.49
423.864	687.67
424.241	690.38
424.617	707.1
424.994	715.91
425.37	706.87
425.746	711.17
426.123	706.87
426.499	724.05
426.875	736.7
427.251	745.97
427.627	733.54
428.003	779.41
428.379	767.66
428.756	767.44
429.132	792.3
429.507	786.65
429.883	790.71
430.259	822.13
430.635	824.39
431.011	812.18
431.387	792.07
431.763	827.77
432.138	857.38
432.514	852.63
432.89	829.81
433.265	892.41
433.641	910.03
434.016	891.73
434.392	914.78
434.767	923.37
435.143	932.18
435.518	953.42
435.894	951.84
436.269	961.56
436.644	988
437.02	985.74
437.395	986.41
437.77	1013.76
438.145	1026.19
438.52	1041.33
438.895	1070.48
439.271	1047.88
439.646	1098.95
440.021	1079.52
440.395	1119.52
440.77	1091.04
441.145	1116.13
441.52	1141.89
441.895	1135.79
442.27	1124.04
442.645	1159.97
443.019	1136.92
443.394	1170.82
443.769	1156.81
444.143	1180.53
444.518	1211.27
444.892	1189.8
445.267	1221.66
445.641	1241.55
446.016	1243.81
446.39	1239.06
446.764	1254.43
447.139	1260.76
447.513	1273.64
447.887	1270.25
448.262	1302.56
448.636	1280.19
449.01	1287.42
449.384	1314.77
449.758	1336.69
450.132	1329.68
450.506	1371.49
450.88	1365.84
451.254	1349.8
451.628	1379.17
452.002	1432.73
452.376	1430.24
452.75	1449.68
453.123	1425.05
453.497	1454.43
453.871	1459.4
454.244	1491.71
454.618	1540.98
454.992	1534.2
455.365	1539.62
455.739	1601.99
456.112	1591.82
456.486	1606.96
456.859	1639.05
457.232	1638.83
457.606	1628.43
457.979	1642.44
458.352	1673.85
458.725	1724.02
459.099	1742.1
459.472	1790.46
459.845	1791.14
460.218	1792.04
460.591	1835.88
460.964	1831.82
461.337	1915.88
461.71	1931.47
462.083	1953.17
462.456	1938.25
462.829	1981.19
463.201	2011.47
463.574	2027.07
463.947	2085.37
464.32	2112.71
464.692	2086.27
465.065	2146.38
465.438	2187.06
465.81	2216.21
466.183	2233.84
466.555	2285.82
466.928	2266.83
467.3	2307.06
467.672	2349.32
468.045	2415.08
468.417	2440.39
468.789	2472.93
469.161	2514.74
469.534	2545.47
469.906	2618.01
470.278	2648.29
470.65	2655.98
471.022	2728.97
471.394	2824.78
471.766	2840.38
472.138	2885.57
472.51	2937.32
472.882	3005.12
473.253	3069.3
473.625	3118.34
473.997	3206.02
474.369	3215.06
474.74	3300.93
475.112	3388.39
475.484	3453.02
475.855	3482.62
476.227	3541.15
476.598	3665.44
476.97	3728.94
477.341	3789.05
477.713	3860.01
478.084	3942.04
478.455	4064.75
478.827	4112.21
479.198	4301.13
479.569	4303.84
479.94	4427.91
480.311	4494.57
480.682	4614.57
481.053	4742.25
481.424	4876.93
481.795	4937.95
482.166	5051.84
482.537	5191.95
482.908	5341.33
483.279	5363.7
483.65	5544.49
484.021	5622.45
484.391	5771.6
484.762	5861.09
485.133	5960.52
485.503	6080.52
485.874	6229.67
486.244	6363.9
486.615	6482.99
486.985	6620.39
487.356	6757.56
487.726	6850.89
488.097	7049.08
488.467	7049.31
488.837	7263.31
489.207	7400.26
489.578	7527.94
489.948	7656.07
490.318	7843.41
490.688	7950.07
491.058	8066.45
491.428	8193.68
491.798	8322.94
492.168	8520.45
492.538	8575.82
492.908	8725.42
493.278	8848.13
493.648	8929.26
494.017	9100.55
494.387	9214.9
494.757	9319.75
495.126	9468.9
495.496	9517.04
495.866	9618.73
496.235	9759.52
496.605	9836.35
496.974	9920.87
497.344	10104.59
497.713	10086.06
498.082	10218.49
498.452	10369.22
498.821	10442.21
499.19	10509.55
499.559	10651.47
499.928	10758.59
500.298	10821.64
500.667	10880.84
501.036	10929.66
501.405	10984.12
501.774	11082.19
502.143	11196.54
502.512	11194.51
502.88	11318.12
503.249	11319.93
503.618	11426.37
503.987	11407.84
504.356	11575.74
504.724	11549.3
505.093	11646.47
505.462	11750.43
505.83	11803.76
506.199	11874.26
506.567	12025.67
506.936	11989.29
507.304	12104.09
507.672	12118.33
508.041	12222.96
508.409	12230.41
508.777	12331.2
509.145	12357.42
509.514	12388.15
509.882	12468.6
510.25	12534.59
510.618	12617.3
510.986	12537.52
511.354	12619.78
511.722	12681.7
512.09	12775.03
512.458	12735.94
512.826	12926.21
513.193	12899.55
513.561	12983.84
513.929	13026.55
514.297	13099.32
514.664	13105.64
515.032	13128.47
515.4	13240.56
515.767	13161.69
516.135	13162.14
516.502	13115.36
516.869	13375.47
517.237	13305.64
517.604	13229.03
517.972	13417.95
518.339	13399.87
518.706	13412.08
519.073	13447.56
519.44	13510.83
519.808	13608.91
520.175	13504.96
520.542	13672.41
520.909	13637.61
521.276	13648.68
521.643	13715.57
522.009	13759.19
522.376	13783.14
522.743	13739.53
523.11	13797.83
523.477	13905.85
523.843	13963.47
524.21	14060.42
524.577	14080.53
524.943	14080.53
525.31	14033.76
525.676	14130.02
526.043	14239.17
526.409	14207.76
526.776	14277.59
527.142	14206.41
527.508	14190.14
527.874	14232.17
528.241	14254.54
528.607	14262.45
528.973	14325.27
529.339	14142.9
529.705	14348.32
530.071	14333.63
530.437	14267.42
530.803	14359.85
531.169	14335.22
531.535	14302.67
531.901	14268.78
532.267	14254.54
532.632	14291.83
532.998	14311.04
533.364	14290.25
533.73	14278.72
534.095	14215.67
534.461	14265.39
534.826	14299.96
535.192	14226.74
535.557	14325.05
535.923	14163.92
536.288	14177.03
536.653	14160.08
537.019	14100.42
537.384	14074.66
537.749	14080.53
538.114	14055
538.479	13943.81
538.845	14025.17
539.21	13911.27
539.575	13886.64
539.94	13870.6
540.305	13905.4
540.67	13724.38
541.034	13802.35
541.399	13760.54
541.764	13662.01
542.129	13719.87
542.494	13557.61
542.858	13577.5
543.223	13538.85
543.587	13582.02
543.952	13520.55
544.316	13502.92
544.681	13419.31
545.045	13459.76
545.41	13384.73
545.774	13400.33
546.138	13339.99
546.503	13324.17
546.867	13217.05
547.231	13240.33
547.595	13222.03
547.959	13181.12
548.324	13115.14
548.688	13069.49
549.052	13054.57
549.416	12975.7
549.779	12969.6
550.143	12947.23
550.507	12956.04
550.871	12913.11
551.235	12873.11
551.599	12857.06
551.962	12829.95
552.326	12759.66
552.689	12776.61
553.053	12689.16
553.417	12690.51
553.78	12748.59
554.143	12613.91
554.507	12644.64
554.87	12681.47
555.234	12613.68
555.597	12633.79
555.96	12610.97
556.323	12528.03
556.686	12500.69
557.05	12545.21
557.413	12584.3
557.776	12439.9
558.139	12610.97
558.502	12401.26
558.865	12488.71
559.228	12522.61
559.59	12505.89
559.953	12470.63
560.316	12513.57
560.679	12419.56
561.041	12496.17
561.404	12506.34
561.767	12545.66
562.129	12294.14
562.492	12436.96
562.854	12454.59
563.217	12381.37
563.579	12438.99
563.941	12515.38
564.304	12481.71
564.666	12478.09
565.028	12441.93
565.39	12465.43
565.753	12554.92
566.115	12589.27
566.477	12535.72
566.839	12561.03
567.201	12583.85
567.563	12609.16
567.925	12594.02
568.287	12570.52
568.648	12451.65
569.01	12626.79
569.372	12651.87
569.734	12606.67
570.095	12727.8
570.457	12694.58
570.819	12623.17
571.18	12584.98
571.542	12676.05
571.903	12667.01
572.265	12713.79
572.626	12701.81
572.987	12696.84
573.349	12692.1
573.71	12748.59
574.071	12749.04
574.432	12733.45
574.794	12802.15
575.155	12716.5
575.516	12687.35
575.877	12750.4
576.238	12760.12
576.599	12883.96
576.96	12787.69
577.32	12775.26
577.681	12786.56
578.042	12935.93
578.403	12742.04
578.763	12814.35
579.124	12751.3
579.485	12823.62
579.845	12826.33
580.206	12822.26
580.566	12779.78
580.927	12744.98
581.287	12812.77
581.648	12808.02
582.008	12836.95
582.368	12833.33
582.728	12801.7
583.089	12764.41
583.449	12729.16
583.809	12764.64
584.169	12766.44
584.529	12672.66
584.889	12843.73
585.249	12655.26
585.609	12659.33
585.969	12747.69
586.329	12676.95
586.688	12718.08
587.048	12653
587.408	12602.38
587.768	12566.68
588.127	12586.79
588.487	12557.41
588.846	12650.06
589.206	12616.62
589.565	12545.88
589.925	12615.94
590.284	12562.61
590.643	12626.56
591.003	12607.8
591.362	12645.77
591.721	12598.99
592.08	12505.66
592.44	12547.01
592.799	12539.33
593.158	12522.16
593.517	12529.16
593.876	12517.41
594.235	12489.16
594.593	12525.32
594.952	12538.2
595.311	12402.39
595.67	12492.78
596.029	12501.14
596.387	12511.08
596.746	12508.82
597.104	12487.81
597.463	12460.01
597.822	12463.18
598.18	12493
598.538	12360.58
598.897	12481.48
599.255	12375.72
599.613	12504.53
599.972	12447.13
600.33	12418.43
600.688	12377.53
601.046	12477.19
601.404	12464.53
601.762	12431.09
602.12	12504.53
602.478	12530.52
602.836	12507.24
603.194	12381.6
603.552	12437.19
603.91	12413.23
604.268	12481.71
604.625	12340.69
604.983	12429.28
605.341	12338.66
605.698	12464.76
606.056	12463.63
606.413	12410.07
606.771	12430.18
607.128	12436.96
607.485	12440.58
607.843	12401.93
608.2	12444.64
608.557	12475.15
608.914	12446
609.272	12503.17
609.629	12604.64
609.986	12576.62
610.343	12502.27
610.7	12578.88
611.057	12527.58
611.414	12553.12
611.771	12508.6
612.127	12608.71
612.484	12573.91
612.841	12620.91
613.198	12507.92
613.554	12558.09
613.911	12700.23
614.267	12683.96
614.624	12606.45
614.98	12649.61
615.337	12694.13
615.693	12634.02
616.05	12697.52
616.406	12721.7
616.762	12623.17
617.118	12679.21
617.475	12681.47
617.831	12746.78
618.187	12778.42
618.543	12670.4
618.899	12784.97
619.255	12768.25
619.611	12811.19
619.967	12774.13
620.323	12802.83
620.678	12712.66
621.034	12745.43
621.39	12799.21
621.746	12674.24
622.101	12863.16
622.457	12709.72
622.812	12805.54
623.168	12860.45
623.523	12782.49
623.879	12811.87
624.234	12747.24
624.589	12758.99
624.945	12763.73
625.3	12764.41
625.655	12746.11
626.01	12833.79
626.365	12685.54
626.72	12730.29
627.075	12838.31
627.43	12732.09
627.785	12763.51
628.14	12772.77
628.495	12730.06
628.85	12776.39
629.205	12692.1
629.559	12787.46
629.914	12668.37
630.269	12759.89
630.623	12771.42
630.978	12792.88
631.332	12763.51
631.687	12720.12
632.041	12622.72
632.396	12716.95
632.75	12546.79
633.104	12643.74
633.459	12544.98
633.813	12552.89
634.167	12585.21
634.521	12572.32
634.875	12541.14
635.229	12530.74
635.583	12450.52
635.937	12434.02
636.291	12427.92
636.645	12413.91
636.999	12452.78
637.352	12509.05
637.706	12409.62
638.06	12380.69
638.413	12422.5
638.767	12407.58
639.121	12359.45
639.474	12284.65
639.828	12364.65
640.181	12345.89
640.534	12344.76
640.888	12310.41
641.241	12246.68
641.594	12327.13
641.947	12307.7
642.301	12274.25
642.654	12254.59
643.007	12236.74
643.36	12230.41
643.713	12274.48
644.066	12248.49
644.419	12129.4
644.771	12036.97
645.124	12007.14
645.477	11977.76
645.83	11862.96
646.182	11870.2
646.535	11828.62
646.888	11864.55
647.24	11788.16
647.593	11815.28
647.945	11811.21
648.298	11673.82
648.65	11718.11
649.002	11763.53
649.355	11780.03
649.707	11842.4
650.059	11794.94
650.411	12031.1
650.763	12024.54
651.115	12119.46
651.467	12031.32
651.819	12062.96
652.171	11990.42
652.523	12043.3
652.875	11947.71
653.227	11978.22
653.578	12128.95
653.93	12103.18
654.282	12006.01
654.633	11976.41
654.985	12013.47
655.337	12110.64
655.688	12049.85
656.039	12066.12
656.391	12007.82
656.742	12036.07
657.094	12042.62
657.445	12115.39
657.796	12079.91
658.147	12086.24
658.498	12070.19
658.849	12062.96
659.2	12062.73
659.551	12037.65
659.902	12049.17
660.253	12041.49
660.604	12098.66
660.955	12048.95
661.306	12028.38
661.656	12070.64
662.007	12109.29
662.358	12095.28
662.708	12169.85
663.059	12098.89
663.409	12039.23
663.76	12136.86
664.11	12159
664.461	12169.85
664.811	12122.62
665.161	12111.32
665.511	12122.17
665.862	12134.14
666.212	12132.11
666.562	12116.07
666.912	12121.26
667.262	12095.5
667.612	12161.71
667.962	12245.55
668.312	12100.02
668.662	12199.68
669.011	12109.96
669.361	12099.57
669.711	12144.54
670.06	12057.08
670.41	12081.26
670.76	12132.56
671.109	12103.18
671.459	12110.87
671.808	12051.21
672.157	12047.59
672.507	12016.63
672.856	11999.01
673.205	12027.93
673.554	12044.66
673.904	12044.88
674.253	12040.14
674.602	12044.66
674.951	11856.86
675.3	11786.81
675.649	12023.64
675.998	11985.22
676.346	11920.59
676.695	11988.39
677.044	11916.97
677.393	11888.5
677.741	11952.68
678.09	11862.96
678.438	11849.41
678.787	11892.12
679.135	11785.68
679.484	11809.86
679.832	11818.9
680.181	11727.83
680.529	11789.29
680.877	11714.72
681.225	11749.3
681.573	11843.08
681.922	11639.47
682.27	11635.85
682.618	11582.52
682.966	11582.75
683.314	11675.85
683.661	11593.37
684.009	11527.83
684.357	11554.05
684.705	11516.08
685.053	11441.51
685.4	11468.62
685.748	11322.87
686.095	11349.98
686.443	11371
686.79	11367.84
687.138	11328.29
687.485	11362.87
687.832	11240.83
688.18	11364.45
688.527	11241.06
688.874	11251
689.221	11174.4
689.568	11114.06
689.915	11127.84
690.262	11133.49
690.609	11020.95
690.956	10977.11
691.303	11022.99
691.65	10895.31
691.997	10893.5
692.344	10810.11
692.69	10826.83
693.037	10814.63
693.383	10761.98
693.73	10832.94
694.077	10738.7
694.423	10651.25
694.769	10594.07
695.116	10590
695.462	10570.12
695.808	10506.39
696.155	10556.78
696.501	10436.56
696.847	10492.61
697.193	10364.93
697.539	10454.64
697.885	10283.35
698.231	10264.14
698.577	10242.67
698.923	10226.85
699.269	10231.6
699.614	10138.49
699.96	10166.96
700.306	10048.78
700.651	10023.92
700.997	10054.2
701.342	9946.63
701.688	9936.91
702.033	9935.11
702.379	9867.54
702.724	9901.21
703.069	9838.61
703.415	9770.14
703.76	9666.41
704.105	9713.42
704.45	9689.01
704.795	9605.85
705.14	9581.67
705.485	9564.49
705.83	9487.21
706.175	9567.66
706.52	9477.72
706.865	9500.32
707.209	9463.03
707.554	9368.12
707.899	9382.58
708.243	9347.78
708.588	9333.77
708.932	9299.19
709.277	9335.57
709.621	9274.11
709.966	9243.6
710.31	9203.83
710.654	9096.03
710.998	9133.09
711.342	9104.17
711.687	9077.73
712.031	9052.19
712.375	9051.97
712.719	9042.25
713.063	8975.81
713.407	9015.58
713.75	8993.66
714.094	8976.94
714.438	8924.06
714.782	8958.18
715.125	8878.18
715.469	8950.95
715.812	8913.21
716.156	8798.86
716.499	8848.81
716.843	8835.93
717.186	8775.81
717.53	8792.09
717.873	8780.56
718.216	8797.06
718.559	8767.45
718.902	8757.06
719.246	8761.58
719.589	8732.88
719.932	8732.65
720.275	8645.87
720.617	8633.45
720.96	8664.86
721.303	8652.65
721.646	8662.6
721.989	8615.59
722.331	8609.72
722.674	8595.25
723.016	8616.04
723.359	8463.73
723.701	8592.54
724.044	8541.24
724.386	8587.8
724.729	8567.01
725.071	8542.83
725.413	8481.81
725.755	8525.43
726.097	8474.13
726.439	8427.35
726.782	8398.2
727.124	8513.45
727.465	8464.41
727.807	8417.86
728.149	8444.07
728.491	8453.56
728.833	8430.06
729.175	8457.86
729.516	8398.88
729.858	8468.48
730.199	8430.96
730.541	8422.83
730.882	8437.29
731.224	8420.57
731.565	8332.21
731.906	8444.75
732.248	8407.69
732.589	8431.19
732.93	8414.02
733.271	8408.82
733.612	8372.66
733.953	8451.98
734.294	8431.19
734.635	8346.45
734.976	8435.48
735.317	8392.77
735.658	8391.87
735.999	8437.29
736.339	8407.01
736.68	8437.97
737.021	8379.89
737.361	8432.32
737.702	8493.11
738.042	8406.11
738.383	8482.94
738.723	8437.29
739.063	8466.44
739.404	8492.66
739.744	8475.94
740.084	8460.34
740.424	8456.73
740.764	8513.45
741.104	8533.33
741.444	8486.56
741.784	8575.37
742.124	8611.75
742.464	8594.35
742.804	8553.9
743.143	8602.03
743.483	8716.61
743.823	8630.06
744.162	8662.37
744.502	8766.78
744.841	8769.03
745.181	8829.6
745.52	8797.96
745.86	8843.61
746.199	8891.29
746.538	8824.85
746.877	8944.62
747.216	8998.86
747.556	9001.57
747.895	9086.54
748.234	9131.96
748.573	9182.81
748.911	9227.33
749.25	9284.73
749.589	9329.7
749.928	9404.27
750.267	9533.08
750.605	9571.95
750.944	9576.47
751.283	9674.55
751.621	9845.84
751.96	9832.06
752.298	9859.4
752.636	10091.94
752.975	10101.88
753.313	10193.63
753.651	10305.94
753.989	10396.79
754.327	10446.5
754.666	10603.56
755.004	10805.59
755.342	10892.37
755.679	11085.13
756.017	11050.56
756.355	11279.03
756.693	11433.37
757.031	11601.95
757.368	11656.42
757.706	11788.39
758.044	11956.3
