Data from hue_110_FLMS001491_00009.txt Node
Date: Tue Feb 07 17:00:50 GMT 2017
User: dcchb
Spectrometer: FLMS00149
Trigger mode: 0
Integration Time (sec): 2.000000E-2
Scans to average: 10
Electric dark correction enabled: true
Nonlinearity correction enabled: false
Boxcar width: 0
XAxis mode: Wavelengths
Number of Pixels in Spectrum: 2048
>>>>>Begin Spectral Data<<<<<
341.393	-32.27
341.776	-32.27
342.16	-32.27
342.543	-77.24
342.927	-69.56
343.31	-73.85
343.693	-65.27
344.077	-57.13
344.46	-69.33
344.843	-60.52
345.226	-60.07
345.61	-17.36
345.993	-15.1
346.376	1.85
346.759	8.63
347.142	35.3
347.525	46.14
347.908	42.08
348.291	69.42
348.674	99.93
349.057	115.29
349.44	123.43
349.823	145.58
350.206	175.86
350.588	196.2
350.971	192.81
351.354	229.41
351.737	230.32
352.119	247.95
352.502	256.08
352.884	271.22
353.267	284.55
353.65	306.7
354.032	312.8
354.414	316.19
354.797	317.77
355.179	294.95
355.562	307.6
355.944	304.67
356.326	306.02
356.709	342.86
357.091	333.14
357.473	326.36
357.855	323.88
358.238	335.85
358.62	350.32
359.002	322.75
359.384	342.86
359.766	354.16
360.148	337.43
360.53	337.21
360.912	344.44
361.294	319.36
361.676	335.85
362.057	323.2
362.439	320.94
362.821	308.28
363.203	342.86
363.584	321.16
363.966	315.97
364.348	328.62
364.729	319.81
365.111	333.59
365.493	309.64
365.874	318.68
366.256	306.02
366.637	310.54
367.019	325.91
367.4	325.23
367.781	311.67
368.163	292.69
368.544	324.78
368.925	337.89
369.306	307.15
369.688	324.1
370.069	317.77
370.45	299.24
370.831	296.31
371.212	300.6
371.593	299.92
371.974	321.62
372.355	309.19
372.736	327.04
373.117	314.61
373.498	314.16
373.879	316.87
374.26	314.38
374.641	327.27
375.021	308.73
375.402	319.58
375.783	325.23
376.163	321.62
376.544	318.45
376.925	319.13
377.305	311.45
377.686	341.73
378.066	333.82
378.447	299.47
378.827	330.2
379.208	341.05
379.588	338.11
379.968	332.01
380.349	315.51
380.729	352.58
381.109	337.66
381.489	320.71
381.87	327.72
382.25	338.34
382.63	327.04
383.01	336.3
383.39	348.51
383.77	339.24
384.15	350.54
384.53	336.08
384.91	339.69
385.29	365.91
385.67	330.2
386.049	348.28
386.429	333.37
386.809	365.91
387.189	363.65
387.568	346.7
387.948	351.9
388.328	350.32
388.707	354.61
389.087	372.91
389.466	343.76
389.846	359.13
390.225	353.48
390.605	361.84
390.984	361.16
391.363	373.82
391.743	365
392.122	376.53
392.501	367.72
392.881	359.13
393.26	389.64
393.639	366.59
394.018	379.69
394.397	370.65
394.776	376.98
395.155	378.79
395.534	384.67
395.913	366.81
396.292	382.86
396.671	374.95
397.05	384.89
397.429	430.09
397.808	405.68
398.186	395.51
398.565	396.42
398.944	386.92
399.323	397.55
399.701	406.36
400.08	386.47
400.458	407.26
400.837	407.94
401.215	392.8
401.594	405.91
401.972	390.77
402.351	411.11
402.729	400.94
403.107	413.14
403.486	422.63
403.864	398.22
404.242	402.07
404.62	445.68
404.999	422.86
405.377	410.43
405.755	421.5
406.133	423.08
406.511	448.62
406.889	450.88
407.267	435.06
407.645	448.17
408.023	453.82
408.401	451.56
408.779	448.17
409.156	456.75
409.534	458.34
409.912	442.06
410.29	470.09
410.667	446.81
411.045	465.57
411.422	439.58
411.8	466.24
412.178	484.1
412.555	466.7
412.933	479.58
413.31	481.16
413.687	495.17
414.065	493.36
414.442	484.78
414.819	490.2
415.197	507.15
415.574	486.58
415.951	497.66
416.328	494.27
416.705	506.02
417.082	501.72
417.46	512.8
417.837	508.05
418.214	524.55
418.591	520.48
418.967	517.32
419.344	552.34
419.721	510.54
420.098	535.17
420.475	531.1
420.852	548.28
421.228	531.33
421.605	544.43
421.982	553.7
422.358	565.68
422.735	517.99
423.111	572.23
423.488	560.25
423.864	575.85
424.241	577.43
424.617	569.29
424.994	569.52
425.37	575.85
425.746	578.56
426.123	579.24
426.499	608.61
426.875	614.72
427.251	608.61
427.627	624.88
428.003	639.12
428.379	625.79
428.756	601.61
429.132	598.67
429.507	623.98
429.883	622.17
430.259	660.36
430.635	656.75
431.011	653.81
431.387	668.5
431.763	656.3
432.138	686.58
432.514	690.87
432.89	688.84
433.265	695.62
433.641	700.36
434.016	692.68
434.392	705.79
434.767	707.59
435.143	709.18
435.518	733.13
435.894	748.95
436.269	733.58
436.644	749.4
437.02	755.5
437.395	759.12
437.77	768.84
438.145	786.69
438.52	771.77
438.895	779.46
439.271	806.8
439.646	795.5
440.021	775.16
440.395	797.99
440.77	790.76
441.145	817.2
441.52	820.81
441.895	822.17
442.27	834.6
442.645	846.8
443.019	848.83
443.394	832.34
443.769	854.48
444.143	859.91
444.518	863.3
444.892	857.42
445.267	876.18
445.641	873.92
446.016	899.45
446.39	889.96
446.764	910.3
447.139	908.27
447.513	890.64
447.887	919.57
448.262	909.17
448.636	927.7
449.01	920.92
449.384	936.06
449.758	929.51
450.132	929.51
450.506	935.39
450.88	964.31
451.254	956.4
451.628	979.45
452.002	999.34
452.376	986.01
452.75	1011.77
453.123	1010.41
453.497	1025.55
453.871	1007.7
454.244	1040.02
454.618	1061.94
454.992	1069.62
455.365	1070.97
455.739	1092.22
456.112	1123.4
456.486	1112.78
456.859	1102.39
457.232	1166.11
457.606	1158.66
457.979	1140.8
458.352	1153.46
458.725	1214.7
459.099	1214.47
459.472	1212.44
459.845	1244.08
460.218	1241.37
460.591	1263.51
460.964	1282.04
461.337	1311.42
461.71	1309.61
462.083	1333.34
462.456	1339.89
462.829	1348.48
463.201	1362.72
463.574	1400.91
463.947	1392.1
464.32	1460.79
464.692	1465.09
465.065	1438.87
465.438	1483.17
465.81	1508.93
466.183	1534.01
466.555	1537.18
466.928	1553
467.3	1546.22
467.672	1619.66
468.045	1660.11
468.417	1665.31
468.789	1677.29
469.161	1698.98
469.534	1727
469.906	1746.44
470.278	1791.86
470.65	1806.1
471.022	1844.51
471.394	1912.76
471.766	1923.16
472.138	1941.46
472.51	2007.22
472.882	2073.21
473.253	2092.87
473.625	2140.78
473.997	2185.3
474.369	2212.19
474.74	2262.36
475.112	2337.83
475.484	2402.24
475.855	2421.45
476.227	2455.12
476.598	2542.12
476.97	2603.14
477.341	2679.29
477.713	2733.76
478.084	2770.14
478.455	2880.19
478.827	2967.2
479.198	2966.29
479.569	3072.73
479.94	3178.26
480.311	3249
480.682	3321.08
481.053	3448.99
481.424	3520.4
481.795	3560.85
482.166	3698.93
482.537	3759.49
482.908	3888.3
483.279	3980.28
483.65	4063.44
484.021	4192.93
484.391	4267.27
484.762	4386.14
485.133	4519.25
485.503	4587.49
485.874	4760.6
486.244	4853.02
486.615	5011.66
486.985	5066.35
487.356	5213.46
487.726	5355.83
488.097	5485.1
488.467	5583.85
488.837	5743.85
489.207	5845.31
489.578	5989.72
489.948	6151.52
490.318	6266.09
490.688	6362.36
491.058	6497.27
491.428	6671.73
491.798	6766.19
492.168	6968.45
492.538	7124.37
492.908	7244.6
493.278	7380.64
493.648	7420.64
494.017	7603.23
494.387	7774.53
494.757	7921.42
495.126	8056.55
495.496	8146.49
495.866	8248.64
496.235	8372.03
496.605	8556.88
496.974	8617.89
497.344	8738.8
497.713	8850.43
498.082	9030.31
498.452	9090.42
498.821	9201.83
499.19	9289.29
499.559	9428.72
499.928	9519.11
500.298	9602.73
500.667	9773.57
501.036	9806.11
501.405	9914.81
501.774	9958.42
502.143	10175.82
502.512	10263.95
502.88	10426.89
503.249	10449.03
503.618	10477.06
503.987	10549.37
504.356	10699.87
504.724	10736.03
505.093	10875.69
505.462	10931.51
505.83	10963.14
506.199	11123.14
506.567	11255.34
506.936	11226.64
507.304	11347.99
507.672	11550.7
508.041	11566.74
508.409	11649.23
508.777	11779.62
509.145	11817.13
509.514	11853.97
509.882	11910.69
510.25	11937.81
510.618	12060.52
510.986	12169.44
511.354	12206.5
511.722	12323.11
512.09	12399.26
512.458	12441.75
512.826	12496.44
513.193	12508.64
513.561	12608.3
513.929	12620.05
514.297	12775.07
514.664	12822.08
515.032	12902.3
515.4	12935.97
515.767	12994.73
516.135	13004.22
516.502	13018.23
516.869	13164.22
517.237	13211.45
517.604	13160.37
517.972	13259.81
518.339	13290.99
518.706	13314.95
519.073	13318.34
519.44	13372.12
519.808	13533.7
520.175	13538.44
520.542	13589.52
520.909	13652.79
521.276	13616.86
521.643	13777.53
522.009	13778.89
522.376	13784.31
522.743	13873.58
523.11	13905.89
523.477	14035.38
523.843	14010.97
524.21	14155.38
524.577	14164.19
524.943	14242.83
525.31	14185.66
525.676	14360.12
526.043	14411.19
526.409	14347.69
526.776	14427.69
527.142	14460
527.508	14445.54
527.874	14514.91
528.241	14554.69
528.607	14517.63
528.973	14525.99
529.339	14542.26
529.705	14575.93
530.071	14789.26
530.437	14699.99
530.803	14751.97
531.169	14692.54
531.535	14644.86
531.901	14703.38
532.267	14691.18
532.632	14702.48
532.998	14751.74
533.364	14718.75
533.73	14715.36
534.095	14803.95
534.461	14764.17
534.826	14751.52
535.192	14741.35
535.557	14804.85
535.923	14718.75
536.288	14745.64
536.653	14749.26
537.019	14720.33
537.384	14704.06
537.749	14706.1
538.114	14685.53
538.479	14617.51
538.845	14664.29
539.21	14534.8
539.575	14538.87
539.94	14614.57
540.305	14578.64
540.67	14474.46
541.034	14465.2
541.399	14388.82
541.764	14429.27
542.129	14506.1
542.494	14374.58
542.858	14438.08
543.223	14391.3
543.587	14405.09
543.952	14248.48
544.316	14389.49
544.681	14338.65
545.045	14294.58
545.41	14291.19
545.774	14205.09
546.138	14138.88
546.503	14219.1
546.867	14138.2
547.231	14100.69
547.595	14127.13
547.959	14090.07
548.324	14034.48
548.688	14047.81
549.052	14001.26
549.416	14010.97
549.779	13984.31
550.143	13849.85
550.507	14025.66
550.871	13937.08
551.235	13872.67
551.599	13940.24
551.962	13908.15
552.326	13832
552.689	13893.46
553.053	13773.69
553.417	13820.92
553.78	13840.36
554.143	13731.88
554.507	13805.56
554.87	13738.89
555.234	13824.09
555.597	13756.29
555.96	13685.78
556.323	13673.13
556.686	13722.39
557.05	13845.33
557.413	13792.22
557.776	13788.38
558.139	13770.98
558.502	13715.16
558.865	13704.31
559.228	13686.24
559.59	13713.13
559.953	13723.07
560.316	13817.53
560.679	13682.62
561.041	13759.45
561.404	13779.79
561.767	13861.15
562.129	13703.41
562.492	13791.32
562.854	13793.35
563.217	13742.51
563.579	13816.63
563.941	13907.7
564.304	13854.59
564.666	13877.64
565.028	13959.45
565.39	13935.27
565.753	13999.22
566.115	13937.08
566.477	13923.07
566.839	13877.64
567.201	14012.56
567.563	13981.82
567.925	14025.66
568.287	14005.78
568.648	14017.53
569.01	14054.59
569.372	14126.45
569.734	14057.98
570.095	14072.44
570.457	14181.59
570.819	14212.55
571.18	14110.18
571.542	14139.78
571.903	14238.31
572.265	14203.06
572.626	14247.35
572.987	14290.06
573.349	14247.13
573.71	14265.43
574.071	14318.08
574.432	14241.93
574.794	14330.51
575.155	14259.55
575.516	14205.32
575.877	14276.05
576.238	14310.17
576.599	14344.07
576.96	14328.25
577.32	14363.96
577.681	14420.68
578.042	14499.32
578.403	14370.74
578.763	14376.61
579.124	14329.38
579.485	14386.33
579.845	14436.27
580.206	14407.12
580.566	14401.92
580.927	14425.65
581.287	14408.48
581.648	14378.87
582.008	14439.44
582.368	14414.35
582.728	14462.49
583.089	14365.54
583.449	14368.03
583.809	14375.48
584.169	14331.42
584.529	14283.06
584.889	14363.73
585.249	14266.33
585.609	14282.38
585.969	14259.33
586.329	14255.03
586.688	14269.27
587.048	14247.35
587.408	14196.51
587.768	14302.94
588.127	14275.83
588.487	14256.16
588.846	14329.38
589.206	14209.39
589.565	14233.34
589.925	14214.58
590.284	14160.57
590.643	14150.63
591.003	14277.41
591.362	14268.82
591.721	14192.89
592.08	14245.77
592.44	14177.75
592.799	14200.8
593.158	14176.39
593.517	14065.44
593.876	14164.19
594.235	14160.12
594.593	14129.39
594.952	14188.37
595.311	14038.32
595.67	14129.61
596.029	14154.25
596.387	14199.44
596.746	14222.27
597.104	14042.16
597.463	14103.85
597.822	14095.94
598.18	14106.79
598.538	14087.36
598.897	14124.42
599.255	14014.36
599.613	14231.76
599.972	14174.13
600.33	14104.76
600.688	14148.14
601.046	14147.24
601.404	14184.3
601.762	14109.95
602.12	14250.52
602.478	14195.6
602.836	14126.9
603.194	14025.66
603.552	14040.13
603.91	14076.73
604.268	14111.99
604.625	14119.9
604.983	14148.37
605.341	14041.03
605.698	14152.21
606.056	14163.74
606.413	14152.21
606.771	14249.16
607.128	14220.46
607.485	14179.33
607.843	14084.64
608.2	14317.41
608.557	14237.86
608.914	14215.94
609.272	14197.64
609.629	14215.49
609.986	14321.25
610.343	14171.87
610.7	14371.42
611.057	14217.75
611.414	14241.02
611.771	14284.86
612.127	14321.47
612.484	14399.89
612.841	14412.09
613.198	14294.36
613.554	14283.28
613.911	14385.65
614.267	14407.8
614.624	14359.66
614.98	14368.7
615.337	14358.99
615.693	14401.47
616.05	14386.33
616.406	14571.18
616.762	14445.54
617.118	14462.94
617.475	14493.45
617.831	14462.03
618.187	14513.56
618.543	14491.86
618.899	14591.75
619.255	14544.74
619.611	14546.78
619.967	14638.98
620.323	14596.95
620.678	14586.55
621.034	14495.03
621.39	14515.82
621.746	14543.16
622.101	14712.88
622.457	14556.04
622.812	14589.72
623.168	14624.29
623.523	14590.17
623.879	14652.31
624.234	14522.82
624.589	14627.23
624.945	14692.76
625.3	14656.83
625.655	14622.26
626.01	14625.19
626.365	14634.46
626.72	14584.52
627.075	14553.78
627.43	14518.76
627.785	14559.89
628.14	14557.63
628.495	14584.52
628.85	14567.12
629.205	14511.07
629.559	14502.71
629.914	14497.29
630.269	14453.45
630.623	14454.8
630.978	14486.44
631.332	14607.79
631.687	14481.24
632.041	14409.83
632.396	14454.8
632.75	14424.75
633.104	14458.19
633.459	14394.24
633.813	14483.5
634.167	14348.37
634.521	14309.5
634.875	14316.95
635.229	14301.14
635.583	14262.04
635.937	14221.36
636.291	14270.63
636.645	14208.48
636.999	14192.21
637.352	14184.53
637.706	14130.52
638.06	14149.05
638.413	14122.16
638.767	14129.39
639.121	14119.67
639.474	14110.63
639.828	14083.51
640.181	14079.45
640.534	14185.43
640.888	14028.15
641.241	13991.99
641.594	14005.1
641.947	14119.9
642.301	14102.04
642.654	14031.99
643.007	14019.33
643.36	13986.57
643.713	13976.4
644.066	14071.31
644.419	13905.44
644.771	13823.63
645.124	13707.03
645.477	13700.25
645.83	13653.69
646.182	13620.02
646.535	13557.88
646.888	13512.46
647.24	13489.18
647.593	13465.23
647.945	13472.68
648.298	13402.4
648.65	13398.79
649.002	13426.36
649.355	13450.54
649.707	13388.16
650.059	13504.09
650.411	13661.38
650.763	13684.43
651.115	13804.2
651.467	13751.55
651.819	13735.27
652.171	13687.14
652.523	13690.53
652.875	13750.64
653.227	13710.42
653.578	13875.84
653.93	13757.19
654.282	13756.06
654.633	13719.23
654.985	13774.37
655.337	13772.79
655.688	13737.08
656.039	13861.37
656.391	13773.69
656.742	13753.58
657.094	13844.88
657.445	13815.95
657.796	13823.41
658.147	13767.59
658.498	13820.47
658.849	13871.77
659.2	13702.05
659.551	13761.26
659.902	13753.35
660.253	13728.49
660.604	13803.97
660.955	13747.7
661.306	13766.01
661.656	13723.3
662.007	13787.25
662.358	13866.57
662.708	13847.36
663.059	13811.66
663.409	13803.75
663.76	13882.84
664.11	13844.65
664.461	13763.52
664.811	13816.4
665.161	13782.96
665.511	13740.02
665.862	13831.09
666.212	13838.32
666.562	13822.96
666.912	13864.08
667.262	13761.04
667.612	13806.23
667.962	13855.72
668.312	13774.82
668.662	13809.62
669.011	13752.9
669.361	13770.3
669.711	13828.61
670.06	13720.13
670.41	13773.47
670.76	13814.82
671.109	13758.78
671.459	13764.88
671.808	13773.69
672.157	13730.75
672.507	13691.43
672.856	13686.24
673.205	13650.76
673.554	13815.05
673.904	13688.95
674.253	13622.96
674.602	13753.35
674.951	13443.76
675.3	13404.89
675.649	13633.36
675.998	13601.27
676.346	13648.72
676.695	13660.93
677.044	13479.01
677.393	13589.74
677.741	13584.54
678.09	13538.22
678.438	13465.23
678.787	13532.57
679.135	13615.5
679.484	13457.32
679.832	13522.4
680.181	13387.49
680.529	13439.46
680.877	13455.51
681.225	13368.05
681.573	13450.54
681.922	13345.91
682.27	13261.39
682.618	13299.35
682.966	13284.89
683.314	13318.34
683.661	13187.27
684.009	13191.33
684.357	13265.68
684.705	13132.13
685.053	13215.29
685.4	13125.12
685.748	13097.55
686.095	13035.41
686.443	12984.11
686.79	13018.46
687.138	13019.59
687.485	12929.65
687.832	12901.62
688.18	12889.42
688.527	12851.23
688.874	12841.29
689.221	12742.98
689.568	12724.45
689.915	12730.1
690.262	12622.31
690.609	12651.01
690.956	12584.57
691.303	12536.66
691.65	12484.69
691.997	12484.91
692.344	12405.59
692.69	12408.3
693.037	12324.69
693.383	12239.04
693.73	12367.17
694.077	12171.47
694.423	12219.38
694.769	12199.5
695.116	12171.25
695.462	12156.33
695.808	12036.79
696.155	12094.41
696.501	11942.55
696.847	11970.35
697.193	11923.12
697.539	11923.8
697.885	11759.28
698.231	11746.4
698.577	11761.99
698.923	11738.72
699.269	11627.31
699.614	11642.9
699.96	11465.5
700.306	11533.3
700.651	11492.4
700.997	11371.27
701.342	11368.78
701.688	11386.41
702.033	11356.81
702.379	11217.83
702.724	11238.39
703.069	11258.73
703.415	11177.6
703.76	11116.13
704.105	11137.83
704.45	11110.26
704.795	11047.44
705.14	11030.94
705.485	11008.11
705.83	10941.68
706.175	10940.32
706.52	10874.11
706.865	10885.86
707.209	10875.91
707.554	10785.52
707.899	10802.92
708.243	10735.13
708.588	10719.99
708.932	10604.96
709.277	10588.92
709.621	10651.97
709.966	10434.57
710.31	10575.81
710.654	10448.13
710.998	10448.13
711.342	10446.1
711.687	10411.75
712.031	10400.22
712.375	10365.87
712.719	10342.14
713.063	10389.37
713.407	10342.82
713.75	10264.86
714.094	10315.93
714.438	10200.23
714.782	10267.57
715.125	10250.17
715.469	10194.35
715.812	10146.89
716.156	10128.59
716.499	10101.02
716.843	10083.17
717.186	10084.52
717.53	10130.85
717.873	10121.81
718.216	10063.96
718.559	10058.53
718.902	10006.11
719.246	9989.16
719.589	9937.41
719.932	9923.62
720.275	9964.07
720.617	9881.36
720.96	9866
721.303	9914.81
721.646	9889.73
721.989	9875.26
722.331	9900.8
722.674	9775.38
723.016	9861.93
723.359	9929.72
723.701	9902.61
724.044	9775.83
724.386	9804.08
724.729	9840.46
725.071	9748.94
725.413	9741.93
725.755	9769.5
726.097	9666.68
726.439	9703.74
726.782	9610.41
727.124	9799.56
727.465	9741.48
727.807	9714.36
728.149	9699.22
728.491	9689.96
728.833	9672.1
729.175	9640.24
729.516	9686.79
729.858	9626
730.199	9734.93
730.541	9720.69
730.882	9566.34
731.224	9645.66
731.565	9661.48
731.906	9610.64
732.248	9664.2
732.589	9642.95
732.93	9542.62
733.271	9572.22
733.612	9579.9
733.953	9590.52
734.294	9572.22
734.635	9508.04
734.976	9574.71
735.317	9567.25
735.658	9620.58
735.999	9597.53
736.339	9540.36
736.68	9620.81
737.021	9568.6
737.361	9513.46
737.702	9595.95
738.042	9563.63
738.383	9626
738.723	9641.14
739.063	9575.38
739.404	9617.87
739.744	9649.96
740.084	9598.89
740.424	9678.66
740.764	9600.47
741.104	9686.34
741.444	9675.72
741.784	9653.57
742.124	9774.7
742.464	9709.17
742.804	9742.16
743.143	9771.99
743.483	9786.68
743.823	9823.29
744.162	9800.24
744.502	9894.02
744.841	9894.25
745.181	9923.85
745.52	9953.23
745.86	10002.94
746.199	9964.98
746.538	9988.48
746.877	10205.88
747.216	10162.71
747.556	10171.98
747.895	10224.63
748.234	10166.33
748.573	10318.19
748.911	10372.43
749.25	10347.11
749.589	10479.99
749.928	10611.29
750.267	10639.76
750.605	10665.07
750.944	10737.16
751.283	10875.01
751.621	10964.05
751.96	10941.9
752.298	11019.87
752.636	11131.28
752.975	11183.48
753.313	11389.35
753.651	11519.74
753.989	11542.34
754.327	11560.42
754.666	11707.98
755.004	11867.75
755.342	12036.11
755.679	12110.91
756.017	12242.21
756.355	12354.07
756.693	12484.69
757.031	12685.36
757.368	12741.18
757.706	12908.86
