Data from hue_32_FLMS001491_00067.txt Node
Date: Tue Feb 07 17:23:45 GMT 2017
User: dcchb
Spectrometer: FLMS00149
Trigger mode: 0
Integration Time (sec): 2.000000E-2
Scans to average: 10
Electric dark correction enabled: true
Nonlinearity correction enabled: false
Boxcar width: 0
XAxis mode: Wavelengths
Number of Pixels in Spectrum: 2048
>>>>>Begin Spectral Data<<<<<
341.393	-12.49
341.776	-12.49
342.16	-12.49
342.543	-62.88
342.927	-71.02
343.31	-77.57
343.693	-83.67
344.077	-68.76
344.46	-55.65
344.843	-38.93
345.226	-41.86
345.61	-20.62
345.993	-19.27
346.376	24.8
346.759	3.79
347.142	20.73
347.525	36.55
347.908	57.8
348.291	76.55
348.674	77.91
349.057	108.19
349.44	109.55
349.823	135.99
350.206	165.14
350.588	202.88
350.971	220.95
351.354	222.31
351.737	247.62
352.119	241.07
352.502	266.38
352.884	270.67
353.267	289.43
353.65	296.43
354.032	290.56
354.414	322.65
354.797	308.18
355.179	335.08
355.562	304.12
355.944	331.01
356.326	324
356.709	326.26
357.091	324
357.473	335.3
357.855	359.48
358.238	333.49
358.62	350.44
359.002	342.53
359.384	326.49
359.766	357.9
360.148	359.03
360.53	352.02
360.912	333.49
361.294	323.78
361.676	338.69
362.057	338.01
362.439	334.62
362.821	348.86
363.203	354.96
363.584	311.8
363.966	310.22
364.348	326.71
364.729	338.01
365.111	306.6
365.493	341.18
365.874	318.81
366.256	335.75
366.637	321.97
367.019	334.4
367.4	305.02
367.781	317.22
368.163	318.13
368.544	314.06
368.925	303.21
369.306	320.16
369.688	299.82
370.069	326.26
370.45	314.29
370.831	311.12
371.212	317.68
371.593	329.88
371.974	310.9
372.355	319.94
372.736	320.84
373.117	313.38
373.498	310.67
373.879	323.32
374.26	308.18
374.641	319.48
375.021	339.37
375.402	336.21
375.783	319.71
376.163	327.62
376.544	345.92
376.925	339.6
377.305	321.52
377.686	310.9
378.066	352.02
378.447	325.13
378.827	345.02
379.208	344.57
379.588	335.98
379.968	351.57
380.349	342.53
380.729	329.65
381.109	337.79
381.489	329.88
381.87	333.04
382.25	342.53
382.63	359.26
383.01	339.37
383.39	323.1
383.77	343.66
384.15	348.41
384.53	381.18
384.91	342.08
385.29	354.06
385.67	346.15
386.049	342.53
386.429	355.19
386.809	354.06
387.189	377.33
387.568	340.73
387.948	354.96
388.328	360.61
388.707	364.68
389.087	379.82
389.466	375.98
389.846	376.2
390.225	375.98
390.605	356.54
390.984	376.2
391.363	378.92
391.743	385.24
392.122	382.76
392.501	391.57
392.881	386.37
393.26	386.83
393.639	373.27
394.018	391.8
394.397	379.82
394.776	383.66
395.155	368.75
395.534	374.4
395.913	392.02
396.292	392.48
396.671	410.55
397.05	401.06
397.429	380.27
397.808	398.8
398.186	390.89
398.565	404
398.944	420.5
399.323	401.06
399.701	416.66
400.08	424.34
400.458	425.7
400.837	387.05
401.215	409.88
401.594	415.07
401.972	413.94
402.351	422.31
402.729	410.33
403.107	427.73
403.486	415.07
403.864	386.15
404.242	407.16
404.62	416.66
404.999	415.07
405.377	415.07
405.755	440.84
406.133	442.64
406.511	449.65
406.889	442.42
407.267	414.17
407.645	444.23
408.023	439.03
408.401	461.4
408.779	457.33
409.156	444.23
409.534	468.86
409.912	484.45
410.29	487.61
410.667	471.34
411.045	481.29
411.422	458.69
411.8	471.12
412.178	479.48
412.555	499.37
412.933	489.42
413.31	481.96
413.687	499.37
414.065	493.04
414.442	484.68
414.819	467.73
415.197	493.04
415.574	510.44
415.951	505.92
416.328	512.92
416.705	499.37
417.082	510.89
417.46	520.16
417.837	521.06
418.214	541.62
418.591	514.51
418.967	530.1
419.344	509.99
419.721	536.65
420.098	526.03
420.475	537.56
420.852	554.28
421.228	534.17
421.605	559.02
421.982	538.46
422.358	539.82
422.735	566.48
423.111	551.57
423.488	572.36
423.864	554.28
424.241	583.88
424.617	575.97
424.994	550.44
425.37	562.87
425.746	566.48
426.123	598.12
426.499	597.67
426.875	603.32
427.251	602.19
427.627	592.24
428.003	611.23
428.379	622.98
428.756	627.05
429.132	616.65
429.507	625.69
429.883	650.32
430.259	651.9
430.635	654.39
431.011	668.4
431.387	651
431.763	655.52
432.138	663.65
432.514	684.22
432.89	686.71
433.265	678.34
433.641	696.42
434.016	699.81
434.392	677.44
434.767	710.21
435.143	713.6
435.518	704.33
435.894	709.76
436.269	729.42
436.644	760.38
437.02	745.91
437.395	712.02
437.77	768.06
438.145	745.23
438.52	750.88
438.895	758.34
439.271	763.54
439.646	758.12
440.021	775.52
440.395	783.65
440.77	780.04
441.145	806.02
441.52	793.59
441.895	790.66
442.27	802.86
442.645	814.61
443.019	821.62
443.394	809.41
443.769	828.85
444.143	819.58
444.518	834.95
444.892	845.8
445.267	859.81
445.641	882.18
446.016	850.77
446.39	848.73
446.764	841.28
447.139	861.39
447.513	874.04
447.887	871.11
448.262	896.87
448.636	873.14
449.01	876.76
449.384	869.07
449.758	923.08
450.132	900.26
450.506	889.64
450.88	903.42
451.254	926.92
451.628	916.53
452.002	913.82
452.376	942.74
452.75	962.18
453.123	962.63
453.497	967.38
453.871	957.21
454.244	966.92
454.618	1013.25
454.992	981.16
455.365	1015.51
455.739	1033.81
456.112	1026.13
456.486	1065.23
456.859	1049.18
457.232	1076.53
457.606	1049.41
457.979	1087.82
458.352	1119.24
458.725	1090.99
459.099	1114.94
459.472	1144.55
459.845	1153.81
460.218	1147.26
460.591	1150.87
460.964	1195.17
461.337	1202.85
461.71	1203.53
462.083	1231.32
462.456	1228.84
462.829	1244.66
463.201	1276.07
463.574	1299.8
463.947	1299.34
464.32	1306.12
464.692	1331.21
465.065	1310.87
465.438	1328.27
465.81	1353.81
466.183	1373.01
466.555	1401.94
466.928	1394.94
467.3	1427.02
467.672	1434.26
468.045	1493.01
468.417	1478.32
468.789	1475.38
469.161	1495.05
469.534	1540.92
469.906	1576.4
470.278	1571.2
470.65	1613.46
471.022	1645.32
471.394	1644.87
471.766	1646.23
472.138	1709.96
472.51	1736.4
472.882	1766.68
473.253	1768.03
473.625	1819.33
473.997	1864.98
474.369	1899.1
474.74	1903.4
475.112	1956.28
475.484	2031.08
475.855	2053.22
476.227	2053.9
476.598	2150.4
476.97	2153.79
477.341	2223.61
477.713	2234.46
478.084	2300.9
478.455	2316.27
478.827	2389.03
479.198	2468.13
479.569	2542.93
479.94	2570.72
480.311	2605.3
480.682	2723.04
481.053	2753.77
481.424	2836.03
481.795	2837.38
482.166	2930.04
482.537	2977.72
482.908	3060.88
483.279	3125.51
483.65	3196.92
484.021	3290.7
484.391	3365.5
484.762	3389.01
485.133	3471.04
485.503	3524.37
485.874	3643.46
486.244	3751.26
486.615	3798.04
486.985	3885.72
487.356	3986.96
487.726	4020.18
488.097	4172.72
488.467	4235.31
488.837	4320.28
489.207	4402.77
489.578	4493.38
489.948	4546.94
490.318	4668.97
490.688	4656.54
491.058	4854.96
491.428	4911
491.798	5004.78
492.168	5117.1
492.538	5216.3
492.908	5251.56
493.278	5369.52
493.648	5404.1
494.017	5487.93
494.387	5646.12
494.757	5680.7
495.126	5727.48
495.496	5803.63
495.866	5836.63
496.235	5987.36
496.605	6034.14
496.974	6145.54
497.344	6227.35
497.713	6251.3
498.082	6332.43
498.452	6460.56
498.821	6546.89
499.19	6583.73
499.559	6671.41
499.928	6696.72
500.298	6737.17
500.667	6877.95
501.036	6915.24
501.405	7034.79
501.774	7026.65
502.143	7101
502.512	7120.89
502.88	7243.82
503.249	7265.52
503.618	7357.04
503.987	7313.88
504.356	7469.35
504.724	7547.99
505.093	7519.29
505.462	7642.45
505.83	7677.93
506.199	7744.37
506.567	7883.8
506.936	7928.55
507.304	8027.98
507.672	8068.43
508.041	8071.6
508.409	8179.62
508.777	8237.69
509.145	8280.4
509.514	8312.95
509.882	8364.24
510.25	8416.67
510.618	8499.61
510.986	8443.11
511.354	8578.02
511.722	8629.32
512.09	8761.97
512.458	8738.47
512.826	8829.54
513.193	8810.11
513.561	8910.22
513.929	9006.26
514.297	8954.06
514.664	9152.02
515.032	9184.33
515.4	9211
515.767	9291.9
516.135	9263.88
516.502	9243.99
516.869	9373.71
517.237	9387.95
517.604	9386.59
517.972	9486.02
518.339	9569.41
518.706	9582.29
519.073	9681.04
519.44	9689.41
519.808	9826.8
520.175	9792.68
520.542	9901.38
520.909	9905.45
521.276	9953.13
521.643	10079
522.009	10067.7
522.376	10142.05
522.743	10208.26
523.11	10333.01
523.477	10425.43
523.843	10428.14
524.21	10511.53
524.577	10554.92
524.943	10611.87
525.31	10707.91
525.676	10753.11
526.043	10879.66
526.409	10829.49
526.776	10952.2
527.142	10983.61
527.508	11057.73
527.874	11184.96
528.241	11222.02
528.607	11196.71
528.973	11306.54
529.339	11363.94
529.705	11529.81
530.071	11555.57
530.437	11519.87
530.803	11710.14
531.169	11675.79
531.535	11689.35
531.901	11740.65
532.267	11808.22
532.632	11819.29
532.998	11830.59
533.364	12010.48
533.73	11999.18
534.095	12126.18
534.461	12088.44
534.826	12222
535.192	12253.86
535.557	12370.92
535.923	12335.21
536.288	12409.56
536.653	12539.27
537.019	12456.34
537.384	12544.47
537.749	12628.54
538.114	12649.78
538.479	12659.27
538.845	12675.09
539.21	12711.25
539.575	12748.76
539.94	12895.88
540.305	12933.61
540.67	12982.65
541.034	12944.01
541.399	13111.01
541.764	13069.2
542.129	13212.03
542.494	13199.6
542.858	13273.49
543.223	13316.2
543.587	13380.61
543.952	13369.99
544.316	13499.7
544.681	13420.61
545.045	13513.03
545.41	13630.77
545.774	13663.31
546.138	13646.82
546.503	13743.08
546.867	13737.21
547.231	13880.48
547.595	13842.97
547.959	13869.86
548.324	13931.1
548.688	13990.54
549.052	14047.48
549.416	14035.73
549.779	14123.41
550.143	14214.03
550.507	14345.56
550.871	14355.5
551.235	14340.81
551.599	14481.37
551.962	14442.5
552.326	14500.13
552.689	14602.95
553.053	14519.34
553.417	14609.5
553.78	14853.11
554.143	14684.53
554.507	14733.57
554.87	14880.46
555.234	14931.75
555.597	14878.42
555.96	14926.1
556.323	15035.71
556.686	15049.49
557.05	15119.77
557.413	15094.24
557.776	15256.27
558.139	15236.61
558.502	15282.25
558.865	15358.64
559.228	15429.14
559.59	15503.26
559.953	15560.21
560.316	15674.56
560.679	15724.5
561.041	15767.89
561.404	15806.31
561.767	15866.19
562.129	15867.1
562.492	16061.89
562.854	16051.5
563.217	16053.98
563.579	16047.88
563.941	16131.27
564.304	16298.95
564.666	16395.44
565.028	16399.06
565.39	16370.59
565.753	16487.65
566.115	16557.25
566.477	16632.5
566.839	16702.33
567.201	16719.73
567.563	16698.04
567.925	16910.01
568.287	16859.84
568.648	16945.49
569.01	17035.88
569.372	17229.32
569.734	17161.07
570.095	17203.56
570.457	17278.13
570.819	17430.22
571.18	17339.15
571.542	17452.37
571.903	17532.14
572.265	17608.29
572.626	17666.15
572.987	17782.07
573.349	17850.77
573.71	17997.44
574.071	18040.37
574.432	18115.63
574.794	18335.51
575.155	18215.96
575.516	18338.22
575.877	18485.33
576.238	18554.71
576.599	18718.55
576.96	18799.45
577.32	18797.19
577.681	19042.83
578.042	19290.96
578.403	19267.01
578.763	19359.43
579.124	19560.33
579.485	19857.5
579.845	19810.04
580.206	19970.49
580.566	20066.08
580.927	20333.65
581.287	20535
581.648	20597.59
582.008	20848.21
582.368	20969.56
582.728	21126.85
583.089	21372.49
583.449	21397.8
583.809	21625.59
584.169	21878.69
584.529	22035.97
584.889	22410.43
585.249	22474.38
585.609	22655.17
585.969	23019.45
586.329	23244.08
586.688	23390.06
587.048	23595.93
587.408	23814.46
587.768	24053.77
588.127	24208.57
588.487	24471.16
588.846	24874.77
589.206	24956.8
589.565	25129
589.925	25468.2
590.284	25781.86
590.643	25935.76
591.003	26291
591.362	26592.69
591.721	26805.57
592.08	27076.52
592.44	27461.14
592.799	27623.62
593.158	27916.72
593.517	28054.12
593.876	28490.04
594.235	28767.32
594.593	28821.56
594.952	29180.65
595.311	29310.13
595.67	29670.12
596.029	30039.83
596.387	30261.52
596.746	30623.77
597.104	30756.65
597.463	30926.59
597.822	31259.01
598.18	31334.71
598.538	31682.5
598.897	32177.18
599.255	32040.91
599.613	32799.08
599.972	32886.99
600.33	33010.15
600.688	33214.21
601.046	33503.02
601.404	33902.1
601.762	33846.51
602.12	34305.71
602.478	34506.83
602.836	34666.38
603.194	34678.13
603.552	35006.93
603.91	35063.65
604.268	35469.97
604.625	35489.86
604.983	35864.09
605.341	35849.85
605.698	36094.36
606.056	36485.54
606.413	36607.34
606.771	36862.25
607.128	37014.56
607.485	37092.3
607.843	37314.67
608.2	37589.01
608.557	37752.17
608.914	37713.08
609.272	38064.93
609.629	38305.15
609.986	38504.47
610.343	38474.19
610.7	38940.61
611.057	38967.28
611.414	39042.98
611.771	39100.61
612.127	39472.13
612.484	39570.88
612.841	39635.29
613.198	39729.07
613.554	39830.31
613.911	40230.52
614.267	40406.34
614.624	40289.28
614.98	40469.84
615.337	40801.36
615.693	40826.21
616.05	40721.81
616.406	41148.47
616.762	41118.41
617.118	41171.97
617.475	41280.21
617.831	41532.18
618.187	41635.46
618.543	41791.61
618.899	42013.08
619.255	42020.53
619.611	42021.21
619.967	42101.66
620.323	42300.98
620.678	42376
621.034	42239.74
621.39	42325.38
621.746	42283.35
622.101	42848.53
622.457	42591.82
622.812	42767.18
623.168	42938.25
623.523	42919.27
623.879	43104.8
624.234	42934.18
624.589	43111.13
624.945	43359.03
625.3	43356.54
625.655	43447.84
626.01	43353.38
626.365	43485.81
626.72	43237.45
627.075	43523.09
627.43	43557.44
627.785	43358.58
628.14	43571.23
628.495	43546.6
628.85	43626.82
629.205	43463.43
629.559	43700.26
629.914	43625.24
630.269	43676.54
630.623	43592.47
630.978	43549.98
631.332	43681.96
631.687	43899.13
632.041	43688.51
632.396	43758.79
632.75	43623.2
633.104	43654.39
633.459	43591.79
633.813	43608.74
634.167	43722.86
634.521	43732.13
634.875	43841.5
635.229	43799.92
635.583	43632.92
635.937	43723.54
636.291	43604.9
636.645	43695.97
636.999	43578.46
637.352	43739.13
637.706	43639.02
638.06	43679.25
638.413	43652.13
638.767	43399.48
639.121	43503.21
639.474	43362.87
639.828	43355.19
640.181	43434.96
640.534	43445.13
640.888	43398.12
641.241	43116.1
641.594	43259.15
641.947	43434.73
642.301	43249.88
642.654	43367.16
643.007	43365.13
643.36	43221.41
643.713	43206.72
644.066	43482.64
644.419	43217.79
644.771	42880.85
645.124	42663.45
645.477	42545.49
645.83	42262.56
646.182	42212.62
646.535	42004.49
646.888	42114.09
647.24	41886.53
647.593	42124.71
647.945	42099.85
648.298	41893.76
648.65	41844.94
649.002	41652.63
649.355	41944.6
649.707	41928.56
650.059	42171.26
650.411	42527.41
650.763	42572.16
651.115	42964.92
651.467	42726.73
651.819	42706.39
652.171	42610.57
652.523	42618.26
652.875	42570.12
653.227	42545.72
653.578	42728.09
653.93	42649.67
654.282	42569.9
654.633	42609.44
654.985	42646.96
655.337	42591.59
655.688	42506.4
656.039	42672.95
656.391	42397.25
656.742	42438.15
657.094	42477.47
657.445	42686.05
657.796	42585.04
658.147	42376.68
658.498	42492.16
658.849	42500.29
659.2	42461.43
659.551	42349.34
659.902	42309.57
660.253	42319.06
660.604	42323.8
660.955	42303.46
661.306	42284.26
661.656	42228.21
662.007	42308.44
662.358	42290.36
662.708	42287.42
663.059	42267.53
663.409	41970.14
663.76	42238.38
664.11	42314.09
664.461	42286.97
664.811	42350.92
665.161	42281.09
665.511	42164.03
665.862	42296.91
666.212	42335.78
666.562	42250.13
666.912	42081.55
667.262	42042
667.612	42112.06
667.962	42017.14
668.312	42087.42
668.662	42232.51
669.011	42299.17
669.361	42111.83
669.711	42053.75
670.06	41972.17
670.41	42017.14
670.76	42005.62
671.109	42115.9
671.459	41963.59
671.808	42051.95
672.157	42008.56
672.507	41738.73
672.856	41880.65
673.205	41915.45
673.554	42040.42
673.904	41809.24
674.253	41950.48
674.602	42024.15
674.951	41459.42
675.3	41263.04
675.649	41750.71
675.998	41685.63
676.346	41766.08
676.695	42056.46
677.044	41595.46
677.393	41818.05
677.741	41687.43
678.09	41722.24
678.438	41605.18
678.787	41605.4
679.135	41556.82
679.484	41325.41
679.832	41455.12
680.181	41200.22
680.529	41376.26
680.877	41259.65
681.225	41267.11
681.573	41374.45
681.922	41063.72
682.27	41092.87
682.618	41081.12
682.966	40960
683.314	40978.08
683.661	40822.37
684.009	40719.1
684.357	40657.86
684.705	40716.61
685.053	40611.98
685.4	40703.05
685.748	40364.53
686.095	40455.6
686.443	40243.86
686.79	40296.51
687.138	40455.15
687.485	40434.13
687.832	40209.73
688.18	40264.2
688.527	40058.1
688.874	40017.2
689.221	39871.21
689.568	39796.86
689.915	39734.94
690.262	39614.5
690.609	39607.49
690.956	39425.12
691.303	39367.04
691.65	39207.27
691.997	39270.32
692.344	38889.54
692.69	38925.7
693.037	39041.85
693.383	38708.76
693.73	38733.61
694.077	38500.4
694.423	38624.01
694.769	38479.61
695.116	38350.8
695.462	38450.23
695.808	38270.58
696.155	38347.64
696.501	37978.83
696.847	37993.07
697.193	37795.79
697.539	37907.2
697.885	37660.65
698.231	37539.97
698.577	37581.33
698.923	37546.53
699.269	37256.37
699.614	37264.5
699.96	37129.81
700.306	37162.13
700.651	36901.57
700.997	36731.41
701.342	36772.54
701.688	36724.18
702.033	36498.87
702.379	36535.71
702.724	36415.03
703.069	36582.48
703.415	36144.98
703.76	36073.35
704.105	36094.14
704.45	36027.7
704.795	35789.06
705.14	35790.19
705.485	35700.7
705.83	35752
706.175	35604.21
706.52	35528.95
706.865	35567.37
707.209	35483.08
707.554	35287.83
707.899	35353.14
708.243	35137.78
708.588	35124.44
708.932	34878.35
709.277	34970.32
709.621	34947.27
709.966	34650.56
710.31	34735.98
710.654	34357.68
710.998	34378.7
711.342	34495.08
711.687	34335.76
712.031	34389.1
712.375	34061.65
712.719	34266.16
713.063	34106.62
713.407	34176.45
713.75	33910.46
714.094	33952.27
714.438	33836.34
714.782	33828.43
715.125	33623.01
715.469	33762.45
715.812	33579.85
716.156	33414.66
716.499	33533.98
716.843	33392.96
717.186	33190.26
717.53	33528.33
717.873	33416.47
718.216	33350.48
718.559	33200.88
718.902	33121.56
719.246	33034.1
719.589	32946.2
719.932	32850.83
720.275	32810.15
720.617	32841.34
720.96	32670.95
721.303	32835.92
721.646	32663.04
721.989	32565.41
722.331	32666.2
722.674	32479.54
723.016	32499.88
723.359	32308.02
723.701	32455.81
724.044	32191.19
724.386	32033.9
724.729	32088.14
725.071	32131.53
725.413	32141.25
725.755	32079.1
726.097	31926.79
726.439	31807.47
726.782	31696.51
727.124	32047.01
727.465	31694.25
727.807	31741.03
728.149	31519.34
728.491	31522.5
728.833	31565.89
729.175	31432.79
729.516	31455.84
729.858	31425.11
730.199	31402.73
730.541	31287.93
730.882	31353.24
731.224	31360.47
731.565	31009.98
731.906	31118.67
732.248	31211.33
732.589	31004.55
732.93	30919.81
733.271	30921.39
733.612	30976.53
733.953	30956.87
734.294	30778.8
734.635	30717.55
734.976	30851.56
735.317	30580.38
735.658	30736.76
735.999	30644.79
736.339	30563.21
736.68	30734.05
737.021	30351.24
737.361	30273.05
737.702	30558.69
738.042	30351.24
738.383	30309.43
738.723	30441.63
739.063	30242.54
739.404	30443.21
739.744	30258.81
740.084	30112.37
740.424	30092.03
740.764	30010.91
741.104	30205.03
741.444	30067.18
741.784	29840.06
742.124	30009.78
742.464	29948.31
742.804	29858.82
743.143	29731.14
743.483	29782.21
743.823	29581.76
744.162	29651.37
744.502	29740.18
744.841	29546.96
745.181	29637.36
745.52	29461.09
745.86	29543.57
746.199	29455.67
746.538	29436.01
746.877	29558.71
747.216	29480.3
747.556	29335.9
747.895	29282.56
748.234	29151.27
748.573	29142.45
748.911	29036.69
749.25	29129.35
749.589	29019.97
749.928	29064.26
750.267	29041.89
750.605	28930.71
750.944	28735.46
751.283	28841.45
751.621	28776.59
751.96	28540.89
752.298	28690.94
752.636	28686.42
752.975	28452.08
753.313	28462.92
753.651	28700.43
753.989	28446.65
754.327	28434.45
754.666	28216.15
755.004	28254.57
755.342	28319.42
755.679	28187.9
756.017	28011.64
756.355	28085.31
756.693	27964.86
757.031	28008.47
757.368	27890.06
757.706	27771.87
