Data from hue_140_FLMS001491_00078.txt Node
Date: Tue Feb 07 16:56:24 GMT 2017
User: dcchb
Spectrometer: FLMS00149
Trigger mode: 0
Integration Time (sec): 2.000000E-2
Scans to average: 10
Electric dark correction enabled: true
Nonlinearity correction enabled: false
Boxcar width: 0
XAxis mode: Wavelengths
Number of Pixels in Spectrum: 2048
>>>>>Begin Spectral Data<<<<<
341.393	-18.35
341.776	-18.35
342.16	-18.35
342.543	-71.45
342.927	-65.35
343.31	-78.46
343.693	-64
344.077	-74.16
344.46	-69.42
344.843	-64.22
345.226	-34.84
345.61	-25.13
345.993	-26.26
346.376	-7.5
346.759	14.42
347.142	31.37
347.525	31.82
347.908	51.26
348.291	83.57
348.674	117.47
349.057	114.08
349.44	112.27
349.823	148.65
350.206	143.91
350.588	189.56
350.971	209.9
351.354	211.03
351.737	238.82
352.119	264.13
352.502	261.87
352.884	259.39
353.267	279.95
353.65	295.09
354.032	300.51
354.414	310.01
354.797	298.48
355.179	325.15
355.562	319.72
355.944	326.28
356.326	329.67
356.709	350.46
357.091	336.9
357.473	324.92
357.855	336.9
358.238	339.84
358.62	327.18
359.002	345.71
359.384	331.02
359.766	322.44
360.148	335.77
360.53	321.76
360.912	322.89
361.294	354.07
361.676	328.08
362.057	334.19
362.439	316.79
362.821	307.07
363.203	326.95
363.584	329.67
363.966	329.67
364.348	332.83
364.729	327.18
365.111	317.24
365.493	303
365.874	335.54
366.256	315.88
366.637	316.56
367.019	320.4
367.4	324.24
367.781	293.51
368.163	326.05
368.544	331.7
368.925	336.9
369.306	297.8
369.688	298.93
370.069	305.03
370.45	322.21
370.831	325.15
371.212	326.5
371.593	313.62
371.974	329.67
372.355	336.22
372.736	297.8
373.117	321.98
373.498	334.64
373.879	327.63
374.26	318.37
374.641	316.79
375.021	313.62
375.402	321.53
375.783	342.32
376.163	338.93
376.544	334.64
376.925	322.89
377.305	333.06
377.686	331.93
378.066	321.98
378.447	342.32
378.827	345.71
379.208	328.54
379.588	327.41
379.968	340.74
380.349	330.8
380.729	331.02
381.109	347.97
381.489	334.86
381.87	326.05
382.25	331.7
382.63	319.95
383.01	345.94
383.39	328.08
383.77	364.24
384.15	347.75
384.53	355.2
384.91	338.93
385.29	339.38
385.67	350.68
386.049	350.68
386.429	366.95
386.809	359.95
387.189	349.1
387.568	365.37
387.948	348.42
388.328	351.13
388.707	368.31
389.087	364.24
389.466	360.17
389.846	359.27
390.225	356.56
390.605	357.01
390.984	374.64
391.363	374.19
391.743	362.89
392.122	370.12
392.501	399.04
392.881	371.93
393.26	383.68
393.639	397.01
394.018	381.42
394.397	399.5
394.776	394.07
395.155	392.49
395.534	392.04
395.913	383.45
396.292	373.51
396.671	384.81
397.05	405.6
397.429	383.22
397.808	388.2
398.186	402.66
398.565	400.4
398.944	396.78
399.323	395.43
399.701	406.73
400.08	390.46
400.458	409.89
400.837	407.18
401.215	419.38
401.594	411.25
401.972	418.25
402.351	404.01
402.729	440.62
403.107	431.36
403.486	417.35
403.864	427.29
404.242	443.11
404.62	430.68
404.999	434.75
405.377	426.16
405.755	451.7
406.133	443.11
406.511	439.49
406.889	423.9
407.267	434.75
407.645	441.98
408.023	467.74
408.401	461.87
408.779	472.71
409.156	477.69
409.534	460.51
409.912	473.17
410.29	472.04
410.667	467.74
411.045	474.07
411.422	457.8
411.8	479.72
412.178	479.27
412.555	475.43
412.933	496.89
413.31	458.48
413.687	473.84
414.065	494.63
414.442	495.99
414.819	506.84
415.197	522.66
415.574	513.62
415.951	497.8
416.328	510.68
416.705	515.2
417.082	503.45
417.46	502.09
417.837	515.65
418.214	507.97
418.591	518.14
418.967	518.36
419.344	541.86
419.721	561.07
420.098	552.94
420.475	538.93
420.852	555.88
421.228	570.34
421.605	550
421.982	565.14
422.358	557.68
422.735	589.32
423.111	593.84
423.488	563.56
423.864	567.63
424.241	599.26
424.617	598.13
424.994	594.52
425.37	602.65
425.746	574.86
426.123	630.45
426.499	592.03
426.875	588.64
427.251	615.99
427.627	606.5
428.003	615.53
428.379	629.77
428.756	635.2
429.132	646.49
429.507	648.3
429.883	657.34
430.259	646.95
430.635	662.54
431.011	672.48
431.387	675.87
431.763	663.89
432.138	671.13
432.514	688.3
432.89	675.42
433.265	687.17
433.641	713.39
434.016	706.61
434.392	711.13
434.767	738.7
435.143	734.18
435.518	726.27
435.894	738.02
436.269	761.75
436.644	754.97
437.02	758.13
437.395	775.3
437.77	761.07
438.145	788.64
438.52	777.79
438.895	791.58
439.271	796.55
439.646	810.78
440.021	814.85
440.395	817.56
440.77	821.86
441.145	821.4
441.52	842.2
441.895	834.96
442.27	838.81
442.645	859.6
443.019	881.29
443.394	843.33
443.769	858.01
444.143	862.99
444.518	861.86
444.892	902.76
445.267	868.86
445.641	911.12
446.016	872.03
446.39	883.32
446.764	874.74
447.139	915.41
447.513	902.31
447.887	892.59
448.262	926.71
448.636	927.62
449.01	946.6
449.384	956.54
449.758	935.3
450.132	961.74
450.506	981.4
450.88	973.27
451.254	967.39
451.628	971.68
452.002	979.59
452.376	978.69
452.75	1018.69
453.123	1012.36
453.497	1031.34
453.871	1039.03
454.244	1059.82
454.618	1078.8
454.992	1062.3
455.365	1078.35
455.739	1096.88
456.112	1122.41
456.486	1108.63
456.859	1139.81
457.232	1162.64
457.606	1141.17
457.979	1136.2
458.352	1187.5
458.725	1178.68
459.099	1191.79
459.472	1208.29
459.845	1225.46
460.218	1252.81
460.591	1262.3
460.964	1266.37
461.337	1299.13
461.71	1324.44
462.083	1354.5
462.456	1351.33
462.829	1372.12
463.201	1366.48
463.574	1339.13
463.947	1388.4
464.32	1448.06
464.692	1433.59
465.065	1470.65
465.438	1489.64
465.81	1492.8
466.183	1504.55
466.555	1528.96
466.928	1548.39
467.3	1561.5
467.672	1587.26
468.045	1651.67
468.417	1648.73
468.789	1660.25
469.161	1722.17
469.534	1744.32
469.906	1764.66
470.278	1774.83
470.65	1786.8
471.022	1837.88
471.394	1905.67
471.766	1909.06
472.138	1962.84
472.51	2014.14
472.882	2047.36
473.253	2079
473.625	2135.95
473.997	2173.46
474.369	2188.37
474.74	2206.45
475.112	2279.67
475.484	2359.22
475.855	2409.84
476.227	2428.14
476.598	2544.52
476.97	2580.91
477.341	2648.93
477.713	2688.02
478.084	2727.12
478.455	2837.17
478.827	2865.42
479.198	3017.28
479.569	3033.32
479.94	3116.03
480.311	3245.3
480.682	3313.32
481.053	3421.79
481.424	3506.31
481.795	3552.63
482.166	3673.99
482.537	3723.7
482.908	3858.39
483.279	3942.9
483.65	4039.63
484.021	4206.85
484.391	4324.59
484.762	4360.97
485.133	4463.8
485.503	4558.26
485.874	4705.6
486.244	4827.63
486.615	4934.29
486.985	5079.82
487.356	5195.3
487.726	5327.28
488.097	5381.29
488.467	5529.53
488.837	5754.61
489.207	5883.87
489.578	5971.55
489.948	6090.87
490.318	6287.25
490.688	6358.21
491.058	6533.35
491.428	6687.24
491.798	6825.54
492.168	6965.2
492.538	7012.43
492.908	7216.94
493.278	7362.7
493.648	7459.65
494.017	7615.8
494.387	7753.88
494.757	7881.78
495.126	8008.33
495.496	8084.49
495.866	8244.94
496.235	8369.46
496.605	8491.71
496.974	8598.38
497.344	8734.19
497.713	8842.66
498.082	9017.57
498.452	9112.71
498.821	9207.63
499.19	9310
499.559	9456.43
499.928	9518.8
500.298	9624.34
500.667	9758.57
501.036	9798.57
501.405	9926.7
501.774	9978.68
502.143	10172.57
502.512	10167.15
502.88	10299.35
503.249	10340.25
503.618	10417.99
503.987	10498.44
504.356	10608.04
504.724	10783.85
505.093	10813.68
505.462	10913.57
505.83	10996.05
506.199	11091.87
506.567	11185.43
506.936	11271.75
507.304	11404.4
507.672	11389.71
508.041	11471.07
508.409	11532.54
508.777	11674
509.145	11710.84
509.514	11729.37
509.882	11750.16
510.25	11850.72
510.618	11893.43
510.986	12011.17
511.354	12104.95
511.722	12182.69
512.09	12257.94
512.458	12231.27
512.826	12241.67
513.193	12409.8
513.561	12398.73
513.929	12487.09
514.297	12649.79
514.664	12675.1
515.032	12689.34
515.4	12703.13
515.767	12802.78
516.135	12830.81
516.502	12807.08
516.869	12899.96
517.237	12956.68
517.604	12935.89
517.972	12949
518.339	13015.43
518.706	13002.1
519.073	13112.16
519.44	13070.12
519.808	13209.1
520.175	13142.21
520.542	13284.81
520.909	13348.99
521.276	13262.43
521.643	13387.85
522.009	13458.59
522.376	13457.68
522.743	13481.86
523.11	13575.87
523.477	13696.32
523.843	13646.83
524.21	13768.64
524.577	13744.68
524.943	13812.93
525.31	13836.66
525.676	13920.04
526.043	13873.27
526.409	13939.93
526.776	14005.69
527.142	14029.87
527.508	14052.02
527.874	14067.84
528.241	14095.18
528.607	14055.18
528.973	14053.15
529.339	14058.35
529.705	14153.71
530.071	14231.22
530.437	14187.16
530.803	14137.89
531.169	14223.54
531.535	14178.57
531.901	14118
532.267	14238
532.632	14178.57
532.998	14261.05
533.364	14169.3
533.73	14168.17
534.095	14211.34
534.461	14144.44
534.826	14140.38
535.192	14265.12
535.557	14206.59
535.923	14158.91
536.288	14162.98
536.653	14180.83
537.019	14080.27
537.384	14060.38
537.749	14091.79
538.114	13995.07
538.479	14050.66
538.845	13913.26
539.21	13976.99
539.575	13981.51
539.94	13947.16
540.305	13924.56
540.67	13847.73
541.034	13842.53
541.399	13788.07
541.764	13839.59
542.129	13777.22
542.494	13775.87
542.858	13741.29
543.223	13779.93
543.587	13681.18
543.952	13614.06
544.316	13611.8
544.681	13583.33
545.045	13541.3
545.41	13641.18
545.774	13498.36
546.138	13480.51
546.503	13393.28
546.867	13376.78
547.231	13501.52
547.595	13462.65
547.959	13343.34
548.324	13317.57
548.688	13352.37
549.052	13310.12
549.416	13287.29
549.779	13274.18
550.143	13277.12
550.507	13232.15
550.871	13238.71
551.235	13126.84
551.599	13192.61
551.962	13184.92
552.326	13098.82
552.689	13163.23
553.053	13012.5
553.417	13020.63
553.78	13120.52
554.143	13016.34
554.507	12986.06
554.87	12982.22
555.234	13031.25
555.597	12943.12
555.96	12964.14
556.323	12900.86
556.686	12917.13
557.05	12939.5
557.413	12859.28
557.776	12930.69
558.139	12905.38
558.502	12910.8
558.865	12836.91
559.228	12890.69
559.59	12911.03
559.953	12866.06
560.316	12954.65
560.679	12945.15
561.041	12972.5
561.404	13018.37
561.767	13060.63
562.129	12887.08
562.492	12981.99
562.854	12986.73
563.217	12998.49
563.579	12966.85
563.941	13026.51
564.304	13070.57
564.666	13047.98
565.028	13021.31
565.39	12989.9
565.753	13115.54
566.115	13063.79
566.477	13053.17
566.839	13117.13
567.201	13155.09
567.563	13115.32
567.925	13170.91
568.287	13186.28
568.648	13103.57
569.01	13226.5
569.372	13306.73
569.734	13238.71
570.095	13317.12
570.457	13303.34
570.819	13309.66
571.18	13273.96
571.542	13255.43
571.903	13338.36
572.265	13348.08
572.626	13333.62
572.987	13360.28
573.349	13424.01
573.71	13386.05
574.071	13383.11
574.432	13497.91
574.794	13586.27
575.155	13476.67
575.516	13413.16
575.877	13481.19
576.238	13514.63
576.599	13495.65
576.96	13559.83
577.32	13444.8
577.681	13535.42
578.042	13539.26
578.403	13525.7
578.763	13525.48
579.124	13499.49
579.485	13591.01
579.845	13525.25
580.206	13610.45
580.566	13571.13
580.927	13506.72
581.287	13588.75
581.648	13496.55
582.008	13625.59
582.368	13496.33
582.728	13569.77
583.089	13507.85
583.449	13487.29
583.809	13488.64
584.169	13476.21
584.529	13485.03
584.889	13552.14
585.249	13450.23
585.609	13474.41
585.969	13467.4
586.329	13539.04
586.688	13540.39
587.048	13398.93
587.408	13400.51
587.768	13452.94
588.127	13407.74
588.487	13340.62
588.846	13416.1
589.206	13316.67
589.565	13318.93
589.925	13442.32
590.284	13379.27
590.643	13338.36
591.003	13417.23
591.362	13419.27
591.721	13386.5
592.08	13295.43
592.44	13367.29
592.799	13317.35
593.158	13311.92
593.517	13304.69
593.876	13342.21
594.235	13264.47
594.593	13293.62
594.952	13301.08
595.311	13312.83
595.67	13294.3
596.029	13346.73
596.387	13257.24
596.746	13366.61
597.104	13264.02
597.463	13287.74
597.822	13335.65
598.18	13322.77
598.538	13215.43
598.897	13287.97
599.255	13221.08
599.613	13422.66
599.972	13308.76
600.33	13334.75
600.688	13247.97
601.046	13355.76
601.404	13367.06
601.762	13359.61
602.12	13373.62
602.478	13363.45
602.836	13401.19
603.194	13320.29
603.552	13297.46
603.91	13255.2
604.268	13272.38
604.625	13230.8
604.983	13301.75
605.341	13268.54
605.698	13250.46
606.056	13302.21
606.413	13301.3
606.771	13358.48
607.128	13364.13
607.485	13314.64
607.843	13282.77
608.2	13462.43
608.557	13391.92
608.914	13337.91
609.272	13407.74
609.629	13445.48
609.986	13405.93
610.343	13325.71
610.7	13476.21
611.057	13465.82
611.414	13449.1
611.771	13481.64
612.127	13534.97
612.484	13565.48
612.841	13542.65
613.198	13468.3
613.554	13492.26
613.911	13565.25
614.267	13589.43
614.624	13466.27
614.98	13574.29
615.337	13637.79
615.693	13564.57
616.05	13576.78
616.406	13673.72
616.762	13604.57
617.118	13603.22
617.475	13618.81
617.831	13715.53
618.187	13631.01
618.543	13674.17
618.899	13677.56
619.255	13631.69
619.611	13638.47
619.967	13709.88
620.323	13726.38
620.678	13684.57
621.034	13725.92
621.39	13689.09
621.746	13697.68
622.101	13819.71
622.457	13646.83
622.812	13726.15
623.168	13704
623.523	13699.71
623.879	13772.48
624.234	13623.33
624.589	13753.49
624.945	13699.71
625.3	13730.9
625.655	13701.52
626.01	13774.74
626.365	13806.37
626.72	13707.17
627.075	13638.24
627.43	13700.84
627.785	13661.29
628.14	13641.41
628.495	13665.14
628.85	13661.75
629.205	13703.78
629.559	13732.93
629.914	13602.99
630.269	13701.07
630.623	13659.26
630.978	13656.1
631.332	13689.99
631.687	13694.74
632.041	13568.64
632.396	13603.22
632.75	13557.12
633.104	13521.86
633.459	13471.24
633.813	13431.92
634.167	13443.22
634.521	13464.69
634.875	13476.67
635.229	13378.81
635.583	13340.4
635.937	13419.72
636.291	13419.72
636.645	13357.8
636.999	13339.27
637.352	13455.42
637.706	13193.28
638.06	13368.19
638.413	13291.81
638.767	13182.21
639.121	13251.36
639.474	13243.68
639.828	13099.05
640.181	13219.5
640.534	13212.94
640.888	13214.3
641.241	13154.87
641.594	13109.67
641.947	13258.37
642.301	13128.88
642.654	13230.34
643.007	13234.64
643.36	13178.82
643.713	13106.96
644.066	13150.12
644.419	13164.58
644.771	12947.87
645.124	12885.49
645.477	12904.48
645.83	12705.61
646.182	12706.06
646.535	12733.86
646.888	12704.03
647.24	12678.72
647.593	12764.37
647.945	12662.9
648.298	12602.11
648.65	12625.61
649.002	12591.72
649.355	12660.64
649.707	12709
650.059	12664.71
650.411	12894.53
650.763	12889.79
651.115	12986.06
651.467	12998.49
651.819	12935.21
652.171	12971.14
652.523	12895.89
652.875	12900.18
653.227	12824.71
653.578	12959.62
653.93	12918.49
654.282	12835.1
654.633	12852.73
654.985	12915.55
655.337	12942.22
655.688	12907.19
656.039	12981.09
656.391	12902.67
656.742	12884.82
657.094	12897.92
657.445	12934.53
657.796	12925.04
658.147	12873.07
658.498	12977.24
658.849	12967.75
659.2	12969.11
659.551	12851.82
659.902	12985.83
660.253	12885.49
660.604	12953.06
660.955	12925.72
661.306	12992.61
661.656	12897.02
662.007	12932.05
662.358	12859.96
662.708	12953.97
663.059	12977.24
663.409	12901.54
663.76	12913.97
664.11	12961.2
664.461	13013.17
664.811	12928.88
665.161	12979.73
665.511	12990.35
665.862	12976.34
666.212	13080.52
666.562	13019.05
666.912	13012.72
667.262	12954.42
667.612	12897.7
667.962	13036.45
668.312	12984.47
668.662	12979.96
669.011	12946.51
669.361	12976.34
669.711	12937.92
670.06	12892.05
670.41	12886.85
670.76	12833.97
671.109	12974.53
671.459	12907.87
671.808	12929.56
672.157	12861.99
672.507	12814.99
672.856	12843.91
673.205	12810.24
673.554	12859.28
673.904	12856.57
674.253	12891.14
674.602	12804.37
674.951	12688.89
675.3	12598.72
675.649	12840.07
675.998	12770.47
676.346	12818.6
676.695	12764.37
677.044	12755.33
677.393	12778.38
677.741	12787.64
678.09	12718.72
678.438	12697.02
678.787	12673.3
679.135	12735.67
679.484	12620.42
679.832	12652.73
680.181	12582
680.529	12626.74
680.877	12545.39
681.225	12490.48
681.573	12623.81
681.922	12515.33
682.27	12532.74
682.618	12474.66
682.966	12412.74
683.314	12378.84
683.661	12377.71
684.009	12403.47
684.357	12288.67
684.705	12351.05
685.053	12289.35
685.4	12356.02
685.748	12212.52
686.095	12156.93
686.443	12196.25
686.79	12113.76
687.138	12194.67
687.485	12132.75
687.832	12158.73
688.18	12043.48
688.527	11941.11
688.874	12000.32
689.221	11921.23
689.568	11899.98
689.915	11869.7
690.262	11968.91
690.609	11864.5
690.956	11840.78
691.303	11808.69
691.65	11814.11
691.997	11767.11
692.344	11752.42
692.69	11688.01
693.037	11711.29
693.383	11532.99
693.73	11524.17
694.077	11407.34
694.423	11486.44
694.769	11383.39
695.116	11373.9
695.462	11369.38
695.808	11360.34
696.155	11327.57
696.501	11233.33
696.847	11226.1
697.193	11141.36
697.539	11234.01
697.885	11078.76
698.231	11029.5
698.577	11011.65
698.923	11090.06
699.269	10935.04
699.614	10884.64
699.96	10866.34
700.306	10874.7
700.651	10810.29
700.997	10764.65
701.342	10681.03
701.688	10658.89
702.033	10698.89
702.379	10649.4
702.724	10627.02
703.069	10650.98
703.415	10518.55
703.76	10483.07
704.105	10499.57
704.45	10473.35
704.795	10432.68
705.14	10318.1
705.485	10377.54
705.83	10267.48
706.175	10259.57
706.52	10216.64
706.865	10165.11
707.209	10222.97
707.554	10148.39
707.899	10231.78
708.243	10108.84
708.588	10037.66
708.932	10003.99
709.277	9991.56
709.621	10008.06
709.966	9992.46
710.31	10026.13
710.654	9869.53
710.998	9781.62
711.342	9882.41
711.687	9851.45
712.031	9805.35
712.375	9761.73
712.719	9880.6
713.063	9753.37
713.407	9806.48
713.75	9710.21
714.094	9674.28
714.438	9674.96
714.782	9649.87
715.125	9628.18
715.469	9671.34
715.812	9589.08
716.156	9538.69
716.499	9611
716.843	9564.68
717.186	9553.83
717.53	9562.42
717.873	9556.99
718.216	9434.06
718.559	9442.2
718.902	9352.48
719.246	9427.05
719.589	9420.05
719.932	9386.38
720.275	9425.47
720.617	9471.8
720.96	9283.33
721.303	9300.96
721.646	9334.85
721.989	9291.01
722.331	9307.06
722.674	9278.81
723.016	9307.74
723.359	9246.04
723.701	9241.3
724.044	9215.76
724.386	9204.69
724.729	9293.5
725.071	9275.42
725.413	9207.85
725.755	9249.43
726.097	9155.42
726.439	9124.46
726.782	9151.58
727.124	9216.44
727.465	9137.8
727.807	9130.79
728.149	9136.21
728.491	9117.46
728.833	9174.18
729.175	9134.18
729.516	9119.27
729.858	9067.52
730.199	9100.28
730.541	9122.43
730.882	9041.53
731.224	9086.27
731.565	9044.92
731.906	9071.13
732.248	9086.95
732.589	9035.65
732.93	8967.41
733.271	9020.51
733.612	9043.56
733.953	9029.1
734.294	8992.94
734.635	9023.9
734.976	9028.65
735.317	8957.46
735.658	9034.97
735.999	9029.32
736.339	9018.03
736.68	8984.35
737.021	9023.45
737.361	9026.61
737.702	9121.98
738.042	9026.61
738.383	9075.2
738.723	9059.15
739.063	9030.91
739.404	9155.65
739.744	9126.27
740.084	9042.21
740.424	9157
740.764	9108.42
741.104	9194.97
741.444	9113.62
741.784	9071.81
742.124	9231.13
742.464	9174.86
742.804	9240.62
743.143	9179.15
743.483	9233.84
743.823	9228.64
744.162	9215.08
744.502	9318.58
744.841	9260.73
745.181	9358.13
745.52	9376.43
745.86	9329.2
746.199	9445.58
746.538	9485.13
746.877	9472.7
747.216	9569.2
747.556	9582.98
747.895	9672.02
748.234	9701.62
748.573	9707.27
748.911	9739.36
749.25	9794.5
749.589	9817.55
749.928	9904.1
750.267	9981.84
750.605	10111.33
750.944	10083.99
751.283	10152.23
751.621	10300.93
751.96	10272
752.298	10359.01
752.636	10535.5
752.975	10591.77
753.313	10642.62
753.651	10883.06
753.989	10813.46
754.327	10980.23
754.666	11032.21
755.004	11220.23
755.342	11343.39
755.679	11466.77
756.017	11544.06
756.355	11699.99
756.693	11846.2
757.031	11983.82
757.368	12047.32
757.706	12221.33
758.044	12373.42
758.381	12565.95
758.719	12627.42
759.056	12837.36
