Data from hue_230_FLMS001491_00093.txt Node
Date: Tue Feb 07 16:38:00 GMT 2017
User: dcchb
Spectrometer: FLMS00149
Trigger mode: 0
Integration Time (sec): 2.000000E-2
Scans to average: 10
Electric dark correction enabled: true
Nonlinearity correction enabled: false
Boxcar width: 0
XAxis mode: Wavelengths
Number of Pixels in Spectrum: 2048
>>>>>Begin Spectral Data<<<<<
341.393	-12.34
341.776	-12.34
342.16	-12.34
342.543	-73.13
342.927	-68.39
343.31	-69.07
343.693	-60.48
344.077	-46.47
344.46	-46.24
344.843	-63.42
345.226	-38.11
345.61	-40.82
345.993	-33.81
346.376	10.93
346.759	5.96
347.142	27.2
347.525	43.93
347.908	41.44
348.291	66.07
348.674	83.7
349.057	119.18
349.44	115.56
349.823	153.3
350.206	167.99
350.588	185.62
350.971	200.98
351.354	219.97
351.737	236.91
352.119	244.15
352.502	266.07
352.884	255.22
353.267	292.73
353.65	303.58
354.032	286.63
354.414	304.94
354.797	303.13
355.179	296.35
355.562	304.71
355.944	305.61
356.326	331.6
356.709	318.72
357.091	306.97
357.473	328.66
357.855	332.05
358.238	341.32
358.62	332.73
359.002	349.91
359.384	327.53
359.766	315.56
360.148	334.77
360.53	345.61
360.912	329.12
361.294	329.79
361.676	316.23
362.057	333.64
362.439	334.31
362.821	339.06
363.203	314.65
363.584	314.43
363.966	324.82
364.348	316.23
364.729	289.34
365.111	295.22
365.493	323.24
365.874	311.71
366.256	314.43
366.637	292.51
367.019	301.09
367.4	299.96
367.781	293.18
368.163	301.55
368.544	300.42
368.925	297.03
369.306	327.76
369.688	302.45
370.069	296.12
370.45	302.9
370.831	307.87
371.212	294.99
371.593	310.13
371.974	301.09
372.355	310.81
372.736	300.87
373.117	296.35
373.498	316.69
373.879	321.21
374.26	321.21
374.641	311.71
375.021	305.16
375.402	312.62
375.783	306.07
376.163	331.15
376.544	318.27
376.925	304.26
377.305	321.21
377.686	320.53
378.066	311.71
378.447	327.76
378.827	317.36
379.208	320.08
379.588	307.65
379.968	303.81
380.349	337.7
380.729	322.79
381.109	322.11
381.489	315.78
381.87	350.36
382.25	317.82
382.63	343.58
383.01	327.31
383.39	312.17
383.77	324.14
384.15	312.62
384.53	335.67
384.91	325.73
385.29	331.38
385.67	345.84
386.049	346.29
386.429	332.96
386.809	317.59
387.189	344.48
387.568	318.04
387.948	347.42
388.328	361.21
388.707	347.19
389.087	344.71
389.466	340.19
389.846	362.34
390.225	365.27
390.605	342
390.984	365.5
391.363	369.79
391.743	360.53
392.122	360.3
392.501	341.09
392.881	358.95
393.26	368.21
393.639	378.15
394.018	364.59
394.397	351.49
394.776	377.25
395.155	372.28
395.534	365.27
395.913	376.57
396.292	387.42
396.671	365.72
397.05	370.02
397.429	396.91
397.808	381.77
398.186	394.42
398.565	375.44
398.944	395.1
399.323	414.99
399.701	377.48
400.08	400.53
400.458	398.94
400.837	398.04
401.215	394.88
401.594	390.36
401.972	389.23
402.351	399.85
402.729	401.88
403.107	416.8
403.486	406.4
403.864	403.01
404.242	418.38
404.62	401.66
404.999	424.03
405.377	431.03
405.755	435.78
406.133	421.99
406.511	412.73
406.889	439.17
407.267	440.98
407.645	456.34
408.023	452.73
408.401	445.72
408.779	458.15
409.156	454.08
409.534	436.01
409.912	477.81
410.29	477.59
410.667	507.64
411.045	480.3
411.422	483.69
411.8	497.92
412.178	499.73
412.555	523.23
412.933	522.78
413.31	521.43
413.687	522.1
414.065	534.99
414.442	541.31
414.819	553.52
415.197	549.45
415.574	557.81
415.951	559.84
416.328	570.47
416.705	584.25
417.082	584.48
417.46	598.94
417.837	609.11
418.214	601.88
418.591	602.1
418.967	617.24
419.344	615.89
419.721	630.8
420.098	633.06
420.475	636.45
420.852	643.91
421.228	675.32
421.605	663.57
421.982	690.46
422.358	691.59
422.735	714.64
423.111	686.85
423.488	695.21
423.864	735.21
424.241	716.45
424.617	721.65
424.994	764.13
425.37	749.22
425.746	774.75
426.123	786.05
426.499	768.65
426.875	788.31
427.251	806.84
427.627	812.72
428.003	815.66
428.379	812.27
428.756	844.58
429.132	836.22
429.507	853.62
429.883	848.42
430.259	829.44
430.635	885.49
431.011	883.68
431.387	911.25
431.763	924.81
432.138	908.76
432.514	914.19
432.89	943.56
433.265	962.77
433.641	966.61
434.016	977.46
434.392	1006.84
434.767	1052.26
435.143	1054.07
435.518	1034.63
435.894	1075.54
436.269	1080.06
436.644	1112.37
437.02	1138.81
437.395	1106.72
437.77	1138.81
438.145	1123.9
438.52	1154.86
438.895	1185.36
439.271	1175.2
439.646	1214.06
440.021	1210
440.395	1262.2
440.77	1252.71
441.145	1266.27
441.52	1295.19
441.895	1299.03
442.27	1266.94
442.645	1315.53
443.019	1320.95
443.394	1291.58
443.769	1353.95
444.143	1346.72
444.518	1348.52
444.892	1371.35
445.267	1389.88
445.641	1413.83
446.016	1428.52
446.39	1398.92
446.764	1435.3
447.139	1417
447.513	1468.29
447.887	1467.62
448.262	1462.42
448.636	1469.65
449.01	1496.32
449.384	1492.25
449.758	1491.12
450.132	1525.24
450.506	1555.52
450.88	1551.68
451.254	1550.55
451.628	1553.72
452.002	1586.94
452.376	1612.7
452.75	1600.04
453.123	1616.54
453.497	1661.74
453.871	1616.99
454.244	1715.52
454.618	1710.77
454.992	1713.26
455.365	1719.59
455.739	1763.88
456.112	1742.64
456.486	1805.91
456.859	1769.08
457.232	1832.13
457.606	1837.78
457.979	1847.95
458.352	1880.26
458.725	1905.12
459.099	1869.87
459.472	1914.16
459.845	1959.36
460.218	1961.62
460.591	1983.99
460.964	1994.38
461.337	2025.57
461.71	2068.96
462.083	2082.06
462.456	2050.2
462.829	2089.75
463.201	2168.16
463.574	2143.76
463.947	2139.46
464.32	2203.87
464.692	2216.52
465.065	2219.46
465.438	2282.96
465.81	2303.98
466.183	2305.79
466.555	2356.41
466.928	2399.57
467.3	2360.02
467.672	2398.67
468.045	2470.98
468.417	2441.6
468.789	2472.56
469.161	2491.09
469.534	2531.32
469.906	2598.43
470.278	2580.81
470.65	2639.79
471.022	2656.29
471.394	2721.14
471.766	2696.51
472.138	2764.76
472.51	2802.27
472.882	2825.77
473.253	2873.68
473.625	2871.87
473.997	2948.93
474.369	2976.73
474.74	2966.11
475.112	3015.82
475.484	3088.37
475.855	3102.6
476.227	3153.45
476.598	3233.67
476.97	3253.11
477.341	3290.62
477.713	3340.34
478.084	3385.53
478.455	3475.93
478.827	3469.82
479.198	3521.35
479.569	3555.02
479.94	3630.05
480.311	3654.68
480.682	3716.37
481.053	3804.73
481.424	3819.65
481.795	3863.03
482.166	3891.28
482.537	3941.22
482.908	4023.71
483.279	4043.37
483.65	4142.35
484.021	4178.96
484.391	4243.36
484.762	4269.58
485.133	4278.39
485.503	4362.23
485.874	4414.43
486.244	4467.76
486.615	4509.8
486.985	4573.75
487.356	4592.28
487.726	4620.53
488.097	4721.09
488.467	4752.95
488.837	4818.94
489.207	4867.98
489.578	4965.38
489.948	4957.92
490.318	5020.29
490.688	5072.04
491.058	5111.59
491.428	5163.11
491.798	5175.09
492.168	5292.37
492.538	5287.4
492.908	5386.84
493.278	5434.97
493.648	5407.4
494.017	5488.08
494.387	5524.01
494.757	5523.33
495.126	5597.45
495.496	5581.63
495.866	5654.17
496.235	5706.6
496.605	5663.89
496.974	5710.22
497.344	5775.75
497.713	5781.63
498.082	5835.64
498.452	5853.04
498.821	5891.46
499.19	5917.67
499.559	5925.8
499.928	5896.43
500.298	5986.82
500.667	6020.72
501.036	6075.63
501.405	6086.93
501.774	6058.91
502.143	6097.1
502.512	6153.14
502.88	6168.28
503.249	6176.19
503.618	6244.21
503.987	6217.55
504.356	6247.38
504.724	6213.25
505.093	6238.56
505.462	6244.89
505.83	6333.7
506.199	6323.31
506.567	6391.78
506.936	6382.74
507.304	6472.91
507.672	6448.73
508.041	6460.93
508.409	6533.25
508.777	6525.11
509.145	6550.2
509.514	6558.33
509.882	6592.68
510.25	6530.76
510.618	6581.83
510.986	6558.56
511.354	6569.86
511.722	6661.83
512.09	6686.01
512.458	6656.86
512.826	6753.13
513.193	6714.71
513.561	6717.87
513.929	6713.35
514.297	6730.98
514.664	6743.41
515.032	6763.97
515.4	6876.29
515.767	6790.87
516.135	6836.06
516.502	6787.93
516.869	6854.59
517.237	6863.86
517.604	6865.67
517.972	6909.51
518.339	6904.76
518.706	6836.97
519.073	6876.97
519.44	6959.22
519.808	6956.74
520.175	6916.51
520.542	6972.33
520.909	6995.16
521.276	6923.07
521.643	6959.9
522.009	6999.22
522.376	6998.77
522.743	7013.91
523.11	7051.65
523.477	7072.67
523.843	7118.54
524.21	7145.89
524.577	7144.53
524.943	7081.48
525.31	7165.77
525.676	7180.91
526.043	7235.83
526.409	7140.46
526.776	7250.29
527.142	7217.07
527.508	7145.43
527.874	7230.18
528.241	7243.51
528.607	7247.35
528.973	7291.19
529.339	7231.31
529.705	7288.25
530.071	7258.2
530.437	7239.89
530.803	7226.34
531.169	7270.85
531.535	7281.48
531.901	7254.36
532.267	7262.49
532.632	7286.22
532.998	7259.55
533.364	7255.94
533.73	7286.45
534.095	7253.45
534.461	7294.81
534.826	7294.58
535.192	7288.71
535.557	7307.92
535.923	7273.79
536.288	7257.97
536.653	7280.57
537.019	7235.6
537.384	7233.34
537.749	7193.34
538.114	7259.55
538.479	7231.08
538.845	7189.5
539.21	7155.15
539.575	7158.31
539.94	7174.13
540.305	7126.45
540.67	7121.93
541.034	7067.7
541.399	7154.47
541.764	7135.04
542.129	7099.79
542.494	7126.68
542.858	7109.95
543.223	7081.93
543.587	7114.47
543.952	7060.69
544.316	7045.32
544.681	7057.75
545.045	7052.33
545.41	7031.54
545.774	7013.69
546.138	7016.85
546.503	6953.12
546.867	6965.1
547.231	7044.87
547.595	6996.06
547.959	6991.09
548.324	6921.71
548.688	6923.97
549.052	6946.57
549.416	6924.2
549.779	6914.71
550.143	6877.19
550.507	6900.02
550.871	6866.57
551.235	6853.01
551.599	6837.87
551.962	6926
552.326	6860.47
552.689	6875.61
553.053	6739.12
553.417	6801.49
553.78	6865.67
554.143	6783.41
554.507	6829.51
554.87	6845.33
555.234	6800.81
555.597	6724.43
555.96	6817.31
556.323	6763.52
556.686	6768.04
557.05	6786.12
557.413	6758.55
557.776	6791.09
558.139	6766.69
558.502	6773.47
558.865	6766.23
559.228	6837.65
559.59	6825.89
559.953	6735.5
560.316	6775.73
560.679	6822.28
561.041	6825.89
561.404	6856.63
561.767	6868.6
562.129	6895.72
562.492	6883.52
562.854	6850.53
563.217	6866.12
563.579	6854.37
563.941	6889.85
564.304	6935.72
564.666	6931.65
565.028	6896.17
565.39	6933.24
565.753	6986.57
566.115	6962.61
566.477	6939.11
566.839	6976.17
567.201	7013.69
567.563	6959.45
567.925	6954.48
568.287	6988.83
568.648	7031.31
569.01	7083.74
569.372	7120.8
569.734	7043.29
570.095	7085.77
570.457	7158.99
570.819	7116.28
571.18	7129.16
571.542	7165.77
571.903	7175.94
572.265	7198.99
572.626	7168.26
572.987	7182.27
573.349	7218.2
573.71	7292.32
574.071	7253.68
574.432	7291.64
574.794	7293.9
575.155	7339.1
575.516	7297.97
575.877	7335.94
576.238	7275.83
576.599	7340
576.96	7358.54
577.32	7384.75
577.681	7422.04
578.042	7408.93
578.403	7396.27
578.763	7488.02
579.124	7464.75
579.485	7470.17
579.845	7448.02
580.206	7451.87
580.566	7498.87
580.927	7531.19
581.287	7535.03
581.648	7556.27
582.008	7540.23
582.368	7598.76
582.728	7550.39
583.089	7543.39
583.449	7620.68
583.809	7614.35
584.169	7628.81
584.529	7617.96
584.889	7682.14
585.249	7693.89
585.609	7645.76
585.969	7723.95
586.329	7740.22
586.688	7759.88
587.048	7711.29
587.408	7701.8
587.768	7793.1
588.127	7715.81
588.487	7721.24
588.846	7826.32
589.206	7758.98
589.565	7758.07
589.925	7797.39
590.284	7788.35
590.643	7825.42
591.003	7850.27
591.362	7806.66
591.721	7885.3
592.08	7851.63
592.44	7909.48
592.799	7868.8
593.158	7896.83
593.517	7883.04
593.876	7911.97
594.235	7874.45
594.593	7881.23
594.952	7881.46
595.311	7859.77
595.67	7886.66
596.029	7994.45
596.387	7973.66
596.746	7968.46
597.104	7963.49
597.463	7938.18
597.822	7970.04
598.18	7972.3
598.538	7952.42
598.897	7986.32
599.255	7906.09
599.613	8052.98
599.972	8040.1
600.33	8016.82
600.688	7987.9
601.046	8059.99
601.404	8033.09
601.762	8030.83
602.12	8080.55
602.478	8075.8
602.836	8117.61
603.194	8017.73
603.552	8063.6
603.91	8050.04
604.268	8154.45
604.625	8028.35
604.983	8115.8
605.341	8054.79
605.698	8104.96
606.056	8079.19
606.413	8064.28
606.771	8186.08
607.128	8103.6
607.485	8088.23
607.843	8092.08
608.2	8153.54
608.557	8172.98
608.914	8119.65
609.272	8153.54
609.629	8173.88
609.986	8232.41
610.343	8140.21
610.7	8242.13
611.057	8210.94
611.414	8235.8
611.771	8196.25
612.127	8212.07
612.484	8240.77
612.841	8296.14
613.198	8264.95
613.554	8249.13
613.911	8316.7
614.267	8282.8
614.624	8268.12
614.98	8312.18
615.337	8312.18
615.693	8295.91
616.05	8375.68
616.406	8296.59
616.762	8355.12
617.118	8336.59
617.475	8373.2
617.831	8370.71
618.187	8431.73
618.543	8418.85
618.899	8368.9
619.255	8412.74
619.611	8438.05
619.967	8428.11
620.323	8460.43
620.678	8408.9
621.034	8399.41
621.39	8431.28
621.746	8367.55
622.101	8443.03
622.457	8357.38
622.812	8427.89
623.168	8468.56
623.523	8491.39
623.879	8431.28
624.234	8417.72
624.589	8395.34
624.945	8372.52
625.3	8375.68
625.655	8416.81
626.01	8401.45
626.365	8399.86
626.72	8395.34
627.075	8413.42
627.43	8375.23
627.785	8373.2
628.14	8438.05
628.495	8417.72
628.85	8414.55
629.205	8343.59
629.559	8391.95
629.914	8328.23
630.269	8306.98
630.623	8314.22
630.978	8352.18
631.332	8311.5
631.687	8434.44
632.041	8302.47
632.396	8311.05
632.75	8281
633.104	8299.98
633.459	8291.62
633.813	8279.64
634.167	8276.25
634.521	8321.9
634.875	8254.56
635.229	8243.71
635.583	8258.4
635.937	8214.78
636.291	8276.48
636.645	8189.47
636.999	8195.58
637.352	8185.63
637.706	8219.08
638.06	8227.21
638.413	8153.54
638.767	8170.27
639.121	8117.84
639.474	8113.32
639.828	8127.78
640.181	8093.88
640.534	8060.21
640.888	8127.1
641.241	8087.1
641.594	8067.67
641.947	8091.4
642.301	8063.15
642.654	8130.72
643.007	8045.07
643.36	8007.78
643.713	8000.78
644.066	8044.39
644.419	8026.31
644.771	7952.64
645.124	7980.89
645.477	7916.03
645.83	7835.36
646.182	7810.95
646.535	7810.5
646.888	7819.99
647.24	7784.29
647.593	7777.96
647.945	7755.36
648.298	7767.79
648.65	7770.5
649.002	7700.22
649.355	7788.58
649.707	7738.64
650.059	7783.83
650.411	7825.19
650.763	7888.01
651.115	7912.42
651.467	7931.85
651.819	7976.6
652.171	7952.42
652.523	7957.16
652.875	7903.83
653.227	7922.59
653.578	7972.08
653.93	7977.28
654.282	7916.94
654.633	7865.64
654.985	7859.77
655.337	7895.02
655.688	7886.43
656.039	7956.26
656.391	7859.99
656.742	7861.12
657.094	7908.58
657.445	7891.18
657.796	7906.77
658.147	7843.49
658.498	7864.06
658.849	7902.48
659.2	7912.19
659.551	7922.59
659.902	7906.09
660.253	7967.78
660.604	7913.55
660.955	7802.37
661.306	7918.07
661.656	7909.71
662.007	7865.41
662.358	7969.82
662.708	7914.45
663.059	7910.61
663.409	7876.04
663.76	7874.45
664.11	7928.69
664.461	7923.49
664.811	7872.65
665.161	7958.29
665.511	7919.42
665.862	7895.47
666.212	7891.4
666.562	7934.57
666.912	7921.23
667.262	7924.17
667.612	7920.78
667.962	7937.05
668.312	7880.56
668.662	7934.11
669.011	7862.02
669.361	7917.39
669.711	7897.05
670.06	7884.85
670.41	7940.89
670.76	7907.67
671.109	7932.31
671.459	7927.79
671.808	7870.16
672.157	7918.07
672.507	7844.85
672.856	7867.67
673.205	7791.97
673.554	7874
673.904	7844.85
674.253	7874
674.602	7864.28
674.951	7758.3
675.3	7756.49
675.649	7796.04
675.998	7882.14
676.346	7829.26
676.695	7885.98
677.044	7746.55
677.393	7766.21
677.741	7800.33
678.09	7809.6
678.438	7737.06
678.787	7785.19
679.135	7827.68
679.484	7743.61
679.832	7753.33
680.181	7658.87
680.529	7696.38
680.877	7678.98
681.225	7664.74
681.573	7761.46
681.922	7657.96
682.27	7587.46
682.618	7626.32
682.966	7616.16
683.314	7612.99
683.661	7568.7
684.009	7509.04
684.357	7580.9
684.705	7541.13
685.053	7522.37
685.4	7423.84
685.748	7496.61
686.095	7427.46
686.443	7448.7
686.79	7424.97
687.138	7466.78
687.485	7415.71
687.832	7443.28
688.18	7346.11
688.527	7339.33
688.874	7330.06
689.221	7312.89
689.568	7268.37
689.915	7276.73
690.262	7286.22
690.609	7299.1
690.956	7220.01
691.303	7206.9
691.65	7185.88
691.997	7200.35
692.344	7108.15
692.69	7097.53
693.037	7099.79
693.383	7026.11
693.73	7032.67
694.077	7021.82
694.423	7018.88
694.769	6989.28
695.116	6991.09
695.462	6949.28
695.808	6973.46
696.155	6926.91
696.501	6894.59
696.847	6912.67
697.193	6815.27
697.539	6810.75
697.885	6802.62
698.231	6757.87
698.577	6730.08
698.923	6692.56
699.269	6723.75
699.614	6674.49
699.96	6725.11
700.306	6666.35
700.651	6634.26
700.997	6641.04
701.342	6572.34
701.688	6605.33
702.033	6511.55
702.379	6529.63
702.724	6513.36
703.069	6542.29
703.415	6453.7
703.76	6484.89
704.105	6402.18
704.45	6369.86
704.795	6344.78
705.14	6334.16
705.485	6317.88
705.83	6338.9
706.175	6368.5
706.52	6296.64
706.865	6274.95
707.209	6265.68
707.554	6211.9
707.899	6184.78
708.243	6157.21
708.588	6177.1
708.932	6175.29
709.277	6187.49
709.621	6157.44
709.966	6138.45
710.31	6094.61
710.654	6083.99
710.998	6059.13
711.342	6087.61
711.687	6039.7
712.031	6065.69
712.375	5971
712.719	6012.81
713.063	5963.77
713.407	5992.7
713.75	5993.6
714.094	5981.85
714.438	5921.06
714.782	5957.22
715.125	5901.17
715.469	5959.48
715.812	5862.98
716.156	5861.63
716.499	5910.44
716.843	5914.51
717.186	5842.87
717.53	5866.82
717.873	5928.29
718.216	5839.71
718.559	5868.18
718.902	5799.03
719.246	5838.12
719.589	5812.59
719.932	5825.92
720.275	5781.85
720.617	5790.89
720.96	5758.58
721.303	5775.53
721.646	5786.6
721.989	5713.61
722.331	5782.76
722.674	5721.74
723.016	5765.81
723.359	5693.27
723.701	5754.28
724.044	5713.61
724.386	5686.71
724.729	5719.03
725.071	5709.54
725.413	5724
725.755	5691.69
726.097	5660.05
726.439	5669.54
726.782	5706.38
727.124	5706.6
727.465	5635.42
727.807	5653.95
728.149	5599.49
728.491	5690.78
728.833	5645.59
729.175	5655.3
729.516	5632.71
729.858	5608.52
730.199	5657.56
730.541	5651.24
730.882	5654.17
731.224	5661.4
731.565	5607.39
731.906	5655.76
732.248	5643.33
732.589	5617.56
732.93	5623.21
733.271	5618.24
733.612	5669.77
733.953	5606.49
734.294	5613.27
734.635	5604.91
734.976	5654.4
735.317	5613.04
735.658	5619.82
735.999	5651.69
736.339	5595.19
736.68	5641.74
737.021	5632.71
737.361	5609.43
737.702	5628.41
738.042	5632.93
738.383	5587.73
738.723	5661.18
739.063	5639.26
739.404	5644.46
739.744	5685.36
740.084	5693.27
740.424	5695.75
740.764	5635.87
741.104	5716.32
741.444	5680.84
741.784	5718.35
742.124	5756.54
742.464	5735.98
742.804	5761.97
743.143	5761.29
743.483	5716.54
743.823	5680.16
744.162	5790.89
744.502	5801.97
744.841	5824.34
745.181	5898.01
745.52	5851.46
745.86	5920.38
746.199	5910.21
746.538	5979.14
746.877	6023.66
747.216	6010.55
747.556	6026.82
747.895	6065.69
748.234	6055.74
748.573	6113.37
748.911	6131
749.25	6171.9
749.589	6256.19
749.928	6296.87
750.267	6261.84
750.605	6314.72
750.944	6368.73
751.283	6483.08
751.621	6533.47
751.96	6571.66
752.298	6669.29
752.636	6633.58
752.975	6774.82
753.313	6814.59
753.651	6948.6
753.989	6914.48
754.327	7085.32
754.666	7100.91
755.004	7226.79
755.342	7285.32
755.679	7321.02
756.017	7415.26
756.355	7530.96
756.693	7604.86
757.031	7782.48
757.368	7791.07
757.706	7939.31
758.044	7986.09
758.381	8103.37
758.719	8239.19
759.056	8347.44
759.394	8457.26
759.731	8494.78
760.068	8632.4
760.405	8745.39
760.743	8809.57
761.08	9041.65
761.417	9063.35
761.754	9198.03
762.091	9356.67
762.428	9498.14
762.765	9503.79
763.102	9619.27
763.438	9701.52
763.775	9846.83
764.112	10015.64
764.449	10103.1
764.785	10207.05
765.122	10258.8
765.458	10429.87
765.795	10443.65
766.131	10553.71
766.467	10740.37
766.804	10761.38
767.14	10886.8
767.476	10961.38
767.812	11030.53
768.148	11130.87
768.485	11219.9
768.821	11254.7
769.157	11395.72
