Data from hue_28_FLMS001491_00018.txt Node
Date: Tue Feb 07 17:16:56 GMT 2017
User: dcchb
Spectrometer: FLMS00149
Trigger mode: 0
Integration Time (sec): 2.000000E-2
Scans to average: 10
Electric dark correction enabled: true
Nonlinearity correction enabled: false
Boxcar width: 0
XAxis mode: Wavelengths
Number of Pixels in Spectrum: 2048
>>>>>Begin Spectral Data<<<<<
341.393	-31.67
341.776	-31.67
342.16	-31.67
342.543	-70.76
342.927	-60.82
343.31	-51.78
343.693	-52.91
344.077	-76.86
344.46	-54.94
344.843	-55.17
345.226	-47.71
345.61	-37.77
345.993	-14.27
346.376	3.59
346.759	17.6
347.142	12.85
347.525	28.67
347.908	60.76
348.291	76.58
348.674	85.62
349.057	105.73
349.44	129.91
349.823	143.02
350.206	164.49
350.588	182.34
350.971	209.23
351.354	247.42
351.737	235.9
352.119	231.38
352.502	248.55
352.884	298.04
353.267	262.34
353.65	291.49
354.032	302.56
354.414	319.06
354.797	312.73
355.179	325.39
355.562	316.12
355.944	338.95
356.326	300.98
356.709	356.35
357.091	320.19
357.473	340.3
357.855	313.41
358.238	338.27
358.62	356.35
359.002	340.08
359.384	335.78
359.766	346.18
360.148	350.7
360.53	336.01
360.912	357.48
361.294	331.71
361.676	341.66
362.057	333.75
362.439	327.42
362.821	311.83
363.203	302.11
363.584	305.05
363.966	325.39
364.348	330.58
364.729	328.32
365.111	336.01
365.493	305.95
365.874	329.68
366.256	310.7
366.637	302.11
367.019	319.06
367.4	302.56
367.781	316.35
368.163	333.97
368.544	291.04
368.925	317.25
369.306	331.94
369.688	312.05
370.069	281.09
370.45	320.42
370.831	313.64
371.212	313.86
371.593	312.05
371.974	315.9
372.355	327.42
372.736	306.63
373.117	306.4
373.498	327.19
373.879	291.94
374.26	308.89
374.641	300.75
375.021	299.62
375.402	313.64
375.783	325.61
376.163	314.99
376.544	317.48
376.925	312.73
377.305	337.36
377.686	333.52
378.066	338.04
378.447	326.06
378.827	325.84
379.208	305.5
379.588	341.21
379.968	344.82
380.349	321.55
380.729	327.87
381.109	347.76
381.489	347.31
381.87	338.04
382.25	336.23
382.63	340.3
383.01	341.21
383.39	341.88
383.77	356.12
384.15	357.25
384.53	336.91
384.91	349.34
385.29	345.27
385.67	351.15
386.049	357.48
386.429	345.5
386.809	360.41
387.189	340.08
387.568	333.75
387.948	333.52
388.328	358.61
388.707	351.6
389.087	364.71
389.466	358.83
389.846	378.04
390.225	353.41
390.605	381.43
390.984	374.2
391.363	370.36
391.743	361.09
392.122	352.28
392.501	361.54
392.881	383.01
393.26	373.97
393.639	376.91
394.018	376.01
394.397	350.47
394.776	373.75
395.155	381.88
395.534	369.23
395.913	363.13
396.292	371.94
396.671	382.56
397.05	396.8
397.429	384.37
397.808	376.46
398.186	390.92
398.565	350.02
398.944	405.16
399.323	396.35
399.701	403.58
400.08	406.06
400.458	363.8
400.837	406.29
401.215	402.22
401.594	398.83
401.972	402.45
402.351	390.02
402.729	406.06
403.107	414.65
403.486	403.8
403.864	385.5
404.242	434.76
404.62	422.79
404.999	432.95
405.377	393.63
405.755	421.66
406.133	422.11
406.511	418.72
406.889	425.05
407.267	444.25
407.645	418.72
408.023	435.67
408.401	446.74
408.779	435.89
409.156	443.12
409.534	437.02
409.912	443.8
410.29	432.05
410.667	460.3
411.045	436.34
411.422	449.9
411.8	451.94
412.178	459.17
412.555	447.42
412.933	478.83
413.31	455.78
413.687	454.42
414.065	458.26
414.442	473.41
414.819	446.06
415.197	497.59
415.574	477.93
415.951	481.54
416.328	484.48
416.705	465.04
417.082	501.43
417.46	492.16
417.837	497.13
418.214	491.26
418.591	504.82
418.967	527.42
419.344	517.92
419.721	491.71
420.098	498.04
420.475	514.31
420.852	513.86
421.228	523.35
421.605	536.45
421.982	539.17
422.358	526.06
422.735	547.08
423.111	531.48
423.488	542.1
423.864	545.27
424.241	532.39
424.617	543.91
424.994	537.36
425.37	555.21
425.746	539.84
426.123	531.71
426.499	543.23
426.875	541.2
427.251	551.6
427.627	566.06
428.003	585.04
428.379	564.7
428.756	566.06
429.132	598.15
429.507	619.84
429.883	604.48
430.259	596.79
430.635	597.24
431.011	608.32
431.387	628.43
431.763	651.71
432.138	615.77
432.514	617.13
432.89	632.95
433.265	629.56
433.641	639.05
434.016	658.71
434.392	631.37
434.767	653.97
435.143	640.63
435.518	665.49
435.894	674.3
436.269	676.79
436.644	669.11
437.02	680.41
437.395	687.19
437.77	708.43
438.145	713.85
438.52	677.69
438.895	703.91
439.271	686.06
439.646	715.66
440.021	718.14
440.395	715.89
440.77	719.27
441.145	715.43
441.52	747.07
441.895	746.62
442.27	754.08
442.645	752.27
443.019	766.28
443.394	754.98
443.769	751.59
444.143	763.57
444.518	761.76
444.892	747.3
445.267	769.67
445.641	770.35
446.016	776.67
446.39	797.01
446.764	794.75
447.139	792.95
447.513	780.52
447.887	798.82
448.262	795.88
448.636	802.89
449.01	810.57
449.384	833.17
449.758	816
450.132	829.33
450.506	832.94
450.88	837.01
451.254	842.89
451.628	872.94
452.002	851.47
452.376	861.19
452.75	880.17
453.123	877.69
453.497	894.86
453.871	887.86
454.244	904.58
454.618	931.47
454.992	922.21
455.365	923.11
455.739	916.56
456.112	930.79
456.486	959.95
456.859	953.17
457.232	962.43
457.606	968.99
457.979	993.17
458.352	1005.14
458.725	1015.09
459.099	1016.44
459.472	1029.32
459.845	1040.4
460.218	1049.66
460.591	1038.14
460.964	1052.83
461.337	1087.63
461.71	1097.34
462.083	1113.39
462.456	1108.64
462.829	1103.9
463.201	1124.69
463.574	1140.05
463.947	1122.88
464.32	1202.88
464.692	1177.34
465.065	1190.22
465.438	1201.07
465.81	1234.06
466.183	1234.74
466.555	1240.62
466.928	1237.23
467.3	1286.72
467.672	1269.99
468.045	1312.25
468.417	1311.12
468.789	1316.55
469.161	1342.31
469.534	1371.46
469.906	1378.24
470.278	1380.95
470.65	1387.05
471.022	1469.76
471.394	1479.03
471.766	1460.72
472.138	1491.23
472.51	1530.55
472.882	1543.43
473.253	1576.2
473.625	1588.4
473.997	1618.91
474.369	1636.54
474.74	1675.86
475.112	1718.57
475.484	1708.18
475.855	1792.24
476.227	1792.24
476.598	1823.43
476.97	1842.86
477.341	1904.55
477.713	1927.15
478.084	1949.3
478.455	1981.39
478.827	2035.17
479.198	2073.59
479.569	2098.67
479.94	2172.34
480.311	2178.9
480.682	2211.67
481.053	2288.05
481.424	2295.73
481.795	2358.1
482.166	2426.35
482.537	2417.54
482.908	2505.22
483.279	2507.93
483.65	2576.63
484.021	2605.1
484.391	2664.08
484.762	2713.8
485.133	2759
485.503	2818.43
485.874	2907.47
486.244	2946.33
486.615	2978.2
486.985	3012.1
487.356	3048.25
487.726	3146.56
488.097	3198.98
488.467	3252.99
488.837	3300
489.207	3377.74
489.578	3385.65
489.948	3452.31
490.318	3515.59
490.688	3555.58
491.058	3594
491.428	3678.07
491.798	3731.17
492.168	3800.32
492.538	3786.09
492.908	3913.99
493.278	3974.1
493.648	3989.92
494.017	4036.93
494.387	4067.66
494.757	4092.52
495.126	4164.83
495.496	4163.03
495.866	4251.61
496.235	4277.37
496.605	4349.01
496.974	4407.09
497.344	4400.76
497.713	4491.61
498.082	4501.77
498.452	4582.68
498.821	4592.62
499.19	4557.59
499.559	4643.01
499.928	4755.1
500.298	4742.9
500.667	4771.6
501.036	4792.61
501.405	4850.47
501.774	4866.06
502.143	4876
502.512	4961.42
502.88	4966.85
503.249	5007.52
503.618	5020.18
503.987	5060.86
504.356	5114.19
504.724	5141.53
505.093	5139.5
505.462	5197.8
505.83	5248.2
506.199	5282.09
506.567	5309.21
506.936	5359.83
507.304	5372.03
507.672	5408.64
508.041	5391.02
508.409	5487.06
508.777	5466.95
509.145	5474.4
509.514	5511.47
509.882	5592.82
510.25	5557.79
510.618	5641.41
510.986	5659.26
511.354	5662.42
511.722	5694.06
512.09	5719.37
512.458	5725.24
512.826	5792.81
513.193	5779.93
513.561	5845.47
513.929	5871.68
514.297	5899.48
514.664	5975.86
515.032	5985.13
515.4	5983.32
515.767	5976.99
516.135	6057.44
516.502	6046.37
516.869	6104.44
517.237	6104.67
517.604	6145.12
517.972	6222.63
518.339	6205.01
518.706	6173.82
519.073	6242.29
519.44	6266.02
519.808	6308.51
520.175	6316.42
520.542	6342.18
520.909	6360.03
521.276	6433.02
521.643	6440.71
522.009	6489.74
522.376	6524.09
522.743	6574.26
523.11	6565.45
523.477	6648.38
523.843	6660.59
524.21	6684.77
524.577	6771.77
524.943	6739.91
525.31	6828.72
525.676	6827.81
526.043	6876.18
526.409	6955.95
526.776	6975.16
527.142	6937.19
527.508	7041.82
527.874	7063.51
528.241	7106.45
528.607	7135.15
528.973	7183.29
529.339	7210.86
529.705	7247.92
530.071	7268.71
530.437	7335.82
530.803	7375.15
531.169	7453.79
531.535	7420.12
531.901	7393.9
532.267	7448.14
532.632	7520.45
532.998	7583.5
533.364	7611.97
533.73	7670.96
534.095	7670.28
534.461	7755.7
534.826	7675.48
535.192	7801.12
535.557	7857.62
535.923	7831.18
536.288	7864.17
536.653	7925.19
537.019	7877.05
537.384	7952.08
537.749	7991.63
538.114	8009.48
538.479	8004.28
538.845	8068.46
539.21	7986.65
539.575	8072.98
539.94	8156.14
540.305	8189.13
540.67	8225.07
541.034	8283.14
541.399	8273.2
541.764	8317.27
542.129	8304.61
542.494	8307.78
542.858	8371.96
543.223	8463.48
543.587	8452.18
543.952	8510.03
544.316	8535.79
544.681	8465.74
545.045	8577.37
545.41	8642.91
545.774	8682.91
546.138	8675.68
546.503	8685.85
546.867	8691.04
547.231	8771.27
547.595	8807.2
547.959	8850.13
548.324	8890.81
548.688	8914.54
549.052	8929.23
549.416	8966.74
549.779	8985.27
550.143	9024.37
550.507	9101.2
550.871	9110.92
551.235	9124.7
551.599	9165.83
551.962	9131.48
552.326	9189.11
552.689	9312.95
553.053	9232.5
553.417	9298.94
553.78	9364.7
554.143	9336.68
554.507	9435.43
554.87	9452.6
555.234	9527.86
555.597	9445.15
555.96	9481.53
556.323	9551.36
556.686	9536.44
557.05	9648.76
557.413	9638.36
557.776	9661.64
558.139	9699.15
558.502	9768.3
558.865	9785.25
559.228	9816.89
559.59	9791.58
559.953	9810.34
560.316	9942.76
560.679	9921.52
561.041	10032.25
561.404	10051.01
561.767	10076.99
562.129	10091.01
562.492	10125.13
562.854	10163.32
563.217	10121.51
563.579	10136.65
563.941	10260.72
564.304	10307.27
564.666	10389.53
565.028	10325.8
565.39	10360.38
565.753	10427.49
566.115	10481.5
566.477	10444.89
566.839	10458.91
567.201	10501.39
567.563	10529.41
567.925	10663.65
568.287	10629.3
568.648	10661.84
569.01	10674.72
569.372	10857.99
569.734	10754.72
570.095	10950.42
570.457	10955.39
570.819	10957.2
571.18	11093.01
571.542	11064.54
571.903	11066.35
572.265	11122.17
572.626	11207.36
572.987	11290.75
573.349	11312.22
573.71	11449.39
574.071	11382.72
574.432	11493.68
574.794	11609.16
575.155	11693.45
575.516	11553.79
575.877	11760.79
576.238	11765.31
576.599	11877.85
576.96	11983.39
577.32	12135.47
577.681	12171.86
578.042	12273.77
578.403	12381.12
578.763	12498.4
579.124	12640.54
579.485	12744.04
579.845	12849.35
580.206	12921.67
580.566	13088.67
580.927	13202.34
581.287	13313.97
581.648	13424.25
582.008	13545.83
582.368	13727.07
582.728	13887.97
583.089	14016.78
583.449	14188.75
583.809	14346.71
584.169	14637.55
584.529	14756.87
584.889	15014.72
585.249	15155.51
585.609	15322.51
585.969	15603.63
586.329	15745.09
586.688	16004.97
587.048	16193.9
587.408	16460.33
587.768	16691.06
588.127	16883.37
588.487	17098.73
588.846	17472.73
589.206	17637.7
589.565	17914.53
589.925	18251.02
590.284	18440.39
590.643	18751.8
591.003	19025.23
591.362	19353.14
591.721	19590.19
592.08	19850.3
592.44	20192.66
592.799	20523.5
593.158	20642.82
593.517	20995.13
593.876	21252.52
594.235	21536.13
594.593	21930.02
594.952	22275.77
595.311	22428.76
595.67	22852.93
596.029	23167.72
596.387	23469.19
596.746	23689.74
597.104	23943.97
597.463	24301.48
597.822	24642.26
598.18	24762.03
598.538	25148.69
598.897	25545.74
599.255	25712.74
599.613	26274.76
599.972	26388.88
600.33	26695.32
600.688	26863.67
601.046	27250.78
601.404	27686.02
601.762	27823.65
602.12	28200.36
602.478	28513.57
602.836	28807.12
603.194	28871.75
603.552	29194.01
603.91	29313.55
604.268	29723.26
604.625	29920.54
604.983	30232.4
605.341	30443.47
605.698	30681.65
606.056	30962.55
606.413	31163.45
606.771	31582.64
607.128	31744.67
607.485	31925.91
607.843	32287.94
608.2	32476.63
608.557	32799.34
608.914	32797.98
609.272	33207.01
609.629	33441.58
609.986	33698.75
610.343	33738.97
610.7	34171.05
611.057	34268.9
611.414	34391.38
611.771	34627.31
612.127	34933.97
612.484	35119.5
612.841	35298.25
613.198	35387.52
613.554	35612.37
613.911	35984.11
614.267	35903.89
614.624	36143.65
614.98	36387.72
615.337	36746.8
615.693	36666.13
616.05	36915.61
616.406	37284.42
616.762	37261.82
617.118	37349.27
617.475	37413.9
617.831	37722.6
618.187	37812.54
618.543	37923.27
618.899	38317.16
619.255	38345.18
619.611	38293.65
619.967	38474.89
620.323	38827.65
620.678	38670.14
621.034	38795.79
621.39	38731.61
621.746	38832.85
622.101	39254.98
622.457	39159.62
622.812	39281.88
623.168	39438.26
623.523	39501.98
623.879	39851.35
624.234	39658.59
624.589	39816.1
624.945	39922.99
625.3	39987.62
625.655	40068.07
626.01	40094.51
626.365	40307.39
626.72	40301.74
627.075	40251.57
627.43	40348.74
627.785	40475.97
628.14	40543.54
628.495	40682.07
628.85	40737.66
629.205	40489.75
629.559	40740.37
629.914	40658.56
630.269	40762.06
630.623	40641.16
630.978	40658.34
631.332	40897.43
631.687	41026.92
632.041	40855.39
632.396	40998.44
632.75	40848.62
633.104	40994.37
633.459	40746.02
633.813	40788.05
634.167	40967.93
634.521	40955.96
634.875	41012.68
635.229	40952.57
635.583	40833.25
635.937	40795.51
636.291	40853.13
636.645	41049.06
636.999	40860.59
637.352	41016.97
637.706	40810.88
638.06	41024.43
638.413	40867.15
638.767	40938.56
639.121	41008.61
639.474	40804.77
639.828	40771.1
640.181	40891.1
640.534	40850.42
640.888	40691.78
641.241	40613.14
641.594	40850.2
641.947	40750.54
642.301	40760.03
642.654	40730.88
643.007	40833.47
643.36	40615.85
643.713	40571.56
644.066	40879.57
644.419	40509.19
644.771	40363.43
645.124	39969.09
645.477	40037.56
645.83	39848.87
646.182	39614.75
646.535	39648.19
646.888	39673.73
647.24	39488.88
647.593	39645.93
647.945	39681.87
648.298	39396.68
648.65	39383.34
649.002	39417.01
649.355	39534.3
649.707	39464.47
650.059	39639.38
650.411	40105.36
650.763	40165.7
651.115	40598.45
651.467	40447.72
651.819	40341.28
652.171	40357.1
652.523	40192.36
652.875	40263.77
653.227	40058.58
653.578	40242.98
653.93	40156.43
654.282	40135.87
654.633	40008.41
654.985	40285.92
655.337	40138.35
655.688	40067.84
656.039	40319.59
656.391	39887.51
656.742	40064.68
657.094	40163.44
657.445	40239.82
657.796	40075.08
658.147	39969.09
658.498	40107.39
658.849	40158.24
659.2	40000.28
659.551	39942.42
659.902	40245.02
660.253	40221.06
660.604	40006.15
660.955	39815.42
661.306	40047.96
661.656	40035.53
662.007	39943.55
662.358	39924.12
662.708	39903.56
663.059	39944.23
663.409	39711.92
663.76	39974.97
664.11	39881.63
664.461	40009.09
664.811	39982.2
665.161	39841.18
665.511	39864.01
665.862	39869.43
666.212	39986.04
666.562	39982.42
666.912	39956.66
667.262	39850
667.612	39785.82
667.962	39904.01
668.312	39889.32
668.662	40072.14
669.011	40007.28
669.361	39900.62
669.711	39926.15
670.06	39863.56
670.41	39773.62
670.76	39767.06
671.109	39849.77
671.459	39804.35
671.808	39668.99
672.157	39705.14
672.507	39539.95
672.856	39502.21
673.205	39558.93
673.554	39836.66
673.904	39607.97
674.253	39754.63
674.602	39595.99
674.951	39156.68
675.3	38977.25
675.649	39607.97
675.998	39479.84
676.346	39544.24
676.695	39678.93
677.044	39324.36
677.393	39492.49
677.741	39586.95
678.09	39288.66
678.438	39403.91
678.787	39429.9
679.135	39566.16
679.484	39183.35
679.832	39249.79
680.181	39066.74
680.529	39108.32
680.877	38992.39
681.225	39057.02
681.573	39297.24
681.922	38977.25
682.27	38903.36
682.618	38960.76
682.966	38889.12
683.314	38899.74
683.661	38844.83
684.009	38613.19
684.357	38514.89
684.705	38561.44
685.053	38590.14
685.4	38413.88
685.748	38250.94
686.095	38486.87
686.443	38195.58
686.79	38257.72
687.138	38076.48
687.485	38197.84
687.832	38084.62
688.18	38112.64
688.527	37920.33
688.874	37848.47
689.221	37798.98
689.568	37681.69
689.915	37449.16
690.262	37488.25
690.609	37435.6
690.956	37342.49
691.303	37167.36
691.65	37304.3
691.997	37214.81
692.344	36997.19
692.69	36939.34
693.037	37018.66
693.383	36645.11
693.73	36760.59
694.077	36693.92
694.423	36622.51
694.769	36490.09
695.116	36475.17
695.462	36430.88
695.808	36222.97
696.155	36283.09
696.501	36039.7
696.847	35993.83
697.193	35604.69
697.539	35912.25
697.885	35655.98
698.231	35428.64
698.577	35640.39
698.923	35488.98
699.269	35353.62
699.614	35226.62
699.96	35166.05
700.306	35280.85
700.651	34989.56
700.997	35084.92
701.342	34918.38
701.688	34733.52
702.033	34476.58
702.379	34738.49
702.724	34462.12
703.069	34700.75
703.415	34215.8
703.76	34423.7
704.105	34333.98
704.45	34267.77
704.795	34052.64
705.14	33983.48
705.485	33883.83
705.83	33769.93
706.175	33800.66
706.52	33685.41
706.865	33534.23
707.209	33660.56
707.554	33487
707.899	33487.23
708.243	33320.68
708.588	33288.59
708.932	33087.24
709.277	33008.82
709.621	33080.91
709.966	32857.64
710.31	32972.66
710.654	32524.09
710.998	32808.6
711.342	32765.89
711.687	32623.29
712.031	32562.05
712.375	32449.51
712.719	32374.26
713.063	32326.35
713.407	32503.52
713.75	32211.1
714.094	32143.08
714.438	31976.98
714.782	32184.66
715.125	32035.06
715.469	31999.36
715.812	31780.61
716.156	31715.97
716.499	31758.91
716.843	31682.53
717.186	31522.31
717.53	31521.18
717.873	31688.86
718.216	31607.5
718.559	31430.11
718.902	31242.09
719.246	31435.08
719.589	31219.49
719.932	31281.64
720.275	31161.86
720.617	31130
720.96	30927.97
721.303	31057.91
721.646	30993.06
721.989	30812.95
722.331	30972.26
722.674	30816.11
723.016	30798.71
723.359	30775.43
723.701	30694.08
724.044	30597.36
724.386	30445.5
724.729	30648.66
725.071	30492.05
725.413	30379.96
725.755	30582.22
726.097	30397.36
726.439	30143.36
726.782	30146.98
727.124	30317.14
727.465	30103.59
727.807	30137.03
728.149	29959.64
728.491	29983.82
728.833	30127.77
729.175	29918.51
729.516	29869.92
729.858	29825.63
730.199	29924.16
730.541	29718.51
730.882	29728.91
731.224	29873.76
731.565	29584.28
731.906	29613.88
732.248	29633.54
732.589	29426.32
732.93	29478.74
733.271	29332.31
733.612	29569.36
733.953	29418.41
734.294	29274
734.635	29134.57
734.976	29309.26
735.317	29169.6
735.658	29216.15
735.999	29126.66
736.339	29054.12
736.68	29176.83
737.021	28882.15
737.361	28851.64
737.702	28992.2
738.042	28852.32
738.383	28860
738.723	28980.45
739.063	28762.83
739.404	28729.61
739.744	28649.61
740.084	28655.94
740.424	28620.01
740.764	28661.82
741.104	28554.25
741.444	28423.63
741.784	28260.25
742.124	28497.53
742.464	28431.31
742.804	28249.85
743.143	28353.12
743.483	28300.02
743.823	28125.33
744.162	28085.79
744.502	28210.53
744.841	28029.74
745.181	28285.78
745.52	28061.38
745.86	28015.51
746.199	27946.58
746.538	27906.81
746.877	27948.62
747.216	28071.78
747.556	27919.24
747.895	27814.83
748.234	27826.36
748.573	27745.46
748.911	27692.8
749.25	27721.73
749.589	27561.28
749.928	27542.52
750.267	27517.67
750.605	27552.24
750.944	27519.7
751.283	27437.44
751.621	27486.25
751.96	27263.66
752.298	27333.49
752.636	27234.96
752.975	27137.56
753.313	27111.12
753.651	27093.04
753.989	26949.55
754.327	26966.27
754.666	26970.34
755.004	26802.88
755.342	26877.68
755.679	26772.83
756.017	26703
756.355	26776.89
756.693	26526.73
757.031	26616.67
757.368	26412.84
757.706	26427.3
758.044	26255.33
758.381	26344.14
758.719	26270.02
759.056	26276.57
759.394	26219.4
