Data from hue_230_FLMS001491_00007.txt Node
Date: Tue Feb 07 16:36:44 GMT 2017
User: dcchb
Spectrometer: FLMS00149
Trigger mode: 0
Integration Time (sec): 2.000000E-2
Scans to average: 10
Electric dark correction enabled: true
Nonlinearity correction enabled: false
Boxcar width: 0
XAxis mode: Wavelengths
Number of Pixels in Spectrum: 2048
>>>>>Begin Spectral Data<<<<<
341.393	-11.16
341.776	-11.16
342.16	-11.16
342.543	-52.51
342.927	-76.47
343.31	-80.31
343.693	-75.56
344.077	-63.36
344.46	-76.69
344.843	-44.38
345.226	-49.35
345.61	-17.94
345.993	-23.36
346.376	2.4
346.759	21.16
347.142	33.59
347.525	48.28
347.908	68.61
348.291	69.52
348.674	91.89
349.057	95.51
349.44	133.92
349.823	145
350.206	167.82
350.588	196.29
350.971	221.38
351.354	235.16
351.737	237.42
352.119	239.23
352.502	265.44
352.884	270.42
353.267	257.76
353.65	288.95
354.032	287.59
354.414	311.32
354.797	299.12
355.179	334.37
355.562	333.24
355.944	311.32
356.326	298.89
356.709	332.56
357.091	325.33
357.473	339.34
357.855	330.75
358.238	342.51
358.62	327.36
359.002	356.29
359.384	325.56
359.766	317.87
360.148	326.46
360.53	317.2
360.912	321.94
361.294	342.28
361.676	314.26
362.057	332.34
362.439	302.96
362.821	325.78
363.203	340.25
363.584	311.77
363.966	333.01
364.348	322.39
364.729	323.52
365.111	313.58
365.493	311.09
365.874	299.57
366.256	294.37
366.637	315.61
367.019	294.6
367.4	302.73
367.781	306.8
368.163	303.41
368.544	319.23
368.925	330.75
369.306	302.51
369.688	316.07
370.069	291.88
370.45	284.43
370.831	297.99
371.212	324.88
371.593	300.02
371.974	315.84
372.355	301.15
372.736	307.25
373.117	282.17
373.498	307.03
373.879	295.27
374.26	328.72
374.641	292.79
375.021	299.79
375.402	304.31
375.783	312.68
376.163	345.22
376.544	333.01
376.925	333.47
377.305	330.08
377.686	331.43
378.066	324.2
378.447	325.56
378.827	334.14
379.208	326.46
379.588	335.5
379.968	324.43
380.349	324.43
380.729	329.4
381.109	369.4
381.489	319.91
381.87	327.82
382.25	340.25
382.63	340.47
383.01	310.87
383.39	337.76
383.77	333.69
384.15	361.71
384.53	354.26
384.91	346.57
385.29	344.99
385.67	337.99
386.049	361.04
386.429	350.19
386.809	361.71
387.189	366.69
387.568	338.66
387.948	350.41
388.328	369.17
388.707	378.66
389.087	340.7
389.466	374.59
389.846	360.36
390.225	374.14
390.605	335.73
390.984	374.59
391.363	389.06
391.743	365.1
392.122	373.01
392.501	364.2
392.881	399.9
393.26	373.24
393.639	382.5
394.018	368.95
394.397	363.52
394.776	383.63
395.155	414.82
395.534	393.13
395.913	395.84
396.292	416.4
396.671	406.23
397.05	407.14
397.429	403.97
397.808	402.39
398.186	413.92
398.565	383.86
398.944	406.46
399.323	398.1
399.701	384.31
400.08	424.54
400.458	393.58
400.837	416.85
401.215	397.42
401.594	424.31
401.972	418.89
402.351	410.3
402.729	414.37
403.107	407.59
403.486	416.63
403.864	417.98
404.242	428.6
404.62	431.54
404.999	438.55
405.377	463.86
405.755	465.89
406.133	450.98
406.511	455.27
406.889	474.03
407.267	484.65
407.645	474.25
408.023	480.58
408.401	476.96
408.779	493.69
409.156	490.52
409.534	498.21
409.912	503.63
410.29	532.33
410.667	519.68
411.045	537.08
411.422	534.82
411.8	537.98
412.178	539.79
412.555	545.44
412.933	555.15
413.31	553.57
413.687	575.04
414.065	582.72
414.442	589.28
414.819	608.94
415.197	592.67
415.574	615.04
415.951	591.76
416.328	611.88
416.705	622.05
417.082	618.88
417.46	625.21
417.837	656.85
418.214	635.15
418.591	649.39
418.967	658.88
419.344	659.56
419.721	703.17
420.098	691.42
420.475	687.13
420.852	685.55
421.228	709.73
421.605	719.44
421.982	715.38
422.358	722.83
422.735	745.43
423.111	764.41
423.488	763.96
423.864	792.89
424.241	798.76
424.617	798.09
424.994	802.15
425.37	823.17
425.746	818.88
426.123	849.84
426.499	834.02
426.875	865.43
427.251	902.94
427.627	886.9
428.003	899.1
428.379	934.81
428.756	913.11
429.132	903.62
429.507	936.84
429.883	944.07
430.259	961.92
430.635	957.86
431.011	968.48
431.387	989.27
431.763	997.63
432.138	1037.4
432.514	1041.02
432.89	1070.17
433.265	1075.59
433.641	1089.38
434.016	1076.72
434.392	1101.36
434.767	1147.23
435.143	1143.16
435.518	1148.36
435.894	1187
436.269	1206.66
436.644	1227.91
437.02	1238.53
437.395	1210.5
437.77	1263.61
438.145	1286.66
438.52	1318.98
438.895	1303.84
439.271	1312.65
439.646	1352.65
440.021	1331.63
440.395	1372.53
440.77	1394.23
441.145	1397.39
441.52	1434
441.895	1401.23
442.27	1468.8
442.645	1438.75
443.019	1484.4
443.394	1499.31
443.769	1514.23
444.143	1525.52
444.518	1542.47
444.892	1538.18
445.267	1555.81
445.641	1575.02
446.016	1588.35
446.39	1608.46
446.764	1608.69
447.139	1616.37
447.513	1623.83
447.887	1634.67
448.262	1620.66
448.636	1648.69
449.01	1668.35
449.384	1690.27
449.758	1671.51
450.132	1704.73
450.506	1736.14
450.88	1724.62
451.254	1730.27
451.628	1772.07
452.002	1795.35
452.376	1797.61
452.75	1809.13
453.123	1817.04
453.497	1828.79
453.871	1836.48
454.244	1913.76
454.618	1890.49
454.992	1935.68
455.365	1939.53
455.739	1952.63
456.112	1978.62
456.486	1978.62
456.859	1985.17
457.232	2049.58
457.606	2085.96
457.979	2074.89
458.352	2127.32
458.725	2143.59
459.099	2120.54
459.472	2196.92
459.845	2213.64
460.218	2193.3
460.591	2252.29
460.964	2268.1
461.337	2279.86
461.71	2306.97
462.083	2331.61
462.456	2335.9
462.829	2341.55
463.201	2419.74
463.574	2418.16
463.947	2407.99
464.32	2467.87
464.692	2492.05
465.065	2546.97
465.438	2593.97
465.81	2606.4
466.183	2593.29
466.555	2675.33
466.928	2679.62
467.3	2693.4
467.672	2687.98
468.045	2781.09
468.417	2779.28
468.789	2798.03
469.161	2842.33
469.534	2832.38
469.906	2931.14
470.278	2958.03
470.65	2997.12
471.022	3020.4
471.394	3082.55
471.766	3092.04
472.138	3133.62
472.51	3187.63
472.882	3188.98
473.253	3220.62
473.625	3313.95
473.997	3371.35
474.369	3379.71
474.74	3414.74
475.112	3452.25
475.484	3455.19
475.855	3579.71
476.227	3602.53
476.598	3705.35
476.97	3682.98
477.341	3774.28
477.713	3813.6
478.084	3840.72
478.455	3935.86
478.827	3955.97
479.198	4047.27
479.569	4073.48
479.94	4166.36
480.311	4185.57
480.682	4267.37
481.053	4353.25
481.424	4397.09
481.795	4427.37
482.166	4463.98
482.537	4524.32
482.908	4641.38
483.279	4653.58
483.65	4731.32
484.021	4792.78
484.391	4852.22
484.762	4885.66
485.133	4918.66
485.503	4967.69
485.874	5038.88
486.244	5087.92
486.615	5173.56
486.985	5256.95
487.356	5340.11
487.726	5321.81
488.097	5476.83
488.467	5466.66
488.837	5549.83
489.207	5634.12
489.578	5662.37
489.948	5719.76
490.318	5775.36
490.688	5776.49
491.058	5870.04
491.428	5906.2
491.798	6004.05
492.168	6096.7
492.538	6112.3
492.908	6146.65
493.278	6199.07
493.648	6282.24
494.017	6286.98
494.387	6316.59
494.757	6378.96
495.126	6442.68
495.496	6453.76
495.866	6509.8
496.235	6560.65
496.605	6583.92
496.974	6614.88
497.344	6677.93
497.713	6718.16
498.082	6719.06
498.452	6788.44
498.821	6797.48
499.19	6807.87
499.559	6869.34
499.928	6951.6
500.298	6995.44
500.667	7016
501.036	6957.02
501.405	7032.05
501.774	6968.55
502.143	7098.94
502.512	7058.94
502.88	7141.2
503.249	7192.04
503.618	7189.78
503.987	7191.59
504.356	7241.08
504.724	7218.03
505.093	7294.19
505.462	7305.94
505.83	7264.13
506.199	7386.84
506.567	7401.3
506.936	7453.28
507.304	7483.56
507.672	7536.67
508.041	7522.2
508.409	7597.68
508.777	7554.97
509.145	7647.85
509.514	7605.36
509.882	7619.83
510.25	7618.92
510.618	7699.6
510.986	7640.62
511.354	7722.88
511.722	7846.04
512.09	7884
512.458	7792.25
512.826	7869.99
513.193	7871.57
513.561	7865.47
513.929	7895.53
514.297	7925.81
514.664	7974.62
515.032	8000.61
515.4	8029.76
515.767	8020.5
516.135	8065.24
516.502	7986.6
516.869	8100.95
517.237	8031.57
517.604	8060.04
517.972	8124
518.339	8111.57
518.706	8141.17
519.073	8100.27
519.44	8123.77
519.808	8233.6
520.175	8202.64
520.542	8235.18
520.909	8284.22
521.276	8211.68
521.643	8274.27
522.009	8368.51
522.376	8333.03
522.743	8332.35
523.11	8315.63
523.477	8435.63
523.843	8440.82
524.21	8474.95
524.577	8559.69
524.943	8512.46
525.31	8522.18
525.676	8522.63
526.043	8612.34
526.409	8554.49
526.776	8615.28
527.142	8589.97
527.508	8655.73
527.874	8641.95
528.241	8683.53
528.607	8625.23
528.973	8717.2
529.339	8737.54
529.705	8759.01
530.071	8781.15
530.437	8713.36
530.803	8785.67
531.169	8791.77
531.535	8793.13
531.901	8707.26
532.267	8723.75
532.632	8844.88
532.998	8776.18
533.364	8758.56
533.73	8806.24
534.095	8844.65
534.461	8842.62
534.826	8859.12
535.192	8848.5
535.557	8882.62
535.923	8846.46
536.288	8833.36
536.653	8767.14
537.019	8763.98
537.384	8829.97
537.749	8848.27
538.114	8779.35
538.479	8794.26
538.845	8820.7
539.21	8738.22
539.575	8775.28
539.94	8741.83
540.305	8780.25
540.67	8753.58
541.034	8788.38
541.399	8747.93
541.764	8776.63
542.129	8712
542.494	8705
542.858	8749.29
543.223	8726.47
543.587	8747.26
543.952	8648.5
544.316	8754.94
544.681	8693.02
545.045	8761.72
545.41	8643.76
545.774	8710.19
546.138	8687.82
546.503	8673.36
546.867	8616.86
547.231	8717.65
547.595	8680.14
547.959	8671.33
548.324	8593.36
548.688	8619.58
549.052	8711.32
549.416	8609.41
549.779	8635.85
550.143	8580.25
550.507	8587.03
550.871	8588.16
551.235	8569.41
551.599	8616.64
551.962	8570.31
552.326	8557.2
552.689	8583.42
553.053	8554.72
553.417	8549.52
553.78	8674.72
554.143	8575.96
554.507	8565.11
554.87	8587.71
555.234	8611.89
555.597	8560.82
555.96	8574.15
556.323	8605.56
556.686	8583.87
557.05	8601.27
557.413	8603.08
557.776	8630.87
558.139	8572.57
558.502	8627.94
558.865	8594.94
559.228	8597.88
559.59	8629.74
559.953	8636.98
560.316	8633.13
560.679	8676.75
561.041	8741.83
561.404	8752.45
561.767	8724.88
562.129	8758.33
562.492	8814.6
562.854	8749.97
563.217	8752.23
563.579	8788.38
563.941	8795.84
564.304	8853.24
564.666	8843.75
565.028	8879
565.39	8933.92
565.753	8869.06
566.115	8923.07
566.477	9007.36
566.839	8948.38
567.201	8981.6
567.563	9034.93
567.925	9086.46
568.287	9068.38
568.648	8982.5
569.01	9086
569.372	9134.36
569.734	9065.89
570.095	9174.82
570.457	9172.1
570.819	9144.08
571.18	9194.7
571.542	9183.18
571.903	9276.06
572.265	9279.67
572.626	9286.9
572.987	9289.39
573.349	9295.49
573.71	9396.05
574.071	9380.91
574.432	9361.03
574.794	9382.72
575.155	9433.34
575.516	9317.41
575.877	9430.18
576.238	9448.48
576.599	9531.64
576.96	9499.55
577.32	9441.25
577.681	9540
578.042	9548.14
578.403	9568.48
578.763	9575.48
579.124	9565.99
579.485	9635.82
579.845	9674.01
580.206	9612.54
580.566	9650.73
580.927	9692.32
581.287	9735.03
581.648	9729.38
582.008	9743.39
582.368	9770.73
582.728	9783.61
583.089	9739.09
583.449	9762.82
583.809	9874.23
584.169	9836.04
584.529	9813.67
584.889	9816.15
585.249	9874.23
585.609	9779.09
585.969	9911.52
586.329	9851.41
586.688	9939.99
587.048	9885.31
587.408	9910.39
587.768	9909.49
588.127	9900.9
588.487	9945.19
588.846	10017.28
589.206	9905.42
589.565	9953.33
589.925	10033.32
590.284	10037.39
590.643	10036.04
591.003	10020.44
591.362	10018.63
591.721	10030.84
592.08	10101.8
592.44	10076.94
592.799	10054.34
593.158	10015.47
593.517	10018.63
593.876	10120.55
594.235	10038.97
594.593	10098.86
594.952	10114.68
595.311	10084.62
595.67	10106.77
596.029	10090.05
596.387	10164.85
596.746	10235.13
597.104	10097.5
597.463	10194.68
597.822	10185.41
598.18	10093.44
598.538	10115.58
598.897	10192.64
599.255	10118.07
599.613	10255.92
599.972	10184.73
600.33	10096.6
600.688	10142.7
601.046	10238.06
601.404	10219.08
601.762	10256.82
602.12	10270.61
602.478	10291.62
602.836	10251.62
603.194	10201.45
603.552	10277.61
603.91	10245.52
604.268	10301.57
604.625	10210.04
604.983	10307.89
605.341	10247.1
605.698	10285.52
606.056	10289.14
606.413	10294.11
606.771	10339.76
607.128	10292.53
607.485	10317.84
607.843	10272.64
608.2	10367.55
608.557	10398.29
608.914	10351.06
609.272	10360.55
609.629	10406.87
609.986	10495.23
610.343	10364.84
610.7	10475.57
611.057	10473.09
611.414	10449.13
611.771	10388.79
612.127	10445.74
612.484	10525.29
612.841	10581.56
613.198	10476.93
613.554	10450.04
613.911	10492.75
614.267	10521.9
614.624	10447.78
614.98	10478.74
615.337	10565.06
615.693	10604.83
616.05	10479.41
616.406	10602.8
616.762	10501.79
617.118	10556.93
617.475	10580.2
617.831	10571.16
618.187	10568.22
618.543	10648.9
618.899	10636.7
619.255	10695.23
619.611	10669.69
619.967	10730.48
620.323	10694.78
620.678	10662.23
621.034	10632.63
621.39	10670.37
621.746	10629.24
622.101	10771.61
622.457	10623.59
622.812	10604.16
623.168	10644.16
623.523	10608.45
623.879	10673.98
624.234	10629.24
624.589	10685.06
624.945	10595.34
625.3	10669.24
625.655	10641.9
626.01	10647.54
626.365	10652.97
626.72	10591.5
627.075	10619.07
627.43	10605.06
627.785	10603.93
628.14	10603.25
628.495	10590.82
628.85	10596.7
629.205	10552.18
629.559	10638.05
629.914	10572.29
630.269	10573.2
630.623	10558.73
630.978	10495.68
631.332	10591.28
631.687	10583.14
632.041	10565.29
632.396	10563.25
632.75	10483.03
633.104	10464.27
633.459	10430.83
633.813	10479.64
634.167	10507.44
634.521	10461.11
634.875	10512.41
635.229	10478.06
635.583	10420.43
635.937	10378.63
636.291	10350.38
636.645	10385.4
636.999	10341.56
637.352	10418.17
637.706	10348.34
638.06	10378.85
638.413	10408.68
638.767	10287.55
639.121	10287.78
639.474	10267.44
639.828	10253.43
640.181	10245.3
640.534	10199.87
640.888	10253.2
641.241	10166.65
641.594	10179.99
641.947	10215.24
642.301	10189.7
642.654	10182.7
643.007	10169.82
643.36	10162.59
643.713	10162.13
644.066	10190.38
644.419	10107.67
644.771	10137.73
645.124	9997.62
645.477	9955.59
645.83	9949.94
646.182	9834.91
646.535	9817.51
646.888	9825.65
647.24	9757.4
647.593	9843.72
647.945	9790.17
648.298	9732.54
648.65	9748.36
649.002	9744.07
649.355	9811.86
649.707	9845.31
650.059	9784.74
650.411	9950.16
650.763	9967.11
651.115	10025.19
651.467	10024.51
651.819	10052.08
652.171	10000.1
652.523	9973.21
652.875	9970.27
653.227	9979.31
653.578	10034
653.93	10041.01
654.282	9932.31
654.633	9962.82
654.985	9923.72
655.337	10011.18
655.688	9985.19
656.039	10017.96
656.391	9932.54
656.742	9999.43
657.094	9897.51
657.445	10008.69
657.796	9983.61
658.147	9942.03
658.498	9898.41
658.849	9924.85
659.2	10009.14
659.551	9942.93
659.902	9915.59
660.253	9967.11
660.604	9931.18
660.955	9942.93
661.306	9968.47
661.656	9942.7
662.007	9971.86
662.358	9941.35
662.708	9976.15
663.059	9981.57
663.409	9876.27
663.76	9993.32
664.11	9919.43
664.461	9977.05
664.811	10014.57
665.161	9939.99
665.511	9904.06
665.862	9973.44
666.212	9954.23
666.562	9989.03
666.912	9960.33
667.262	9907
667.612	10001.91
667.962	9941.12
668.312	9921.24
668.662	10009.6
669.011	9998.07
669.361	9831.52
669.711	9942.93
670.06	9916.72
670.41	9957.85
670.76	9855.93
671.109	9956.49
671.459	9952.87
671.808	9892.08
672.157	9905.87
672.507	9848.47
672.856	9864.06
673.205	9828.81
673.554	9872.88
673.904	9820.22
674.253	9862.48
674.602	9831.75
674.951	9689.6
675.3	9729.83
675.649	9841.92
675.998	9783.61
676.346	9835.36
676.695	9856.61
677.044	9836.04
677.393	9829.26
677.741	9846.66
678.09	9711.75
678.438	9751.52
678.787	9768.92
679.135	9729.15
679.484	9610.28
679.832	9647.8
680.181	9682.15
680.529	9687.12
680.877	9590.62
681.225	9583.62
681.573	9687.12
681.922	9638.08
682.27	9554.69
682.618	9573.22
682.966	9530.51
683.314	9547.23
683.661	9490.97
684.009	9413
684.357	9388.14
684.705	9406.9
685.053	9452.77
685.4	9391.08
685.748	9344.53
686.095	9337.3
686.443	9267.24
686.79	9353.34
687.138	9383.62
687.485	9316.96
687.832	9259.56
688.18	9269.5
688.527	9224.08
688.874	9214.36
689.221	9111.77
689.568	9156.06
689.915	9093.69
690.262	9110.86
690.609	9073.35
690.956	9048.26
691.303	9052.11
691.65	9009.17
691.997	9005.55
692.344	8916.97
692.69	8869.96
693.037	8917.65
693.383	8792.23
693.73	8817.31
694.077	8752.91
694.423	8759.46
694.769	8778.89
695.116	8777.31
695.462	8700.7
695.808	8681.27
696.155	8740.02
696.501	8661.61
696.847	8637.65
697.193	8563.76
697.539	8569.41
697.885	8575.73
698.231	8470.88
698.577	8438.11
698.923	8441.05
699.269	8363.76
699.614	8312.92
699.96	8325.8
700.306	8301.39
700.651	8316.98
700.997	8248.06
701.342	8246.93
701.688	8242.86
702.033	8175.97
702.379	8194.73
702.724	8202.41
703.069	8146.37
703.415	8040.61
703.76	8025.01
704.105	8088.74
704.45	7974.85
704.795	7964.68
705.14	7949.31
705.485	7942.53
705.83	7937.33
706.175	7872.7
706.52	7852.14
706.865	7862.53
707.209	7797.9
707.554	7813.72
707.899	7801.97
708.243	7717.45
708.588	7767.62
708.932	7718.58
709.277	7711.58
709.621	7698.7
709.966	7576.67
710.31	7640.39
710.654	7518.81
710.998	7621.64
711.342	7544.58
711.687	7585.25
712.031	7541.86
712.375	7532.37
712.719	7503.9
713.063	7514.75
713.407	7530.56
713.75	7446.05
714.094	7479.27
714.438	7415.77
714.782	7410.79
715.125	7401.08
715.469	7392.49
715.812	7365.37
716.156	7324.69
716.499	7374.64
716.843	7335.09
717.186	7328.08
717.53	7320.63
717.873	7253.06
718.216	7300.29
718.559	7310.91
718.902	7227.52
719.246	7253.74
719.589	7236.79
719.932	7165.6
720.275	7166.96
720.617	7175.09
720.96	7206.28
721.303	7208.09
721.646	7219.61
721.989	7155.66
722.331	7221.19
722.674	7080.18
723.016	7210.12
723.359	7153.17
723.701	7125.83
724.044	7098.94
724.386	7034.08
724.729	7125.15
725.071	7119.73
725.413	7031.59
725.755	7120.63
726.097	7051.48
726.439	7006.28
726.782	6991.6
727.124	7056.23
727.465	7026.85
727.807	7027.75
728.149	7015.78
728.491	6970.35
728.833	7026.4
729.175	7000.86
729.516	7034.98
729.858	7001.54
730.199	7035.66
730.541	6946.63
730.882	7044.25
731.224	6993.86
731.565	6983.91
731.906	6978.71
732.248	7026.17
732.589	6955.89
732.93	6944.82
733.271	6962.22
733.612	6960.86
733.953	6972.16
734.294	6982.78
734.635	6981.88
734.976	7019.84
735.317	6938.26
735.658	6965.61
735.999	6975.78
736.339	6951.37
736.68	6994.31
737.021	6923.8
737.361	6892.62
737.702	6968.09
738.042	6943.91
738.383	6906.4
738.723	7008.09
739.063	6938.04
739.404	7002.89
739.744	7012.16
740.084	6940.98
740.424	6956.34
740.764	7008.54
741.104	7020.97
741.444	6956.12
741.784	6989.56
742.124	7028.43
742.464	7051.48
742.804	7008.09
743.143	7044.48
743.483	7053.29
743.823	7035.89
744.162	7041.09
744.502	7096.9
744.841	7201.76
745.181	7178.71
745.52	7167.18
745.86	7173.51
746.199	7244.02
746.538	7251.93
746.877	7240.4
747.216	7263.68
747.556	7342.55
747.895	7398.82
748.234	7395.2
748.573	7389.78
748.911	7436.1
749.25	7471.13
749.589	7519.27
749.928	7623.44
750.267	7665.93
750.605	7731.69
750.944	7776.66
751.283	7760.16
751.621	7829.31
751.96	7852.82
752.298	7970.1
752.636	8009.2
752.975	8050.33
753.313	8070.66
753.651	8305.23
753.989	8334.61
754.327	8322.63
754.666	8448.51
755.004	8490.54
755.342	8618.45
755.679	8695.51
756.017	8801.94
756.355	8986.8
756.693	8981.15
757.031	9162.16
757.368	9184.31
757.706	9311.99
758.044	9412.32
758.381	9479.67
758.719	9598.76
759.056	9771.18
759.394	9862.71
759.731	9973.44
760.068	10016.6
760.405	10124.62
760.743	10237.84
761.08	10366.42
761.417	10542.24
761.754	10592.18
762.091	10723.93
762.428	10867.65
762.765	10982.23
763.102	11114.2
763.438	11227.87
763.775	11339.96
764.112	11468.31
764.449	11650.46
764.785	11672.6
765.122	11800.96
765.458	11871.24
765.795	11957.11
766.131	12160.05
