Data from hue_310_FLMS001491_5.txt Node
Date: Mon Feb 06 15:48:23 GMT 2017
User: dcchb
Spectrometer: FLMS00149
Trigger mode: 0
Integration Time (sec): 2.000000E-2
Scans to average: 10
Electric dark correction enabled: true
Nonlinearity correction enabled: false
Boxcar width: 0
XAxis mode: Wavelengths
Number of Pixels in Spectrum: 2048
>>>>>Begin Spectral Data<<<<<
341.393	-13.52
341.776	-13.52
342.16	-13.52
342.543	-37.02
342.927	-58.49
343.31	-76.79
343.693	-57.81
344.077	-66.85
344.46	-71.37
344.843	-70.46
345.226	-53.52
345.61	-26.17
345.993	-13.29
346.376	-8.32
346.759	7.05
347.142	36.2
347.525	49.31
347.908	76.88
348.291	66.26
348.674	97.89
349.057	111
349.44	138.8
349.823	143.54
350.206	159.81
350.588	226.48
350.971	208.17
351.354	238.45
351.737	232.58
352.119	247.49
352.502	250.43
352.884	264.22
353.267	274.16
353.65	285.68
354.032	297.21
354.414	296.08
354.797	302.18
355.179	323.65
355.562	325.01
355.944	331.79
356.326	341.28
356.709	311.45
357.091	349.86
357.473	343.08
357.855	323.2
358.238	353.71
358.62	337.89
359.002	336.98
359.384	343.31
359.766	356.87
360.148	312.35
360.53	346.93
360.912	348.06
361.294	342.86
361.676	320.71
362.057	328.4
362.439	334.27
362.821	324.1
363.203	314.16
363.584	341.28
363.966	324.78
364.348	331.33
364.729	322.52
365.111	342.41
365.493	313.93
365.874	324.78
366.256	328.85
366.637	307.83
367.019	335.85
367.4	311.9
367.781	303.54
368.163	299.02
368.544	322.75
368.925	336.08
369.306	325.01
369.688	310.54
370.069	306.25
370.45	314.16
370.831	310.77
371.212	313.25
371.593	325.01
371.974	299.24
372.355	305.12
372.736	318
373.117	307.83
373.498	329.3
373.879	325.46
374.26	312.58
374.641	324.78
375.021	307.83
375.402	318.23
375.783	310.09
376.163	347.15
376.544	335.4
376.925	333.82
377.305	343.76
377.686	315.06
378.066	332.46
378.447	342.86
378.827	359.58
379.208	320.03
379.588	339.02
379.968	341.95
380.349	331.79
380.729	341.5
381.109	338.11
381.489	342.41
381.87	356.19
382.25	354.84
382.63	358
383.01	341.5
383.39	336.08
383.77	356.19
384.15	348.96
384.53	362.74
384.91	344.67
385.29	353.93
385.67	363.87
386.049	365
386.429	372.24
386.809	354.61
387.189	339.92
387.568	343.08
387.948	377.43
388.328	365
388.707	353.25
389.087	370.65
389.466	353.03
389.846	386.02
390.225	368.39
390.605	367.72
390.984	368.39
391.363	378.79
391.743	366.59
392.122	387.6
392.501	369.3
392.881	375.4
393.26	385.57
393.639	381.28
394.018	378.34
394.397	397.55
394.776	380.6
395.155	386.92
395.534	386.92
395.913	370.65
396.292	395.96
396.671	393.25
397.05	397.32
397.429	383.99
397.808	403.65
398.186	401.39
398.565	410.2
398.944	398.68
399.323	426.92
399.701	421.95
400.08	401.39
400.458	396.87
400.837	426.47
401.215	409.52
401.594	414.49
401.972	406.36
402.351	424.89
402.729	425.34
403.107	411.33
403.486	417.43
403.864	416.75
404.242	440.93
404.62	453.14
404.999	448.62
405.377	448.17
405.755	438.45
406.133	457.66
406.511	433.25
406.889	439.13
407.267	451.33
407.645	462.4
408.023	455.4
408.401	463.53
408.779	489.97
409.156	483.87
409.534	473.93
409.912	505.11
410.29	526.13
410.667	495.17
411.045	544.43
411.422	527.26
411.8	530.2
412.178	530.42
412.555	534.27
412.933	547.15
413.31	529.29
413.687	563.87
414.065	583.98
414.442	572.46
414.819	565.23
415.197	594.83
415.574	580.59
415.951	621.49
416.328	617.65
416.705	587.82
417.082	621.72
417.46	622.17
417.837	637.99
418.214	636.86
418.591	647.26
418.967	647.03
419.344	661.04
419.721	664.88
420.098	705.11
420.475	694.49
420.852	684.77
421.228	703.3
421.605	739.91
421.982	729.06
422.358	748.5
422.735	739.91
423.111	765.45
423.488	775.84
423.864	805.22
424.241	789.63
424.617	777.42
424.994	798.89
425.37	807.7
425.746	806.57
426.123	839.12
426.499	812.68
426.875	821.72
427.251	812.9
427.627	865.1
428.003	859.45
428.379	869.17
428.756	864.43
429.132	902.39
429.507	886.12
429.883	877.76
430.259	924.99
430.635	920.47
431.011	938.1
431.387	948.72
431.763	959.57
432.138	962.28
432.514	972.67
432.89	984.42
433.265	988.72
433.641	1023.52
434.016	1014.25
434.392	1043.4
434.767	1063.74
435.143	1047.25
435.518	1047.92
435.894	1089.51
436.269	1120.46
436.644	1105.55
437.02	1086.57
437.395	1106.68
437.77	1147.58
438.145	1136.74
438.52	1145.1
438.895	1165.89
439.271	1189.16
439.646	1208.6
440.021	1182.38
440.395	1224.42
440.77	1200.24
441.145	1207.92
441.52	1228.03
441.895	1233.91
442.27	1230.07
442.645	1214.25
443.019	1249.5
443.394	1253.57
443.769	1279.33
444.143	1233.68
444.518	1291.08
444.892	1251.99
445.267	1284.08
445.641	1312.55
446.016	1276.17
446.39	1285.21
446.764	1282.49
447.139	1299.44
447.513	1324.08
447.887	1298.99
448.262	1280.46
448.636	1294.25
449.01	1337.86
449.384	1328.37
449.758	1318.2
450.132	1338.76
450.506	1334.92
450.88	1376.73
451.254	1346.45
451.628	1357.07
452.002	1360.68
452.376	1411.3
452.75	1397.75
453.123	1420.12
453.497	1416.05
453.871	1435.94
454.244	1455.37
454.618	1430.97
454.992	1413.79
455.365	1438.65
455.739	1484.98
456.112	1504.64
456.486	1495.37
456.859	1516.16
457.232	1536.5
457.606	1503.05
457.979	1529.72
458.352	1562.71
458.725	1575.14
459.099	1576.05
459.472	1577.63
459.845	1595.71
460.218	1621.69
460.591	1618.53
460.964	1614.69
461.337	1617.63
461.71	1664.18
462.083	1653.33
462.456	1684.29
462.829	1686.1
463.201	1709.6
463.574	1701.01
463.947	1715.25
464.32	1735.82
464.692	1746.89
465.065	1748.02
465.438	1765.87
465.81	1784.18
466.183	1783.27
466.555	1812.2
466.928	1820.11
467.3	1820.11
467.672	1822.14
468.045	1887
468.417	1858.75
468.789	1899.2
469.161	1878.19
469.534	1916.6
469.906	1933.32
470.278	1938.97
470.65	1963.83
471.022	2039.76
471.394	2056.03
471.766	2023.27
472.138	2045.64
472.51	2048.58
472.882	2145.52
473.253	2109.82
473.625	2147.78
473.997	2160.44
474.369	2195.46
474.74	2188.91
475.112	2204.73
475.484	2224.62
475.855	2247.44
476.227	2275.01
476.598	2315.91
476.97	2341.22
477.341	2391.39
477.713	2350.04
478.084	2401.79
478.455	2448.79
478.827	2462.8
479.198	2506.19
479.569	2502.35
479.94	2534.66
480.311	2547.55
480.682	2609.69
481.053	2609.24
481.424	2697.6
481.795	2684.72
482.166	2736.02
482.537	2712.74
482.908	2760.87
483.279	2781.21
483.65	2779.63
484.021	2867.31
484.391	2881.32
484.762	2890.59
485.133	2897.59
485.503	2950.93
485.874	2977.14
486.244	3010.81
486.615	3057.36
486.985	3099.62
487.356	3097.14
487.726	3152.05
488.097	3153.63
488.467	3191.37
488.837	3217.58
489.207	3256.68
489.578	3301.42
489.948	3305.04
490.318	3362.21
490.688	3371.71
491.058	3389.78
491.428	3404.92
491.798	3453.74
492.168	3522.21
492.538	3458.03
492.908	3514.98
493.278	3563.56
493.648	3593.39
494.017	3620.29
494.387	3614.86
494.757	3619.38
495.126	3677.01
495.496	3700.51
495.866	3685.82
496.235	3726.95
496.605	3705.71
496.974	3735.76
497.344	3788.19
497.713	3782.54
498.082	3802.43
498.452	3841.75
498.821	3834.52
499.19	3824.57
499.559	3857.57
499.928	3926.72
500.298	3931.92
500.667	3963.78
501.036	3925.36
501.405	3951.58
501.774	3950.22
502.143	3976.21
502.512	3956.55
502.88	4035.19
503.249	4011.69
503.618	4049.65
503.987	4054.4
504.356	4059.14
504.724	4096.21
505.093	4083.1
505.462	4089.88
505.83	4086.94
506.199	4149.99
506.567	4195.64
506.936	4201.74
507.304	4214.39
507.672	4202.64
508.041	4288.97
508.409	4244
508.777	4310.21
509.145	4287.61
509.514	4308.18
509.882	4292.58
510.25	4280.61
510.618	4313.83
510.986	4359.02
511.354	4359.25
511.722	4348.63
512.09	4415.75
512.458	4369.42
512.826	4399.7
513.193	4434.28
513.561	4459.36
513.929	4474.95
514.297	4511.34
514.664	4537.1
515.032	4497.78
515.4	4533.71
515.767	4522.41
516.135	4549.75
516.502	4491.68
516.869	4603.99
517.237	4603.99
517.604	4543.43
517.972	4622.52
518.339	4643.99
518.706	4639.92
519.073	4593.59
519.44	4627.49
519.808	4688.05
520.175	4663.87
520.542	4715.85
520.909	4730.99
521.276	4709.75
521.643	4739.13
522.009	4808.96
522.376	4714.49
522.743	4791.1
523.11	4826.58
523.477	4828.39
523.843	4904.32
524.21	4919.46
524.577	4917.2
524.943	4946.35
525.31	4929.4
525.676	5051.66
526.043	5008.05
526.409	5037.65
526.776	5071.1
527.142	5076.75
527.508	5072.9
527.874	5095.5
528.241	5148.38
528.607	5178.21
528.973	5225.89
529.339	5176.86
529.705	5229.28
530.071	5264.54
530.437	5268.6
530.803	5288.72
531.169	5364.65
531.535	5299.11
531.901	5397.41
532.267	5382.95
532.632	5425.44
532.998	5481.25
533.364	5436.51
533.73	5436.74
534.095	5475.15
534.461	5507.69
534.826	5583.4
535.192	5567.13
535.557	5644.41
535.923	5630.4
536.288	5641.02
536.653	5671.08
537.019	5712.43
537.384	5663.4
537.749	5722.6
538.114	5716.95
538.479	5770.51
538.845	5804.64
539.21	5797.86
539.575	5780.23
539.94	5871.07
540.305	5860.68
540.67	5876.95
541.034	5886.44
541.399	5951.52
541.764	5954.01
542.129	5998.53
542.494	6029.26
542.858	6014.35
543.223	6049.6
543.587	6107.9
543.952	6064.29
544.316	6115.59
544.681	6104.51
545.045	6155.36
545.41	6195.59
545.774	6249.6
546.138	6227.45
546.503	6195.36
546.867	6252.08
547.231	6302.02
547.595	6302.7
547.959	6331.4
548.324	6381.57
548.688	6431.29
549.052	6452.53
549.416	6417.27
549.779	6412.98
550.143	6464.73
550.507	6504.5
550.871	6561.23
551.235	6516.71
551.599	6577.72
551.962	6613.65
552.326	6626.99
552.689	6627.66
553.053	6581.11
553.417	6666.31
553.78	6674.9
554.143	6692.75
554.507	6748.79
554.87	6730.26
555.234	6785.63
555.597	6784.5
555.96	6836.92
556.323	6802.35
556.686	6854.55
557.05	6811.84
557.413	6901.33
557.776	6936.36
558.139	6923.93
558.502	6992.17
558.865	6966.86
559.228	7001.67
559.59	7055.9
559.953	7020.2
560.316	7073.53
560.679	7095.45
561.041	7204.6
561.404	7134.09
561.767	7212.06
562.129	7175.22
562.492	7220.64
562.854	7238.72
563.217	7220.19
563.579	7248.44
563.941	7274.2
564.304	7372.73
564.666	7362.79
565.028	7338.15
565.39	7408.44
565.753	7419.73
566.115	7466.29
566.477	7434.65
566.839	7443.46
567.201	7524.59
567.563	7525.49
567.925	7592.39
568.287	7637.58
568.648	7595.32
569.01	7638.49
569.372	7725.26
569.734	7699.95
570.095	7728.88
570.457	7792.83
570.819	7786.28
571.18	7856.56
571.542	7931.13
571.903	7909.44
572.265	7953.28
572.626	7981.98
572.987	8072.15
573.349	8061.53
573.71	8121.64
574.071	8179.71
574.432	8196.21
574.794	8271.46
575.155	8320.95
575.516	8433.04
575.877	8453.61
576.238	8445.24
576.599	8601.4
576.96	8574.51
577.32	8678.46
577.681	8750.55
578.042	8903.09
578.403	8924.55
578.763	9019.24
579.124	9132.91
579.485	9219.01
579.845	9374.71
580.206	9407.03
580.566	9471.43
580.927	9615.83
581.287	9837.52
581.648	9912.78
582.008	10029.84
582.368	10160.45
582.728	10323.39
583.089	10457.62
583.449	10681.57
583.809	10843.83
584.169	11052.63
584.529	11129.69
584.889	11372.4
585.249	11574.65
585.609	11733.75
585.969	12037.01
586.329	12218.93
586.688	12425.93
587.048	12638.81
587.408	12856.65
587.768	13116.53
588.127	13244.89
588.487	13494.38
588.846	13916.06
589.206	14035.38
589.565	14410.96
589.925	14679.2
590.284	15009.82
590.643	15199.64
591.003	15534.55
591.362	15838.95
591.721	16081.43
592.08	16355.32
592.44	16762.99
592.799	16992.14
593.158	17240.49
593.517	17602.29
593.876	17936.29
594.235	18165.44
594.593	18583.96
594.952	18893.1
595.311	19112.53
595.67	19457.84
596.029	19791.39
596.387	20194.54
596.746	20516.34
597.104	20673.62
597.463	20944.35
597.822	21420.04
598.18	21681.05
598.538	21987.49
598.897	22426.12
599.255	22498.43
599.613	23150.39
599.972	23225.87
600.33	23640.55
600.688	23888.45
601.046	24224.94
601.404	24496.8
601.762	24728.66
602.12	25264.46
602.478	25421.52
602.836	25673.27
603.194	25834.39
603.552	26332.46
603.91	26443.19
604.268	26922.95
604.625	27083.4
604.983	27383.5
605.341	27673.67
605.698	27946.43
606.056	28268
606.413	28426.64
606.771	28829.79
607.128	29105.72
607.485	29160.18
607.843	29460.96
608.2	29806.94
608.557	30159.48
608.914	30186.37
609.272	30546.13
609.629	30850.08
609.986	31153.35
610.343	31172.78
610.7	31641.92
611.057	31792.43
611.414	31967.11
611.771	32052.53
612.127	32430.83
612.484	32581.78
612.841	32782.91
613.198	32944.49
613.554	33108.32
613.911	33522.55
614.267	33624.24
614.624	33682.77
614.98	34120.28
615.337	34200.95
615.693	34427.16
616.05	34579.47
616.406	34858.56
616.762	34807.04
617.118	34971.33
617.475	35195.28
617.831	35360.92
618.187	35538.99
618.543	35713.23
618.899	36040
619.255	36039.32
619.611	36237.73
619.967	36310.5
620.323	36606.31
620.678	36510.95
621.034	36525.18
621.39	36768.12
621.746	36810.37
622.101	37277.03
622.457	37092.63
622.812	37285.84
623.168	37481.77
623.523	37387.31
623.879	37624.59
624.234	37420.3
624.589	37802.44
624.945	37919.27
625.3	38015.09
625.655	38121.07
626.01	38046.27
626.365	38335.08
626.72	38224.57
627.075	38296.21
627.43	38447.84
627.785	38449.65
628.14	38504.79
628.495	38720.38
628.85	38729.19
629.205	38573.27
629.559	39016.87
629.914	38890.77
630.269	38906.82
630.623	38776.65
630.978	38858.91
631.332	39145
631.687	39145.68
632.041	38952.92
632.396	39105
632.75	39091.22
633.104	39088.96
633.459	38989.53
633.813	39048.28
634.167	39079.47
634.521	39032.91
634.875	38976.42
635.229	39181.84
635.583	38993.59
635.937	39113.59
636.291	39095.29
636.645	39143.42
636.999	39021.39
637.352	39221.38
637.706	39142.06
638.06	39136.87
638.413	39029.52
638.767	39054.38
639.121	39265.68
639.474	38867.72
639.828	39007.15
640.181	39104.55
640.534	39257.32
640.888	38979.13
641.241	38996.08
641.594	39089.41
641.947	39208.28
642.301	38990.43
642.654	39083.53
643.007	39122.18
643.36	39065.46
643.713	38945.46
644.066	39325.56
644.419	38980.26
644.771	38637.9
645.124	38290.34
645.477	38359.49
645.83	38155.88
646.182	38007.18
646.535	37874.53
646.888	37992.94
647.24	37773.74
647.593	37896.9
647.945	37831.36
648.298	37867.3
648.65	37721.76
649.002	37711.37
649.355	37727.86
649.707	37817.13
650.059	37935.77
650.411	38507.28
650.763	38381.86
651.115	38826.37
651.467	38706.82
651.819	38632.02
652.171	38541.4
652.523	38526.04
652.875	38507.05
653.227	38455.53
653.578	38751.57
653.93	38521.06
654.282	38435.42
654.633	38253.5
654.985	38436.09
655.337	38535.07
655.688	38524.68
656.039	38605.35
656.391	38291.92
656.742	38325.81
657.094	38468.64
657.445	38444.46
657.796	38462.31
658.147	38435.19
658.498	38239.94
658.849	38435.19
659.2	38434.29
659.551	38227.74
659.902	38365.59
660.253	38235.2
660.604	38425.7
660.955	38194.07
661.306	38397.45
661.656	38237
662.007	38393.16
662.358	38305.25
662.708	38273.16
663.059	38139.15
663.409	38005.14
663.76	38319.49
664.11	38314.74
664.461	38288.08
664.811	38333.95
665.161	38326.27
665.511	38071.13
665.862	38260.96
666.212	38314.97
666.562	38240.17
666.912	38200.39
667.262	38123.56
667.612	38199.04
667.962	38262.54
668.312	38131.7
668.662	38416.66
669.011	38179.6
669.361	38091.24
669.711	38165.37
670.06	38031.81
670.41	38013.28
670.76	37934.19
671.109	38228.42
671.459	38137.34
671.808	38063.22
672.157	38086.5
672.507	37851.02
672.856	37853.96
673.205	37872.72
673.554	38090.79
673.904	37875.88
674.253	38051.25
674.602	37878.14
674.951	37378.49
675.3	37328.55
675.649	37843.12
675.998	37751.59
676.346	37811.48
676.695	37879.27
677.044	37614.42
677.393	37665.72
677.741	37851.02
678.09	37613.06
678.438	37739.16
678.787	37718.6
679.135	37653.29
679.484	37472.05
679.832	37639.96
680.181	37364.03
680.529	37488.55
680.877	37504.82
681.225	37454.42
681.573	37462.56
681.922	37232.74
682.27	37239.29
682.618	37178.27
682.966	37131.04
683.314	37144.83
683.661	36982.57
684.009	37044.04
684.357	36853.08
684.705	36879.98
685.053	36850.6
685.4	36734.44
685.748	36724.73
686.095	36682.92
686.443	36471.63
686.79	36403.38
687.138	36416.94
687.485	36546.2
687.832	36361.35
688.18	36382.81
688.527	36167.9
688.874	36227.11
689.221	36148.7
689.568	36029.6
689.915	35949.15
690.262	35962.26
690.609	35799.1
690.956	35629.16
691.303	35705.54
691.65	35538.09
691.997	35562.05
692.344	35383.29
692.69	35277.53
693.037	35371.32
693.383	35220.36
693.73	35208.38
694.077	34854.27
694.423	34986.47
694.769	34828.05
695.116	34830.99
695.462	34732.91
695.808	34525.69
696.155	34601.39
696.501	34465.35
696.847	34537.21
697.193	34205.02
697.539	34325.24
697.885	34074.17
698.231	33905.82
698.577	34112.82
698.923	33944.23
699.269	33768.19
699.614	33583.34
699.96	33464.25
700.306	33685.03
700.651	33482.33
700.997	33356
701.342	33362.55
701.688	33267.64
702.033	33116.91
702.379	33102
702.724	33045.5
703.069	33184.93
703.415	32737.03
703.76	32787.2
704.105	32681.44
704.45	32716.92
704.795	32547.21
705.14	32505.18
705.485	32428.57
705.83	32269.7
706.175	32318.06
706.52	32311.96
706.865	32147.45
707.209	31988.35
707.554	31823.16
707.899	32067.67
708.243	31939.09
708.588	31788.59
708.932	31625.43
709.277	31727.8
709.621	31678.53
709.966	31461.81
710.31	31538.2
710.654	31229.05
710.998	31337.98
711.342	31292.33
711.687	31153.35
712.031	30965.56
712.375	30974.82
712.719	30961.71
713.063	30950.42
713.407	31001.49
713.75	30746.13
714.094	30802.62
714.438	30704.77
714.782	30734.15
715.125	30550.2
715.469	30681.72
715.812	30524.21
716.156	30334.16
716.499	30217.1
716.843	30232.47
717.186	29958.58
717.53	30270.66
717.873	30219.81
718.216	30224.33
718.559	30033.38
718.902	29796.1
719.246	29968.52
719.589	29890.56
719.932	29832.48
720.275	29599.49
720.617	29577.12
720.96	29635.65
721.303	29640.17
721.646	29585.93
721.989	29349.33
722.331	29462.77
722.674	29312.27
723.016	29461.19
723.359	29366.05
723.701	29322.89
724.044	29133.97
724.386	29013.06
724.729	29045.83
725.071	29081.31
725.413	29066.62
725.755	29039.05
726.097	28944.59
726.439	28744.6
726.782	28838.38
727.124	28877.7
727.465	28712.06
727.807	28669.57
728.149	28643.81
728.491	28534.43
728.833	28686.07
729.175	28476.13
729.516	28359.97
729.858	28339.18
730.199	28394.78
730.541	28276.81
730.882	28386.41
731.224	28354.55
731.565	28184.84
731.906	28197.95
732.248	28144.16
732.589	27986.2
732.93	27890.83
733.271	27972.41
733.612	27894.9
733.953	28017.84
734.294	27890.16
734.635	27817.84
734.976	27952.98
735.317	27682.93
735.658	27715.92
735.999	27758.18
736.339	27604.74
736.68	27739.65
737.021	27614.01
737.361	27401.36
737.702	27570.16
738.042	27548.92
738.383	27482.26
738.723	27452.65
739.063	27244.52
739.404	27317.52
739.744	27367.46
740.084	27290.62
740.424	27242.72
740.764	27127.69
741.104	27157.97
741.444	27022.38
741.784	27050.86
742.124	27037.07
742.464	27005.89
742.804	26902.39
743.143	26944.87
743.483	26973.57
743.823	26757.08
744.162	26704.88
744.502	26794.59
744.841	26699.23
745.181	26689.28
745.52	26608.83
745.86	26606.12
746.199	26560.93
746.538	26513.7
746.877	26515.05
747.216	26480.7
747.556	26515.28
747.895	26462.62
748.234	26206.81
748.573	26267.37
748.911	26326.58
749.25	26166.36
749.589	26033.71
749.928	26136.3
750.267	26056.31
750.605	25978.79
750.944	25876.42
751.283	25875.97
751.621	25926.37
751.96	25741.96
752.298	25736.99
752.636	25749.87
752.975	25596.88
753.313	25590.56
753.651	25583.78
753.989	25530.67
754.327	25548.3
754.666	25331.35
755.004	25388.3
755.342	25323.44
755.679	25245.25
756.017	25197.12
756.355	25231.7
756.693	25024.02
757.031	24977.69
757.368	24937.01
757.706	24956.67
758.044	24788.09
758.381	24780.63
758.719	24760.3
759.056	24692.5
759.394	24653.41
759.731	24398.95
760.068	24494.77
