Data from hue_140_FLMS001491_00018.txt Node
Date: Tue Feb 07 16:55:30 GMT 2017
User: dcchb
Spectrometer: FLMS00149
Trigger mode: 0
Integration Time (sec): 2.000000E-2
Scans to average: 10
Electric dark correction enabled: true
Nonlinearity correction enabled: false
Boxcar width: 0
XAxis mode: Wavelengths
Number of Pixels in Spectrum: 2048
>>>>>Begin Spectral Data<<<<<
341.393	-24.93
341.776	-24.93
342.16	-24.93
342.543	-65.38
342.927	-85.27
343.31	-63.57
343.693	-77.13
344.077	-72.16
344.46	-54.98
344.843	-57.7
345.226	-48.88
345.61	-38.94
345.993	-32.39
346.376	12.13
346.759	7.39
347.142	26.82
347.525	24.79
347.908	55.75
348.291	83.32
348.674	115.63
349.057	119.93
349.44	125.58
349.823	146.37
350.206	168.96
350.588	206.03
350.971	208.96
351.354	216.87
351.737	248.96
352.119	242.18
352.502	239.02
352.884	257.55
353.267	282.41
353.65	288.96
354.032	274.95
354.414	305.01
354.797	321.73
355.179	310.66
355.562	329.86
355.944	310.88
356.326	328.51
356.709	335.29
357.091	349.75
357.473	342.97
357.855	340.94
358.238	333.48
358.62	342.75
359.002	338.9
359.384	350.88
359.766	318.57
360.148	341.16
360.53	346.81
360.912	335.29
361.294	344.78
361.676	335.29
362.057	327.38
362.439	333.71
362.821	321.28
363.203	345.46
363.584	331.67
363.966	327.6
364.348	310.43
364.729	321.05
365.111	318.57
365.493	319.47
365.874	303.65
366.256	348.62
366.637	322.18
367.019	318.34
367.4	299.36
367.781	306.14
368.163	306.14
368.544	305.91
368.925	310.43
369.306	331.67
369.688	312.69
370.069	302.52
370.45	303.42
370.831	316.98
371.212	323.08
371.593	331.22
371.974	308.4
372.355	322.63
372.736	317.44
373.117	326.02
373.498	305.46
373.879	305.01
374.26	321.05
374.641	309.75
375.021	320.37
375.402	314.27
375.783	335.29
376.163	314.27
376.544	315.85
376.925	317.44
377.305	325.12
377.686	321.95
378.066	329.41
378.447	315.63
378.827	341.39
379.208	318.79
379.588	319.24
379.968	320.15
380.349	347.49
380.729	342.52
381.109	337.32
381.489	347.49
381.87	337.1
382.25	344.55
382.63	333.48
383.01	354.95
383.39	349.3
383.77	330.32
384.15	349.07
384.53	332.8
384.91	363.54
385.29	348.17
385.67	340.26
386.049	358.56
386.429	354.5
386.809	350.65
387.189	341.16
387.568	346.36
387.948	350.2
388.328	358.34
388.707	337.32
389.087	354.5
389.466	391.78
389.846	370.54
390.225	362.86
390.605	350.2
390.984	375.06
391.363	358.56
391.743	364.44
392.122	375.96
392.501	358.34
392.881	373.48
393.26	377.55
393.639	370.09
394.018	382.52
394.397	384.1
394.776	391.78
395.155	386.36
395.534	354.95
395.913	376.87
396.292	379.13
396.671	382.74
397.05	387.26
397.429	376.64
397.808	394.95
398.186	378
398.565	383.87
398.944	391.33
399.323	410.31
399.701	403.76
400.08	392.01
400.458	394.04
400.837	406.02
401.215	398.56
401.594	400.6
401.972	418.9
402.351	407.6
402.729	426.81
403.107	414.83
403.486	416.87
403.864	407.38
404.242	425.68
404.62	427.94
404.999	432.23
405.377	427.04
405.755	431.78
406.133	434.27
406.511	424.55
406.889	424.33
407.267	441.5
407.645	438.56
408.023	432.91
408.401	458
408.779	447.83
409.156	456.41
409.534	449.86
409.912	446.25
410.29	448.96
410.667	478.11
411.045	453.25
411.422	446.47
411.8	465.68
412.178	455.96
412.555	451.89
412.933	466.58
413.31	486.7
413.687	478.56
414.065	490.54
414.442	485.11
414.819	510.42
415.197	527.6
415.574	501.61
415.951	484.89
416.328	508.84
416.705	516.75
417.082	498.67
417.46	502.06
417.837	516.98
418.214	502.29
418.591	519.92
418.967	500.48
419.344	530.31
419.721	503.19
420.098	515.85
420.475	524.66
420.852	523.31
421.228	550.42
421.605	525.57
421.982	534.15
422.358	549.52
422.735	547.03
423.111	534.83
423.488	548.62
423.864	542.06
424.241	566.47
424.617	578.67
424.994	573.25
425.37	571.89
425.746	583.87
426.123	570.54
426.499	562.63
426.875	585.9
427.251	596.3
427.627	598.33
428.003	592.46
428.379	593.81
428.756	601.27
429.132	614.38
429.507	615.28
429.883	629.07
430.259	648.05
430.635	643.08
431.011	637.88
431.387	643.75
431.763	645.34
432.138	667.03
432.514	695.5
432.89	685.79
433.265	678.33
433.641	681.95
434.016	707.93
434.392	676.07
434.767	679.46
435.143	710.65
435.518	702.74
435.894	711.32
436.269	730.53
436.644	742.73
437.02	708.39
437.395	727.82
437.77	732.34
438.145	730.98
438.52	762.62
438.895	774.82
439.271	799.23
439.646	792
440.021	761.04
440.395	777.99
440.77	789.74
441.145	773.02
441.52	801.26
441.895	778.67
442.27	830.64
442.645	816.63
443.019	820.92
443.394	778.21
443.769	839.23
444.143	831.32
444.518	822.05
444.892	857.99
445.267	838.55
445.641	854.14
446.016	879.91
446.39	860.92
446.764	888.04
447.139	864.54
447.513	882.62
447.887	895.73
448.262	894.6
448.636	896.18
449.01	889.4
449.384	922.17
449.758	904.99
450.132	915.84
450.506	917.19
450.88	966.23
451.254	923.97
451.628	967.14
452.002	956.29
452.376	970.75
452.75	970.75
453.123	979.56
453.497	977.98
453.871	982.5
454.244	983.18
454.618	1023.86
454.992	1030.86
455.365	1028.6
455.739	1043.97
456.112	1057.53
456.486	1060.01
456.859	1072.9
457.232	1105.89
457.606	1110.86
457.979	1117.87
458.352	1158.99
458.725	1140.69
459.099	1146.79
459.472	1188.6
459.845	1213.23
460.218	1202.61
460.591	1206
460.964	1213
461.337	1243.51
461.71	1260.01
462.083	1309.27
462.456	1281.7
462.829	1296.84
463.201	1322.83
463.574	1314.47
463.947	1347.01
464.32	1384.75
464.692	1384.98
465.065	1409.16
465.438	1411.87
465.81	1480.34
466.183	1474.01
466.555	1460.91
466.928	1522.15
467.3	1517.18
467.672	1568.93
468.045	1577.97
468.417	1574.8
468.789	1617.74
469.161	1614.58
469.534	1646.21
469.906	1695.48
470.278	1718.75
470.65	1765.08
471.022	1791.29
471.394	1829.03
471.766	1855.47
472.138	1868.35
472.51	1959.2
472.882	2007.11
473.253	1998.29
473.625	2055.02
473.997	2074.9
474.369	2161.45
474.74	2172.75
475.112	2198.06
475.484	2256.37
475.855	2343.37
476.227	2367.1
476.598	2439.41
476.97	2478.06
477.341	2557.15
477.713	2608.22
478.084	2657.49
478.455	2730.48
478.827	2795.79
479.198	2946.74
479.569	2950.36
479.94	3040.75
480.311	3131.37
480.682	3214.31
481.053	3321.65
481.424	3369.11
481.795	3487.75
482.166	3537.46
482.537	3679.83
482.908	3748.76
483.279	3831.47
483.65	3933.39
484.021	4118.92
484.391	4178.8
484.762	4234.85
485.133	4387.16
485.503	4485.91
485.874	4588.96
486.244	4656.08
486.615	4814.04
486.985	4945.34
487.356	5106.69
487.726	5165.22
488.097	5351.2
488.467	5351.43
488.837	5612.44
489.207	5695.37
489.578	5815.82
489.948	5956.83
490.318	6106.21
490.688	6189.37
491.058	6293.32
491.428	6448.8
491.798	6597.72
492.168	6799.75
492.538	6871.84
492.908	6979.63
493.278	7164.26
493.648	7281.77
494.017	7387.08
494.387	7565.38
494.757	7630.46
495.126	7765.37
495.496	7870.91
495.866	8006.95
496.235	8114.97
496.605	8276.55
496.974	8413.49
497.344	8472.7
497.713	8588.86
498.082	8680.38
498.452	8870.66
498.821	8871.33
499.19	9009.18
499.559	9185.22
499.928	9220.7
500.298	9352.23
500.667	9485.78
501.036	9525.55
501.405	9673.12
501.774	9686
502.143	9848.03
502.512	9869.73
502.88	10034.24
503.249	9996.5
503.618	10189.49
503.987	10165.99
504.356	10332.99
504.724	10403.95
505.093	10427
505.462	10544.06
505.83	10614.79
506.199	10688.69
506.567	10814.79
506.936	10829.02
507.304	11028.57
507.672	11045.97
508.041	11132.29
508.409	11147.21
508.777	11224.94
509.145	11294.77
509.514	11357.37
509.882	11422
510.25	11453.41
510.618	11581.55
510.986	11545.16
511.354	11622
511.722	11699.73
512.09	11820.86
512.458	11808.21
512.826	11864.7
513.193	11908.54
513.561	12057.92
513.929	12059.95
514.297	12164.13
514.664	12187.18
515.032	12190.8
515.4	12269.89
515.767	12373.62
516.135	12337.68
516.502	12250.68
516.869	12410.45
517.237	12434.63
517.604	12364.8
517.972	12570.9
518.339	12559.6
518.706	12580.39
519.073	12570.67
519.44	12646.38
519.808	12713.04
520.175	12676.21
520.542	12868.29
520.909	12791.91
521.276	12795.53
521.643	12951.23
522.009	12905.8
522.376	12984.67
522.743	13004.33
523.11	13204.33
523.477	13202.29
523.843	13200.26
524.21	13279.13
524.577	13342.18
524.943	13284.33
525.31	13333.14
525.676	13367.49
526.043	13409.29
526.409	13419.92
526.776	13479.8
527.142	13447.94
527.508	13521.38
527.874	13585.33
528.241	13534.71
528.607	13508.73
528.973	13581.72
529.339	13584.2
529.705	13572.68
530.071	13681.38
530.437	13652.68
530.803	13694.71
531.169	13638.67
531.535	13584.43
531.901	13621.04
532.267	13572.23
532.632	13657.2
532.998	13590.08
533.364	13737.65
533.73	13576.52
534.095	13640.02
534.461	13639.34
534.826	13607.93
535.192	13679.8
535.557	13703.3
535.923	13586.24
536.288	13614.03
536.653	13622.62
537.019	13496.98
537.384	13498.56
537.749	13447.49
538.114	13510.31
538.479	13437.09
538.845	13433.7
539.21	13465.11
539.575	13414.72
539.94	13393.48
540.305	13402.51
540.67	13336.08
541.034	13334.95
541.399	13218.56
541.764	13311.44
542.129	13213.82
542.494	13204.78
542.858	13169.53
543.223	13183.76
543.587	13082.75
543.952	13101.05
544.316	13074.16
544.681	12856.31
545.045	13032.13
545.41	13039.36
545.774	12969.76
546.138	12854.05
546.503	12936.99
546.867	12836.43
547.231	12894.96
547.595	12816.54
547.959	12840.27
548.324	12793.04
548.688	12646.38
549.052	12725.7
549.416	12633.72
549.779	12599.6
550.143	12546.49
550.507	12652.03
550.871	12648.18
551.235	12568.41
551.599	12532.93
551.962	12570.67
552.326	12478.92
552.689	12499.94
553.053	12415.65
553.417	12365.71
553.78	12493.16
554.143	12391.02
554.507	12369.1
554.87	12377.46
555.234	12367.29
555.597	12266.95
555.96	12339.72
556.323	12265.14
556.686	12276.44
557.05	12251.58
557.413	12345.14
557.776	12315.76
558.139	12323.9
558.502	12272.83
558.865	12230.79
559.228	12329.77
559.59	12361.86
559.953	12229.44
560.316	12395.54
560.679	12270.34
561.041	12250.45
561.404	12327.51
561.767	12257.69
562.129	12267.86
562.492	12338.36
562.854	12347.63
563.217	12291.81
563.579	12358.47
563.941	12329.77
564.304	12236.9
564.666	12315.54
565.028	12437.12
565.39	12337.23
565.753	12391.02
566.115	12352.6
566.477	12427.63
566.839	12479.15
567.201	12479.6
567.563	12357.12
567.925	12508.98
568.287	12395.31
568.648	12463.1
569.01	12501.52
569.372	12573.38
569.734	12501.3
570.095	12617.22
570.457	12582.2
570.819	12580.39
571.18	12586.27
571.542	12561.18
571.903	12548.53
572.265	12612.71
572.626	12577.23
572.987	12583.33
573.349	12641.86
573.71	12657.68
574.071	12627.39
574.432	12652.7
574.794	12767.96
575.155	12680.73
575.516	12669.88
575.877	12694.28
576.238	12694.06
576.599	12717.11
576.96	12658.35
577.32	12746.71
577.681	12727.05
578.042	12763.89
578.403	12667.39
578.763	12752.59
579.124	12760.95
579.485	12839.14
579.845	12767.73
580.206	12756.88
580.566	12756.43
580.927	12822.64
581.287	12812.47
581.648	12683.44
582.008	12792.14
582.368	12751.68
582.728	12737.67
583.089	12696.54
583.449	12668.97
583.809	12770.67
584.169	12772.7
584.529	12726.15
584.889	12744.23
585.249	12619.48
585.609	12603.44
585.969	12686.83
586.329	12671.46
586.688	12671.91
587.048	12660.16
587.408	12610.67
587.768	12576.1
588.127	12609.77
588.487	12630.11
588.846	12718.47
589.206	12582.2
589.565	12492.03
589.925	12629.43
590.284	12615.42
590.643	12583.1
591.003	12643.89
591.362	12686.6
591.721	12642.76
592.08	12594.63
592.44	12598.24
592.799	12593.27
593.158	12563.21
593.517	12591.01
593.876	12570.45
594.235	12497.23
594.593	12520.05
594.952	12550.56
595.311	12591.46
595.67	12541.52
596.029	12482.99
596.387	12535.64
596.746	12567.28
597.104	12418.59
597.463	12407.06
597.822	12522.09
598.18	12455.87
598.538	12497.91
598.897	12473.27
599.255	12417.46
599.613	12570.45
599.972	12478.25
600.33	12514.18
600.688	12480.28
601.046	12440.96
601.404	12519.83
601.762	12480.73
602.12	12591.69
602.478	12557.79
602.836	12568.19
603.194	12497.45
603.552	12520.96
603.91	12446.38
604.268	12531.35
604.625	12457
604.983	12489.77
605.341	12435.53
605.698	12463.78
606.056	12542.2
606.413	12525.25
606.771	12504.01
607.128	12548.75
607.485	12501.97
607.843	12557.79
608.2	12586.27
608.557	12646.6
608.914	12569.77
609.272	12584.23
609.629	12597.56
609.986	12616.32
610.343	12621.07
610.7	12659.26
611.057	12643.44
611.414	12605.93
611.771	12659.26
612.127	12607.96
612.484	12645.25
612.841	12779.25
613.198	12689.31
613.554	12658.58
613.911	12725.02
614.267	12670.1
614.624	12702.42
614.98	12731.57
615.337	12770.89
615.693	12767.5
616.05	12778.8
616.406	12843.89
616.762	12812.47
617.118	12809.31
617.475	12802.08
617.831	12782.87
618.187	12876.2
618.543	12814.73
618.899	12932.92
619.255	12937.67
619.611	12826.26
619.967	12901.06
620.323	12914.84
620.678	12888.86
621.034	12887.27
621.39	12835.07
621.746	12819.03
622.101	12914.17
622.457	12812.7
622.812	12923.66
623.168	12889.99
623.523	12906.71
623.879	12945.8
624.234	12800.72
624.589	12896.54
624.945	12893.38
625.3	12918.69
625.655	12935.41
626.01	12896.77
626.365	12924.79
626.72	12858.35
627.075	12899.93
627.43	12915.07
627.785	12905.13
628.14	12884.34
628.495	12987.38
628.85	12974.73
629.205	12888.4
629.559	12971.57
629.914	12807.5
630.269	12824.68
630.623	12771.34
630.978	12809.31
631.332	12870.55
631.687	12852.47
632.041	12795.3
632.396	12826.48
632.75	12641.86
633.104	12716.88
633.459	12690.67
633.813	12720.27
634.167	12622.65
634.521	12699.48
634.875	12699.71
635.229	12680.95
635.583	12556.66
635.937	12628.07
636.291	12560.05
636.645	12640.5
636.999	12513.05
637.352	12524.8
637.706	12454.74
638.06	12552.82
638.413	12454.29
638.767	12556.44
639.121	12491.13
639.474	12451.81
639.828	12419.49
640.181	12430.56
640.534	12413.61
640.888	12412.03
641.241	12365.93
641.594	12348.76
641.947	12400.28
642.301	12429.21
642.654	12354.63
643.007	12315.99
643.36	12411.35
643.713	12386.72
644.066	12441.86
644.419	12368.19
644.771	12258.82
645.124	12138.82
645.477	12170.91
645.83	12006.85
646.182	12057.47
646.535	11956.68
646.888	12034.64
647.24	11981.31
647.593	12029.9
647.945	12076.9
648.298	11969.11
648.65	11852.5
649.002	11833.74
649.355	11981.31
649.707	11904.7
650.059	12014.08
650.411	12134.75
650.763	12170.68
651.115	12201.42
651.467	12186.28
651.819	12248.87
652.171	12128.2
652.523	12174.07
652.875	12187.41
653.227	12128.65
653.578	12181.53
653.93	12160.97
654.282	12126.62
654.633	12120.97
654.985	12114.64
655.337	12212.04
655.688	12153.96
656.039	12251.36
656.391	12082.55
656.742	12152.38
657.094	12162.32
657.445	12196.44
657.796	12143.34
658.147	12204.13
658.498	12174.3
658.849	12227.63
659.2	12183.56
659.551	12169.1
659.902	12165.94
660.253	12149.67
660.604	12219.72
660.955	12132.04
661.306	12228.08
661.656	12193.28
662.007	12221.3
662.358	12216.11
662.708	12140.85
663.059	12211.13
663.409	12098.14
663.76	12249.78
664.11	12199.16
664.461	12250.23
664.811	12272.15
665.161	12174.52
665.511	12240.06
665.862	12075.77
666.212	12293.39
666.562	12216.78
666.912	12261.08
667.262	12190.12
667.612	12195.54
667.962	12282.54
668.312	12166.39
668.662	12304.24
669.011	12200.96
669.361	12217.69
669.711	12211.36
670.06	12211.36
670.41	12140.63
670.76	12113.74
671.109	12216.11
671.459	12202.09
671.808	12136.79
672.157	12204.58
672.507	12115.09
672.856	12157.58
673.205	12197.8
673.554	12208.65
673.904	12094.98
674.253	12208.2
674.602	12135.2
674.951	11931.14
675.3	11884.36
675.649	12069.89
675.998	12104.7
676.346	11995.77
676.695	12072.61
677.044	12068.54
677.393	12054.08
677.741	12014.98
678.09	12033.74
678.438	11903.35
678.787	11988.54
679.135	12040.29
679.484	11815.66
679.832	11930.69
680.181	11909.9
680.529	11937.69
680.877	11879.39
681.225	11839.62
681.573	11862.89
681.922	11764.14
682.27	11785.16
682.618	11685.72
682.966	11739.51
683.314	11737.25
683.661	11627.19
684.009	11640.53
684.357	11667.87
684.705	11647.53
685.053	11598.27
685.4	11655.89
685.748	11525.95
686.095	11548.33
686.443	11544.26
686.79	11442.57
687.138	11516.46
687.485	11468.1
687.832	11404.15
688.18	11354.21
688.527	11311.5
688.874	11360.31
689.221	11359.4
689.568	11261.1
689.915	11290.25
690.262	11273.31
690.609	11230.59
690.956	11200.09
691.303	11205.74
691.65	11038.28
691.997	11053.88
692.344	11048.68
692.69	11000.54
693.037	10945.86
693.383	10896.82
693.73	10863.15
694.077	10823.6
694.423	10834.67
694.769	10819.31
695.116	10814.79
695.462	10702.47
695.808	10717.84
696.155	10682.36
696.501	10493.66
696.847	10556.71
697.193	10563.04
697.539	10550.16
697.885	10478.98
698.231	10416.15
698.577	10394.91
698.923	10374.57
699.269	10315.82
699.614	10337.96
699.96	10232.65
700.306	10219.1
700.651	10216.61
700.997	10073.79
701.342	10106.78
701.688	10041.47
702.033	10026.56
702.379	10074.69
702.724	9998.99
703.069	10040.12
703.415	9892.32
703.76	9847.35
704.105	9860.91
704.45	9819.56
704.795	9760.58
705.14	9740.24
705.485	9778.2
705.83	9742.05
706.175	9684.42
706.52	9678.77
706.865	9627.25
707.209	9578.89
707.554	9589.28
707.899	9563.52
708.243	9594.48
708.588	9529.4
708.932	9459.34
709.277	9417.31
709.621	9500.92
709.966	9351.1
710.31	9371.43
710.654	9345.67
710.998	9293.47
711.342	9309.74
711.687	9317.42
712.031	9168.05
712.375	9206.02
712.719	9216.86
713.063	9219.8
713.407	9245.34
713.75	9218.9
714.094	9168.5
714.438	9109.29
714.782	9106.36
715.125	9047.38
715.469	9089.86
715.812	9075.17
716.156	8980.26
716.499	9026.81
716.843	8980.03
717.186	9016.19
717.53	8951.33
717.873	8982.97
718.216	8913.82
718.559	8937.77
718.902	8927.83
719.246	8904.33
719.589	8886.7
719.932	8771.45
720.275	8836.53
720.617	8822.52
720.96	8862.07
721.303	8823.88
721.646	8765.57
721.989	8729.19
722.331	8740.94
722.674	8754.95
723.016	8784.78
723.359	8783.43
723.701	8765.12
724.044	8737.1
724.386	8708.17
724.729	8687.84
725.071	8691.23
725.413	8681.51
725.755	8700.49
726.097	8643.77
726.439	8595.41
726.782	8637.44
727.124	8694.84
727.465	8625.24
727.807	8674.5
728.149	8636.09
728.491	8614.62
728.833	8571
729.175	8594.51
729.516	8606.26
729.858	8570.78
730.199	8597.9
730.541	8543.43
730.882	8617.1
731.224	8588.86
731.565	8486.71
731.906	8526.03
732.248	8603.54
732.589	8554.05
732.93	8547.5
733.271	8453.04
733.612	8598.57
733.953	8549.54
734.294	8554.51
734.635	8458.92
734.976	8553.38
735.317	8501.4
735.658	8480.61
735.999	8558.57
736.339	8484.68
736.68	8498.24
737.021	8512.47
737.361	8495.3
737.702	8545.02
738.042	8590.44
738.383	8564
738.723	8543.89
739.063	8570.78
739.404	8641.28
739.744	8579.82
740.084	8566.48
740.424	8586.14
740.764	8570.55
741.104	8631.34
741.444	8601.51
741.784	8622.75
742.124	8667.27
742.464	8649.87
742.804	8690.55
743.143	8723.32
743.483	8709.53
743.823	8753.6
744.162	8754.5
744.502	8787.95
744.841	8823.43
745.181	8939.58
745.52	8891.67
745.86	8936.64
746.199	8958.56
746.538	8989.75
746.877	8975.06
747.216	9076.98
747.556	9147.49
747.895	9223.19
748.234	9154.72
748.573	9179.58
748.911	9264.77
749.25	9302.06
749.589	9333.7
749.928	9413.47
750.267	9460.02
750.605	9547.7
750.944	9654.36
751.283	9723.29
751.621	9786.79
751.96	9831.31
752.298	9878.31
752.636	10026.56
752.975	10106.1
753.313	10248.93
753.651	10312.88
753.989	10412.76
754.327	10392.42
754.666	10480.56
755.004	10641.91
755.342	10824.5
755.679	10963.71
756.017	11045.06
756.355	11207.32
756.693	11356.01
757.031	11491.15
757.368	11569.79
757.706	11660.87
758.044	11929.33
758.381	12060.18
758.719	12117.35
759.056	12327.29
759.394	12495.65
