Data from hue_32_FLMS001491_00062.txt Node
Date: Tue Feb 07 17:23:44 GMT 2017
User: dcchb
Spectrometer: FLMS00149
Trigger mode: 0
Integration Time (sec): 2.000000E-2
Scans to average: 10
Electric dark correction enabled: true
Nonlinearity correction enabled: false
Boxcar width: 0
XAxis mode: Wavelengths
Number of Pixels in Spectrum: 2048
>>>>>Begin Spectral Data<<<<<
341.393	-14.6
341.776	-14.6
342.16	-14.6
342.543	-55.51
342.927	-70.2
343.31	-88.5
343.693	-65.9
344.077	-59.12
344.46	-31.33
344.843	-63.42
345.226	-27.03
345.61	-48.28
345.993	-24.1
346.376	-11.21
346.759	14.77
347.142	17.71
347.525	48.67
347.908	57.26
348.291	92.74
348.674	93.42
349.057	94.32
349.44	148.78
349.823	119.86
350.206	157.37
350.588	235.33
350.971	216.12
351.354	242.79
351.737	271.49
352.119	256.12
352.502	262.22
352.884	296.12
353.267	293.41
353.65	298.16
354.032	322.79
354.414	313.97
354.797	318.04
355.179	320.53
355.562	335.9
355.944	340.87
356.326	335.22
356.709	342.45
357.091	331.15
357.473	344.71
357.855	348.32
358.238	348.1
358.62	334.54
359.002	340.87
359.384	355.56
359.766	336.12
360.148	342.9
360.53	358.49
360.912	344.26
361.294	345.39
361.676	335.44
362.057	352.62
362.439	323.92
362.821	349.45
363.203	328.89
363.584	329.79
363.966	332.73
364.348	326.86
364.729	339.06
365.111	338.15
365.493	321.43
365.874	332.96
366.256	327.53
366.637	307.87
367.019	323.69
367.4	325.5
367.781	322.34
368.163	338.15
368.544	338.15
368.925	325.95
369.306	330.7
369.688	341.77
370.069	310.36
370.45	344.03
370.831	325.05
371.212	317.59
371.593	322.79
371.974	331.6
372.355	326.18
372.736	338.61
373.117	316.46
373.498	327.08
373.879	321.66
374.26	331.83
374.641	304.71
375.021	317.14
375.402	338.61
375.783	339.06
376.163	351.94
376.544	337.48
376.925	342.9
377.305	316.23
377.686	347.65
378.066	349.68
378.447	348.55
378.827	325.95
379.208	351.94
379.588	336.57
379.968	343.8
380.349	354.88
380.729	347.42
381.109	328.89
381.489	345.84
381.87	342.45
382.25	346.29
382.63	327.08
383.01	344.03
383.39	349.68
383.77	358.27
384.15	384.93
384.53	371.37
384.91	343.58
385.29	363.92
385.67	343.8
386.049	351.71
386.429	350.58
386.809	368.44
387.189	355.1
387.568	348.78
387.948	374.76
388.328	368.89
388.707	361.21
389.087	375.89
389.466	377.7
389.846	380.41
390.225	393.52
390.605	387.42
390.984	371.15
391.363	388.32
391.743	376.12
392.122	388.1
392.501	385.61
392.881	388.1
393.26	393.29
393.639	385.16
394.018	390.36
394.397	371.83
394.776	391.94
395.155	400.53
395.534	385.16
395.913	393.52
396.292	395.78
396.671	386.97
397.05	401.88
397.429	407.31
397.808	402.79
398.186	412.28
398.565	402.56
398.944	397.81
399.323	374.76
399.701	417.7
400.08	430.13
400.458	411.37
400.837	415.22
401.215	407.31
401.594	428.1
401.972	416.57
402.351	426.97
402.729	424.03
403.107	429.23
403.486	441.66
403.864	439.4
404.242	446.63
404.62	414.54
404.999	420.19
405.377	449.34
405.755	406.4
406.133	415.22
406.511	434.2
406.889	452.05
407.267	456.8
407.645	436.46
408.023	453.86
408.401	468.77
408.779	459.51
409.156	485.04
409.534	467.87
409.912	455.89
410.29	465.84
410.667	481.43
411.045	465.84
411.422	471.71
411.8	498.6
412.178	478.94
412.555	482.78
412.933	490.24
413.31	499.96
413.687	481.65
414.065	500.64
414.442	489.34
414.819	512.16
415.197	497.02
415.574	501.09
415.951	501.54
416.328	508.77
416.705	508.55
417.082	487.98
417.46	533.63
417.837	539.96
418.214	541.77
418.591	520.3
418.967	550.8
419.344	544.03
419.721	558.94
420.098	545.83
420.475	556.23
420.852	546.96
421.228	565.95
421.605	570.92
421.982	565.95
422.358	552.61
422.735	572.27
423.111	571.37
423.488	558.04
423.864	584.25
424.241	586.28
424.617	578.37
424.994	574.53
425.37	587.41
425.746	566.62
426.123	604.36
426.499	591.48
426.875	611.14
427.251	620.86
427.627	597.81
428.003	627.86
428.379	620.86
428.756	632.16
429.132	630.58
429.507	621.09
429.883	637.36
430.259	621.76
430.635	646.85
431.011	657.47
431.387	666.96
431.763	673.29
432.138	677.13
432.514	657.02
432.89	658.82
433.265	673.06
433.641	705.15
434.016	703.12
434.392	717.58
434.767	717.13
435.143	727.75
435.518	736.79
435.894	750.12
436.269	730.69
436.644	762.78
437.02	745.15
437.395	746.96
437.77	755.77
438.145	723.23
438.52	756.22
438.895	760.06
439.271	754.87
439.646	783.57
440.021	790.57
440.395	789.22
440.77	770.91
441.145	805.26
441.52	818.37
441.895	812.27
442.27	819.72
442.645	805.04
443.019	814.07
443.394	829.89
443.769	817.24
444.143	841.42
444.518	854.75
444.892	842.55
445.267	857.24
445.641	844.13
446.016	850.68
446.39	857.46
446.764	896.78
447.139	874.19
447.513	886.62
447.887	860.18
448.262	870.57
448.636	888.42
449.01	897.46
449.384	896.78
449.758	880.97
450.132	900.4
450.506	921.87
450.88	917.57
451.254	911.47
451.628	942.88
452.002	933.62
452.376	944.69
452.75	963.45
453.123	944.47
453.497	976.1
453.871	995.31
454.244	975.65
454.618	1009.32
454.992	1009.32
455.365	1002.32
455.739	1031.47
456.112	1041.64
456.486	1066.5
456.859	1077.34
457.232	1046.84
457.606	1054.75
457.979	1071.24
458.352	1104.69
458.725	1111.47
459.099	1118.02
459.472	1145.37
459.845	1155.31
460.218	1136.78
460.591	1173.39
460.964	1161.18
461.337	1219.26
461.71	1200.05
462.083	1205.02
462.456	1216.55
462.829	1245.25
463.201	1258.58
463.574	1264.01
463.947	1279.37
464.32	1327.96
464.692	1297.9
465.065	1317.11
465.438	1361.86
465.81	1344.46
466.183	1371.8
466.555	1407.73
466.928	1444.11
467.3	1425.58
467.672	1424.91
468.045	1455.19
468.417	1479.37
468.789	1494.51
469.161	1501.29
469.534	1539.48
469.906	1581.29
470.278	1581.74
470.65	1597.1
471.022	1661.28
471.394	1672.81
471.766	1678.46
472.138	1721.62
472.51	1730.66
472.882	1779.7
473.253	1806.14
473.625	1848.4
473.997	1875.52
474.369	1903.54
474.74	1922.29
475.112	1984.67
475.484	1995.74
475.855	2059.47
476.227	2075.51
476.598	2159.35
476.97	2174.26
477.341	2209.52
477.713	2287.71
478.084	2300.82
478.455	2343.3
478.827	2417.2
479.198	2467.59
479.569	2492.22
479.94	2587.81
480.311	2627.36
480.682	2687.7
481.053	2735.61
481.424	2823.74
481.795	2890.4
482.166	2942.61
482.537	2992.1
482.908	3080.23
483.279	3156.61
483.65	3240.9
484.021	3301.24
484.391	3385.98
484.762	3449.71
485.133	3483.16
485.503	3591.85
485.874	3672.98
486.244	3736.71
486.615	3819.87
486.985	3915.46
487.356	4012.86
487.726	4060.09
488.097	4182.57
488.467	4187.09
488.837	4327.65
489.207	4420.08
489.578	4465.96
489.948	4583.92
490.318	4681.77
490.688	4733.52
491.058	4839.05
491.428	4948.2
491.798	5020.97
492.168	5105.71
492.538	5212.15
492.908	5299.15
493.278	5362.66
493.648	5404.69
494.017	5532.37
494.387	5604.68
494.757	5709.31
495.126	5759.03
495.496	5850.55
495.866	5933.49
496.235	5977.55
496.605	6123.31
496.974	6123.54
497.344	6239.47
497.713	6315.17
498.082	6404.66
498.452	6448.05
498.821	6531.21
499.19	6544.55
499.559	6678.78
499.928	6688.04
500.298	6792.45
500.667	6892.78
501.036	6946.34
501.405	7026.34
501.774	7058.2
502.143	7150.86
502.512	7186.34
502.88	7269.27
503.249	7276.73
503.618	7400.79
503.987	7430.62
504.356	7423.62
504.724	7588.13
505.093	7610.28
505.462	7649.15
505.83	7682.59
506.199	7807.11
506.567	7897.28
506.936	7925.07
507.304	8004.39
507.672	8054.11
508.041	8146.54
508.409	8225.41
508.777	8234.44
509.145	8316.25
509.514	8349.24
509.882	8455.23
510.25	8442.35
510.618	8441.22
510.986	8538.39
511.354	8633.98
511.722	8668.33
512.09	8759.4
512.458	8783.36
512.826	8826.07
513.193	8830.59
513.561	8889.57
513.929	9021.09
514.297	9016.34
514.664	9134.08
515.032	9145.16
515.4	9184.02
515.767	9235.32
516.135	9276.9
516.502	9307.18
516.869	9396.22
517.237	9484.13
517.604	9385.37
517.972	9586.27
518.339	9551.7
518.706	9574.97
519.073	9669.66
519.44	9690
519.808	9833.5
520.175	9823.33
520.542	9932.48
520.909	9945.81
521.276	9938.81
521.643	10122.08
522.009	10151.23
522.376	10142.42
522.743	10194.84
523.11	10330.66
523.477	10424.44
523.843	10471.45
524.21	10519.13
524.577	10590.54
524.943	10621.5
525.31	10718.45
525.676	10774.72
526.043	10843.19
526.409	10869.86
526.776	10988.27
527.142	10971.55
527.508	11079.34
527.874	11186.46
528.241	11172.45
528.607	11220.58
528.973	11328.15
529.339	11285.66
529.705	11429.84
530.071	11500.8
530.437	11595.26
530.803	11691.75
531.169	11694.47
531.535	11711.19
531.901	11789.38
532.267	11832.77
532.632	11837.97
532.998	11941.69
533.364	11990.5
533.73	12079.32
534.095	12164.74
534.461	12152.76
534.826	12242.93
535.192	12331.74
535.557	12374.45
535.923	12417.39
536.288	12411.51
536.653	12466.2
537.019	12487.89
537.384	12546.65
537.749	12611.5
538.114	12671.62
538.479	12616.48
538.845	12753.2
539.21	12767.21
539.575	12793.87
539.94	12906.64
540.305	12983.47
540.67	12903.25
541.034	12963.13
541.399	13086.52
541.764	13081.1
542.129	13234.54
542.494	13198.61
542.858	13283.13
543.223	13324.03
543.587	13379.17
543.952	13425.04
544.316	13451.48
544.681	13461.65
545.045	13515.89
545.41	13620.74
545.774	13602.44
546.138	13606.05
546.503	13762.89
546.867	13721.76
547.231	13835.65
547.595	13896.67
547.959	13906.16
548.324	13937.35
548.688	13999.49
549.052	14094.86
549.416	14081.3
549.779	14218.02
550.143	14146.61
550.507	14258.92
550.871	14352.93
551.235	14356.09
551.599	14473.83
551.962	14441.06
552.326	14484
552.689	14594.05
553.053	14509.76
553.417	14580.94
553.78	14798.79
554.143	14760.83
554.507	14754.5
554.87	14804.44
555.234	15005.11
555.597	14850.54
555.96	15042.18
556.323	15086.02
556.686	15082.63
557.05	15154.04
557.413	15192.91
557.776	15235.39
558.139	15399.91
558.502	15330.53
558.865	15433.35
559.228	15521.03
559.59	15396.29
559.953	15513.12
560.316	15671.31
560.679	15676.73
561.041	15687.13
561.404	15734.81
561.767	15903.17
562.129	15887.58
562.492	15979.55
562.854	16061.58
563.217	16042.15
563.579	16109.49
563.941	16208.25
564.304	16220
564.666	16381.57
565.028	16365.3
565.39	16396.49
565.753	16456.83
566.115	16588.8
566.477	16585.86
566.839	16723.94
567.201	16754.22
567.563	16726.88
567.925	16836.7
568.287	16849.36
568.648	17069.92
569.01	17090.03
569.372	17188.33
569.734	17143.81
570.095	17287.77
570.457	17342.91
570.819	17393.98
571.18	17344.94
571.542	17483.47
571.903	17551.26
572.265	17791.26
572.626	17759.39
572.987	17770.46
573.349	17860.86
573.71	17986.5
574.071	18094.52
574.432	18148.08
574.794	18298.13
575.155	18342.43
575.516	18440.96
575.877	18505.81
576.238	18569.54
576.599	18693.6
576.96	18762.53
577.32	18873.94
577.681	19054.5
578.042	19154.84
578.403	19259.92
578.763	19392.57
579.124	19516.86
579.485	19695.61
579.845	19943.74
580.206	19966.57
580.566	20176.28
580.927	20186.45
581.287	20506.44
581.648	20602.03
582.008	20769.03
582.368	20957.73
582.728	21169.7
583.089	21357.26
583.449	21451.05
583.809	21636.58
584.169	21928.1
584.529	21997.02
584.889	22463.9
585.249	22665.7
585.609	22676.55
585.969	23066.82
586.329	23115.64
586.688	23392.24
587.048	23659.35
587.408	23889.85
587.768	24025.22
588.127	24343.63
588.487	24438.76
588.846	24980.44
589.206	24903.84
589.565	25282.36
589.925	25648
590.284	25784.27
590.643	26075.56
591.003	26363.23
591.362	26646.62
591.721	26812.26
592.08	27166.15
592.44	27488.4
592.799	27760.26
593.158	27953.47
593.517	28181.94
593.876	28508.49
594.235	28711.19
594.593	28993.67
594.952	29275.02
595.311	29535.35
595.67	29799.08
596.029	30113.42
596.387	30439.96
596.746	30559.28
597.104	30840.86
597.463	30912.72
597.822	31364.01
598.18	31514.51
598.538	31711.57
598.897	32225.23
599.255	32162.63
599.613	32664.31
599.972	32853.46
600.33	33045.09
600.688	33213.67
601.046	33498.19
601.404	33920.1
601.762	34009.13
602.12	34307.88
602.478	34456.35
602.836	34749.23
603.194	34811.37
603.552	35030.8
603.91	35152.38
604.268	35468.53
604.625	35571.8
604.983	35946.26
605.341	35877.79
605.698	36267.15
606.056	36616.98
606.413	36548.28
606.771	36895.39
607.128	36966.12
607.485	37108.04
607.843	37334.02
608.2	37562.94
608.557	37866.66
608.914	37868.47
609.272	38210.83
609.629	38379.87
609.986	38660.76
610.343	38622.8
610.7	39016.91
611.057	38946.63
611.414	39161.77
611.771	39313.63
612.127	39487.18
612.484	39623.22
612.841	39865.7
613.198	39751.81
613.554	39900.05
613.911	40264.11
614.267	40398.12
614.624	40566.93
614.98	40593.82
615.337	40989.29
615.693	40833.81
616.05	40922.85
616.406	41268.6
616.762	41147.93
617.118	41336.4
617.475	41351.31
617.831	41581.14
618.187	41644.19
618.543	41862.49
618.899	42167.11
619.255	41893.22
619.611	42099.77
619.967	42256.83
620.323	42437.61
620.678	42328.01
621.034	42322.59
621.39	42495.24
621.746	42511.06
622.101	42984.94
622.457	42732.07
622.812	42891.61
623.168	43046.86
623.523	43015.45
623.879	43265.16
624.234	42861.1
624.589	43135.45
624.945	43235.78
625.3	43511.94
625.655	43371.6
626.01	43520.52
626.365	43617.69
626.72	43546.06
627.075	43502.9
627.43	43499.73
627.785	43533.86
628.14	43660.86
628.495	43644.36
628.85	43734.98
629.205	43627.41
629.559	43843.23
629.914	43744.92
630.269	43833.73
630.623	43643.46
630.978	43688.2
631.332	43767.75
631.687	43954.18
632.041	43714.87
632.396	43906.73
632.75	43688.2
633.104	43875.77
633.459	43765.26
633.813	43777.69
634.167	43743.79
634.521	43788.09
634.875	43836.9
635.229	43776.79
635.583	43610.92
635.937	43716.9
636.291	43753.28
636.645	43658.82
636.999	43666.51
637.352	43819.72
637.706	43581.09
638.06	43798.26
638.413	43596.9
638.767	43603.46
639.121	43551.71
639.474	43394.2
639.828	43533.18
640.181	43546.51
640.534	43519.84
640.888	43440.07
641.241	43285.5
641.594	43279.17
641.947	43470.35
642.301	43335.89
642.654	43433.29
643.007	43280.53
643.36	43360.98
643.713	43225.16
644.066	43502.9
644.419	43247.54
644.771	43060.65
645.124	42702.92
645.477	42623.82
645.83	42319.88
646.182	42109.49
646.535	42137.73
646.888	42147.23
647.24	42024.29
647.593	42349.71
647.945	42116.04
648.298	41987.46
648.65	41941.35
649.002	41829.04
649.355	42003.95
649.707	42029.94
650.059	42175.7
650.411	42703.82
650.763	42599.42
651.115	42996.02
651.467	42762.8
651.819	42783.37
652.171	42863.82
652.523	42776.59
652.875	42711.96
653.227	42591.28
653.578	42978.62
653.93	42737.72
654.282	42628.57
654.633	42495.92
654.985	42524.62
655.337	42664.05
655.688	42524.84
656.039	42878.96
656.391	42403.49
656.742	42565.97
657.094	42557.16
657.445	42771.62
657.796	42509.48
658.147	42488.01
658.498	42541.11
658.849	42652.3
659.2	42512.41
659.551	42363.94
659.902	42413.88
660.253	42408.46
660.604	42537.5
660.955	42323.72
661.306	42408.24
661.656	42278.52
662.007	42374.11
662.358	42363.04
662.708	42351.06
663.059	42276.94
663.409	42086.89
663.76	42305.19
664.11	42360.55
664.461	42368.91
664.811	42405.98
665.161	42518.29
665.511	42144.29
665.862	42267.67
666.212	42302.48
666.562	42319.65
666.912	42194.46
667.262	42245.08
667.612	42226.32
667.962	42304.74
668.312	42053.89
668.662	42464.05
669.011	42283.27
669.361	42184.96
669.711	42122.37
670.06	41996.49
670.41	42061.35
670.76	42079.2
671.109	42202.14
671.459	42006.21
671.808	41897.51
672.157	42099.09
672.507	41802.15
672.856	41807.12
673.205	42096.38
673.554	42126.21
673.904	42002.6
674.253	42179.54
674.602	42100.45
674.951	41417.98
675.3	41221.6
675.649	41887.57
675.998	41865.42
676.346	41829.72
676.695	41928.02
677.044	41662.04
677.393	41814.8
677.741	41820.45
678.09	41744.98
678.438	41668.59
678.787	41732.09
679.135	41684.64
679.484	41488.49
679.832	41465.89
680.181	41373.46
680.529	41384.99
680.877	41337.98
681.225	41279.68
681.573	41488.26
681.922	41095.73
682.27	41053.24
682.618	41096.86
682.966	40965.79
683.314	41224.09
683.661	41116.52
684.009	40818.9
684.357	40738
684.705	40608.96
685.053	40919.01
685.4	40740.03
685.748	40615.06
686.095	40517.44
686.443	40394.5
686.79	40272.47
687.138	40394.95
687.485	40307.95
687.832	40167.16
688.18	40341.4
688.527	40044
688.874	39934.4
689.221	39926.27
689.568	40034.96
689.915	39711.36
690.262	39811.69
690.609	39647.4
690.956	39561.76
691.303	39402.44
691.65	39345.26
691.997	39338.71
692.344	39065.5
692.69	39039.51
693.037	39126.74
693.383	38774.21
693.73	38896.69
694.077	38705.96
694.423	38640.65
694.769	38527.21
695.116	38446.08
695.462	38343.71
695.808	38361.56
696.155	38389.81
696.501	37980.33
696.847	38013.55
697.193	37877.28
697.539	38096.26
697.885	37810.62
698.231	37726.1
698.577	37556.39
698.923	37676.83
699.269	37455.37
699.614	37292.21
699.96	37115.04
700.306	37281.82
700.651	37015.83
700.997	36978.55
701.342	36866.69
701.688	36897.87
702.033	36621.04
702.379	36536.53
702.724	36654.71
703.069	36541.72
703.415	36203.43
703.76	36333.14
704.105	36160.72
704.45	36129.53
704.795	35910.78
705.14	35859.48
705.485	35748.98
705.83	35692.25
706.175	35724.34
706.52	35617
706.865	35528.42
707.209	35546.27
707.554	35386.05
707.899	35421.3
708.243	35070.35
708.588	35119.39
708.932	34880.52
709.277	35046.17
709.621	34952.16
709.966	34740.87
710.31	34858.6
710.654	34486.86
710.998	34559.4
711.342	34578.61
711.687	34432.85
712.031	34266.3
712.375	34227.89
712.719	34211.16
713.063	34129.58
713.407	34236.92
713.75	33954.22
714.094	33962.36
714.438	33843.26
714.782	33918.51
715.125	33786.99
715.469	33794.68
715.812	33669.93
716.156	33518.53
716.499	33415.7
716.843	33496.61
717.186	33364.41
717.53	33461.13
717.873	33429.94
718.216	33391.75
718.559	33247.12
718.902	33021.14
719.246	32926.68
719.589	32991.76
719.932	32988.37
720.275	32800.58
720.617	32952.89
720.96	32693.69
721.303	32822.27
721.646	32843.29
721.989	32539.12
722.331	32653.46
722.674	32518.33
723.016	32513.13
723.359	32416.18
723.701	32436.07
724.044	32241.04
724.386	32189.07
724.729	32304.09
725.071	32090.09
725.413	32202.18
725.755	32053.93
726.097	32089.18
726.439	31789.53
726.782	31826.37
727.124	31963.76
727.465	31775.97
727.807	31702.08
728.149	31738.23
728.491	31605.36
728.833	31612.13
729.175	31570.33
729.516	31498.69
729.858	31484.45
730.199	31382.08
730.541	31450.11
730.882	31414.63
731.224	31431.8
731.565	31132.15
731.906	31255.31
732.248	31288.08
732.589	30994.3
732.93	30940.51
733.271	30943.9
733.612	31141.19
733.953	31006.95
734.294	31013.05
734.635	30774.42
734.976	30902.55
735.317	30650.35
735.658	30710.92
735.999	30656.45
736.339	30554.08
736.68	30590.01
737.021	30568.09
737.361	30333.75
737.702	30677.24
738.042	30407.87
738.383	30397.93
738.723	30530.58
739.063	30304.82
739.404	30354.54
739.744	30208.78
740.084	30168.56
740.424	30288.1
740.764	30158.39
741.104	30181.66
741.444	29987.32
741.784	29936.25
742.124	30094.66
742.464	29969.24
742.804	29926.98
743.143	29812.63
743.483	29939.18
743.823	29674.56
744.162	29685.63
744.502	29811.73
744.841	29697.38
745.181	29642.92
745.52	29534.68
745.86	29590.04
746.199	29528.8
746.538	29450.84
746.877	29682.69
747.216	29435.47
747.556	29338.52
747.895	29440.44
748.234	29241.35
748.573	29245.64
748.911	29227.34
749.25	29054.69
749.589	29066.89
749.928	29008.36
750.267	29098.53
750.605	28947.35
750.944	28920.91
751.283	28728.37
751.621	28867.35
751.96	28649.05
752.298	28581.48
752.636	28730.63
752.975	28525.66
753.313	28463.97
753.651	28568.37
753.989	28413.35
754.327	28331.77
754.666	28316.63
755.004	28401.6
755.342	28362.95
755.679	28278.21
756.017	28050.87
756.355	28221.72
756.693	28082.74
757.031	28036.86
757.368	27895.4
