Data from hue_230_FLMS001491_00078.txt Node
Date: Tue Feb 07 16:37:44 GMT 2017
User: dcchb
Spectrometer: FLMS00149
Trigger mode: 0
Integration Time (sec): 2.000000E-2
Scans to average: 10
Electric dark correction enabled: true
Nonlinearity correction enabled: false
Boxcar width: 0
XAxis mode: Wavelengths
Number of Pixels in Spectrum: 2048
>>>>>Begin Spectral Data<<<<<
341.393	-17.44
341.776	-17.44
342.16	-17.44
342.543	-59.93
342.927	-41.85
343.31	-73.03
343.693	-50.44
344.077	-62.19
344.46	-68.74
344.843	-58.8
345.226	-20.15
345.61	-27.84
345.993	-24.67
346.376	9.45
346.759	-6.37
347.142	20.52
347.525	41.76
347.908	41.99
348.291	62.55
348.674	106.17
349.057	109.79
349.44	128.54
349.823	126.28
350.206	136.23
350.588	201.31
350.971	202.44
351.354	195.21
351.737	228.88
352.119	232.27
352.502	254.87
352.884	257.8
353.267	267.75
353.65	293.28
354.032	284.02
354.414	298.03
354.797	306.62
355.179	306.16
355.562	335.77
355.944	335.09
356.326	310.46
356.709	315.88
357.091	312.49
357.473	319.05
357.855	319.05
358.238	323.79
358.62	330.57
359.002	337.58
359.384	336.45
359.766	330.57
360.148	336.22
360.53	301.42
360.912	335.77
361.294	315.88
361.676	321.98
362.057	305.49
362.439	339.84
362.821	314.53
363.203	311.59
363.584	310.01
363.966	314.3
364.348	310.91
364.729	312.49
365.111	307.75
365.493	324.92
365.874	300.97
366.256	334.86
366.637	310.91
367.019	316.11
367.4	308.2
367.781	312.72
368.163	312.27
368.544	296.45
368.925	302.1
369.306	315.2
369.688	305.49
370.069	298.03
370.45	296.45
370.831	308.2
371.212	281.76
371.593	284.47
371.974	302.32
372.355	301.64
372.736	312.49
373.117	309.33
373.498	299.84
373.879	299.61
374.26	303
374.641	295.09
375.021	310.46
375.402	293.51
375.783	315.88
376.163	313.17
376.544	308.42
376.925	319.95
377.305	316.11
377.686	294.87
378.066	321.31
378.447	341.19
378.827	333.73
379.208	328.99
379.588	327.18
379.968	315.2
380.349	333.51
380.729	315.88
381.109	326.28
381.489	347.29
381.87	317.69
382.25	306.16
382.63	338.48
383.01	308.88
383.39	328.99
383.77	336.22
384.15	341.64
384.53	331.7
384.91	339.38
385.29	330.34
385.67	333.73
386.049	341.64
386.429	329.89
386.809	346.84
387.189	353.39
387.568	342.1
387.948	351.59
388.328	353.85
388.707	361.98
389.087	373.28
389.466	352.26
389.846	370.8
390.225	357.01
390.605	346.84
390.984	349.1
391.363	358.59
391.743	353.62
392.122	352.49
392.501	363.56
392.881	376.9
393.26	366.95
393.639	375.99
394.018	367.18
394.397	371.02
394.776	398.14
395.155	362.43
395.534	373.73
395.913	383.22
396.292	374.41
396.671	369.67
397.05	384.13
397.429	388.2
397.808	378.03
398.186	386.61
398.565	386.84
398.944	367.41
399.323	398.14
399.701	403.79
400.08	388.65
400.458	397.91
400.837	404.47
401.215	394.75
401.594	413.51
401.972	404.69
402.351	417.8
402.729	443.79
403.107	417.12
403.486	429.1
403.864	412.15
404.242	431.13
404.62	448.08
404.999	439.27
405.377	428.87
405.755	434.07
406.133	426.84
406.511	448.53
406.889	468.65
407.267	453.51
407.645	448.53
408.023	483.79
408.401	465.93
408.779	469.32
409.156	467.52
409.534	489.66
409.912	472.49
410.29	510.45
410.667	494.86
411.045	505.71
411.422	491.02
411.8	479.49
412.178	521.98
412.555	539.6
412.933	538.25
413.31	567.17
413.687	550.45
414.065	584.35
414.442	572.82
414.819	558.36
415.197	574.18
415.574	594.74
415.951	573.05
416.328	592.71
416.705	587.29
417.082	595.2
417.46	626.38
417.837	612.14
418.214	606.04
418.591	637.68
418.967	638.81
419.344	638.81
419.721	673.39
420.098	667.96
420.475	663.89
420.852	677.68
421.228	677
421.605	639.49
421.982	699.6
422.358	706.38
422.735	712.48
423.111	728.75
423.488	748.64
423.864	748.64
424.241	751.8
424.617	747.51
424.994	767.17
425.37	778.69
425.746	776.21
426.123	802.65
426.499	801.29
426.875	811.24
427.251	821.63
427.627	844
428.003	863.21
428.379	864.34
428.756	856.66
429.132	895.08
429.507	882.65
429.883	887.17
430.259	891.46
430.635	922.87
431.011	932.59
431.387	959.25
431.763	969.65
432.138	971.68
432.514	1003.32
432.89	987.73
433.265	1005.13
433.641	1036.54
434.016	1052.36
434.392	1079.48
434.767	1070.21
435.143	1091.23
435.518	1093.26
435.894	1096.2
436.269	1143.43
436.644	1127.84
437.02	1152.02
437.395	1178.01
437.77	1220.49
438.145	1184.79
438.52	1197.21
438.895	1251.9
439.271	1240.83
439.646	1257.33
440.021	1278.34
440.395	1252.58
440.77	1299.58
441.145	1317.89
441.52	1339.13
441.895	1343.88
442.27	1365.8
442.645	1361.96
443.019	1387.27
443.394	1385.68
443.769	1420.26
444.143	1401.73
444.518	1432.01
444.892	1427.94
445.267	1436.53
445.641	1455.96
446.016	1472.01
446.39	1461.84
446.764	1510.2
447.139	1499.35
447.513	1514.04
447.887	1538
448.262	1521.05
448.636	1534.83
449.01	1545.91
449.384	1564.44
449.758	1598.33
450.132	1613.93
450.506	1617.09
450.88	1634.04
451.254	1599.01
451.628	1614.38
452.002	1643.76
452.376	1645.11
452.75	1684.66
453.123	1681.27
453.497	1699.8
453.871	1721.95
454.244	1753.36
454.618	1761.27
454.992	1790.19
455.365	1797.2
455.739	1827.93
456.112	1854.15
456.486	1866.12
456.859	1874.26
457.232	1917.42
457.606	1895.95
457.979	1942.28
458.352	1954.03
458.725	1984.31
459.099	1975.05
459.472	2034.71
459.845	2010.75
460.218	2062.5
460.591	2044.2
460.964	2063.86
461.337	2114.25
461.71	2153.12
462.083	2170.52
462.456	2212.1
462.829	2179.34
463.201	2210.52
463.574	2255.27
463.947	2278.09
464.32	2310.63
464.692	2307.02
465.065	2342.72
465.438	2351.99
465.81	2368.26
466.183	2434.47
466.555	2469.5
466.928	2509.04
467.3	2478.31
467.672	2506.78
468.045	2570.51
468.417	2558.76
468.789	2632.66
469.161	2651.87
469.534	2660.45
469.906	2686.44
470.278	2699.1
470.65	2745.42
471.022	2815.25
471.394	2866.1
471.766	2866.1
472.138	2932.99
472.51	2977.28
472.882	2989.03
473.253	3015.02
473.625	3051.85
473.997	3083.94
474.369	3057.96
474.74	3176.82
475.112	3210.95
475.484	3259.53
475.855	3327.55
476.227	3350.38
476.598	3395.12
476.97	3425.18
477.341	3470.15
477.713	3536.59
478.084	3550.6
478.455	3660.2
478.827	3666.3
479.198	3786.98
479.569	3789.91
479.94	3845.73
480.311	3890.7
480.682	3899.06
481.053	4009.34
481.424	4093.18
481.795	4101.09
482.166	4171.6
482.537	4205.04
482.908	4255.44
483.279	4327.08
483.65	4384.02
484.021	4471.48
484.391	4479.61
484.762	4536.34
485.133	4636.22
485.503	4630.34
485.874	4739.72
486.244	4800.06
486.615	4838.02
486.985	4898.36
487.356	5004.12
487.726	4969.77
488.097	5043.89
488.467	5085.7
488.837	5193.27
489.207	5223.78
489.578	5264.9
489.948	5298.35
490.318	5424.9
490.688	5371.34
491.058	5450.44
491.428	5511.23
491.798	5594.84
492.168	5640.04
492.538	5680.94
492.908	5694.27
493.278	5794.83
493.648	5807.94
494.017	5857.43
494.387	5873.93
494.757	5943.98
495.126	6019.23
495.496	5983.76
495.866	6044.32
496.235	6102.4
496.605	6106.24
496.974	6196.18
497.344	6189.17
497.713	6252.22
498.082	6247.25
498.452	6318.44
498.821	6342.16
499.19	6323.18
499.559	6393.91
499.928	6430.75
500.298	6386
500.667	6491.76
501.036	6495.15
501.405	6475.95
501.774	6522.72
502.143	6634.81
502.512	6594.59
502.88	6614.47
503.249	6632.1
503.618	6660.57
503.987	6755.94
504.356	6745.54
504.724	6801.13
505.093	6786.67
505.462	6792.55
505.83	6860.34
506.199	6839.1
506.567	6939.44
506.936	6894.24
507.304	6995.93
507.672	6957.97
508.041	6990.96
508.409	6985.54
508.777	7089.71
509.145	7143.5
509.514	7078.19
509.882	7071.18
510.25	7104.86
510.618	7154.8
510.986	7191.18
511.354	7226.89
511.722	7197.51
512.09	7324.51
512.458	7295.59
512.826	7300.56
513.193	7361.12
513.561	7301.01
513.929	7359.76
514.297	7405.41
514.664	7418.52
515.032	7383.27
515.4	7432.53
515.767	7390.05
516.135	7480.44
516.502	7430.27
516.869	7499.65
517.237	7523.15
517.604	7512.53
517.972	7547.33
518.339	7562.92
518.706	7550.72
519.073	7567.89
519.44	7621.45
519.808	7623.49
520.175	7601.57
520.542	7697.38
520.909	7718.62
521.276	7667.1
521.643	7760.21
522.009	7745.29
522.376	7728.12
522.743	7800.43
523.11	7813.99
523.477	7870.94
523.843	7827.1
524.21	7868.68
524.577	7932.4
524.943	7888.34
525.31	7942.12
525.676	7967.66
526.043	7941.22
526.409	8030.93
526.776	8016.24
527.142	8036.58
527.508	8023.02
527.874	8063.93
528.241	8083.13
528.607	8073.87
528.973	8067.32
529.339	8055.34
529.705	8123.13
530.071	8097.37
530.437	8150.25
530.803	8182.34
531.169	8209.91
531.535	8076.13
531.901	8149.35
532.267	8147.99
532.632	8197.71
532.998	8143.25
533.364	8152.29
533.73	8172.4
534.095	8219.85
534.461	8165.84
534.826	8162.68
535.192	8174.66
535.557	8169.46
535.923	8122.91
536.288	8182.79
536.653	8188.89
537.019	8150.03
537.384	8165.84
537.749	8132.17
538.114	8152.29
538.479	8119.52
538.845	8136.69
539.21	8064.38
539.575	8088.78
539.94	8053.08
540.305	8093.76
540.67	8054.89
541.034	8009.46
541.399	8098.95
541.764	8094.21
542.129	8060.54
542.494	8111.83
542.858	8042.46
543.223	8068.9
543.587	8041.33
543.952	8019.63
544.316	8044.04
544.681	8018.28
545.045	7978.5
545.41	7949.81
545.774	8037.03
546.138	7987.09
546.503	7962.91
546.867	7933.76
547.231	8004.04
547.595	7962.23
547.959	7925.17
548.324	7912.07
548.688	7913.87
549.052	7872.97
549.416	7890.15
549.779	7837.49
550.143	7891.73
550.507	7908.68
550.871	7907.77
551.235	7759.08
551.599	7843.82
551.962	7862.58
552.326	7790.94
552.689	7848.79
553.053	7797.72
553.417	7817.83
553.78	7836.36
554.143	7830.71
554.507	7844.27
554.87	7785.29
555.234	7881.11
555.597	7793.43
555.96	7825.29
556.323	7762.24
556.686	7811.73
557.05	7812.41
557.413	7828.68
557.776	7860.09
558.139	7817.83
558.502	7854.67
558.865	7848.11
559.228	7845.4
559.59	7890.15
559.953	7891.28
560.316	7954.32
560.679	7930.6
561.041	7891.5
561.404	7907.77
561.767	7966.98
562.129	7955.91
562.492	7919.52
562.854	7972.63
563.217	7886.08
563.579	7961.56
563.941	7952.52
564.304	8019.18
564.666	8023.93
565.028	8031.61
565.39	8031.38
565.753	8085.62
566.115	8072.06
566.477	8116.58
566.839	8063.7
567.201	8178.27
567.563	8154.55
567.925	8126.07
568.287	8183.25
568.648	8191.15
569.01	8164.04
569.372	8190.48
569.734	8175.79
570.095	8283.36
570.457	8216.69
570.819	8282
571.18	8236.35
571.542	8328.78
571.903	8334.43
572.265	8357.48
572.626	8346.4
572.987	8381.66
573.349	8453.97
573.71	8454.2
574.071	8415.78
574.432	8499.4
574.794	8536.91
575.155	8540.3
575.516	8461.66
575.877	8543.01
576.238	8512.73
576.599	8600.41
576.96	8545.72
577.32	8619.84
577.681	8592.27
578.042	8611.71
578.403	8644.25
578.763	8672.72
579.124	8627.53
579.485	8682.22
579.845	8713.4
580.206	8782.55
580.566	8744.59
580.927	8776
581.287	8817.13
581.648	8801.76
582.008	8766.05
582.368	8808.99
582.728	8854.41
583.089	8802.21
583.449	8864.58
583.809	8795.43
584.169	8839.05
584.529	8810.12
584.889	8915.88
585.249	8845.37
585.609	8876.56
585.969	8907.75
586.329	8870.23
586.688	9016.67
587.048	8883.34
587.408	9028.87
587.768	9005.37
588.127	8904.58
588.487	8964.24
588.846	9023.68
589.206	8885.83
589.565	9007.86
589.925	9049.21
590.284	8953.85
590.643	9004.69
591.003	9074.97
591.362	9042.88
591.721	8994.3
592.08	9053.05
592.44	9105.03
592.799	9101.41
593.158	9097.12
593.517	9095.31
593.876	9121.98
594.235	9068.65
594.593	9103.45
594.952	9136.44
595.311	9098.93
595.67	9095.31
596.029	9161.75
596.387	9187.96
596.746	9201.75
597.104	9100.96
597.463	9178.7
597.822	9212.14
598.18	9221.64
598.538	9154.07
598.897	9214.18
599.255	9120.62
599.613	9244.01
599.972	9200.39
600.33	9222.54
600.688	9193.39
601.046	9274.06
601.404	9288.07
601.762	9283.56
602.12	9337.11
602.478	9308.64
602.836	9296.89
603.194	9279.71
603.552	9224.12
603.91	9239.49
604.268	9258.02
604.625	9351.8
604.983	9370.78
605.341	9254.63
605.698	9313.61
606.056	9341.18
606.413	9345.47
606.771	9268.64
607.128	9340.95
607.485	9300.96
607.843	9363.55
608.2	9392.03
608.557	9373.27
608.914	9344.34
609.272	9364.68
609.629	9374.4
609.986	9394.74
610.343	9318.36
610.7	9438.58
611.057	9408.52
611.414	9461.4
611.771	9447.39
612.127	9521.06
612.484	9507.73
612.841	9442.2
613.198	9457.11
613.554	9494.62
613.911	9537.11
614.267	9554.51
614.624	9535.3
614.98	9515.87
615.337	9575.53
615.693	9639.03
616.05	9507.5
616.406	9570.78
616.762	9480.61
617.118	9560.16
617.475	9569.2
617.831	9572.36
618.187	9606.26
618.543	9615.07
618.899	9634.28
619.255	9667.73
619.611	9569.65
619.967	9695.52
620.323	9691.68
620.678	9723.77
621.034	9660.95
621.39	9628.18
621.746	9624.11
622.101	9692.13
622.457	9646.71
622.812	9659.82
623.168	9675.86
623.523	9613.04
623.879	9676.31
624.234	9646.48
624.589	9684.9
624.945	9674.96
625.3	9723.32
625.655	9638.57
626.01	9672.92
626.365	9696.65
626.72	9670.66
627.075	9666.14
627.43	9642.42
627.785	9574.17
628.14	9642.64
628.495	9620.95
628.85	9595.41
629.205	9613.04
629.559	9649.65
629.914	9475.87
630.269	9514.74
630.623	9630.44
630.978	9564.9
631.332	9609.87
631.687	9601.74
632.041	9558.12
632.396	9595.64
632.75	9521.06
633.104	9515.19
633.459	9481.06
633.813	9416.43
634.167	9524.68
634.521	9481.29
634.875	9478.58
635.229	9442.87
635.583	9430.44
635.937	9413.04
636.291	9390.67
636.645	9392.71
636.999	9342.76
637.352	9383.89
637.706	9321.07
638.06	9447.62
638.413	9419.6
638.767	9306.38
639.121	9359.03
639.474	9346.83
639.828	9291.46
640.181	9266.83
640.534	9346.83
640.888	9275.19
641.241	9234.74
641.594	9248.3
641.947	9271.13
642.301	9220.28
642.654	9246.04
643.007	9267.51
643.36	9230.68
643.713	9233.61
644.066	9213.95
644.419	9189.55
644.771	9181.86
645.124	9091.24
645.477	9085.59
645.83	9005.82
646.182	8937.58
646.535	8861.42
646.888	8939.84
647.24	8911.36
647.593	8903.23
647.945	8911.36
648.298	8885.6
648.65	8860.74
649.002	8861.65
649.355	8933.51
649.707	8871.14
650.059	8937.12
650.411	9000.85
650.763	8950.23
651.115	9142.32
651.467	9110
651.819	9085.59
652.171	9032.49
652.523	9114.07
652.875	9059.83
653.227	9018.48
653.578	9070.23
653.93	9000.4
654.282	9011.7
654.633	9002.21
654.985	9024.81
655.337	8992.94
655.688	9065.03
656.039	9091.7
656.391	8997.24
656.742	9031.13
657.094	9009.44
657.445	9053.28
657.796	9055.99
658.147	9069.55
658.498	9023.45
658.849	9021.64
659.2	9056.67
659.551	8997.91
659.902	9046.05
660.253	9023
660.604	9019.38
660.955	9044.24
661.306	9097.12
661.656	9065.26
662.007	9068.65
662.358	9067.06
662.708	9063.22
663.059	9003.34
663.409	9073.62
663.76	9093.05
664.11	9005.14
664.461	9118.81
664.811	9073.17
665.161	9021.19
665.511	9073.17
665.862	9035.2
666.212	9063.22
666.562	9075.88
666.912	9191.35
667.262	9001.08
667.612	9034.3
667.962	9075.2
668.312	9091.92
668.662	9088.53
669.011	9070.45
669.361	9037.69
669.711	9063.22
670.06	8979.38
670.41	9052.6
670.76	9029.55
671.109	9013.28
671.459	9003.11
671.808	9025.71
672.157	9083.11
672.507	8938.48
672.856	8951.36
673.205	8975.54
673.554	9000.4
673.904	8936.22
674.253	8972.38
674.602	8941.87
674.951	8839.27
675.3	8800.63
675.649	8931.25
675.998	8980.96
676.346	8895.09
676.695	8982.55
677.044	8891.02
677.393	8969.21
677.741	8864.13
678.09	8889.22
678.438	8774.19
678.787	8894.19
679.135	8866.39
679.484	8834.3
679.832	8811.7
680.181	8718.37
680.529	8783.23
680.877	8792.95
681.225	8787.07
681.573	8787.75
681.922	8767.64
682.27	8721.76
682.618	8724.93
682.966	8716.56
683.314	8704.14
683.661	8600.64
684.009	8599.96
684.357	8606.51
684.705	8607.19
685.053	8616.23
685.4	8643.35
685.748	8505.95
686.095	8521.54
686.443	8494.88
686.79	8552.73
687.138	8522.67
687.485	8531.03
687.832	8477.25
688.18	8502.78
688.527	8338.5
688.874	8358.16
689.221	8355.9
689.568	8366.74
689.915	8344.82
690.262	8300.3
690.609	8274.99
690.956	8243.36
691.303	8282.23
691.65	8244.26
691.997	8274.09
692.344	8209.69
692.69	8111.38
693.037	8156.35
693.383	8031.84
693.73	8045.62
694.077	8050.59
694.423	8014.44
694.769	8014.44
695.116	7967.21
695.462	7953.65
695.808	7900.77
696.155	7894.89
696.501	7893.31
696.847	7887.66
697.193	7835.91
697.539	7807.44
697.885	7762.92
698.231	7749.36
698.577	7813.76
698.923	7675.24
699.269	7665.74
699.614	7617.38
699.96	7598.18
700.306	7589.81
700.651	7566.09
700.997	7534.9
701.342	7511.4
701.688	7469.14
702.033	7514.11
702.379	7495.81
702.724	7398.41
703.069	7416.03
703.415	7310.27
703.76	7327.22
704.105	7285.87
704.45	7249.48
704.795	7246.55
705.14	7274.34
705.485	7205.19
705.83	7222.59
706.175	7189.37
706.52	7204.74
706.865	7191.18
707.209	7081.13
707.554	7143.05
707.899	7129.26
708.243	7035.48
708.588	7054.24
708.932	6989.83
709.277	7021.02
709.621	6957.97
709.966	6997.97
710.31	6936.5
710.654	6901.02
710.998	6912.54
711.342	6893.56
711.687	6900.12
712.031	6909.38
712.375	6865.09
712.719	6888.59
713.063	6827.35
713.407	6798.42
713.75	6832.32
714.094	6794.36
714.438	6846.56
714.782	6788.25
715.125	6720.01
715.469	6774.02
715.812	6694.92
716.156	6746.22
716.499	6685.66
716.843	6702.15
717.186	6680.01
717.53	6633.91
717.873	6677.75
718.216	6629.39
718.559	6586.45
718.902	6649.27
719.246	6595.49
719.589	6577.86
719.932	6566.56
720.275	6578.54
720.617	6568.6
720.96	6551.42
721.303	6563.63
721.646	6567.02
721.989	6499.45
722.331	6532.89
722.674	6522.5
723.016	6513.91
723.359	6555.04
723.701	6579.22
724.044	6448.38
724.386	6483.4
724.729	6496.74
725.071	6489.05
725.413	6513.68
725.755	6494.7
726.097	6457.19
726.439	6424.65
726.782	6429.17
727.124	6491.54
727.465	6353.24
727.807	6433.01
728.149	6418.09
728.491	6364.76
728.833	6416.96
729.175	6386
729.516	6383.97
729.858	6407.92
730.199	6364.31
730.541	6356.4
730.882	6382.61
731.224	6391.88
731.565	6342.84
731.906	6371.99
732.248	6375.16
732.589	6439.56
732.93	6341.94
733.271	6343.07
733.612	6340.81
733.953	6374.03
734.294	6345.1
734.635	6383.52
734.976	6376.74
735.317	6365.67
735.658	6317.31
735.999	6384.65
736.339	6339.45
736.68	6385.78
737.021	6373.35
737.361	6400.69
737.702	6427.36
738.042	6413.8
738.383	6364.54
738.723	6341.49
739.063	6340.58
739.404	6395.5
739.744	6369.51
740.084	6407.47
740.424	6436.62
740.764	6407.92
741.104	6458.77
741.444	6449.96
741.784	6434.82
742.124	6466
742.464	6440.01
742.804	6424.87
743.143	6454.7
743.483	6445.21
743.823	6422.39
744.162	6519.79
744.502	6544.87
744.841	6463.74
745.181	6573.34
745.52	6606.11
745.86	6592.78
746.199	6572.44
746.538	6647.47
746.877	6688.82
747.216	6710.29
747.556	6723.4
747.895	6743.74
748.234	6741.48
748.573	6818.54
748.911	6856.95
749.25	6900.34
749.589	6911.87
749.928	7014.46
750.267	7043.84
750.605	7072.77
750.944	7105.99
751.283	7158.87
751.621	7214.23
751.96	7273.66
752.298	7361.8
752.636	7420.1
752.975	7446.32
753.313	7495.58
753.651	7613.32
753.989	7637.95
754.327	7761.34
754.666	7780.09
755.004	7884.04
755.342	7978.73
755.679	8115.45
756.017	8115.22
756.355	8280.64
756.693	8255.79
757.031	8432.96
757.368	8503.91
757.706	8672.05
758.044	8677.24
758.381	8847.86
758.719	8923.79
759.056	9065.48
759.394	9172.15
759.731	9169.89
760.068	9368.98
760.405	9394.06
760.743	9507.96
761.08	9667.27
761.417	9740.27
761.754	9931
762.091	10056.64
762.428	10068.62
762.765	10194.94
763.102	10296.64
763.438	10384.54
763.775	10506.35
764.112	10567.59
764.449	10753.57
764.785	10885.1
765.122	10998.54
765.458	11024.53
765.795	11163.05
766.131	11251.64
766.467	11295.48
766.804	11397.4
767.14	11434.46
767.476	11563.72
767.812	11634.45
768.148	11745.19
768.485	11853.21
768.821	11859.08
769.157	11904.28
