Data from hue_80_FLMS001491_78.txt Node
Date: Mon Feb 06 15:23:32 GMT 2017
User: dcchb
Spectrometer: FLMS00149
Trigger mode: 0
Integration Time (sec): 2.000000E-2
Scans to average: 10
Electric dark correction enabled: true
Nonlinearity correction enabled: false
Boxcar width: 0
XAxis mode: Wavelengths
Number of Pixels in Spectrum: 2048
>>>>>Begin Spectral Data<<<<<
341.393	-13.47
341.776	-13.47
342.16	-13.47
342.543	-67.03
342.927	-59.8
343.31	-73.81
343.693	-83.08
344.077	-83.08
344.46	-73.13
344.843	-53.93
345.226	-42.17
345.61	-31.55
345.993	-3.08
346.376	2.12
346.759	12.97
347.142	16.81
347.525	34.66
347.908	76.01
348.291	88.67
348.674	96.58
349.057	116.01
349.44	145.62
349.823	138.16
350.206	175.9
350.588	191.94
350.971	207.31
351.354	234.2
351.737	259.74
352.119	248.44
352.502	254.77
352.884	270.13
353.267	293.64
353.65	312.62
354.032	297.03
354.414	305.84
354.797	340.87
355.179	326.18
355.562	344.48
355.944	334.09
356.326	326.18
356.709	331.83
357.091	336.35
357.473	332.51
357.855	342.67
358.238	331.83
358.62	329.34
359.002	352.39
359.384	343.13
359.766	344.93
360.148	361.21
360.53	344.93
360.912	342.45
361.294	350.36
361.676	351.26
362.057	343.13
362.439	361.88
362.821	324.6
363.203	336.12
363.584	332.51
363.966	318.95
364.348	340.87
364.729	321.43
365.111	339.51
365.493	326.86
365.874	311.94
366.256	316.46
366.637	312.39
367.019	335.44
367.4	315.78
367.781	307.87
368.163	322.56
368.544	337.93
368.925	311.04
369.306	320.75
369.688	315.56
370.069	313.3
370.45	294.09
370.831	298.16
371.212	337.25
371.593	307.65
371.974	316.46
372.355	322.11
372.736	311.71
373.117	332.96
373.498	317.59
373.879	310.13
374.26	327.31
374.641	327.31
375.021	333.18
375.402	331.38
375.783	318.04
376.163	331.83
376.544	337.48
376.925	331.38
377.305	345.39
377.686	325.5
378.066	339.28
378.447	329.57
378.827	328.21
379.208	353.3
379.588	343.13
379.968	328.66
380.349	324.37
380.729	330.7
381.109	334.09
381.489	332.05
381.87	349
382.25	346.06
382.63	352.39
383.01	329.34
383.39	350.81
383.77	353.52
384.15	344.71
384.53	346.74
384.91	342.45
385.29	348.32
385.67	348.55
386.049	348.32
386.429	371.37
386.809	365.27
387.189	358.49
387.568	331.38
387.948	358.04
388.328	365.72
388.707	366.18
389.087	362.34
389.466	363.92
389.846	351.26
390.225	367.76
390.605	367.76
390.984	371.6
391.363	387.19
391.743	365.05
392.122	362.34
392.501	365.27
392.881	383.8
393.26	377.25
393.639	401.43
394.018	370.7
394.397	389.23
394.776	397.81
395.155	379.28
395.534	373.63
395.913	397.59
396.292	397.81
396.671	391.94
397.05	380.64
397.429	393.07
397.808	368.89
398.186	391.03
398.565	392.84
398.944	394.42
399.323	403.24
399.701	389.23
400.08	404.59
400.458	401.2
400.837	413.41
401.215	403.46
401.594	422.22
401.972	401.43
402.351	381.09
402.729	401.66
403.107	417.25
403.486	418.15
403.864	412.05
404.242	406.63
404.62	414.09
404.999	400.75
405.377	404.37
405.755	406.18
406.133	400.53
406.511	413.63
406.889	426.51
407.267	439.17
407.645	434.42
408.023	440.3
408.401	425.16
408.779	434.65
409.156	441.88
409.534	440.98
409.912	434.2
410.29	439.62
410.667	449.11
411.045	467.19
411.422	457.47
411.8	468.77
412.178	470.58
412.555	473.07
412.933	460.19
413.31	472.39
413.687	463.35
414.065	468.55
414.442	478.04
414.819	479.39
415.197	471.94
415.574	489.34
415.951	516.68
416.328	497.92
416.705	493.63
417.082	488.43
417.46	493.41
417.837	490.92
418.214	513.97
418.591	499.96
418.967	496.34
419.344	494.99
419.721	516
420.098	523.23
420.475	508.32
420.852	533.63
421.228	536.12
421.605	508.09
421.982	521.43
422.358	533.63
422.735	537.7
423.111	550.35
423.488	542.22
423.864	552.84
424.241	541.77
424.617	552.16
424.994	546.74
425.37	559.39
425.746	546.51
426.123	545.61
426.499	568.88
426.875	566.62
427.251	590.8
427.627	592.16
428.003	596
428.379	601.88
428.756	593.29
429.132	574.98
429.507	608.2
429.883	619.05
430.259	607.07
430.635	620.41
431.011	596.91
431.387	597.13
431.763	612.95
432.138	644.36
432.514	659.5
432.89	612.5
433.265	647.98
433.641	654.08
434.016	659.73
434.392	677.81
434.767	664.47
435.143	685.49
435.518	692.95
435.894	684.59
436.269	690.69
436.644	686.39
437.02	710.35
437.395	718.03
437.77	717.35
438.145	733.62
438.52	721.42
438.895	727.3
439.271	725.94
439.646	733.62
440.021	726.17
440.395	743.12
440.77	743.57
441.145	738.14
441.52	760.29
441.895	785.6
442.27	781.31
442.645	762.1
443.019	773.85
443.394	771.59
443.769	779.95
444.143	782.21
444.518	799.84
444.892	802.55
445.267	789.67
445.641	825.15
446.016	814.3
446.39	786.28
446.764	815.2
447.139	815.88
447.513	833.96
447.887	810.91
448.262	839.16
448.636	819.5
449.01	855.2
449.384	864.47
449.758	864.24
450.132	847.07
450.506	865.37
450.88	891.36
451.254	889.55
451.628	876.67
452.002	870.8
452.376	901.08
452.75	878.03
453.123	911.25
453.497	906.5
453.871	925.26
454.244	944.24
454.618	949.89
454.992	968.19
455.365	970.68
455.739	995.09
456.112	1005.93
456.486	996.89
456.859	1007.06
457.232	1030.57
457.606	1056.78
457.979	1033.73
458.352	1029.21
458.725	1070.34
459.099	1059.49
459.472	1088.42
459.845	1083.45
460.218	1110.79
460.591	1100.85
460.964	1120.51
461.337	1133.84
461.71	1139.49
462.083	1145.59
462.456	1179.26
462.829	1163.9
463.201	1220.84
463.574	1204.35
463.947	1241.18
464.32	1259.94
464.692	1274.63
465.065	1273.05
465.438	1299.26
465.81	1295.19
466.183	1335.64
466.555	1341.07
466.928	1361.4
467.3	1407.96
467.672	1404.79
468.045	1421.52
468.417	1449.31
468.789	1451.57
469.161	1487.5
469.534	1496.09
469.906	1559.14
470.278	1584
470.65	1598.01
471.022	1650.21
471.394	1663.54
471.766	1673.04
472.138	1680.04
472.51	1760.26
472.882	1781.51
473.253	1802.75
473.625	1867.15
473.997	1906.25
474.369	1932.01
474.74	1945.57
475.112	1982.18
475.484	2026.25
475.855	2112.12
476.227	2150.99
476.598	2168.39
476.97	2245.68
477.341	2336.29
477.713	2352.79
478.084	2398.67
478.455	2504.2
478.827	2559.79
479.198	2606.34
479.569	2694.25
479.94	2789.16
480.311	2834.81
480.682	2907.58
481.053	3014.69
481.424	3092.21
481.795	3149.61
482.166	3237.06
482.537	3310.28
482.908	3444.74
483.279	3532.2
483.65	3611.52
484.021	3718.18
484.391	3799.08
484.762	3889.02
485.133	3978.51
485.503	4123.82
485.874	4255.34
486.244	4327.43
486.615	4429.57
486.985	4592.96
487.356	4694.88
487.726	4835.89
488.097	4957.92
488.467	5056.45
488.837	5198.14
489.207	5378.93
489.578	5500.28
489.948	5637.68
490.318	5728.3
490.688	5847.84
491.058	6029.3
491.428	6166.25
491.798	6331.44
492.168	6466.36
492.538	6518.11
492.908	6714.03
493.278	6881.71
493.648	6989.05
494.017	7125.1
494.387	7271.31
494.757	7388.59
495.126	7523.5
495.496	7640.11
495.866	7762.59
496.235	7939.99
496.605	8131.4
496.974	8191.73
497.344	8353.09
497.713	8425.17
498.082	8610.71
498.452	8694.09
498.821	8903.35
499.19	8963.69
499.559	9103.57
499.928	9157.36
500.298	9304.25
500.667	9462.66
501.036	9522.77
501.405	9655.42
501.774	9771.58
502.143	9962.53
502.512	9988.52
502.88	10187.39
503.249	10199.36
503.618	10339.7
503.987	10401.85
504.356	10480.04
504.724	10725.23
505.093	10746.69
505.462	10877.09
505.83	10989.17
506.199	11050.19
506.567	11231.2
506.936	11295.61
507.304	11470.07
507.672	11537.86
508.041	11614.69
508.409	11687.24
508.777	11835.03
509.145	11902.82
509.514	12025.08
509.882	12100.78
510.25	12110.5
510.618	12316.6
510.986	12321.57
511.354	12345.97
511.722	12546.2
512.09	12598.4
512.458	12750.03
512.826	12744.16
513.193	12892.4
513.561	12921.1
513.929	12888.79
514.297	13110.47
514.664	13246.06
515.032	13260.3
515.4	13401.77
515.767	13417.81
516.135	13554.08
516.502	13470.24
516.869	13690.8
517.237	13829.55
517.604	13645.6
517.972	13849.21
518.339	13872.04
518.706	14014.63
519.073	14037.91
519.44	14118.58
519.808	14176.44
520.175	14288.75
520.542	14377.56
520.909	14350.44
521.276	14341.18
521.643	14628.17
522.009	14604.9
522.376	14714.5
522.743	14726.48
523.11	14872.46
523.477	14892.57
523.843	14960.6
524.21	15097.09
524.577	15190.42
524.943	15257.54
525.31	15337.31
525.676	15344.77
526.043	15444.42
526.409	15532.78
526.776	15566
527.142	15617.98
527.508	15682.61
527.874	15652.55
528.241	15817.07
528.607	15734.36
528.973	15913.79
529.339	15848.71
529.705	16003.96
530.071	16071.07
530.437	16166.89
530.803	16120.56
531.169	16259.09
531.535	16121.24
531.901	16160.11
532.267	16122.6
532.632	16183.16
532.998	16311.97
533.364	16359.65
533.73	16303.16
534.095	16461.8
534.461	16455.47
534.826	16398.52
535.192	16469.71
535.557	16504.74
535.923	16427.9
536.288	16568.01
536.653	16582.02
537.019	16528.01
537.384	16546.99
537.749	16556.71
538.114	16559.65
538.479	16544.28
538.845	16558.75
539.21	16497.73
539.575	16541.57
539.94	16545.41
540.305	16539.31
540.67	16475.13
541.034	16549.25
541.399	16584.28
541.764	16544.51
542.129	16540.44
542.494	16513.1
542.858	16518.97
543.223	16449.14
543.587	16478.75
543.952	16501.35
544.316	16547.22
544.681	16438.52
545.045	16543.6
545.41	16544.51
545.774	16504.51
546.138	16514
546.503	16540.67
546.867	16522.81
547.231	16578.63
547.595	16482.36
547.959	16449.6
548.324	16495.47
548.688	16468.35
549.052	16379.09
549.416	16474.91
549.779	16428.35
550.143	16470.39
550.507	16518.29
550.871	16447.34
551.235	16455.7
551.599	16493.66
551.962	16497.73
552.326	16500.44
552.689	16588.12
553.053	16466.77
553.417	16431.29
553.78	16612.53
554.143	16445.08
554.507	16475.36
554.87	16515.13
555.234	16591.29
555.597	16525.75
555.96	16611.17
556.323	16562.81
556.686	16495.02
557.05	16459.76
557.413	16618.63
557.776	16552.64
558.139	16559.65
558.502	16592.19
558.865	16679.87
559.228	16562.59
559.59	16751.96
559.953	16650.72
560.316	16728.23
560.679	16768.46
561.041	16765.97
561.404	16835.8
561.767	16865.63
562.129	16758.97
562.492	17035.8
562.854	16933.65
563.217	16927.78
563.579	16929.58
563.941	17019.52
564.304	17110.14
564.666	17155.79
565.028	17218.62
565.39	17095.45
565.753	17072.4
566.115	17236.24
566.477	17216.13
566.839	17250.48
567.201	17288.44
567.563	17278.95
567.925	17426.29
568.287	17354.88
568.648	17425.84
569.01	17454.99
569.372	17575.22
569.734	17514.65
570.095	17541.09
570.457	17666.74
570.819	17573.63
571.18	17552.84
571.542	17746.96
571.903	17659.28
572.265	17777.02
572.626	17741.31
572.987	17730.01
573.349	17846.62
573.71	17813.18
574.071	17889.33
574.432	17933.62
574.794	17980.18
575.155	17860.63
575.516	17870.8
575.877	17900.18
576.238	17899.73
576.599	18052.49
576.96	18042.32
577.32	18089.78
577.681	18026.96
578.042	18125.03
578.403	18013.4
578.763	18102.43
579.124	17996
579.485	18144.47
579.845	18240.28
580.206	18163.22
580.566	18111.92
580.927	18086.16
581.287	18162.77
581.648	18054.75
582.008	18217.23
582.368	18066.28
582.728	18186.05
583.089	18052.27
583.449	18134.3
583.809	18214.3
584.169	18144.92
584.529	18130.68
584.889	18270.56
585.249	18017.46
585.609	18172.94
585.969	18158.7
586.329	18025.37
586.688	18093.62
587.048	18049.55
587.408	18062.43
587.768	18077.8
588.127	18007.75
588.487	17998.26
588.846	18049.33
589.206	17896.11
589.565	18004.81
589.925	18025.37
590.284	17915.77
590.643	17985.83
591.003	17985.15
591.362	18039.16
591.721	17988.99
592.08	17986.5
592.44	17962.55
592.799	17980.85
593.158	17944.02
593.517	17962.78
593.876	17989.44
594.235	17947.41
594.593	17984.92
594.952	18029.22
595.311	17924.13
595.67	17960.74
596.029	18036.45
596.387	18021.31
596.746	18078.25
597.104	17956.22
597.463	17906.73
597.822	18047.97
598.18	17979.95
598.538	17954.87
598.897	17961.65
599.255	17826.51
599.613	18113.96
599.972	17979.27
600.33	17950.57
600.688	17832.84
601.046	17948.09
601.404	18068.08
601.762	17938.6
602.12	17995.77
602.478	18074.64
602.836	18077.8
603.194	17995.77
603.552	18006.62
603.91	17987.41
604.268	18006.84
604.625	17957.13
604.983	18031.48
605.341	17941.99
605.698	17960.74
606.056	18035.54
606.413	18005.71
606.771	18105.82
607.128	18155.31
607.485	18049.33
607.843	18052.49
608.2	18101.08
608.557	18125.26
608.914	18049.78
609.272	18255.88
609.629	18288.87
609.986	18264.69
610.343	18252.03
610.7	18266.72
611.057	18299.26
611.414	18154.41
611.771	18256.78
612.127	18357.34
612.484	18346.5
612.841	18445.93
613.198	18303.11
613.554	18318.25
613.911	18408.19
614.267	18555.08
614.624	18400.05
614.98	18402.31
615.337	18486.6
615.693	18399.6
616.05	18406.38
616.406	18631.91
616.762	18484.57
617.118	18539.94
617.475	18585.81
617.831	18582.87
618.187	18591.46
618.543	18672.14
618.899	18679.59
619.255	18654.96
619.611	18532.03
619.967	18683.66
620.323	18728.18
620.678	18670.55
621.034	18650.89
621.39	18659.26
621.746	18619.93
622.101	18854.5
622.457	18716.88
622.812	18781.51
623.168	18755.98
623.523	18681.63
623.879	18785.13
624.234	18618.13
624.589	18816.31
624.945	18705.81
625.3	18829.87
625.655	18757.33
626.01	18750.33
626.365	18720.95
626.72	18758.91
627.075	18779.03
627.43	18692.02
627.785	18758.01
628.14	18767.05
628.495	18751.46
628.85	18687.28
629.205	18655.19
629.559	18764.79
629.914	18708.52
630.269	18727.05
630.623	18694.51
630.978	18566.38
631.332	18718.24
631.687	18672.14
632.041	18621.97
632.396	18707.84
632.75	18626.71
633.104	18628.07
633.459	18454.06
633.813	18518.69
634.167	18533.38
634.521	18520.5
634.875	18480.28
635.229	18502.2
635.583	18346.72
635.937	18421.07
636.291	18385.36
636.645	18389.43
636.999	18344.24
637.352	18401.18
637.706	18229.21
638.06	18370.68
638.413	18323.44
638.767	18294.97
639.121	18344.69
639.474	18205.48
639.828	18246.84
640.181	18254.97
640.534	18235.76
640.888	18205.93
641.241	18025.15
641.594	18100.4
641.947	18137.23
642.301	18052.04
642.654	18176.33
643.007	18074.64
643.36	18083
643.713	17991.93
644.066	18152.6
644.419	18059.95
644.771	17930.01
645.124	17761.43
645.477	17724.14
645.83	17595.33
646.182	17568.89
646.535	17443.02
646.888	17628.32
647.24	17484.37
647.593	17513.07
647.945	17466.97
648.298	17475.33
648.65	17393.75
649.002	17336.8
649.355	17382.45
649.707	17412.06
650.059	17521.66
650.411	17639.85
650.763	17681.2
651.115	17868.32
651.467	17787.19
651.819	17812.27
652.171	17810.69
652.523	17775.89
652.875	17810.46
653.227	17680.52
653.578	17904.47
653.93	17837.36
654.282	17791.71
654.633	17755.55
654.985	17685.5
655.337	17821.54
655.688	17820.18
656.039	17846.85
656.391	17647.08
656.742	17688.21
657.094	17778.37
657.445	17865.15
657.796	17785.38
658.147	17673.97
658.498	17781.99
658.849	17812.95
659.2	17798.94
659.551	17807.98
659.902	17821.76
660.253	17712.16
660.604	17874.87
660.955	17789.9
661.306	17951.93
661.656	17794.65
662.007	17876.68
662.358	17820.41
662.708	17836.9
663.059	17799.39
663.409	17782.22
663.76	17944.02
664.11	17870.35
664.461	17849.56
664.811	17818.15
665.161	17861.08
665.511	17884.81
665.862	17887.98
666.212	17881.65
666.562	17886.62
666.912	17836.68
667.262	17820.86
667.612	17800.52
667.962	17848.65
668.312	17942.21
668.662	17922.55
669.011	17920.29
669.361	17736.34
669.711	17805.72
670.06	17831.93
670.41	17782.89
670.76	17691.37
671.109	17907.18
671.459	17698.15
671.808	17664.71
672.157	17774.53
672.507	17599.85
672.856	17694.31
673.205	17651.6
673.554	17764.36
673.904	17689.79
674.253	17797.58
674.602	17715.1
674.951	17516.23
675.3	17362.57
675.649	17695.21
675.998	17571.83
676.346	17507.42
676.695	17684.82
677.044	17588.1
677.393	17603.01
677.741	17531.15
678.09	17531.38
678.438	17466.74
678.787	17481.88
679.135	17542
679.484	17426.52
679.832	17490.02
680.181	17347.65
680.529	17423.13
680.877	17376.35
681.225	17306.3
681.573	17455.9
681.922	17257.03
682.27	17145.85
682.618	17155.34
682.966	17186.75
683.314	17226.3
683.661	17087.09
684.009	16997.38
684.357	17008.45
684.705	16999.86
685.053	16996.93
685.4	16937.94
685.748	16848.68
686.095	16862.24
686.443	16786.99
686.79	16840.09
687.138	16765.29
687.485	16825.41
687.832	16734.56
688.18	16721.68
688.527	16611.85
688.874	16660.66
689.221	16517.84
689.568	16510.84
689.915	16451.63
690.262	16457.51
690.609	16433.32
690.956	16333.21
691.303	16349.03
691.65	16321.01
691.997	16210.73
692.344	16093.67
692.69	16110.85
693.037	16072.43
693.383	15955.15
693.73	15995.6
694.077	15799.44
694.423	15879.44
694.769	15896.84
695.116	15765.09
695.462	15657.3
695.808	15670.41
696.155	15785.66
696.501	15558.32
696.847	15516.51
697.193	15403.75
697.539	15513.12
697.885	15288.04
698.231	15374.82
698.577	15303.64
698.923	15216.86
699.269	15118.56
699.614	15115.62
699.96	15060.48
700.306	15041.5
700.651	14958.79
700.997	14901.61
701.342	14883.76
701.688	14795.63
702.033	14801.28
702.379	14665.69
702.724	14610.32
703.069	14766.93
703.415	14476.09
703.76	14447.84
704.105	14474.28
704.45	14456.43
704.795	14410.1
705.14	14293.49
705.485	14240.84
705.83	14251.46
706.175	14248.98
706.52	14097.12
706.865	14104.12
707.209	14049.88
707.554	13941.87
707.899	14067.29
708.243	14020.06
708.588	13933.05
708.932	13797.69
709.277	13837.91
709.621	13807.63
709.966	13730.12
710.31	13766.95
710.654	13630.01
710.998	13641.08
711.342	13699.84
711.687	13640.18
712.031	13572.84
712.375	13544.81
712.719	13516.11
713.063	13412.16
713.407	13463.69
713.75	13420.07
714.094	13425.27
714.438	13340.75
714.782	13308.44
715.125	13268.21
715.469	13279.06
715.812	13245.84
716.156	13191.38
716.499	13151.6
716.843	13177.59
717.186	13169.23
717.53	13149.34
717.873	13117.03
718.216	13129.23
718.559	13044.26
718.902	12915.23
719.246	12985.73
719.589	12987.31
719.932	12864.83
720.275	12885.85
720.617	12953.64
720.96	12925.17
721.303	12935.56
721.646	12932.17
721.989	12816.92
722.331	12884.27
722.674	12798.17
723.016	12828
723.359	12764.72
723.701	12811.5
724.044	12615.8
724.386	12724.72
724.729	12702.58
725.071	12814.66
725.413	12712.97
725.755	12626.42
726.097	12602.47
726.439	12581.22
726.782	12545.52
727.124	12663.71
727.465	12628.23
727.807	12589.58
728.149	12548.23
728.491	12525.18
728.833	12627.55
729.175	12606.08
729.516	12495.8
729.858	12481.79
730.199	12618.74
730.541	12545.52
730.882	12520.21
731.224	12569.02
731.565	12497.16
731.906	12497.61
732.248	12498.74
732.589	12454.9
732.93	12387.56
733.271	12467.33
733.612	12500.77
733.953	12509.81
734.294	12439.53
734.635	12511.17
734.976	12460.32
735.317	12455.58
735.658	12487.67
735.999	12415.58
736.339	12444.96
736.68	12540.77
737.021	12496.03
737.361	12499.42
737.702	12532.64
738.042	12472.07
738.383	12491.96
738.723	12529.02
739.063	12404.73
739.404	12493.77
739.744	12462.36
740.084	12438.4
740.424	12468.23
740.764	12494.9
741.104	12555.01
741.444	12467.78
741.784	12465.97
742.124	12502.81
742.464	12512.07
742.804	12487.21
743.143	12544.84
743.483	12645.18
743.823	12543.71
744.162	12583.03
744.502	12632.07
744.841	12656.7
745.181	12766.3
745.52	12737.38
745.86	12776.47
746.199	12807.88
746.538	12819.63
746.877	12917.71
747.216	12948.67
747.556	13031.38
747.895	13012.85
748.234	13053.3
748.573	13047.88
748.911	13192.96
749.25	13187.99
749.589	13230.25
749.928	13310.92
750.267	13431.6
750.605	13508.88
750.944	13459.39
751.283	13536.9
751.621	13726.5
751.96	13650.35
752.298	13761.08
752.636	13859.83
752.975	13939.15
753.313	13930.11
753.651	14044.01
753.989	14142.99
754.327	14275.64
754.666	14332.14
755.004	14432.93
755.342	14632.24
755.679	14600.15
756.017	14709.53
756.355	14900.26
756.693	14977.77
