Data from hue_130_FLMS001491_00016.txt Node
Date: Tue Feb 07 16:57:14 GMT 2017
User: dcchb
Spectrometer: FLMS00149
Trigger mode: 0
Integration Time (sec): 2.000000E-2
Scans to average: 10
Electric dark correction enabled: true
Nonlinearity correction enabled: false
Boxcar width: 0
XAxis mode: Wavelengths
Number of Pixels in Spectrum: 2048
>>>>>Begin Spectral Data<<<<<
341.393	-2.54
341.776	-2.54
342.16	-2.54
342.543	-77.12
342.927	-86.16
343.31	-65.59
343.693	-70.56
344.077	-68.76
344.46	-54.52
344.843	-28.53
345.226	-37.8
345.61	-26.72
345.993	-34.41
346.376	-7.51
346.759	16.44
347.142	29.1
347.525	36.78
347.908	65.48
348.291	73.39
348.674	69.55
349.057	103.67
349.44	131.69
349.823	123.33
350.206	142.31
350.588	174.18
350.971	195.87
351.354	218.02
351.737	225.47
352.119	250.33
352.502	242.65
352.884	281.07
353.267	288.98
353.65	285.13
354.032	309.54
354.414	306.15
354.797	309.77
355.179	309.09
355.562	313.61
355.944	303.89
356.326	325.36
356.709	336.43
357.091	335.3
357.473	354.74
357.855	335.53
358.238	318.35
358.62	310.9
359.002	338.24
359.384	342.08
359.766	347.05
360.148	347.5
360.53	346.15
360.912	329.88
361.294	327.84
361.676	320.84
362.057	319.26
362.439	332.82
362.821	341.86
363.203	318.58
363.584	327.39
363.966	324.45
364.348	321.07
364.729	306.15
365.111	329.43
365.493	332.59
365.874	318.81
366.256	332.82
366.637	292.37
367.019	308.41
367.4	286.72
367.781	295.08
368.163	283.1
368.544	324
368.925	326.49
369.306	297.11
369.688	288.75
370.069	302.99
370.45	300.05
370.831	322.87
371.212	314.96
371.593	320.39
371.974	302.99
372.355	313.61
372.736	315.87
373.117	328.75
373.498	309.77
373.879	306.83
374.26	326.49
374.641	303.66
375.021	306.6
375.402	331.91
375.783	305.25
376.163	339.6
376.544	329.2
376.925	320.84
377.305	319.94
377.686	321.07
378.066	327.84
378.447	333.72
378.827	308.64
379.208	320.84
379.588	356.54
379.968	326.04
380.349	346.38
380.729	349.09
381.109	344.57
381.489	345.02
381.87	340.27
382.25	320.61
382.63	320.16
383.01	341.18
383.39	347.96
383.77	334.62
384.15	340.73
384.53	339.6
384.91	339.6
385.29	352.93
385.67	342.99
386.049	326.94
386.429	344.34
386.809	355.19
387.189	337.56
387.568	358.8
387.948	328.07
388.328	349.76
388.707	339.37
389.087	349.76
389.466	350.44
389.846	354.06
390.225	355.64
390.605	358.13
390.984	373.49
391.363	360.84
391.743	369.65
392.122	366.26
392.501	362.65
392.881	349.31
393.26	358.13
393.639	368.07
394.018	375.53
394.397	377.56
394.776	367.62
395.155	355.87
395.534	381.4
395.913	380.27
396.292	371.69
396.671	397
397.05	399.26
397.429	367.62
397.808	389.09
398.186	382.76
398.565	395.64
398.944	371.23
399.323	395.64
399.701	369.2
400.08	356.54
400.458	382.53
400.837	388.86
401.215	415.98
401.594	407.84
401.972	404.68
402.351	406.49
402.729	406.94
403.107	396.09
403.486	403.1
403.864	409.88
404.242	404.23
404.62	411.91
404.999	417.56
405.377	409.2
405.755	444.9
406.133	421.18
406.511	429.31
406.889	433.6
407.267	418.01
407.645	435.64
408.023	429.31
408.401	446.94
408.779	446.71
409.156	427.5
409.534	440.61
409.912	465.24
410.29	451.23
410.667	442.64
411.045	442.19
411.422	430.44
411.8	472.7
412.178	439.25
412.555	476.99
412.933	470.44
413.31	464.34
413.687	485.13
414.065	481.51
414.442	507.27
414.819	488.97
415.197	505.01
415.574	492.81
415.951	514.96
416.328	494.39
416.705	486.94
417.082	499.82
417.46	495.07
417.837	512.25
418.214	505.92
418.591	490.78
418.967	515.64
419.344	506.37
419.721	493.26
420.098	534.62
420.475	524.68
420.852	507.27
421.228	527.16
421.605	535.52
421.982	519.48
422.358	531.45
422.735	548.4
423.111	520.61
423.488	561.06
423.864	558.8
424.241	555.86
424.617	553.6
424.994	561.51
425.37	592.02
425.746	575.3
426.123	563.77
426.499	572.13
426.875	568.52
427.251	588.4
427.627	599.48
428.003	587.05
428.379	594.05
428.756	615.52
429.132	613.94
429.507	630.89
429.883	608.97
430.259	621.17
430.635	635.86
431.011	639.02
431.387	653.94
431.763	634.96
432.138	628.85
432.514	642.86
432.89	662.52
433.265	659.14
433.641	669.53
434.016	665.46
434.392	680.83
434.767	674.95
435.143	692.13
435.518	704.11
435.894	692.35
436.269	693.03
436.644	723.09
437.02	726.25
437.395	730.32
437.77	733.03
438.145	735.29
438.52	743.2
438.895	735.52
439.271	756.08
439.646	767.83
440.021	776.19
440.395	770.54
440.77	767.38
441.145	771.22
441.52	787.95
441.895	763.54
442.27	794.95
442.645	787.49
443.019	809.64
443.394	777.1
443.769	823.42
444.143	823.88
444.518	812.35
444.892	791.11
445.267	807.83
445.641	829.75
446.016	840.37
446.39	851.67
446.764	855.06
447.139	858.68
447.513	854.38
447.887	855.51
448.262	870.66
448.636	894.61
449.01	876.53
449.384	889.64
449.758	903.42
450.132	882.18
450.506	906.59
450.88	912.69
451.254	902.29
451.628	935.06
452.002	935.96
452.376	960.37
452.75	956.53
453.123	963.08
453.497	989.75
453.871	985.68
454.244	995.4
454.618	997.21
454.992	1004.44
455.365	1023.19
455.739	1039.24
456.112	1018.45
456.486	1026.36
456.859	1066.36
457.232	1076.07
457.606	1073.14
457.979	1100.93
458.352	1104.55
458.725	1101.84
459.099	1142.51
459.472	1152.46
459.845	1173.02
460.218	1169.18
460.591	1189.06
460.964	1182.29
461.337	1225.9
461.71	1245.79
462.083	1264.54
462.456	1251.89
462.829	1274.49
463.201	1264.09
463.574	1290.31
463.947	1308.16
464.32	1345.22
464.692	1361.94
465.065	1378.21
465.438	1372.11
465.81	1410.08
466.183	1410.98
466.555	1447.82
466.928	1466.57
467.3	1453.69
467.672	1507.02
468.045	1546.57
468.417	1544.08
468.789	1568.49
469.161	1615.27
469.534	1604.87
469.906	1677.19
470.278	1689.62
470.65	1711.54
471.022	1738.2
471.394	1794.02
471.766	1797.64
472.138	1835.38
472.51	1911.31
472.882	1919.44
473.253	1954.92
473.625	2003.51
473.997	2028.82
474.369	2062.26
474.74	2117.85
475.112	2177.29
475.484	2224.52
475.855	2264.06
476.227	2348.13
476.598	2374.8
476.97	2448.01
477.341	2514.45
477.713	2540.89
478.084	2595.13
478.455	2679.65
478.827	2775.24
479.198	2835.8
479.569	2904.5
479.94	2996.47
480.311	3019.75
480.682	3160.09
481.053	3224.72
481.424	3316.01
481.795	3399.85
482.166	3503.35
482.537	3551.94
482.908	3648.44
483.279	3777.02
483.65	3885.72
484.021	3984.92
484.391	4101.76
484.762	4150.79
485.133	4252.26
485.503	4352.15
485.874	4504.23
486.244	4573.83
486.615	4713.49
486.985	4858.12
487.356	5001.85
487.726	5064.67
488.097	5281.16
488.467	5334.72
488.837	5485.45
489.207	5619.46
489.578	5726.35
489.948	5886.79
490.318	6012.89
490.688	6068.26
491.058	6296.95
491.428	6425.99
491.798	6510.05
492.168	6750.05
492.538	6831.85
492.908	6944.39
493.278	7089.02
493.648	7196.36
494.017	7404.27
494.387	7504.38
494.757	7667.99
495.126	7803.35
495.496	7797.03
495.866	7957.02
496.235	8100.3
496.605	8251.93
496.974	8271.59
497.344	8535.76
497.713	8535.31
498.082	8658.92
498.452	8771.69
498.821	8943.89
499.19	8957.9
499.559	9141.17
499.928	9251.68
500.298	9324.9
500.667	9455.29
501.036	9529.41
501.405	9655.51
501.774	9695.96
502.143	9887.14
502.512	9883.3
502.88	9988.83
503.249	9986.8
503.618	10201.71
503.987	10178.21
504.356	10303.63
504.724	10422.72
505.093	10462.27
505.462	10565.09
505.83	10631.3
506.199	10770.51
506.567	10804.41
506.936	10837.4
507.304	11083.95
507.672	11104.28
508.041	11166.43
508.409	11222.93
508.777	11293.43
509.145	11368.23
509.514	11365.07
509.882	11511.96
510.25	11576.59
510.618	11649.13
510.986	11640.09
511.354	11782.23
511.722	11801.67
512.09	11953.75
512.458	11932.96
512.826	11951.49
513.193	12020.42
513.561	12124.37
513.929	12156.01
514.297	12253.41
514.664	12358.49
515.032	12307.19
515.4	12431.71
515.767	12413.63
516.135	12476.68
516.502	12372.95
516.869	12522.55
517.237	12615.21
517.604	12523.46
517.972	12685.26
518.339	12701.3
518.706	12690.23
519.073	12763
519.44	12720.74
519.808	12843
520.175	12862.2
520.542	12901.75
520.909	12973.16
521.276	12914.86
521.643	12995.76
522.009	13089.32
522.376	13143.1
522.743	13161.86
523.11	13193.72
523.477	13284.57
523.843	13311.01
524.21	13423.09
524.577	13490.89
524.943	13429.42
525.31	13449.53
525.676	13489.53
526.043	13608.85
526.409	13554.84
526.776	13673.03
527.142	13636.87
527.508	13653.6
527.874	13668.06
528.241	13737.89
528.607	13652.01
528.973	13737.21
529.339	13710.77
529.705	13797.32
530.071	13758.9
530.437	13759.81
530.803	13798.9
531.169	13860.6
531.535	13744.89
531.901	13806.36
532.267	13821.5
532.632	13779.47
532.998	13775.17
533.364	13884.78
533.73	13836.64
534.095	13894.49
534.461	13748.96
534.826	13852.01
535.192	13763.42
535.557	13832.35
535.923	13752.12
536.288	13732.01
536.653	13756.87
537.019	13638.23
537.384	13720.94
537.749	13718.45
538.114	13655.4
538.479	13605.91
538.845	13639.81
539.21	13525.24
539.575	13595.29
539.94	13558.01
540.305	13595.07
540.67	13478.91
541.034	13485.46
541.399	13494.96
541.764	13426.94
542.129	13386.03
542.494	13354.62
542.858	13369.31
543.223	13438.46
543.587	13296.77
543.952	13263.55
544.316	13214.96
544.681	13232.82
545.045	13160.95
545.41	13198.69
545.774	13186.72
546.138	13068.75
546.503	13038.7
546.867	12925.03
547.231	13081.86
547.595	12978.59
547.959	12994.18
548.324	13002.54
548.688	12934.29
549.052	12880.96
549.416	12950.56
549.779	12861.75
550.143	12774.52
550.507	12913.95
550.871	12772.04
551.235	12680.97
551.599	12805.71
551.962	12689.55
552.326	12682.1
552.689	12691.14
553.053	12655.66
553.417	12536.34
553.78	12637.13
554.143	12521.42
554.507	12616.79
554.87	12560.74
555.234	12718.93
555.597	12524.13
555.96	12514.64
556.323	12515.32
556.686	12450.46
557.05	12499.5
557.413	12413.4
557.776	12414.08
558.139	12476
558.502	12448.66
558.865	12422.22
559.228	12453.63
559.59	12381.54
559.953	12414.53
560.316	12477.36
560.679	12457.47
561.041	12533.17
561.404	12468.77
561.767	12524.81
562.129	12411.14
562.492	12587.41
562.854	12418.37
563.217	12468.99
563.579	12451.37
563.941	12502.44
564.304	12474.19
564.666	12560.74
565.028	12516.22
565.39	12544.7
565.753	12557.81
566.115	12567.52
566.477	12619.05
566.839	12615.43
567.201	12673.06
567.563	12732.72
567.925	12688.2
568.287	12680.29
568.648	12607.75
569.01	12740.4
569.372	12744.24
569.734	12698.14
570.095	12780.4
570.457	12766.61
570.819	12764.81
571.18	12795.31
571.542	12821.98
571.903	12777.69
572.265	12795.99
572.626	12800.28
572.987	12848.42
573.349	12903.79
573.71	12923.9
574.071	12868.31
574.432	12887.74
574.794	13061.75
575.155	12909.43
575.516	12819.04
575.877	12909.21
576.238	12932.71
576.599	12932.03
576.96	12879.15
577.32	12951.02
577.681	12986.95
578.042	12970.45
578.403	13002.54
578.763	12945.14
579.124	12919.15
579.485	12969.55
579.845	12988.53
580.206	13039.15
580.566	12974.74
580.927	12937.91
581.287	12984.91
581.648	13028.75
582.008	12999.6
582.368	12970.9
582.728	13036.66
583.089	12946.27
583.449	12929.1
583.809	12937.91
584.169	13022.43
584.529	12944.46
584.889	13057.68
585.249	12908.08
585.609	12917.57
585.969	12992.37
586.329	12877.57
586.688	12892.26
587.048	12897.23
587.408	12797.57
587.768	12831.47
588.127	12821.75
588.487	12733.17
588.846	12837.8
589.206	12744.24
589.565	12753.51
589.925	12846.16
590.284	12798.93
590.643	12786.95
591.003	12766.39
591.362	12879.6
591.721	12834.86
592.08	12788.76
592.44	12784.92
592.799	12766.84
593.158	12764.13
593.517	12802.32
593.876	12858.36
594.235	12692.49
594.593	12774.97
594.952	12727.74
595.311	12713.96
595.67	12709.67
596.029	12765.03
596.387	12781.53
596.746	12730.23
597.104	12663.11
597.463	12732.04
597.822	12836.22
598.18	12636.67
598.538	12683.68
598.897	12753.96
599.255	12644.58
599.613	12876.22
599.972	12686.62
600.33	12809.55
600.688	12653.62
601.046	12687.07
601.404	12690.23
601.762	12721.87
602.12	12735.88
602.478	12792.38
602.836	12732.49
603.194	12595.32
603.552	12706.5
603.91	12662.66
604.268	12693.85
604.625	12623.79
604.983	12687.07
605.341	12679.84
605.698	12673.06
606.056	12697.01
606.413	12614.53
606.771	12795.77
607.128	12763
607.485	12721.64
607.843	12713.96
608.2	12770.46
608.557	12808.19
608.914	12762.32
609.272	12812.04
609.629	12899.72
609.986	12886.61
610.343	12854.97
610.7	12912.6
611.057	12879.83
611.414	12813.84
611.771	12823.56
612.127	12907.85
612.484	12808.42
612.841	12902.43
613.198	12906.04
613.554	12874.41
613.911	13021.3
614.267	12972.26
614.624	12970.9
614.98	12947.63
615.337	12965.25
615.693	12984.23
616.05	12918.93
616.406	13024.23
616.762	12999.15
617.118	12997.34
617.475	13016.1
617.831	13063.78
618.187	13061.52
618.543	13024.69
618.899	13025.82
619.255	13083.22
619.611	13058.81
619.967	13110.33
620.323	13196.21
620.678	13024.69
621.034	13074.63
621.39	13111.69
621.746	12976.55
622.101	13170.22
622.457	13077.11
622.812	13085.93
623.168	13142.65
623.523	13200.5
623.879	13207.28
624.234	13097.45
624.589	13122.08
624.945	13143.1
625.3	13153.27
625.655	13143.33
626.01	13121.63
626.365	13168.18
626.72	13103.1
627.075	13086.83
627.43	13112.37
627.785	13082.31
628.14	13020.39
628.495	13104.68
628.85	13089.09
629.205	13052.03
629.559	13104.23
629.914	13086.15
630.269	12997.12
630.623	12975.65
630.978	13008.19
631.332	13068.3
631.687	13040.5
632.041	13023.1
632.396	12938.81
632.75	12979.72
633.104	12951.47
633.459	12852.26
633.813	12930.68
634.167	12829.66
634.521	12912.82
634.875	12967.06
635.229	12913.5
635.583	12836.44
635.937	12860.4
636.291	12787.18
636.645	12800.74
636.999	12735.2
637.352	12812.49
637.706	12706.5
638.06	12767.97
638.413	12766.61
638.767	12714.64
639.121	12773.84
639.474	12578.6
639.828	12681.87
640.181	12661.76
640.534	12743.56
640.888	12614.75
641.241	12612.49
641.594	12553.29
641.947	12653.17
642.301	12605.94
642.654	12630.12
643.007	12579.5
643.36	12480.29
643.713	12525.94
644.066	12632.38
644.419	12513.29
644.771	12408.88
645.124	12331.6
645.477	12303.35
645.83	12277.59
646.182	12284.82
646.535	12113.75
646.888	12080.3
647.24	12082.56
647.593	12229.23
647.945	12180.19
648.298	12076.24
648.65	12086.86
649.002	11981.78
649.355	12196.01
649.707	12125.5
650.059	12185.39
650.411	12354.19
650.763	12290.47
651.115	12469.45
651.467	12401.88
651.819	12397.58
652.171	12407.07
652.523	12343.8
652.875	12401.88
653.227	12338.15
653.578	12381.99
653.93	12354.87
654.282	12353.97
654.633	12279.39
654.985	12396
655.337	12369.34
655.688	12358.26
656.039	12394.87
656.391	12331.14
656.742	12289.56
657.094	12325.72
657.445	12432.16
657.796	12369.34
658.147	12476.68
658.498	12313.97
658.849	12388.32
659.2	12410.46
659.551	12324.37
659.902	12442.78
660.253	12406.4
660.604	12358.04
660.955	12333.18
661.306	12459.28
661.656	12455.44
662.007	12441.88
662.358	12437.36
662.708	12426.96
663.059	12452.72
663.409	12374.31
663.76	12415.89
664.11	12424.48
664.461	12454.08
664.811	12485.26
665.161	12466.51
665.511	12455.21
665.862	12416.57
666.212	12480.07
666.562	12533.63
666.912	12458.82
667.262	12447.3
667.612	12471.93
667.962	12429.67
668.312	12440.75
668.662	12548.77
669.011	12441.42
669.361	12445.72
669.711	12398.71
670.06	12477.36
670.41	12330.69
670.76	12452.27
671.109	12452.05
671.459	12364.36
671.808	12394.65
672.157	12345.83
672.507	12317.81
672.856	12278.72
673.205	12344.03
673.554	12332.05
673.904	12294.08
674.253	12408.66
674.602	12301.09
674.951	12117.14
675.3	12040.76
675.649	12298.38
675.998	12167.76
676.346	12262.45
676.695	12292.73
677.044	12184.71
677.393	12266.97
677.741	12297.02
678.09	12227.87
678.438	12126.63
678.787	12139.06
679.135	12268.55
679.484	12115.78
679.832	12134.99
680.181	12075.33
680.529	12030.36
680.877	12047.31
681.225	11994.2
681.573	12056.8
681.922	11929.8
682.27	11934.09
682.618	11920.99
682.966	11903.59
683.314	11933.87
683.661	11934.32
684.009	11802.57
684.357	11743.82
684.705	11803.02
685.053	11768
685.4	11769.58
685.748	11704.04
686.095	11705.85
686.443	11719.86
686.79	11646.42
687.138	11735
687.485	11687.09
687.832	11608.68
688.18	11615.68
688.527	11528
688.874	11499.75
689.221	11515.12
689.568	11487.33
689.915	11435.35
690.262	11396.71
690.609	11466.99
690.956	11369.59
691.303	11330.72
691.65	11216.37
691.997	11196.49
692.344	11167.11
692.69	11164.4
693.037	11122.59
693.383	11070.16
693.73	11083.95
694.077	10988.36
694.423	11001.69
694.769	10911.3
695.116	10830.39
695.462	10892.31
695.808	10780.9
696.155	10883.5
696.501	10789.04
696.847	10716.5
697.193	10677.4
697.539	10743.62
697.885	10540.46
698.231	10620.91
698.577	10601.7
698.923	10527.8
699.269	10472.44
699.614	10398.54
699.96	10373.23
700.306	10402.61
700.651	10379.78
700.997	10278.09
701.342	10247.13
701.688	10285.1
702.033	10181.82
702.379	10222.73
702.724	10145.21
703.069	10183.86
703.415	10032.67
703.76	10018.66
704.105	10052.56
704.45	10017.76
704.795	9992.68
705.14	9910.64
705.485	9954.03
705.83	9900.02
706.175	9867.48
706.52	9768.5
706.865	9775.05
707.209	9719.91
707.554	9715.17
707.899	9655.73
708.243	9639.01
708.588	9612.35
708.932	9632.91
709.277	9512.46
709.621	9547.94
709.966	9488.73
710.31	9499.35
710.654	9442.86
710.998	9472.69
711.342	9387.95
711.687	9350.66
712.031	9351.34
712.375	9317.66
712.719	9296.2
713.063	9298
713.407	9321.96
713.75	9252.58
714.094	9246.71
714.438	9175.75
714.782	9223.2
715.125	9178.23
715.469	9168.29
715.812	9118.57
716.156	9069.08
716.499	9135.07
716.843	9186.82
717.186	9042.42
717.53	9160.61
717.873	9117.22
718.216	9074.51
718.559	9065.92
718.902	8979.14
719.246	8981.18
719.589	8966.04
719.932	8951.57
720.275	8980.95
720.617	8960.84
720.96	9004
721.303	8928.07
721.646	8911.35
721.989	8895.98
722.331	8905.7
722.674	8914.51
723.016	8924
723.359	8884.68
723.701	8865.25
724.044	8836.32
724.386	8814.85
724.729	8853.72
725.071	8822.76
725.413	8805.36
725.755	8778.7
726.097	8738.7
726.439	8709.32
726.782	8760.39
727.124	8836.1
727.465	8704.12
727.807	8760.39
728.149	8746.83
728.491	8766.94
728.833	8838.81
729.175	8695.31
729.516	8695.08
729.858	8742.31
730.199	8757
730.541	8719.49
730.882	8706.16
731.224	8723.1
731.565	8677
731.906	8738.7
732.248	8712.93
732.589	8665.7
732.93	8640.85
733.271	8682.88
733.612	8648.98
733.953	8639.26
734.294	8591.81
734.635	8664.57
734.976	8696.21
735.317	8712.26
735.658	8641.52
735.999	8626.38
736.339	8665.03
736.68	8749.77
737.021	8710.9
737.361	8667.74
737.702	8682.2
738.042	8674.74
738.383	8658.02
738.723	8693.73
739.063	8695.53
739.404	8711.8
739.744	8718.36
740.084	8736.66
740.424	8748.19
740.764	8760.39
741.104	8789.09
741.444	8725.14
741.784	8781.18
742.124	8782.99
742.464	8843.33
742.804	8776.21
743.143	8822.08
743.483	8830.45
743.823	8804.23
744.162	8895.53
744.502	8940.05
744.841	8957.22
745.181	9014.85
745.52	9042.19
745.86	9006.26
746.199	9056.43
746.538	9102.76
746.877	9155.63
747.216	9213.71
747.556	9240.15
747.895	9243.99
748.234	9274.95
748.573	9402.86
748.911	9416.87
749.25	9505.46
749.589	9513.82
749.928	9592.01
750.267	9689.41
750.605	9727.15
750.944	9794.04
751.283	9850.76
751.621	9919.68
751.96	9983.41
752.298	10114.03
752.636	10111.09
752.975	10253.46
753.313	10309.73
753.651	10446.9
753.989	10493.45
754.327	10697.97
754.666	10690.06
755.004	10913.78
755.342	10937.51
755.679	11152.64
756.017	11257.27
756.355	11412.52
756.693	11454.78
757.031	11747.88
757.368	11777.71
757.706	11922.57
758.044	12053.19
758.381	12231.71
758.719	12382.67
759.056	12499.73
759.394	12678.71
759.731	12746.28
