Data from hue_38_FLMS001491_00099.txt Node
Date: Tue Feb 07 17:32:15 GMT 2017
User: dcchb
Spectrometer: FLMS00149
Trigger mode: 0
Integration Time (sec): 2.000000E-2
Scans to average: 10
Electric dark correction enabled: true
Nonlinearity correction enabled: false
Boxcar width: 0
XAxis mode: Wavelengths
Number of Pixels in Spectrum: 2048
>>>>>Begin Spectral Data<<<<<
341.393	-11.91
341.776	-11.91
342.16	-11.91
342.543	-56.65
342.927	-90.77
343.31	-56.88
343.693	-52.13
344.077	-57.78
344.46	-44.67
344.843	-69.98
345.226	-44.67
345.61	-25.69
345.993	-29.31
346.376	-13.94
346.759	14.08
347.142	6.4
347.525	37.13
347.908	57.47
348.291	88.2
348.674	96.57
349.057	95.21
349.44	132.95
349.823	150.8
350.206	167.98
350.588	204.13
350.971	224.47
351.354	225.15
351.737	221.99
352.119	253.4
352.502	271.02
352.884	268.76
353.267	299.27
353.65	287.75
354.032	304.92
354.414	304.47
354.797	302.66
355.179	336.56
355.562	307.18
355.944	325.26
356.326	342.43
356.709	338.82
357.091	349.44
357.473	337.69
357.855	346.5
358.238	359.16
358.62	338.82
359.002	338.14
359.384	348.31
359.766	367.52
360.148	348.08
360.53	348.76
360.912	358.93
361.294	350.34
361.676	319.16
362.057	356.45
362.439	328.42
362.821	344.92
363.203	329.78
363.584	357.35
363.966	333.4
364.348	311.7
364.729	343.79
365.111	332.94
365.493	331.36
365.874	330.46
366.256	321.64
366.637	328.65
367.019	334.98
367.4	333.62
367.781	316.22
368.163	312.83
368.544	323.9
368.925	323
369.306	314.86
369.688	304.02
370.069	339.5
370.45	314.19
370.831	301.98
371.212	311.7
371.593	322.55
371.974	315.77
372.355	333.17
372.736	327.07
373.117	323.45
373.498	336.11
373.879	320.06
374.26	323.68
374.641	325.26
375.021	324.81
375.402	327.52
375.783	302.89
376.163	337.69
376.544	351.02
376.925	332.72
377.305	332.49
377.686	315.54
378.066	354.64
378.447	328.65
378.827	344.02
379.208	338.59
379.588	335.43
379.968	324.58
380.349	349.89
380.729	342.21
381.109	333.4
381.489	348.76
381.87	350.8
382.25	364.35
382.63	346.28
383.01	361.42
383.39	345.82
383.77	340.4
384.15	353.06
384.53	360.74
384.91	354.64
385.29	345.15
385.67	358.03
386.049	349.44
386.429	377.91
386.809	355.77
387.189	350.12
387.568	343.56
387.948	362.77
388.328	366.84
388.707	370.91
389.087	374.52
389.466	364.35
389.846	385.15
390.225	362.32
390.605	375.2
390.984	366.61
391.363	386.05
391.743	367.29
392.122	374.52
392.501	397.8
392.881	398.93
393.26	391.02
393.639	372.49
394.018	392.15
394.397	390.57
394.776	400.06
395.155	367.29
395.534	399.61
395.913	393.96
396.292	377.46
396.671	395.31
397.05	408.2
397.429	413.85
397.808	416.33
398.186	394.18
398.565	398.48
398.944	384.92
399.323	403
399.701	427.63
400.08	402.77
400.458	400.96
400.837	403.9
401.215	435.09
401.594	419.95
401.972	427.86
402.351	416.1
402.729	428.76
403.107	417.46
403.486	428.31
403.864	423.34
404.242	414.07
404.62	423.56
404.999	419.95
405.377	434.41
405.755	417.69
406.133	443.45
406.511	454.97
406.889	432.38
407.267	452.49
407.645	468.76
408.023	457.91
408.401	470.11
408.779	443.45
409.156	452.94
409.534	456.1
409.912	445.03
410.29	480.28
410.667	472.15
411.045	481.87
411.422	473.96
411.8	473.5
412.178	472.6
412.555	482.32
412.933	484.58
413.31	471.92
413.687	492.49
414.065	492.94
414.442	515.54
414.819	510.34
415.197	508.98
415.574	516.44
415.951	530.23
416.328	533.84
416.705	550.34
417.082	507.85
417.46	545.82
417.837	511.47
418.214	534.75
418.591	532.49
418.967	535.2
419.344	520.73
419.721	569.32
420.098	547.63
420.475	562.77
420.852	566.38
421.228	581.75
421.605	570.9
421.982	580.39
422.358	569.1
422.735	563.67
423.111	565.48
423.488	565.48
423.864	586.04
424.241	584.24
424.617	597.8
424.994	618.13
425.37	600.73
425.746	617
426.123	613.61
426.499	596.21
426.875	628.75
427.251	605.25
427.627	614.97
428.003	636.89
428.379	642.77
428.756	641.18
429.132	632.82
429.507	633.27
429.883	647.51
430.259	645.7
430.635	650.22
431.011	657.91
431.387	668.75
431.763	684.12
432.138	675.76
432.514	693.84
432.89	707.4
433.265	702.65
433.641	724.57
434.016	711.92
434.392	727.96
434.767	726.61
435.143	740.62
435.518	748.07
435.894	746.27
436.269	760.5
436.644	747.4
437.02	748.3
437.395	800.73
437.77	776.32
438.145	778.58
438.52	779.71
438.895	782.87
439.271	812.48
439.646	818.35
440.021	796.66
440.395	836.21
440.77	830.78
441.145	811.35
441.52	840.27
441.895	842.31
442.27	847.73
442.645	854.96
443.019	852.93
443.394	850.22
443.769	878.24
444.143	852.93
444.518	873.04
444.892	868.75
445.267	869.2
445.641	860.84
446.016	899.26
446.39	871.69
446.764	914.4
447.139	928.86
447.513	918.69
447.887	898.13
448.262	898.58
448.636	903.1
449.01	949.2
449.384	943.77
449.758	939.48
450.132	954.62
450.506	941.06
450.88	981.74
451.254	950.55
451.628	988.07
452.002	984
452.376	981.97
452.75	987.62
453.123	1000.5
453.497	1016.32
453.871	1043.43
454.244	1033.72
454.618	1056.31
454.992	1063.09
455.365	1058.57
455.739	1085.92
456.112	1095.41
456.486	1098.57
456.859	1124.56
457.232	1108.97
457.606	1116.65
457.979	1131.34
458.352	1132.92
458.725	1171.34
459.099	1177.89
459.472	1193.94
459.845	1210.66
460.218	1225.12
460.591	1232.13
460.964	1217.44
461.337	1255.18
461.71	1268.06
462.083	1324.33
462.456	1311.22
462.829	1312.13
463.201	1309.41
463.574	1315.06
463.947	1358.68
464.32	1370.43
464.692	1366.81
465.065	1422.41
465.438	1445.68
465.81	1432.12
466.183	1453.82
466.555	1492.23
466.928	1500.37
467.3	1513.03
467.672	1524.32
468.045	1574.49
468.417	1614.04
468.789	1581.95
469.161	1624.66
469.534	1649.74
469.906	1705.79
470.278	1693.13
470.65	1701.95
471.022	1753.24
471.394	1786.01
471.766	1812
472.138	1833.92
472.51	1880.47
472.882	1928.61
473.253	1941.04
473.625	2027.59
473.997	2018.55
474.369	2059.68
474.74	2080.69
475.112	2130.41
475.484	2161.14
475.855	2224.87
476.227	2273.23
476.598	2333.12
476.97	2350.74
477.341	2439.1
477.713	2478.42
478.084	2467.12
478.455	2588.48
478.827	2628.7
479.198	2712.54
479.569	2714.12
479.94	2843.39
480.311	2860.11
480.682	2971.52
481.053	3043.83
481.424	3134.23
481.795	3199.08
482.166	3286.54
482.537	3316.14
482.908	3402.92
483.279	3469.36
483.65	3605.85
484.021	3657.6
484.391	3761.55
484.762	3811.04
485.133	3876.58
485.503	4011.94
485.874	4119.28
486.244	4158.61
486.615	4285.61
486.985	4355.66
487.356	4453.96
487.726	4547.07
488.097	4720.17
488.467	4739.38
488.837	4871.35
489.207	5022.31
489.578	5124
489.948	5170.1
490.318	5266.6
490.688	5367.61
491.058	5469.53
491.428	5561.96
491.798	5704.55
492.168	5839.01
492.538	5895.96
492.908	5994.26
493.278	6136.86
493.648	6189.06
494.017	6307.02
494.387	6403.29
494.757	6471.76
495.126	6586.34
495.496	6725.77
495.866	6800.8
496.235	6866.33
496.605	6954.92
496.974	7139.77
497.344	7145.19
497.713	7281.91
498.082	7327.56
498.452	7461.12
498.821	7560.32
499.19	7599.87
499.559	7735.01
499.928	7815.91
500.298	7853.88
500.667	8022.68
501.036	8035.79
501.405	8164.6
501.774	8152.17
502.143	8234.66
502.512	8313.52
502.88	8394.88
503.249	8464.25
503.618	8586.51
503.987	8620.18
504.356	8749.67
504.724	8826.28
505.093	8859.27
505.462	8883.23
505.83	9049.78
506.199	9080.51
506.567	9232.14
506.936	9250.22
507.304	9366.15
507.672	9419.71
508.041	9553.27
508.409	9612.25
508.777	9681.62
509.145	9723.2
509.514	9804.56
509.882	9916.65
510.25	9938.57
510.618	10031.9
510.986	10031.22
511.354	10149.18
511.722	10228.73
512.09	10330.19
512.458	10322.51
512.826	10464.43
513.193	10526.57
513.561	10520.02
513.929	10642.95
514.297	10759.56
514.664	10805.44
515.032	10862.61
515.4	10979.44
515.767	11024.19
516.135	11136.05
516.502	11062.83
516.869	11234.58
517.237	11302.6
517.604	11323.61
517.972	11448.13
518.339	11436.15
518.706	11433.22
519.073	11556.83
519.44	11628.92
519.808	11767.9
520.175	11786.43
520.542	11881.34
520.909	11950.04
521.276	11988
521.643	12068.68
522.009	12186.64
522.376	12187.32
522.743	12210.37
523.11	12380.54
523.477	12524.49
523.843	12591.15
524.21	12689.68
524.577	12793.41
524.943	12823.69
525.31	12859.85
525.676	13064.36
526.043	13060.07
526.409	13122.89
526.776	13206.5
527.142	13245.82
527.508	13310.46
527.874	13361.08
528.241	13588.64
528.607	13554.97
528.973	13721.97
529.339	13775.75
529.705	13868.18
530.071	14005.58
530.437	13998.12
530.803	14077.89
531.169	14206.48
531.535	14201.05
531.901	14342.74
532.267	14308.62
532.632	14453.7
532.998	14500.03
533.364	14642.85
533.73	14526.24
534.095	14696.41
534.461	14794.94
534.826	14840.36
535.192	14860.92
535.557	14938.66
535.923	14977.53
536.288	15115.61
536.653	15107.7
537.019	15141.37
537.384	15258.65
537.749	15333.23
538.114	15361.47
538.479	15422.26
538.845	15462.04
539.21	15488.93
539.575	15505.88
539.94	15619.32
540.305	15686.21
540.67	15647.79
541.034	15806.43
541.399	15819.77
541.764	15914.23
542.129	15907
542.494	15996.03
542.858	16092.53
543.223	16172.53
543.587	16244.84
543.952	16279.87
544.316	16344.95
544.681	16339.3
545.045	16457.49
545.41	16534.33
545.774	16627.66
546.138	16566.64
546.503	16742.46
546.867	16672.4
547.231	16881.66
547.595	16779.06
547.959	16913.3
548.324	16920.76
548.688	16926.86
549.052	17088.21
549.416	17065.84
549.779	17109.23
550.143	17163.91
550.507	17374.3
550.871	17339.73
551.235	17322.55
551.599	17540.4
551.962	17505.6
552.326	17585.6
552.689	17633.28
553.053	17649.55
553.417	17703.33
553.78	17908.53
554.143	17774.07
554.507	17951.24
554.87	18005.7
555.234	18146.26
555.597	18121.4
555.96	18162.98
556.323	18211.57
556.686	18239.37
557.05	18483.43
557.413	18412.47
557.776	18522.52
558.139	18715.96
558.502	18574.05
558.865	18550.77
559.228	18793.02
559.59	18854.26
559.953	18868.5
560.316	19127.03
560.679	19031.89
561.041	19122.73
561.404	19243.41
561.767	19228.72
562.129	19311.65
562.492	19473.46
562.854	19431.2
563.217	19498.77
563.579	19649.72
563.941	19689.72
564.304	19905.08
564.666	19906.21
565.028	19857.85
565.39	19994.57
565.753	20122.93
566.115	20141.46
566.477	20212.87
566.839	20178.07
567.201	20484.96
567.563	20327.45
567.925	20628.45
568.287	20535.8
568.648	20647.89
569.01	20766.08
569.372	20865.96
569.734	20870.48
570.095	21008.56
570.457	21154.54
570.819	21142.79
571.18	21159.51
571.542	21314.54
571.903	21427.98
572.265	21528.77
572.626	21571.03
572.987	21535.55
573.349	21616.9
573.71	21789.78
574.071	21844.92
574.432	22020.06
574.794	22284.46
575.155	22255.98
575.516	22184.35
575.877	22342.99
576.238	22594.73
576.599	22550.66
576.96	22652.58
577.32	22916.53
577.681	22945.91
578.042	23191.33
578.403	23133.47
578.763	23370.76
579.124	23538.66
579.485	23724.42
579.845	23897.07
580.206	23988.37
580.566	24129.61
580.927	24201.24
581.287	24443.04
581.648	24423.16
582.008	24774.56
582.368	24768.46
582.728	24937.72
583.089	25042.12
583.449	25222.46
583.809	25444.83
584.169	25705.16
584.529	25705.61
584.889	26097.69
585.249	26177.24
585.609	26210.91
585.969	26670.33
586.329	26517.57
586.688	26964.56
587.048	27125.69
587.408	27226.02
587.768	27415.85
588.127	27631.21
588.487	27769.74
588.846	28286.11
589.206	28326.33
589.565	28520.9
589.925	28863.04
590.284	28929.25
590.643	29192.98
591.003	29397.94
591.362	29710.02
591.721	29873.41
592.08	30052.39
592.44	30346.62
592.799	30578.25
593.158	30557.46
593.517	30819.83
593.876	31008.75
594.235	31179.59
594.593	31381.39
594.952	31736.19
595.311	31811.21
595.67	32056.63
596.029	32391.54
596.387	32640.79
596.746	32815.93
597.104	32868.58
597.463	32999.65
597.822	33336.14
598.18	33426.31
598.538	33472.86
598.897	33972.51
599.255	33835.57
599.613	34426.74
599.972	34384.03
600.33	34708.76
600.688	34708.31
601.046	34929.32
601.404	35151.46
601.762	35271.91
602.12	35520.49
602.478	35711.67
602.836	35921.84
603.194	35897.43
603.552	36084.32
603.91	36078.9
604.268	36452.9
604.625	36378.55
604.983	36750.74
605.341	36789.39
605.698	37059.21
606.056	37257.17
606.413	37327.22
606.771	37616.03
607.128	37662.36
607.485	37472.08
607.843	37709.81
608.2	38123.14
608.557	38308.44
608.914	38221.44
609.272	38352.51
609.629	38791.59
609.986	38786.17
610.343	38816.23
610.7	39021.64
611.057	39169.89
611.414	39221.19
611.771	39347.74
612.127	39497.11
612.484	39714.05
612.841	39707.95
613.198	39695.75
613.554	39871.79
613.911	40096.64
614.267	40208.05
614.624	40101.39
614.98	40382.74
615.337	40535.05
615.693	40584.77
616.05	40620.47
616.406	40992.44
616.762	40761.26
617.118	40912.89
617.475	41015.26
617.831	41156.95
618.187	41264.75
618.543	41438.3
618.899	41528.24
619.255	41657.96
619.611	41588.13
619.967	41677.39
620.323	41829.48
620.678	41816.15
621.034	41756.71
621.39	41886.65
621.746	41885.75
622.101	42442.34
622.457	41958.52
622.812	42217.49
623.168	42462.68
623.523	42422.91
623.879	42597.14
624.234	42246.87
624.589	42591.04
624.945	42504.04
625.3	42686.86
625.655	42632.17
626.01	42770.02
626.365	42777.02
626.72	42671.49
627.075	42618.84
627.43	42753.75
627.785	42668.1
628.14	42864.48
628.495	42881.2
628.85	42836.46
629.205	42675.11
629.559	43140.86
629.914	42883.24
630.269	43023.35
630.623	42953.74
630.978	42904.03
631.332	42944.48
631.687	43153.96
632.041	42914.2
632.396	43173.85
632.75	42841.2
633.104	43017.7
633.459	42786.52
633.813	42855.44
634.167	42848.21
634.521	42861.09
634.875	42933.63
635.229	42871.71
635.583	42784.48
635.937	42726.18
636.291	42676.24
636.645	42827.42
636.999	42738.61
637.352	42793.52
637.706	42671.94
638.06	42867.19
638.413	42701.09
638.767	42615.22
639.121	42643.02
639.474	42377.49
639.828	42516.92
640.181	42658.38
640.534	42521.66
640.888	42449.8
641.241	42420.42
641.594	42290.03
641.947	42539.74
642.301	42417.26
642.654	42427.2
643.007	42478.73
643.36	42330.71
643.713	42308.34
644.066	42458.16
644.419	42202.12
644.771	42075.35
645.124	41770.27
645.477	41585.64
645.83	41474.69
646.182	41237.4
646.535	41162.83
646.888	41232.66
647.24	41024.75
647.593	41316.05
647.945	41096.62
648.298	41009.39
648.65	40919.67
649.002	40829.73
649.355	41090.52
649.707	41031.99
650.059	41266.56
650.411	41543.39
650.763	41573.44
651.115	42098.4
651.467	41961.23
651.819	41899.08
652.171	41858.86
652.523	41698.41
652.875	41733.44
653.227	41547.23
653.578	41841.91
653.93	41704.96
654.282	41621.12
654.633	41618.41
654.985	41705.64
655.337	41670.16
655.688	41745.19
656.039	41865.86
656.391	41435.14
656.742	41658.64
657.094	41552.42
657.445	41736.83
657.796	41610.28
658.147	41455.03
658.498	41389.49
658.849	41520.79
659.2	41354.92
659.551	41361.24
659.902	41442.37
660.253	41356.72
660.604	41391.98
660.955	41120.35
661.306	41538.41
661.656	41340.68
662.007	41389.26
662.358	41323.73
662.708	41513.56
663.059	41382.49
663.409	41214.81
663.76	41369.83
664.11	41437.4
664.461	41285.31
664.811	41382.94
665.161	41301.58
665.511	41298.19
665.862	41374.35
666.212	41361.24
666.562	41430.17
666.912	41259.1
667.262	41206.22
667.612	41347.68
667.962	41286.44
668.312	41221.81
668.662	41505.87
669.011	41371.86
669.361	41193.11
669.711	41301.81
670.06	41153.56
670.41	41116.73
670.76	40972.33
671.109	41220.91
671.459	41041.93
671.808	41141.59
672.157	41253.9
672.507	41002.16
672.856	41091.42
673.205	41045.32
673.554	41140.46
673.904	40890.97
674.253	41276.5
674.602	41146.79
674.951	40536.18
675.3	40297.77
675.649	40948.15
675.998	40948.15
676.346	40907.7
676.695	41074.47
677.044	40643.52
677.393	40850.52
677.741	40873.8
678.09	40728.72
678.438	40781.15
678.787	40715.61
679.135	40816.17
679.484	40403.98
679.832	40580.47
680.181	40382.96
680.529	40503.64
680.877	40336.64
681.225	40280.37
681.573	40512.9
681.922	40341.61
682.27	40274.94
682.618	40166.47
682.966	40096.19
683.314	39979.58
683.661	40101.62
684.009	39840.38
684.357	39806.03
684.705	39819.81
685.053	39822.3
685.4	39735.3
685.748	39761.74
686.095	39625.7
686.443	39449.65
686.79	39484.23
687.138	39473.83
687.485	39300.96
687.832	39378.02
688.18	39354.97
688.527	39048.99
688.874	39064.58
689.221	39029.1
689.568	39031.13
689.915	38859.39
690.262	38945.49
690.609	38669.11
690.956	38629.56
691.303	38592.5
691.65	38437.25
691.997	38524.93
692.344	38196.58
692.69	38128.56
693.037	38219.63
693.383	37970.15
693.73	38038.17
694.077	37822.58
694.423	37891.73
694.769	37586.65
695.116	37513.89
695.462	37630.04
695.808	37433.89
696.155	37581
696.501	37259.66
696.847	37117.06
697.193	36945.99
697.539	37134.69
697.885	36931.75
698.231	36847.24
698.577	36847.92
698.923	36874.36
699.269	36477.98
699.614	36398.66
699.96	36335.61
700.306	36401.6
700.651	36230.08
700.997	36027.82
701.342	36024.21
701.688	35905.57
702.033	35825.12
702.379	35824.44
702.724	35698.79
703.069	35683.88
703.415	35454.28
703.76	35501.51
704.105	35481.17
704.45	35327.73
704.795	35249.09
705.14	35097.9
705.485	34991.92
705.83	34919.83
706.175	34968.64
706.52	34940.85
706.865	34566.17
707.209	34682.32
707.554	34616.79
707.899	34724.36
708.243	34372.73
708.588	34450.46
708.932	34265.61
709.277	34240.75
709.621	34275.78
709.966	33974.54
710.31	34052.06
710.654	33706.75
710.998	34015.67
711.342	33867.2
711.687	33638.96
712.031	33533.88
712.375	33511.96
712.719	33564.16
713.063	33370.27
713.407	33432.86
713.75	33470.6
714.094	33264.51
714.438	33010.28
714.782	33170.27
715.125	33037.62
715.469	33037.62
715.812	32959.88
716.156	32723.05
716.499	32640.34
716.843	32764.18
717.186	32654.13
717.53	32730.74
717.873	32682.15
718.216	32619.1
718.559	32497.52
718.902	32147.7
719.246	32277.87
719.589	32145.89
719.932	32063.18
720.275	32120.36
720.617	32133.69
720.96	31996.74
721.303	31964.2
721.646	31984.09
721.989	31853.92
722.331	31871.32
722.674	31850.31
723.016	31884.43
723.359	31776.86
723.701	31839.91
724.044	31643.31
724.386	31428.62
724.729	31604.66
725.071	31554.72
725.413	31520.6
725.755	31355.63
726.097	31274.05
726.439	31164.45
726.782	31129.42
727.124	31166.48
727.465	31084.23
727.807	31112.92
728.149	31167.84
728.491	30890.33
728.833	30947.05
729.175	30931.91
729.516	30798.58
729.858	30802.88
730.199	30742.99
730.541	30770.79
730.882	30693.27
731.224	30790
731.565	30423.68
731.906	30530.79
732.248	30552.04
732.589	30462.77
732.93	30279.05
733.271	30316.34
733.612	30352.94
733.953	30310.01
734.294	30176.45
734.635	30121.54
734.976	30145.72
735.317	30012.39
735.658	29966.06
735.999	30052.84
736.339	29868.89
736.68	29946.18
737.021	29910.47
737.361	29730.14
737.702	29798.38
738.042	29752.51
738.383	29666.18
738.723	29638.39
739.063	29580.54
739.404	29663.92
739.744	29624.15
740.084	29381.9
740.424	29531.27
740.764	29421.22
741.104	29490.14
741.444	29381.44
741.784	29265.29
742.124	29390.71
742.464	29318.17
742.804	29276.36
743.143	29223.93
743.483	29112.98
743.823	29077.72
744.162	29008.35
744.502	29003.38
744.841	28868.69
745.181	29086.99
745.52	28942.13
745.86	28985.52
746.199	28891.74
746.538	28883.83
746.877	28887.22
747.216	28858.07
747.556	28803.38
747.895	28673.67
748.234	28581.69
748.573	28488.81
748.911	28551.64
749.25	28462.37
749.589	28526.55
749.928	28531.98
750.267	28475.71
750.605	28224.19
750.944	28366.1
751.283	28062.16
751.621	28182.15
751.96	28108.26
752.298	28032.33
752.636	28182.15
752.975	27931.09
753.313	27795.05
753.651	27971.54
753.989	27799.34
754.327	27709.17
754.666	27625.56
755.004	27736.52
755.342	27654.48
755.679	27578.55
756.017	27425.11
756.355	27535.39
756.693	27331.1
