Data from hue_170_FLMS001491_00075.txt Node
Date: Tue Feb 07 16:49:10 GMT 2017
User: dcchb
Spectrometer: FLMS00149
Trigger mode: 0
Integration Time (sec): 2.000000E-2
Scans to average: 10
Electric dark correction enabled: true
Nonlinearity correction enabled: false
Boxcar width: 0
XAxis mode: Wavelengths
Number of Pixels in Spectrum: 2048
>>>>>Begin Spectral Data<<<<<
341.393	-0.62
341.776	-0.62
342.16	-0.62
342.543	-20.06
342.927	-64.57
343.31	-70.68
343.693	-61.64
344.077	-47.63
344.46	-79.49
344.843	-57.8
345.226	-48.53
345.61	-26.38
345.993	-2.66
346.376	-5.14
346.759	14.97
347.142	36.21
347.525	41.86
347.908	40.06
348.291	74.18
348.674	92.94
349.057	99.71
349.44	132.03
349.823	140.62
350.206	140.84
350.588	190.11
350.971	202.54
351.354	229.2
351.737	230.33
352.119	262.65
352.502	263.78
352.884	278.69
353.267	294.96
353.65	294.74
354.032	296.77
354.414	293.38
354.797	292.03
355.179	332.03
355.562	329.54
355.944	329.99
356.326	315.3
356.709	332.7
357.091	300.61
357.473	349.43
357.855	329.09
358.238	351.46
358.62	366.6
359.002	347.84
359.384	356.66
359.766	328.41
360.148	356.66
360.53	344
360.912	339.26
361.294	348.07
361.676	351.46
362.057	328.41
362.439	324.57
362.821	305.36
363.203	317.34
363.584	322.76
363.966	304.68
364.348	324.57
364.729	314.17
365.111	314.62
365.493	325.47
365.874	285.47
366.256	315.98
366.637	325.7
367.019	328.18
367.4	321.63
367.781	304.46
368.163	320.27
368.544	285.92
368.925	315.08
369.306	329.99
369.688	315.53
370.069	311.23
370.45	311.91
370.831	317.34
371.212	315.53
371.593	335.64
371.974	312.82
372.355	326.6
372.736	323.21
373.117	312.82
373.498	308.3
373.879	292.03
374.26	305.81
374.641	318.69
375.021	318.47
375.402	317.56
375.783	327.96
376.163	312.36
376.544	311.69
376.925	322.76
377.305	327.96
377.686	306.72
378.066	326.6
378.447	313.49
378.827	307.39
379.208	313.27
379.588	318.47
379.968	338.35
380.349	340.39
380.729	327.51
381.109	326.6
381.489	309.65
381.87	340.16
382.25	325.92
382.63	319.82
383.01	347.62
383.39	333.83
383.77	327.73
384.15	329.31
384.53	322.08
384.91	343.55
385.29	334.28
385.67	340.61
386.049	345.81
386.429	348.3
386.809	340.39
387.189	337.9
387.568	347.39
387.948	332.25
388.328	351.91
388.707	348.97
389.087	355.3
389.466	351.23
389.846	347.62
390.225	344
390.605	356.43
390.984	351.91
391.363	351.91
391.743	358.24
392.122	361.4
392.501	376.77
392.881	365.24
393.26	379.26
393.639	381.97
394.018	367.5
394.397	381.06
394.776	386.04
395.155	376.77
395.534	364.11
395.913	350.78
396.292	385.13
396.671	395.07
397.05	404.34
397.429	380.16
397.808	378.13
398.186	366.6
398.565	389.2
398.944	374.96
399.323	388.52
399.701	391.23
400.08	417.22
400.458	386.94
400.837	393.27
401.215	384
401.594	396.66
401.972	413.38
402.351	422.19
402.729	396.88
403.107	409.09
403.486	392.14
403.864	410.22
404.242	390.55
404.62	417.9
404.999	415.19
405.377	426.94
405.755	414.96
406.133	428.75
406.511	415.19
406.889	419.48
407.267	417.22
407.645	428.75
408.023	417.9
408.401	474.39
408.779	431.01
409.156	433.27
409.534	451.34
409.912	458.58
410.29	472.59
410.667	461.29
411.045	472.13
411.422	459.48
411.8	450.44
412.178	493.83
412.555	489.99
412.933	493.15
413.31	480.95
413.687	494.28
414.065	529.99
414.442	530.66
414.819	502.64
415.197	504.9
415.574	534.05
415.951	533.83
416.328	536.77
416.705	550.32
417.082	535.18
417.46	546.03
417.837	562.3
418.214	533.83
418.591	541.06
418.967	553.71
419.344	556.88
419.721	553.26
420.098	567.73
420.475	571.79
420.852	551.23
421.228	583.77
421.605	601.85
421.982	609.53
422.358	618.12
422.735	602.07
423.111	605.46
423.488	628.97
423.864	639.36
424.241	640.04
424.617	652.92
424.994	621.96
425.37	653.15
425.746	659.7
426.123	661.96
426.499	665.8
426.875	663.09
427.251	708.29
427.627	700.6
428.003	682.98
428.379	715.52
428.756	711
429.132	700.38
429.507	705.8
429.883	703.09
430.259	732.24
430.635	741.28
431.011	751.9
431.387	748.06
431.763	787.83
432.138	762.3
432.514	774.95
432.89	802.75
433.265	816.98
433.641	838
434.016	834.84
434.392	843.65
434.767	852.46
435.143	865.34
435.518	847.27
435.894	856.53
436.269	891.33
436.644	899.47
437.02	901.28
437.395	926.36
437.77	947.6
438.145	935.4
438.52	949.86
438.895	966.13
439.271	1002.52
439.646	967.71
440.021	1011.56
440.395	987.6
440.77	1005.45
441.145	1024.21
441.52	1019.69
441.895	1030.76
442.27	1033.25
442.645	1021.95
443.019	1058.56
443.394	1035.74
443.769	1066.7
444.143	1079.8
444.518	1089.97
444.892	1095.85
445.267	1080.71
445.641	1112.57
446.016	1135.62
446.39	1128.84
446.764	1149.86
447.139	1145.34
447.513	1170.87
447.887	1147.37
448.262	1158.67
448.636	1174.71
449.01	1174.04
449.384	1185.56
449.758	1225.34
450.132	1225.34
450.506	1237.99
450.88	1249.29
451.254	1257.65
451.628	1249.06
452.002	1285.45
452.376	1256.52
452.75	1284.99
453.123	1298.78
453.497	1341.49
453.871	1318.44
454.244	1355.95
454.618	1364.31
454.992	1373.35
455.365	1389.17
455.739	1412.45
456.112	1441.15
456.486	1461.04
456.859	1458.78
457.232	1487.02
457.606	1489.06
457.979	1524.08
458.352	1529.73
458.725	1519.56
459.099	1534.03
459.472	1573.12
459.845	1617.42
460.218	1611.31
460.591	1633.69
460.964	1638.66
461.337	1671.65
461.71	1696.74
462.083	1719.79
462.456	1753.46
462.829	1741.25
463.201	1745.77
463.574	1832.1
463.947	1828.93
464.32	1846.79
464.692	1868.93
465.065	1877.3
465.438	1884.98
465.81	1926.79
466.183	1973.11
466.555	2047.69
466.928	2023.28
467.3	2033
467.672	2066.44
468.045	2129.49
468.417	2178.98
468.789	2163.62
469.161	2211.98
469.534	2258.75
469.906	2309.83
470.278	2310.73
470.65	2354.8
471.022	2426.89
471.394	2504.17
471.766	2519.76
472.138	2562.7
472.51	2601.8
472.882	2665.98
473.253	2672.53
473.625	2767.22
473.997	2822.13
474.369	2863.71
474.74	2904.39
475.112	2957.94
475.484	3014.44
475.855	3145.51
476.227	3137.6
476.598	3213.98
476.97	3309.35
477.341	3402.68
477.713	3454.2
478.084	3498.5
478.455	3616.46
478.827	3654.88
479.198	3794.31
479.569	3797.92
479.94	3945.26
480.311	3997.01
480.682	4128.76
481.053	4262.32
481.424	4333.05
481.795	4404.01
482.166	4516.77
482.537	4592.03
482.908	4733.72
483.279	4766.71
483.65	4900.04
484.021	5018
484.391	5177.1
484.762	5221.84
485.133	5292.8
485.503	5412.57
485.874	5600.14
486.244	5653.47
486.615	5825.44
486.985	5926.68
487.356	6030.86
487.726	6118.99
488.097	6313.34
488.467	6354.47
488.837	6536.38
489.207	6609.37
489.578	6784.74
489.948	6869.93
490.318	6995.13
490.688	7034
491.058	7243.03
491.428	7356.7
491.798	7492.97
492.168	7671.27
492.538	7750.36
492.908	7856.12
493.278	7989.45
493.648	8033.29
494.017	8139.96
494.387	8315.77
494.757	8399.61
495.126	8555.99
495.496	8536.78
495.866	8619.72
496.235	8815.42
496.605	8864.46
496.974	8976.77
497.344	9074.62
497.713	9152.36
498.082	9255.41
498.452	9373.6
498.821	9406.59
499.19	9466.25
499.559	9553.7
499.928	9687.26
500.298	9657.43
500.667	9809.97
501.036	9756.86
501.405	9906.69
501.774	9939.23
502.143	10032.34
502.512	10118.66
502.88	10179.45
503.249	10226.45
503.618	10251.54
503.987	10328.82
504.356	10426.45
504.724	10470.29
505.093	10482.04
505.462	10522.04
505.83	10654.69
506.199	10647.69
506.567	10836.61
506.936	10786.89
507.304	10832.09
507.672	10931.52
508.041	10904.63
508.409	11016.26
508.777	11089.93
509.145	11165.41
509.514	11096.94
509.882	11188.46
510.25	11201.34
510.618	11277.5
510.986	11317.05
511.354	11365.86
511.722	11466.42
512.09	11512.75
512.458	11493.31
512.826	11536.02
513.193	11561.79
513.561	11636.59
513.929	11615.57
514.297	11631.16
514.664	11701.44
515.032	11727.88
515.4	11813.98
515.767	11844.26
516.135	11873.42
516.502	11708.45
516.869	11857.6
517.237	11894.43
517.604	11853.98
517.972	11936.92
518.339	11972.4
518.706	11919.52
519.073	12004.49
519.44	11959.97
519.808	12093.75
520.175	12052.62
520.542	12111.38
520.909	12142.56
521.276	12039.29
521.643	12176.01
522.009	12256.91
522.376	12262.56
522.743	12294.2
523.11	12320.41
523.477	12333.07
523.843	12374.42
524.21	12390.69
524.577	12491.71
524.943	12449.67
525.31	12459.16
525.676	12539.39
526.043	12529.67
526.409	12487.19
526.776	12566.96
527.142	12586.62
527.508	12573.96
527.874	12556.79
528.241	12544.13
528.607	12526.73
528.973	12549.78
529.339	12534.19
529.705	12575.09
530.071	12583.23
530.437	12604.92
530.803	12590.23
531.169	12591.59
531.535	12579.61
531.901	12470.92
532.267	12516.56
532.632	12578.26
532.998	12561.76
533.364	12556.79
533.73	12450.12
534.095	12454.87
534.461	12476.56
534.826	12516.79
535.192	12448.99
535.557	12509.56
535.923	12411.26
536.288	12369.45
536.653	12417.58
537.019	12299.62
537.384	12260.53
537.749	12235.67
538.114	12210.81
538.479	12144.6
538.845	12119.29
539.21	12042
539.575	12028.21
539.94	12035.9
540.305	12012.85
540.67	11938.27
541.034	11918.39
541.399	11906.64
541.764	11827.77
542.129	11793.42
542.494	11798.84
542.858	11709.81
543.223	11759.75
543.587	11675.23
543.952	11717.04
544.316	11574.89
544.681	11575.57
545.045	11514.78
545.41	11567.21
545.774	11494.67
546.138	11435.01
546.503	11419.64
546.867	11317.5
547.231	11338.29
547.595	11311.17
547.959	11304.84
548.324	11247.44
548.688	11160.89
549.052	11197.05
549.416	11094.91
549.779	11096.49
550.143	11032.31
550.507	11049.94
550.871	10984.17
551.235	10936.04
551.599	11049.48
551.962	10901.46
552.326	10964.74
552.689	10896.72
553.053	10776.04
553.417	10694.92
553.78	10814.69
554.143	10715.03
554.507	10720.45
554.87	10665.99
555.234	10695.37
555.597	10613.56
555.96	10626.22
556.323	10565.65
556.686	10606.11
557.05	10598.42
557.413	10525.2
557.776	10560
558.139	10547.35
558.502	10490.4
558.865	10522.49
559.228	10490.63
559.59	10492.44
559.953	10474.36
560.316	10490.85
560.679	10468.03
561.041	10525.2
561.404	10430.52
561.767	10377.86
562.129	10444.08
562.492	10424.42
562.854	10405.66
563.217	10342.16
563.579	10362.04
563.941	10441.82
564.304	10399.33
564.666	10404.98
565.028	10361.14
565.39	10409.5
565.753	10463.06
566.115	10443.17
566.477	10494.24
566.839	10497.86
567.201	10529.27
567.563	10483.17
567.925	10406.79
568.287	10482.27
568.648	10427.35
569.01	10516.62
569.372	10486.33
569.734	10493.57
570.095	10470.52
570.457	10494.47
570.819	10499.89
571.18	10483.62
571.542	10538.99
571.903	10548.03
572.265	10494.92
572.626	10557.52
572.987	10559.55
573.349	10581.25
573.71	10585.31
574.071	10559.1
574.432	10498.54
574.794	10623.96
575.155	10562.72
575.516	10523.85
575.877	10573.11
576.238	10623.05
576.599	10567.69
576.96	10540.8
577.32	10561.13
577.681	10560
578.042	10580.12
578.403	10612.66
578.763	10566.56
579.124	10538.54
579.485	10554.58
579.845	10655.82
580.206	10613.11
580.566	10601.81
580.927	10608.82
581.287	10597.29
581.648	10545.54
582.008	10619.89
582.368	10583.73
582.728	10569.5
583.089	10518.2
583.449	10505.99
583.809	10537.86
584.169	10538.76
584.529	10562.94
584.889	10591.19
585.249	10376.73
585.609	10407.92
585.969	10477.07
586.329	10448.6
586.688	10440.23
587.048	10437.75
587.408	10454.7
587.768	10458.31
588.127	10426.45
588.487	10463.28
588.846	10458.99
589.206	10375.38
589.565	10378.31
589.925	10422.16
590.284	10377.18
590.643	10395.72
591.003	10394.36
591.362	10364.08
591.721	10341.93
592.08	10364.3
592.44	10407.01
592.799	10304.42
593.158	10301.48
593.517	10318.43
593.876	10308.71
594.235	10284.53
594.593	10306.9
594.952	10276.4
595.311	10216.06
595.67	10277.3
596.029	10357.3
596.387	10309.39
596.746	10308.71
597.104	10306.68
597.463	10243.4
597.822	10259
598.18	10201.37
598.538	10254.93
598.897	10267.13
599.255	10219.45
599.613	10318.88
599.972	10208.38
600.33	10303.51
600.688	10258.32
601.046	10310.29
601.404	10254.7
601.762	10198.43
602.12	10238.66
602.478	10202.95
602.836	10258.54
603.194	10189.85
603.552	10193.46
603.91	10169.73
604.268	10230.97
604.625	10169.96
604.983	10231.65
605.341	10108.72
605.698	10224.42
606.056	10255.61
606.413	10244.08
606.771	10200.92
607.128	10191.43
607.485	10207.02
607.843	10209.05
608.2	10256.96
608.557	10256.51
608.914	10252.22
609.272	10329.28
609.629	10286.11
609.986	10355.72
610.343	10253.12
610.7	10283.63
611.057	10290.86
611.414	10233.01
611.771	10263.52
612.127	10308.03
612.484	10340.58
612.841	10301.71
613.198	10327.24
613.554	10282.95
613.911	10397.98
614.267	10343.51
614.624	10336.06
614.98	10329.73
615.337	10344.19
615.693	10370.86
616.05	10368.6
616.406	10444.75
616.762	10394.13
617.118	10374.02
617.475	10294.7
617.831	10362.27
618.187	10349.84
618.543	10425.32
618.899	10460.12
619.255	10431.65
619.611	10479.1
619.967	10548.48
620.323	10537.63
620.678	10475.49
621.034	10423.51
621.39	10453.79
621.746	10411.99
622.101	10589.16
622.457	10415.38
622.812	10516.84
623.168	10496.28
623.523	10456.28
623.879	10506.45
624.234	10444.3
624.589	10522.04
624.945	10464.87
625.3	10455.37
625.655	10497.63
626.01	10470.97
626.365	10489.27
626.72	10443.85
627.075	10464.41
627.43	10374.02
627.785	10359.33
628.14	10376.05
628.495	10424.64
628.85	10387.35
629.205	10414.47
629.559	10376.05
629.914	10363.85
630.269	10457.63
630.623	10376.73
630.978	10392.78
631.332	10336.28
631.687	10421.48
632.041	10289.96
632.396	10347.58
632.75	10347.36
633.104	10333.57
633.459	10284.98
633.813	10264.87
634.167	10256.96
634.521	10309.84
634.875	10290.63
635.229	10296.28
635.583	10234.36
635.937	10165.89
636.291	10279.11
636.645	10223.52
636.999	10128.6
637.352	10251.76
637.706	10098.32
638.06	10146.91
638.413	10145.1
638.767	10151.2
639.121	10167.25
639.474	10047.25
639.828	10103.07
640.181	10071.66
640.534	10126.8
640.888	10067.36
641.241	10007.7
641.594	10036.18
641.947	10098.1
642.301	10001.15
642.654	10054.48
643.007	10064.42
643.36	10012
643.713	10080.24
644.066	10084.31
644.419	10032.34
644.771	9891.1
645.124	9873.47
645.477	9782.4
645.83	9722.06
646.182	9747.6
646.535	9734.04
646.888	9711.44
647.24	9748.73
647.593	9739.24
647.945	9719.8
648.298	9652.23
648.65	9694.26
649.002	9613.14
649.355	9689.52
649.707	9725.9
650.059	9850.42
650.411	9798.89
650.763	9843.64
651.115	9929.74
651.467	9884.54
651.819	9936.52
652.171	9859.23
652.523	9887.93
652.875	9923.64
653.227	9859.68
653.578	9877.76
653.93	9891.55
654.282	9829.85
654.633	9866.24
654.985	9863.07
655.337	9847.26
655.688	9982.39
656.039	9959.34
656.391	9830.08
656.742	9944.65
657.094	9910.08
657.445	9937.87
657.796	9921.15
658.147	9894.49
658.498	9918.67
658.849	9899.23
659.2	9953.02
659.551	9930.87
659.902	9972.22
660.253	9882.06
660.604	9924.09
660.955	9870.98
661.306	9880.7
661.656	9955.95
662.007	9927.03
662.358	9998.66
662.708	9942.85
663.059	10031.21
663.409	9928.83
663.76	10015.61
664.11	9988.49
664.461	10016.29
664.811	10014.26
665.161	10054.26
665.511	9922.51
665.862	9992.79
666.212	10025.33
666.562	10028.95
666.912	10052
667.262	9999.79
667.612	9987.82
667.962	10035.95
668.312	10068.04
668.662	10047.25
669.011	10010.64
669.361	9953.02
669.711	9969.51
670.06	9972.22
670.41	9929.29
670.76	9950.3
671.109	9968.38
671.459	10022.39
671.808	9901.94
672.157	9940.81
672.507	9935.16
672.856	9892.9
673.205	9931.77
673.554	9910.98
673.904	9914.82
674.253	9900.59
674.602	9955.95
674.951	9756.86
675.3	9685.23
675.649	9872.11
675.998	9820.82
676.346	9856.29
676.695	9866.01
677.044	9781.27
677.393	9864.2
677.741	9767.03
678.09	9766.81
678.438	9725.22
678.787	9742.85
679.135	9765.22
679.484	9724.09
679.832	9762.06
680.181	9648.62
680.529	9698.78
680.877	9610.2
681.225	9669.63
681.573	9699.91
681.922	9640.03
682.27	9595.96
682.618	9596.41
682.966	9606.36
683.314	9561.16
683.661	9546.25
684.009	9583.76
684.357	9508.73
684.705	9475.74
685.053	9398
685.4	9546.47
685.748	9400.04
686.095	9382.63
686.443	9391.22
686.79	9390.77
687.138	9444.1
687.485	9384.44
687.832	9309.19
688.18	9337.66
688.527	9270.77
688.874	9275.52
689.221	9242.07
689.568	9236.88
689.915	9162.3
690.262	9155.52
690.609	9123.66
690.956	9156.88
691.303	9097.67
691.65	9049.31
691.997	9056.99
692.344	9020.84
692.69	8974.74
693.037	8941.52
693.383	8837.11
693.73	8849.99
694.077	8826.72
694.423	8876.43
694.769	8814.74
695.116	8746.95
695.462	8714.18
695.808	8755.76
696.155	8729.09
696.501	8637.34
696.847	8614.75
697.193	8587.4
697.539	8567.29
697.885	8514.41
698.231	8508.08
698.577	8448.2
698.923	8460.4
699.269	8421.3
699.614	8336.11
699.96	8338.37
700.306	8329.33
700.651	8245.94
700.997	8237.81
701.342	8219.95
701.688	8180.18
702.033	8214.98
702.379	8137.7
702.724	8142.44
703.069	8151.25
703.415	8035.33
703.76	8029
704.105	8050.92
704.45	7994.42
704.795	7963.46
705.14	7926.63
705.485	7950.58
705.83	7848.21
706.175	7907.42
706.52	7820.19
706.865	7796.46
707.209	7820.42
707.554	7695.67
707.899	7773.64
708.243	7713.98
708.588	7724.83
708.932	7645.96
709.277	7619.52
709.621	7602.79
709.966	7554.21
710.31	7575.68
710.654	7508.56
710.998	7513.31
711.342	7507.66
711.687	7447.54
712.031	7464.49
712.375	7410.94
712.719	7461.56
713.063	7452.52
713.407	7417.26
713.75	7387.21
714.094	7397.6
714.438	7353.31
714.782	7395.79
715.125	7311.73
715.469	7353.31
715.812	7313.08
716.156	7221.79
716.499	7215.91
716.843	7242.35
717.186	7235.12
717.53	7198.51
717.873	7236.93
718.216	7213.65
718.559	7190.6
718.902	7189.7
719.246	7158.29
719.589	7174.11
719.932	7103.15
720.275	7122.58
720.617	7156.7
720.96	7113.99
721.303	7142.69
721.646	7109.7
721.989	7073.54
722.331	7101.34
722.674	7098.63
723.016	7111.73
723.359	7060.21
723.701	7083.71
724.044	7051.17
724.386	7040.1
724.729	7090.27
725.071	6999.42
725.413	7037.16
725.755	7042.81
726.097	7011.17
726.439	7007.56
726.782	7009.36
727.124	7052.75
727.465	7041
727.807	6946.77
728.149	6973.21
728.491	6990.61
728.833	6978.63
729.175	6949.48
729.516	6979.53
729.858	6960.1
730.199	7007.56
730.541	6948.35
730.882	7001.45
731.224	7006.43
731.565	6979.31
731.906	6972.3
732.248	6994
732.589	6979.53
732.93	6914
733.271	6940.44
733.612	6996.93
733.953	6975.92
734.294	6968.01
734.635	6943.6
734.976	6976.6
735.317	6971.85
735.658	6990.61
735.999	6925.3
736.339	6975.92
736.68	6992.64
737.021	6992.64
737.361	7024.5
737.702	6999.87
738.042	6984.73
738.383	7070.83
738.723	7052.3
739.063	7037.39
739.404	7085.29
739.744	7072.19
740.084	7050.49
740.424	7070.61
740.764	7006.65
741.104	7140.89
741.444	7132.98
741.784	7073.32
742.124	7160.55
742.464	7104.73
742.804	7180.21
743.143	7143.82
743.483	7203.71
743.823	7205.74
744.162	7246.65
744.502	7292.52
744.841	7281.9
745.181	7418.62
745.52	7368.22
745.86	7385.85
746.199	7452.06
746.538	7440.99
746.877	7572.29
747.216	7601.66
747.556	7631.95
747.895	7678.72
748.234	7648.67
748.573	7740.42
748.911	7781.09
749.25	7920.98
749.589	7905.16
749.928	7984.71
750.267	8029.9
750.605	8096.11
750.944	8205.04
751.283	8237.81
751.621	8325.49
751.96	8405.94
752.298	8574.52
752.636	8592.15
752.975	8600.28
753.313	8755.08
753.651	8885.7
753.989	9002.76
754.327	9101.96
754.666	9132.92
755.004	9320.26
755.342	9472.58
755.679	9530.2
756.017	9647.26
756.355	9791.66
756.693	9902.39
757.031	10118.89
757.368	10204.31
757.706	10361.37
758.044	10495.37
758.381	10644.52
758.719	10760.9
759.056	10961.35
759.394	11027.34
759.731	11219.2
760.068	11413.99
760.405	11538.74
760.743	11677.26
761.08	11859.41
761.417	11999.51
761.754	12192.05
762.091	12325.16
762.428	12491.71
