Data from hue_140_FLMS001491_00076.txt Node
Date: Tue Feb 07 16:56:23 GMT 2017
User: dcchb
Spectrometer: FLMS00149
Trigger mode: 0
Integration Time (sec): 2.000000E-2
Scans to average: 10
Electric dark correction enabled: true
Nonlinearity correction enabled: false
Boxcar width: 0
XAxis mode: Wavelengths
Number of Pixels in Spectrum: 2048
>>>>>Begin Spectral Data<<<<<
341.393	-1.4
341.776	-1.4
342.16	-1.4
342.543	-59.93
342.927	-55.41
343.31	-47.72
343.693	-63.09
344.077	-66.93
344.46	-49.31
344.843	-55.41
345.226	-33.49
345.61	-39.14
345.993	-17.67
346.376	-0.49
346.759	15.78
347.142	13.52
347.525	36.11
347.908	52.16
348.291	86.74
348.674	66.85
349.057	102.1
349.44	129.9
349.823	148.65
350.206	161.54
350.588	198.14
350.971	212.83
351.354	239.05
351.737	251.93
352.119	251.02
352.502	268.88
352.884	279.72
353.267	287.63
353.65	270.01
354.032	298.25
354.414	305.03
354.797	326.5
355.179	327.18
355.562	317.92
355.944	320.18
356.326	329.89
356.709	340.51
357.091	319.72
357.473	325.37
357.855	333.06
358.238	331.02
358.62	324.92
359.002	331.93
359.384	345.03
359.766	320.85
360.148	317.46
360.53	318.59
360.912	332.38
361.294	339.38
361.676	339.61
362.057	331.25
362.439	339.16
362.821	310.91
363.203	331.47
363.584	334.19
363.966	336.22
364.348	330.12
364.729	313.4
365.111	325.6
365.493	333.28
365.874	315.2
366.256	321.31
366.637	334.64
367.019	343.68
367.4	318.59
367.781	319.72
368.163	311.59
368.544	301.19
368.925	305.03
369.306	340.29
369.688	305.03
370.069	312.27
370.45	320.85
370.831	317.69
371.212	335.32
371.593	335.77
371.974	326.95
372.355	311.59
372.736	308.42
373.117	346.39
373.498	297.35
373.879	305.71
374.26	326.5
374.641	300.97
375.021	322.89
375.402	312.49
375.783	323.34
376.163	336.45
376.544	333.28
376.925	310.46
377.305	320.85
377.686	299.16
378.066	343.45
378.447	335.54
378.827	338.25
379.208	328.31
379.588	341.42
379.968	343.68
380.349	344.36
380.729	316.33
381.109	328.08
381.489	347.75
381.87	337.58
382.25	363.56
382.63	333.28
383.01	332.83
383.39	345.94
383.77	355.43
384.15	349.78
384.53	334.19
384.91	346.39
385.29	349.33
385.67	362.43
386.049	375.09
386.429	343.68
386.809	356.56
387.189	370.12
387.568	356.11
387.948	351.36
388.328	380.74
388.707	365.15
389.087	361.08
389.466	354.3
389.846	342.55
390.225	371.25
390.605	359.72
390.984	375.77
391.363	382.32
391.743	390.68
392.122	379.38
392.501	381.87
392.881	371.25
393.26	384.81
393.639	384.35
394.018	394.07
394.397	394.98
394.776	372.83
395.155	371.25
395.534	382.09
395.913	394.98
396.292	389.1
396.671	397.69
397.05	392.94
397.429	396.33
397.808	403.11
398.186	399.72
398.565	398.14
398.944	393.85
399.323	410.34
399.701	422.09
400.08	421.64
400.458	410.12
400.837	415.09
401.215	413.73
401.594	425.94
401.972	409.44
402.351	395.88
402.729	409.44
403.107	450.12
403.486	438.82
403.864	437.91
404.242	436.78
404.62	437.46
404.999	420.29
405.377	427.97
405.755	445.37
406.133	436.33
406.511	421.87
406.889	428.65
407.267	437.01
407.645	459.15
408.023	439.49
408.401	447.4
408.779	421.19
409.156	455.99
409.534	451.02
409.912	472.49
410.29	465.03
410.667	474.97
411.045	472.71
411.422	464.8
411.8	469.78
412.178	499.15
412.555	510.68
412.933	514.97
413.31	506.84
413.687	490.34
414.065	503.45
414.442	482.66
414.819	510.68
415.197	518.14
415.574	522.88
415.951	522.43
416.328	495.99
416.705	523.56
417.082	519.49
417.46	507.51
417.837	543.9
418.214	545.93
418.591	552.94
418.967	519.49
419.344	555.42
419.721	540.96
420.098	557.68
420.475	526.5
420.852	525.14
421.228	569.66
421.605	556.1
421.982	561.07
422.358	553.16
422.735	551.36
423.111	564.24
423.488	576.67
423.864	559.26
424.241	598.59
424.617	577.8
424.994	580.73
425.37	593.39
425.746	620.96
426.123	602.2
426.499	610.56
426.875	603.33
427.251	632.03
427.627	603.11
428.003	634.52
428.379	622.31
428.756	633.84
429.132	643.33
429.507	628.64
429.883	650.79
430.259	655.76
430.635	673.39
431.011	681.97
431.387	663.22
431.763	670
432.138	695.08
432.514	685.82
432.89	675.19
433.265	686.04
433.641	696.44
434.016	721.29
434.392	710.45
434.767	758.58
435.143	740.96
435.518	735.98
435.894	739.37
436.269	756.32
436.644	747.96
437.02	759.94
437.395	766.49
437.77	760.39
438.145	785.47
438.52	791.35
438.895	797
439.271	805.13
439.646	817.11
440.021	842.42
440.395	844.46
440.77	824.57
441.145	815.76
441.52	842.2
441.895	835.19
442.27	867.05
442.645	836.32
443.019	862.76
443.394	857.34
443.769	841.52
444.143	846.94
444.518	893.72
444.892	875.41
445.267	913.38
445.641	879.48
446.016	895.75
446.39	910.67
446.764	892.82
447.139	922.65
447.513	926.94
447.887	924.45
448.262	905.24
448.636	911.8
449.01	914.28
449.384	936.66
449.758	931.23
450.132	973.94
450.506	958.58
450.88	968.75
451.254	970.1
451.628	982.98
452.002	1013.26
452.376	1014.85
452.75	1039.48
453.123	1009.87
453.497	1050.55
453.871	1025.92
454.244	1081.74
454.618	1059.59
454.992	1083.77
455.365	1101.85
455.739	1092.13
456.112	1112.92
456.486	1131.68
456.859	1118.12
457.232	1147.5
457.606	1167.38
457.979	1163.54
458.352	1187.5
458.725	1196.31
459.099	1197.89
459.472	1230.21
459.845	1237.67
460.218	1242.86
460.591	1263.43
460.964	1253.94
461.337	1292.58
461.71	1333.03
462.083	1341.62
462.456	1346.59
462.829	1343.43
463.201	1373.71
463.574	1372.58
463.947	1416.64
464.32	1413.25
464.692	1476.75
465.065	1420.49
465.438	1478.34
465.81	1521.95
466.183	1508.62
466.555	1552.01
466.928	1579.8
467.3	1575.74
467.672	1596.75
468.045	1639.69
468.417	1659.58
468.789	1686.24
469.161	1700.93
469.534	1747.03
469.906	1770.08
470.278	1803.98
470.65	1811.44
471.022	1836.97
471.394	1905.22
471.766	1921.26
472.138	1967.14
472.51	1989.51
472.882	2035.61
473.253	2081.26
473.625	2100.92
473.997	2164.19
474.369	2240.58
474.74	2278.54
475.112	2294.81
475.484	2394.92
475.855	2387.92
476.227	2439.22
476.598	2517.86
476.97	2554.69
477.341	2646.67
477.713	2698.19
478.084	2764.18
478.455	2825.87
478.827	2885.76
479.198	3037.39
479.569	3041.46
479.94	3159.87
480.311	3198.74
480.682	3289.81
481.053	3390.83
481.424	3483.26
481.795	3601.22
482.166	3677.6
482.537	3745.85
482.908	3902.91
483.279	3944.94
483.65	4022
484.021	4114.43
484.391	4275.55
484.762	4357.13
485.133	4445.72
485.503	4570.01
485.874	4747.18
486.244	4800.28
486.615	4944.01
486.985	5062.65
487.356	5236.88
487.726	5305.35
488.097	5469.19
488.467	5535.86
488.837	5736.76
489.207	5852.69
489.578	6002.06
489.948	6112.11
490.318	6229.85
490.688	6376.06
491.058	6502.84
491.428	6686.34
491.798	6813.11
492.168	7002.03
492.538	7068.7
492.908	7230.95
493.278	7389.82
493.648	7457.39
494.017	7601.79
494.387	7736.7
494.757	7946.87
495.126	8008.11
495.496	8148.67
495.866	8201.32
496.235	8375.78
496.605	8503.69
496.974	8657.36
497.344	8758.15
497.713	8868.88
498.082	8980.06
498.452	9126.5
498.821	9175.76
499.19	9262.09
499.559	9444.91
499.928	9495.53
500.298	9633.15
500.667	9834.95
501.036	9794.05
501.405	9925.8
501.774	10016.19
502.143	10138.9
502.512	10228.39
502.88	10342.51
503.249	10379.12
503.618	10505.44
503.987	10563.07
504.356	10619.34
504.724	10792.89
505.093	10814.81
505.462	10885.77
505.83	11004.64
506.199	11056.16
506.567	11257.29
506.936	11246.89
507.304	11412.31
507.672	11379.55
508.041	11465.87
508.409	11532.54
508.777	11641.01
509.145	11648.01
509.514	11723.04
509.882	11782.92
510.25	11869.25
510.618	12004.61
510.986	11965.97
511.354	12109.92
511.722	12163.93
512.09	12221.78
512.458	12243.7
512.826	12339.75
513.193	12367.77
513.561	12435.79
513.929	12498.61
514.297	12640.3
514.664	12650.25
515.032	12716.23
515.4	12738.83
515.767	12778.83
516.135	12840.3
516.502	12680.98
516.869	12937.92
517.237	12993.74
517.604	12845.27
517.972	12990.58
518.339	13021.54
518.706	13040.74
519.073	13015.43
519.44	13165.71
519.808	13313.51
520.175	13175.88
520.542	13307.4
520.909	13326.84
521.276	13330.91
521.643	13425.82
522.009	13393.96
522.376	13468.76
522.743	13551.24
523.11	13580.17
523.477	13677.56
523.843	13651.12
524.21	13762.31
524.577	13747.17
524.943	13814.06
525.31	13786.71
525.676	13906.03
526.043	13951.23
526.409	13967.95
526.776	14093.6
527.142	14021.51
527.508	14019.25
527.874	14081.4
528.241	14030.1
528.607	14116.2
528.973	14169.08
529.339	14062.64
529.705	14160.72
530.071	14230.09
530.437	14214.95
530.803	14249.07
531.169	14212.24
531.535	14158.91
531.901	14194.61
532.267	14187.83
532.632	14176.99
532.998	14190.77
533.364	14200.94
533.73	14163.2
534.095	14243.2
534.461	14200.94
534.826	14250.66
535.192	14197.1
535.557	14253.59
535.923	14092.92
536.288	14152.58
536.653	14118.46
537.019	14042.3
537.384	14053.15
537.749	14088.17
538.114	14093.37
538.479	14021.96
538.845	13999.14
539.21	13950.78
539.575	13984.45
539.94	13922.76
540.305	13878.24
540.67	13843.89
541.034	13776.77
541.399	13914.39
541.764	13849.99
542.129	13697
542.494	13841.18
542.858	13756.88
543.223	13782.87
543.587	13694.51
543.952	13655.87
544.316	13689.09
544.681	13503.56
545.045	13604.35
545.41	13555.99
545.774	13599.83
546.138	13516.66
546.503	13499.49
546.867	13469.66
547.231	13528.19
547.595	13378.36
547.959	13467.85
548.324	13401.19
548.688	13298.37
549.052	13288.42
549.416	13288.87
549.779	13199.16
550.143	13151.25
550.507	13218.82
550.871	13221.08
551.235	13145.15
551.599	13177.46
551.962	13127.75
552.326	13061.31
552.689	13137.24
553.053	12976.11
553.417	12988.54
553.78	13150.12
554.143	13009.11
554.507	13024.93
554.87	13055.66
555.234	13101.08
555.597	12941.76
555.96	12938.6
556.323	12863.57
556.686	12906.96
557.05	12904.7
557.413	12915.78
557.776	12927.53
558.139	13008.88
558.502	12922.33
558.865	12922.56
559.228	12919.39
559.59	12921.2
559.953	12933.4
560.316	13039.16
560.679	13017.69
561.041	13012.04
561.404	12984.25
561.767	13067.18
562.129	12835.1
562.492	13073.96
562.854	12991.03
563.217	12960.07
563.579	12946.74
563.941	13053.85
564.304	13116
564.666	13099.05
565.028	13098.14
565.39	13048.2
565.753	13134.53
566.115	13067.64
566.477	13121.87
566.839	13101.76
567.201	13138.37
567.563	13141.76
567.925	13190.35
568.287	13197.12
568.648	13182.44
569.01	13170.46
569.372	13232.6
569.734	13205.03
570.095	13329.78
570.457	13254.75
570.819	13318.48
571.18	13287.74
571.542	13331.58
571.903	13413.16
572.265	13365.26
572.626	13347.18
572.987	13390.11
573.349	13407.29
573.71	13504.24
574.071	13463.11
574.432	13395.09
574.794	13542.65
575.155	13473.05
575.516	13447.51
575.877	13475.54
576.238	13438.47
576.599	13533.39
576.96	13465.59
577.32	13477.12
577.681	13487.29
578.042	13589.66
578.403	13502.65
578.763	13421.3
579.124	13458.81
579.485	13466.04
579.845	13537.68
580.206	13534.52
580.566	13539.04
580.927	13438.93
581.287	13590.79
581.648	13572.03
582.008	13566.61
582.368	13632.82
582.728	13555.53
583.089	13576.78
583.449	13487.74
583.809	13528.19
584.169	13527.29
584.529	13458.81
584.889	13546.04
585.249	13486.61
585.609	13414.07
585.969	13579.71
586.329	13469.89
586.688	13527.96
587.048	13468.53
587.408	13443.9
587.768	13379.49
588.127	13445.93
588.487	13341.08
588.846	13454.97
589.206	13365.48
589.565	13372.49
589.925	13468.98
590.284	13376.56
590.643	13307.63
591.003	13408.87
591.362	13433.05
591.721	13341.98
592.08	13385.37
592.44	13329.55
592.799	13342.88
593.158	13330
593.517	13422.66
593.876	13334.3
594.235	13227.86
594.593	13299.27
594.952	13273.96
595.311	13221.76
595.67	13193.28
596.029	13339.04
596.387	13332.49
596.746	13361.64
597.104	13318.25
597.463	13275.99
597.822	13310.57
598.18	13380.85
598.538	13295.43
598.897	13278.48
599.255	13169.55
599.613	13436.21
599.972	13353.96
600.33	13334.07
600.688	13270.34
601.046	13374.07
601.404	13414.97
601.762	13300.62
602.12	13282.55
602.478	13354.86
602.836	13379.94
603.194	13290.91
603.552	13336.56
603.91	13268.99
604.268	13373.84
604.625	13262.89
604.983	13327.29
605.341	13209.78
605.698	13277.57
606.056	13374.97
606.413	13283.45
606.771	13353.96
607.128	13387.18
607.485	13327.52
607.843	13229.67
608.2	13348.53
608.557	13402.77
608.914	13354.18
609.272	13428.53
609.629	13422.66
609.986	13578.36
610.343	13508.53
610.7	13441.41
611.057	13524.12
611.414	13448.64
611.771	13494.29
612.127	13540.84
612.484	13500.39
612.841	13509.88
613.198	13426.72
613.554	13516.89
613.911	13539.49
614.267	13606.61
614.624	13526.61
614.98	13561.41
615.337	13658.81
615.693	13555.08
616.05	13586.04
616.406	13667.39
616.762	13556.21
617.118	13615.19
617.475	13584.91
617.831	13645.47
618.187	13593.05
618.543	13664.23
618.899	13687.06
619.255	13669.65
619.611	13718.24
619.967	13770.67
620.323	13779.03
620.678	13673.72
621.034	13661.52
621.39	13666.04
621.746	13692.25
622.101	13809.54
622.457	13733.38
622.812	13657.9
623.168	13814.28
623.523	13748.97
623.879	13677.34
624.234	13667.62
624.589	13715.76
624.945	13741.52
625.3	13766.83
625.655	13802.08
626.01	13798.69
626.365	13807.05
626.72	13724.57
627.075	13714.4
627.43	13704.46
627.785	13669.88
628.14	13688.41
628.495	13764.12
628.85	13721.18
629.205	13672.59
629.559	13731.35
629.914	13662.88
630.269	13692.03
630.623	13605.25
630.978	13649.77
631.332	13580.17
631.687	13603.44
632.041	13522.31
632.396	13710.78
632.75	13568.19
633.104	13547.17
633.459	13468.3
633.813	13474.86
634.167	13481.86
634.521	13407.97
634.875	13493.39
635.229	13397.8
635.583	13399.15
635.937	13360.51
636.291	13407.29
636.645	13373.62
636.999	13325.03
637.352	13366.84
637.706	13285.26
638.06	13368.42
638.413	13310.57
638.767	13279.38
639.121	13342.88
639.474	13217.92
639.828	13223.79
640.181	13260.85
640.534	13189.44
640.888	13109.9
641.241	13160.29
641.594	13191.48
641.947	13236.22
642.301	13101.53
642.654	13156.45
643.007	13127.97
643.36	13112.83
643.713	13172.27
644.066	13190.35
644.419	13103.34
644.771	12989.45
645.124	12852.95
645.477	12903.12
645.83	12747.42
646.182	12734.54
646.535	12586.52
646.888	12674.43
647.24	12679.17
647.593	12770.02
647.945	12628.78
648.298	12691.83
648.65	12653.86
649.002	12578.61
649.355	12763.92
649.707	12652.73
650.059	12757.36
650.411	12848.89
650.763	12852.5
651.115	12983.8
651.467	12941.31
651.819	12953.52
652.171	13001.42
652.523	12939.28
652.875	12914.42
653.227	12899.28
653.578	12985.83
653.93	12962.55
654.282	12905.83
654.633	12868.77
654.985	12873.74
655.337	12903.35
655.688	12928.66
656.039	12974.76
656.391	12878.49
656.742	12944.48
657.094	12918.94
657.445	12924.82
657.796	12922.1
658.147	12926.4
658.498	12913.29
658.849	12965.27
659.2	12989.45
659.551	12915.32
659.902	12940.41
660.253	12920.3
660.604	12932.05
660.955	12939.96
661.306	12955.32
661.656	12971.37
662.007	12900.41
662.358	12990.12
662.708	12890.47
663.059	12937.92
663.409	12845.72
663.76	13053.17
664.11	13015.43
664.461	12999.62
664.811	13007.07
665.161	12962.78
665.511	12972.27
665.862	13007.53
666.212	12981.76
666.562	13047.3
666.912	12926.62
667.262	12992.16
667.612	12973.4
667.962	12999.62
668.312	12960.29
668.662	12945.83
669.011	12986.28
669.361	12911.93
669.711	12960.52
670.06	12929.11
670.41	12883.46
670.76	12892.05
671.109	12902.67
671.459	12906.06
671.808	12856.12
672.157	12935.21
672.507	12807.53
672.856	12885.95
673.205	12866.51
673.554	12837.36
673.904	12840.52
674.253	12883.46
674.602	12818.83
674.951	12600.98
675.3	12603.47
675.649	12794.2
675.998	12787.87
676.346	12796.68
676.695	12781.09
677.044	12713.52
677.393	12695.22
677.741	12778.83
678.09	12716.69
678.438	12678.49
678.787	12666.74
679.135	12805.27
679.484	12631.04
679.832	12727.08
680.181	12539.06
680.529	12630.36
680.877	12533.19
681.225	12469.46
681.573	12648.21
681.922	12532.96
682.27	12440.53
682.618	12434.21
682.966	12479.63
683.314	12490.48
683.661	12370.25
684.009	12389.24
684.357	12307.66
684.705	12277.6
685.053	12246.42
685.4	12294.1
685.748	12216.36
686.095	12152.63
686.443	12155.8
686.79	12124.16
687.138	12163.48
687.485	12206.19
687.832	12135.46
688.18	12108.11
688.527	12016.14
688.874	11996.25
689.221	11946.76
689.568	11911.96
689.915	11980.89
690.262	11933.66
690.609	11881.45
690.956	11789.93
691.303	11820.66
691.65	11757.16
691.997	11760.55
692.344	11730.5
692.69	11695.24
693.037	11641.46
693.383	11502.03
693.73	11626.77
694.077	11478.3
694.423	11522.59
694.769	11481.46
695.116	11400.79
695.462	11419.54
695.808	11397.62
696.155	11326.21
696.501	11181.81
696.847	11216.16
697.193	11172.55
697.539	11191.3
697.885	11127.12
698.231	11115.6
698.577	11027.01
698.923	11048.03
699.269	10901.14
699.614	10877.64
699.96	10894.59
700.306	10850.97
700.651	10724.2
700.997	10762.61
701.342	10709.73
701.688	10731.2
702.033	10668.6
702.379	10680.35
702.724	10601.71
703.069	10602.84
703.415	10496.86
703.76	10530.08
704.105	10476.74
704.45	10486.91
704.795	10347.48
705.14	10351.1
705.485	10373.7
705.83	10248.5
706.175	10309.29
706.52	10262.51
706.865	10250.54
707.209	10187.26
707.554	10116.3
707.899	10207.37
708.243	10107.71
708.588	9997.21
708.932	10023.65
709.277	10008.28
709.621	10039.69
709.966	10003.99
710.31	9979.36
710.654	9860.04
710.998	9866.14
711.342	9867.72
711.687	9849.87
712.031	9794.73
712.375	9801.51
712.719	9852.13
713.063	9799.47
713.407	9791.11
713.75	9749.31
714.094	9780.27
714.438	9665.69
714.782	9677.22
715.125	9684.22
715.469	9629.53
715.812	9553.83
716.156	9588.41
716.499	9569.88
716.843	9613.94
717.186	9544.34
717.53	9555.41
717.873	9566.94
718.216	9507.5
718.559	9481.97
718.902	9421.86
719.246	9450.56
719.589	9366.27
719.932	9348.41
720.275	9401.97
720.617	9357
720.96	9420.5
721.303	9341.18
721.646	9332.59
721.989	9350.67
722.331	9300.5
722.674	9267.96
723.016	9298.47
723.359	9237.45
723.701	9299.37
724.044	9253.73
724.386	9184.12
724.729	9305.02
725.071	9208.53
725.413	9223.9
725.755	9189.77
726.097	9146.84
726.439	9186.83
726.782	9184.57
727.124	9174.63
727.465	9098.93
727.807	9166.27
728.149	9108.42
728.491	9064.58
728.833	9126.95
729.175	9084.69
729.516	9093.05
729.858	9095.99
730.199	9095.09
730.541	9016.67
730.882	9040.17
731.224	9126.05
731.565	9033.17
731.906	9083.79
732.248	9069.1
732.589	9108.19
732.93	9072.49
733.271	9019.16
733.612	9054.63
733.953	9060.74
734.294	9085.37
734.635	8978.25
734.976	9053.73
735.317	9000.4
735.658	9026.16
735.999	9094.63
736.339	9007.4
736.68	9059.61
737.021	9075.2
737.361	9024.35
737.702	9053.96
738.042	9068.87
738.383	9064.58
738.723	9079.49
739.063	9080.85
739.404	9112.94
739.744	9077.01
740.084	9182.32
740.424	9142.99
740.764	9095.76
741.104	9198.36
741.444	9159.26
741.784	9191.58
742.124	9119.49
742.464	9163.11
742.804	9238.81
743.143	9169.66
743.483	9247.17
743.823	9183.44
744.162	9272.71
744.502	9353.16
744.841	9357
745.181	9386.38
745.52	9310.22
745.86	9443.1
746.199	9445.58
746.538	9442.42
746.877	9519.93
747.216	9550.44
747.556	9568.07
747.895	9644
748.234	9679.7
748.573	9753.37
748.911	9768.06
749.25	9776.65
749.589	9865.91
749.928	9914.27
750.267	10010.09
750.605	10050.09
750.944	10127.37
751.283	10160.14
751.621	10253.47
751.96	10410.98
752.298	10432
752.636	10533.47
752.975	10567.59
753.313	10701.15
753.651	10846
753.989	10936.62
754.327	10942.72
754.666	11085.09
755.004	11281.24
755.342	11374.12
755.679	11481.46
756.017	11541.58
756.355	11735.24
756.693	11857.72
757.031	12011.62
757.368	12082.8
757.706	12231.95
758.044	12316.92
758.381	12557.37
