Data from hue_290_FLMS001491_00033.txt Node
Date: Tue Feb 07 15:52:39 GMT 2017
User: dcchb
Spectrometer: FLMS00149
Trigger mode: 0
Integration Time (sec): 2.000000E-2
Scans to average: 10
Electric dark correction enabled: true
Nonlinearity correction enabled: false
Boxcar width: 0
XAxis mode: Wavelengths
Number of Pixels in Spectrum: 2048
>>>>>Begin Spectral Data<<<<<
341.393	5.23
341.776	5.23
342.16	5.23
342.543	-65.96
342.927	-69.12
343.31	-66.18
343.693	-78.16
344.077	-76.58
344.46	-57.15
344.843	-55.11
345.226	-37.94
345.61	-27.99
345.993	-5.17
346.376	4.32
346.759	7.71
347.142	45.68
347.525	55.17
347.908	46.58
348.291	73.92
348.674	75.28
349.057	95.62
349.44	119.8
349.823	156.86
350.206	159.57
350.588	203.41
350.971	187.59
351.354	210.42
351.737	245.67
352.119	248.84
352.502	252.23
352.884	267.82
353.267	262.39
353.65	281.6
354.032	305.56
354.414	286.12
354.797	298.33
355.179	325.22
355.562	330.42
355.944	311.43
356.326	318.89
356.709	329.96
357.091	334.03
357.473	319.57
357.855	353.92
358.238	338.1
358.62	325.44
359.002	316.63
359.384	331.09
359.766	307.36
360.148	321.38
360.53	324.54
360.912	348.04
361.294	317.99
361.676	334.26
362.057	310.75
362.439	312.79
362.821	301.49
363.203	323.86
363.584	322.73
363.966	325.67
364.348	317.08
364.729	314.37
365.111	312.11
365.493	307.14
365.874	311.43
366.256	314.82
366.637	322.05
367.019	308.49
367.4	302.85
367.781	294.71
368.163	299.46
368.544	297.42
368.925	307.82
369.306	309.4
369.688	295.16
370.069	321.38
370.45	313.24
370.831	296.07
371.212	303.75
371.593	322.51
371.974	299
372.355	320.02
372.736	293.58
373.117	311.43
373.498	294.94
373.879	293.13
374.26	301.49
374.641	296.29
375.021	311.21
375.402	310.98
375.783	320.02
376.163	323.64
376.544	287.25
376.925	307.59
377.305	308.04
377.686	320.7
378.066	308.04
378.447	326.12
378.827	315.05
379.208	328.38
379.588	336.97
379.968	339.45
380.349	321.83
380.729	304.43
381.109	332.45
381.489	323.18
381.87	324.99
382.25	312.56
382.63	330.19
383.01	343.3
383.39	324.77
383.77	334.71
384.15	340.81
384.53	334.93
384.91	344.43
385.29	336.74
385.67	336.29
386.049	354.6
386.429	350.98
386.809	347.36
387.189	352.56
387.568	356.86
387.948	354.14
388.328	341.49
388.707	337.19
389.087	355.95
389.466	345.33
389.846	336.06
390.225	358.44
390.605	368.61
390.984	356.18
391.363	354.82
391.743	369.96
392.122	360.02
392.501	367.02
392.881	356.18
393.26	385.1
393.639	369.51
394.018	371.77
394.397	368.83
394.776	377.87
395.155	388.27
395.534	381.94
395.913	357.76
396.292	369.06
396.671	390.98
397.05	390.98
397.429	372.22
397.808	397.31
398.186	396.4
398.565	394.14
398.944	399.57
399.323	390.53
399.701	392.56
400.08	409.28
400.458	386.46
400.837	403.41
401.215	423.52
401.594	402.73
401.972	428.04
402.351	431.2
402.729	408.38
403.107	427.59
403.486	430.75
403.864	447.7
404.242	422.16
404.62	443.41
404.999	404.76
405.377	445.67
405.755	434.59
406.133	449.06
406.511	457.64
406.889	454.25
407.267	473.01
407.645	486.57
408.023	450.19
408.401	476.85
408.779	473.01
409.156	472.11
409.534	496.74
409.912	507.36
410.29	519.79
410.667	515.95
411.045	500.81
411.422	509.17
411.8	506
412.178	525.89
412.555	543.97
412.933	547.13
413.31	555.27
413.687	545.78
414.065	564.99
414.442	582.39
414.819	593.46
415.197	568.6
415.574	592.78
415.951	603.18
416.328	625.77
416.705	611.99
417.082	625.77
417.46	622.84
417.837	661.48
418.214	628.03
418.591	649.5
418.967	662.61
419.344	644.53
419.721	671.2
420.098	675.04
420.475	713.68
420.852	711.65
421.228	710.29
421.605	717.07
421.982	730.63
422.358	740.8
422.735	764.53
423.111	771.08
423.488	778.54
423.864	770.4
424.241	769.73
424.617	781.48
424.994	777.86
425.37	785.77
425.746	808.14
426.123	844.3
426.499	823.74
426.875	824.64
427.251	873.23
427.627	866.45
428.003	876.62
428.379	859.67
428.756	902.83
429.132	901.7
429.507	917.74
429.883	923.39
430.259	940.34
430.635	940.12
431.011	948.93
431.387	977.63
431.763	956.39
432.138	983.73
432.514	1014.46
432.89	1005.65
433.265	1023.28
433.641	1037.74
434.016	1026.67
434.392	1088.14
434.767	1092.2
435.143	1099.21
435.518	1112.99
435.894	1109.6
436.269	1140.11
436.644	1136.04
437.02	1183.73
437.395	1150.28
437.77	1179.21
438.145	1219.88
438.52	1219.88
438.895	1222.59
439.271	1189.15
439.646	1225.76
440.021	1252.65
440.395	1256.72
440.77	1243.84
441.145	1287.9
441.52	1309.82
441.895	1278.64
442.27	1314.8
442.645	1297.62
443.019	1303.95
443.394	1291.75
443.769	1315.93
444.143	1342.37
444.518	1335.13
444.892	1339.88
445.267	1344.4
445.641	1339.2
446.016	1385.3
446.39	1386.43
446.764	1413.55
447.139	1370.16
447.513	1376.04
447.887	1391.86
448.262	1391.18
448.636	1396.15
449.01	1426.21
449.384	1439.76
449.758	1451.29
450.132	1478.63
450.506	1457.62
450.88	1461.91
451.254	1472.76
451.628	1434.79
452.002	1494.68
452.376	1492.64
452.75	1479.54
453.123	1493.55
453.497	1543.04
453.871	1556.82
454.244	1538.52
454.618	1544.62
454.992	1576.48
455.365	1552.53
455.739	1618.74
456.112	1633.21
456.486	1633.43
456.859	1624.39
457.232	1636.37
457.606	1661
457.979	1665.75
458.352	1673.88
458.725	1705.29
459.099	1697.16
459.472	1771.51
459.845	1766.31
460.218	1757.27
460.591	1780.55
460.964	1767.44
461.337	1802.47
461.71	1820.55
462.083	1837.49
462.456	1835.91
462.829	1850.83
463.201	1866.65
463.574	1887.66
463.947	1883.14
464.32	1910.94
464.692	1931.05
465.065	1920.43
465.438	1980.77
465.81	1986.19
466.183	1988.68
466.555	2028.68
466.928	2043.59
467.3	2009.01
467.672	2072.06
468.045	2119.52
468.417	2099.18
468.789	2124.04
469.161	2158.16
469.534	2146.64
469.906	2213.76
470.278	2209.91
470.65	2229.8
471.022	2274.54
471.394	2289.23
471.766	2266.64
472.138	2305.5
472.51	2329.68
472.882	2372.62
473.253	2414.43
473.625	2452.85
473.997	2432.73
474.369	2411.04
474.74	2480.19
475.112	2532.62
475.484	2501.43
475.855	2531.71
476.227	2590.47
476.598	2660.3
476.97	2644.7
477.341	2697.36
477.713	2733.74
478.084	2749.79
478.455	2780.97
478.827	2783.01
479.198	2896.68
479.569	2880.4
479.94	2950.46
480.311	2924.7
480.682	2999.27
481.053	3020.51
481.424	3075.43
481.795	3085.6
482.166	3125.6
482.537	3128.99
482.908	3167.4
483.279	3184.8
483.65	3281.52
484.021	3258.47
484.391	3346.15
484.762	3323.33
485.133	3337.12
485.503	3409.66
485.874	3458.02
486.244	3478.35
486.615	3528.75
486.985	3586.15
487.356	3605.13
487.726	3620.95
488.097	3647.39
488.467	3689.65
488.837	3709.08
489.207	3775.52
489.578	3801.51
489.948	3809.42
490.318	3885.12
490.688	3891
491.058	3907.5
491.428	3967.16
491.798	3971
492.168	4003.99
492.538	4072.92
492.908	4058.68
493.278	4095.06
493.648	4060.03
494.017	4179.58
494.387	4161.27
494.757	4239.01
495.126	4244.89
495.496	4276.53
495.866	4305.68
496.235	4298.22
496.605	4336.86
496.974	4386.13
497.344	4365.11
497.713	4387.26
498.082	4368.95
498.452	4467.26
498.821	4438.56
499.19	4481.04
499.559	4545.45
499.928	4525.33
500.298	4572.56
500.667	4562.39
501.036	4575.95
501.405	4628.16
501.774	4569.85
502.143	4610.08
502.512	4671.54
502.88	4686.68
503.249	4670.64
503.618	4702.5
503.987	4747.47
504.356	4777.98
504.724	4769.62
505.093	4753.58
505.462	4785.21
505.83	4778.21
506.199	4854.82
506.567	4851.65
506.936	4816.62
507.304	4870.18
507.672	4889.62
508.041	4815.49
508.409	4904.76
508.777	4949.5
509.145	5008.94
509.514	4987.69
509.882	4940.92
510.25	4993.34
510.618	5062.27
510.986	5027.69
511.354	5072.21
511.722	5096.84
512.09	5102.27
512.458	5165.99
512.826	5133.45
513.193	5134.36
513.561	5175.26
513.929	5155.82
514.297	5208.7
514.664	5244.41
515.032	5241.25
515.4	5252.55
515.767	5309.04
516.135	5311.53
516.502	5241.92
516.869	5320.11
517.237	5349.72
517.604	5313.33
517.972	5380.45
518.339	5371.19
518.706	5361.02
519.073	5375.93
519.44	5416.83
519.808	5433.11
520.175	5438.3
520.542	5460.68
520.909	5506.1
521.276	5502.93
521.643	5479.21
522.009	5510.39
522.376	5563.27
522.743	5592.42
523.11	5624.97
523.477	5649.82
523.843	5619.99
524.21	5659.54
524.577	5749.03
524.943	5694.79
525.31	5749.48
525.676	5809.82
526.043	5757.62
526.409	5785.64
526.776	5923.04
527.142	5881.68
527.508	5835.13
527.874	5843.94
528.241	5956.26
528.607	5983.37
528.973	5999.87
529.339	5970.72
529.705	6051.62
530.071	6087.1
530.437	6096.14
530.803	6110.6
531.169	6135.01
531.535	6133.2
531.901	6175.91
532.267	6212.29
532.632	6192.41
532.998	6175.69
533.364	6241.9
533.73	6277.83
534.095	6322.35
534.461	6318.73
534.826	6331.61
535.192	6323.93
535.557	6318.96
535.923	6386.53
536.288	6398.73
536.653	6396.02
537.019	6487.77
537.384	6446.64
537.749	6476.92
538.114	6450.25
538.479	6467.65
538.845	6555.79
539.21	6477.82
539.575	6546.07
539.94	6563.92
540.305	6608.89
540.67	6561.44
541.034	6539.07
541.399	6635.79
541.764	6622.9
542.129	6694.09
542.494	6670.36
542.858	6696.12
543.223	6692.28
543.587	6777.7
543.952	6716.24
544.316	6730.25
544.681	6774.54
545.045	6810.02
545.41	6840.3
545.774	6856.57
546.138	6895.89
546.503	6858.6
546.867	6874.42
547.231	6877.36
547.595	6946.74
547.959	6964.14
548.324	6963.69
548.688	6981.77
549.052	6984.48
549.416	6967.53
549.779	7025.15
550.143	7001.2
550.507	7073.74
550.871	7081.2
551.235	7060.86
551.599	7137.02
551.962	7092.72
552.326	7137.69
552.689	7088.88
553.053	7116.23
553.417	7072.84
553.78	7233.28
554.143	7206.84
554.507	7240.06
554.87	7239.61
555.234	7294.98
555.597	7222.66
555.96	7259.5
556.323	7284.13
556.686	7281.19
557.05	7351.47
557.413	7386.95
557.776	7363.68
558.139	7354.64
558.502	7431.02
558.865	7364.13
559.228	7446.84
559.59	7477.57
559.953	7462.43
560.316	7487.97
560.679	7476.89
561.041	7568.42
561.404	7587.63
561.767	7619.26
562.129	7593.05
562.492	7695.42
562.854	7665.59
563.217	7654.29
563.579	7677.11
563.941	7753.27
564.304	7705.36
564.666	7742.2
565.028	7821.29
565.39	7794.17
565.753	7857.45
566.115	7859.48
566.477	7897.22
566.839	7921.85
567.201	8002.3
567.563	7959.37
567.925	8015.64
568.287	8021.74
568.648	7986.71
569.01	8095.63
569.372	8128.18
569.734	8102.64
570.095	8135.86
570.457	8144.9
570.819	8214.5
571.18	8220.38
571.542	8280.49
571.903	8326.36
572.265	8352.58
572.626	8386.93
572.987	8359.58
573.349	8395.74
573.71	8437.09
574.071	8440.03
574.432	8562.74
574.794	8571.1
575.155	8606.13
575.516	8622.63
575.877	8618.11
576.238	8744.43
576.599	8784.88
576.96	8822.62
577.32	8817.42
577.681	8930.87
578.042	8992.11
578.403	9016.51
578.763	9051.99
579.124	9138.09
579.485	9214.02
579.845	9291.08
580.206	9339.9
580.566	9370.63
580.927	9498.08
581.287	9571.75
581.648	9642.03
582.008	9740.56
582.368	9705.08
582.728	9855.59
583.089	9916.6
583.449	10020.1
583.809	10162.7
584.169	10277.95
584.529	10262.13
584.889	10485.18
585.249	10591.84
585.609	10681.1
585.969	10844.71
586.329	10853.98
586.688	10994.77
587.048	11049.46
587.408	11102.79
587.768	11326.51
588.127	11503
588.487	11516.56
588.846	11684.92
589.206	11746.39
589.565	11870.45
589.925	12093.27
590.284	12179.82
590.643	12409.19
591.003	12502.3
591.362	12640.83
591.721	12732.8
592.08	12872.91
592.44	13034.26
592.799	13178.44
593.158	13308.6
593.517	13442.61
593.876	13556.28
594.235	13718.31
594.593	13869.27
594.952	13984.07
595.311	14057.96
595.67	14163.95
596.029	14452.08
596.387	14585.41
596.746	14731.17
597.104	14764.39
597.463	14925.96
597.822	15038.73
598.18	15217.93
598.538	15297.03
598.897	15499.06
599.255	15468.32
599.613	15837.13
599.972	15863.79
600.33	16025.82
600.688	16008.87
601.046	16217.23
601.404	16410.44
601.762	16436.88
602.12	16560.95
602.478	16721.62
602.836	16823.09
603.194	16812.69
603.552	16896.08
603.91	17031.44
604.268	17190.76
604.625	17180.82
604.983	17333.13
605.341	17404.32
605.698	17529.96
606.056	17699
606.413	17797.75
606.771	17802.05
607.128	17934.7
607.485	18001.14
607.843	18037.75
608.2	18157.74
608.557	18327.91
608.914	18244.29
609.272	18503.27
609.629	18526.77
609.986	18638.18
610.343	18644.96
610.7	18781.46
611.057	18797.5
611.414	18969.7
611.771	19076.36
612.127	19153.42
612.484	19094.89
612.841	19201.78
613.198	19195.46
613.554	19293.08
613.911	19390.25
614.267	19442.68
614.624	19536.01
614.98	19613.98
615.337	19706.85
615.693	19758.6
616.05	19750.47
616.406	19850.58
616.762	19912.05
617.118	19943.01
617.475	19956.79
617.831	20127.41
618.187	20097.58
618.543	20236.78
618.899	20314.52
619.255	20316.78
619.611	20239.95
619.967	20400.85
620.323	20457.57
620.678	20404.92
621.034	20420.96
621.39	20518.81
621.746	20456.67
622.101	20703.44
622.457	20533.73
622.812	20679.48
623.168	20810.78
623.523	20790.89
623.879	20854.85
624.234	20753.15
624.589	20850.55
624.945	20836.32
625.3	20966.03
625.655	20865.47
626.01	20889.65
626.365	20878.12
626.72	21038.35
627.075	20942.53
627.43	20869.31
627.785	20862.08
628.14	20989.76
628.495	21096.2
628.85	21034.96
629.205	20914.28
629.559	21090.55
629.914	21066.37
630.269	21046.93
630.623	20892.36
630.978	20958.57
631.332	21016.2
631.687	21129.19
632.041	20926.03
632.396	21092.58
632.75	20951.57
633.104	20982.75
633.459	20891
633.813	20900.04
634.167	20926.48
634.521	20902.08
634.875	20889.65
635.229	20850.55
635.583	20843.55
635.937	20734.85
636.291	20895.98
636.645	20891.68
636.999	20746.83
637.352	20898.91
637.706	20748.86
638.06	20836.09
638.413	20770.56
638.767	20677
639.121	20779.37
639.474	20675.87
639.828	20709.77
640.181	20732.36
640.534	20804.68
640.888	20720.39
641.241	20667.73
641.594	20712.48
641.947	20735.3
642.301	20746.15
642.654	20714.74
643.007	20779.37
643.36	20741.18
643.713	20732.14
644.066	20724
644.419	20643.55
644.771	20417.57
645.124	20296.9
645.477	20253.28
645.83	20098.03
646.182	20061.65
646.535	20061.2
646.888	20046.51
647.24	20059.16
647.593	20241.76
647.945	20119.95
648.298	19909.34
648.65	20032.04
649.002	20041.31
649.355	19934.65
649.707	19923.35
650.059	20122.89
650.411	20306.16
650.763	20267.07
651.115	20530.79
651.467	20504.35
651.819	20486.27
652.171	20467.51
652.523	20434.52
652.875	20450.34
653.227	20446.04
653.578	20503.67
653.93	20551.8
654.282	20439.94
654.633	20315.65
654.985	20436.1
655.337	20461.86
655.688	20488.98
656.039	20632.71
656.391	20434.97
656.742	20451.24
657.094	20469.77
657.445	20542.76
657.796	20425.25
658.147	20500.05
658.498	20532.82
658.849	20460.51
659.2	20512.48
659.551	20460.73
659.902	20502.31
660.253	20602.42
660.604	20509.77
660.955	20562.65
661.306	20527.17
661.656	20498.92
662.007	20582.99
662.358	20595.42
662.708	20523.1
663.059	20704.12
663.409	20377.8
663.76	20571.01
664.11	20677
664.461	20615.53
664.811	20699.6
665.161	20698.24
665.511	20439.72
665.862	20571.01
666.212	20588.19
666.562	20708.41
666.912	20621.41
667.262	20579.37
667.612	20597
667.962	20563.33
668.312	20602.88
668.662	20589.77
669.011	20541.86
669.361	20568.75
669.711	20468.42
670.06	20532.14
670.41	20467.29
670.76	20508.64
671.109	20633.61
671.459	20481.98
671.808	20535.31
672.157	20469.32
672.507	20385.48
672.856	20343.67
673.205	20460.28
673.554	20554.52
673.904	20392.26
674.253	20545.93
674.602	20420.28
674.951	20111.14
675.3	20064.13
675.649	20350.23
675.998	20356.78
676.346	20417.34
676.695	20375.99
677.044	20301.87
677.393	20263
677.741	20310.91
678.09	20316.78
678.438	20208.99
678.787	20225.49
679.135	20298.25
679.484	20149.33
679.832	20164.47
680.181	20105.26
680.529	20007.86
680.877	20119.95
681.225	19993.85
681.573	20112.95
681.922	19934.42
682.27	19982.1
682.618	19904.36
682.966	19846.96
683.314	19942.33
683.661	19859.39
684.009	19758.15
684.357	19610.59
684.705	19668.66
685.053	19769
685.4	19645.84
685.748	19539.18
686.095	19551.6
686.443	19446.97
686.79	19492.17
687.138	19421.21
687.485	19416.69
687.832	19376.47
688.18	19375.11
688.527	19313.42
688.874	19222.57
689.221	19196.81
689.568	19180.54
689.915	19071.39
690.262	19001.11
690.609	19001.56
690.956	18830.95
691.303	18865.52
691.65	18793.66
691.997	18823.26
692.344	18689.48
692.69	18664.62
693.037	18658.75
693.383	18449.26
693.73	18514.12
694.077	18488.81
694.423	18485.64
694.769	18379.21
695.116	18358.19
695.462	18295.37
695.808	18167.91
696.155	18194.35
696.501	18044.75
696.847	18057.86
697.193	17946.45
697.539	17973.79
697.885	17833.01
698.231	17826.68
698.577	17762.5
698.923	17755.27
699.269	17708.26
699.614	17472.34
699.96	17515.5
700.306	17491.09
700.651	17465.56
700.997	17278.67
701.342	17327.26
701.688	17219.69
702.033	17211.78
702.379	17136.75
702.724	17108.05
703.069	17013.14
703.415	16840.72
703.76	16934.27
704.105	16889.98
704.45	16814.95
704.795	16781.96
705.14	16612.7
705.485	16693.83
705.83	16603.21
706.175	16620.16
706.52	16513.27
706.865	16462.65
707.209	16410.22
707.554	16332.71
707.899	16452.93
708.243	16310.33
708.588	16250.22
708.932	16208.87
709.277	16150.34
709.621	16107.85
709.966	15996.44
710.31	16068.53
710.654	15840.97
710.998	15987.18
711.342	16016.78
711.687	15850.46
712.031	15837.58
712.375	15789.67
712.719	15853.17
713.063	15642.78
713.407	15749.22
713.75	15705.83
714.094	15586.06
714.438	15600.3
714.782	15585.16
715.125	15445.95
715.469	15543.12
715.812	15416.8
716.156	15404.37
716.499	15422.67
716.843	15371.15
717.186	15319.17
717.53	15407.76
717.873	15350.36
718.216	15317.14
718.559	15212.74
718.902	15116.47
719.246	15199.4
719.589	15195.79
719.932	15115.56
720.275	15066.52
720.617	15124.83
720.96	15069.91
721.303	15146.07
721.646	15092.06
721.989	15042.8
722.331	15071.5
722.674	14956.7
723.016	15009.8
723.359	15058.16
723.701	15032.63
724.044	14929.35
724.386	14885.74
724.729	14938.84
725.071	14899.75
725.413	14893.87
725.755	14847.1
726.097	14843.48
726.439	14778.85
726.782	14882.8
727.124	14828.11
727.465	14804.84
727.807	14759.19
728.149	14726.65
728.491	14669.7
728.833	14747.44
729.175	14617.5
729.516	14615.01
729.858	14620.43
730.199	14721.9
730.541	14622.24
730.882	14644.61
731.224	14655.69
731.565	14653.88
731.906	14587.22
732.248	14589.02
732.589	14548.8
732.93	14480.33
733.271	14535.01
733.612	14582.7
733.953	14678.96
734.294	14601
734.635	14424.28
734.976	14560.55
735.317	14477.84
735.658	14598.51
735.999	14559.87
736.339	14580.21
736.68	14585.41
737.021	14553.09
737.361	14409.82
737.702	14648
738.042	14522.36
738.383	14500.89
738.723	14650.94
739.063	14509.7
739.404	14531.85
739.744	14519.42
740.084	14426.77
740.424	14548.8
740.764	14508.57
741.104	14553.09
741.444	14597.16
741.784	14491.62
742.124	14567.78
742.464	14641.68
742.804	14644.16
743.143	14642.81
743.483	14673.09
743.823	14655.01
744.162	14654.33
744.502	14703.6
744.841	14764.61
745.181	14733.2
745.52	14721.22
745.86	14851.16
746.199	14823.59
746.538	14826.98
746.877	14944.27
747.216	15005.06
747.556	15049.58
747.895	15046.41
748.234	15097.71
748.573	15114.66
748.911	15160.08
749.25	15215.9
749.589	15234.88
749.928	15318.5
750.267	15419.28
750.605	15465.61
750.944	15514.65
751.283	15645.94
751.621	15632.16
751.96	15679.16
752.298	15770.91
752.636	15840.52
752.975	15933.85
753.313	15973.39
753.651	16114.63
753.989	16064.01
754.327	16302.2
754.666	16359.82
755.004	16480.5
755.342	16597.78
755.679	16647.5
756.017	16770.89
756.355	16919.81
756.693	16872.35
757.031	17146.92
757.368	17074.83
757.706	17241.38
758.044	17253.81
758.381	17395.05
758.719	17526.35
759.056	17689.05
759.394	17784.65
759.731	17811.09
760.068	17930.63
