Data from hue_22_FLMS001491_00038.txt Node
Date: Tue Feb 07 17:10:02 GMT 2017
User: dcchb
Spectrometer: FLMS00149
Trigger mode: 0
Integration Time (sec): 2.000000E-2
Scans to average: 10
Electric dark correction enabled: true
Nonlinearity correction enabled: false
Boxcar width: 0
XAxis mode: Wavelengths
Number of Pixels in Spectrum: 2048
>>>>>Begin Spectral Data<<<<<
341.393	-9.89
341.776	-9.89
342.16	-9.89
342.543	-48.76
342.927	-78.59
343.31	-49.43
343.693	-58.47
344.077	-55.54
344.46	-66.16
344.843	-60.73
345.226	-45.14
345.61	-40.17
345.993	-17.57
346.376	-3.56
346.759	5.25
347.142	29.89
347.525	28.76
347.908	44.58
348.291	82.99
348.674	101.52
349.057	103.78
349.44	128.41
349.823	138.58
350.206	168.64
350.588	200.96
350.971	190.33
351.354	216.1
351.737	225.14
352.119	263.33
352.502	264.46
352.884	270.78
353.267	302.42
353.65	292.93
354.032	290.9
354.414	321.63
354.797	327.73
355.179	333.38
355.562	340.84
355.944	344.23
356.326	340.39
356.709	333.38
357.091	324.12
357.473	344.45
357.855	334.28
358.238	345.36
358.62	336.54
359.002	342.42
359.384	356.88
359.766	333.16
360.148	333.38
360.53	351.01
360.912	324.57
361.294	352.14
361.676	323.44
362.057	360.72
362.439	317.56
362.821	334.28
363.203	339.48
363.584	321.4
363.966	311.23
364.348	313.95
364.729	306.72
365.111	313.49
365.493	327.05
365.874	336.77
366.256	302.42
366.637	293.38
367.019	308.07
367.4	325.92
367.781	321.18
368.163	327.05
368.544	317.79
368.925	331.35
369.306	309.2
369.688	322.08
370.069	309.2
370.45	325.92
370.831	308.52
371.212	334.96
371.593	306.04
371.974	306.26
372.355	317.79
372.736	305.36
373.117	318.92
373.498	310.1
373.879	327.28
374.26	332.93
374.641	346.04
375.021	326.6
375.402	305.81
375.783	320.05
376.163	351.46
376.544	331.35
376.925	329.09
377.305	291.8
377.686	318.01
378.066	330.67
378.447	324.12
378.827	336.77
379.208	330.9
379.588	315.08
379.968	337.22
380.349	343.55
380.729	338.13
381.109	339.26
381.489	343.1
381.87	332.7
382.25	332.48
382.63	343.1
383.01	334.74
383.39	330.67
383.77	343.55
384.15	362.76
384.53	348.52
384.91	346.04
385.29	352.59
385.67	351.23
386.049	367.73
386.429	355.08
386.809	337.9
387.189	362.31
387.568	354.17
387.948	353.95
388.328	373.83
388.707	347.62
389.087	356.66
389.466	374.51
389.846	369.31
390.225	368.41
390.605	382.42
390.984	397.79
391.363	396.2
391.743	355.75
392.122	361.63
392.501	382.87
392.881	378.58
393.26	387.16
393.639	351.01
394.018	371.12
394.397	376.09
394.776	393.49
395.155	388.52
395.534	404.57
395.913	399.14
396.292	399.82
396.671	395.75
397.05	405.24
397.429	372.02
397.808	385.81
398.186	394.62
398.565	397.79
398.944	393.49
399.323	405.47
399.701	381.29
400.08	400.05
400.458	407.73
400.837	421.51
401.215	413.83
401.594	425.58
401.972	415.64
402.351	398.92
402.729	415.19
403.107	409.99
403.486	410.67
403.864	405.92
404.242	438.24
404.62	406.83
404.999	412.02
405.377	423.32
405.755	413.83
406.133	424.9
406.511	435.07
406.889	406.37
407.267	438.01
407.645	452.47
408.023	439.59
408.401	447.73
408.779	446.6
409.156	451.12
409.534	446.37
409.912	448.18
410.29	475.98
410.667	461.51
411.045	491.79
411.422	474.39
411.8	453.83
412.178	464.9
412.555	487.5
412.933	468.07
413.31	494.73
413.687	468.74
414.065	493.38
414.442	512.36
414.819	508.52
415.197	502.87
415.574	480.04
415.951	481.17
416.328	506.94
416.705	509.2
417.082	502.19
417.46	522.3
417.837	514.85
418.214	527.73
418.591	530.66
418.967	506.94
419.344	528.18
419.721	544
420.098	512.13
420.475	542.64
420.852	535.64
421.228	548.52
421.605	549.65
421.982	559.36
422.358	550.1
422.735	536.99
423.111	560.49
423.488	571.34
423.864	557.56
424.241	570.21
424.617	567.73
424.994	576.54
425.37	562.08
425.746	602.53
426.123	582.41
426.499	584.22
426.875	583.77
427.251	610.44
427.627	588.97
428.003	605.01
428.379	605.92
428.756	593.04
429.132	642.53
429.507	642.53
429.883	625.8
430.259	647.5
430.635	627.16
431.011	671.23
431.387	655.18
431.763	646.82
432.138	657.44
432.514	679.13
432.89	659.02
433.265	675.29
433.641	661.28
434.016	687.95
434.392	707.83
434.767	731.34
435.143	700.38
435.518	707.83
435.894	733.37
436.269	716.42
436.644	738.57
437.02	715.97
437.395	728.17
437.77	758
438.145	742.41
438.52	752.58
438.895	759.36
439.271	753.71
439.646	786.93
440.021	782.18
440.395	786.7
440.77	769.3
441.145	800.49
441.52	791.67
441.895	795.29
442.27	800.49
442.645	806.81
443.019	781.05
443.394	824.67
443.769	819.02
444.143	821.5
444.518	839.58
444.892	829.87
445.267	826.48
445.641	833.03
446.016	828.96
446.39	854.5
446.764	856.98
447.139	876.42
447.513	855.18
447.887	868.73
448.262	861.28
448.636	885
449.01	906.7
449.384	879.81
449.758	897.21
450.132	883.88
450.506	908.51
450.88	918.68
451.254	935.85
451.628	928.62
452.002	928.85
452.376	902.41
452.75	953.25
453.123	945.57
453.497	952.35
453.871	981.05
454.244	978.11
454.618	1003.42
454.992	1002.52
455.365	1038.67
455.739	1033.48
456.112	1033.7
456.486	1040.26
456.859	1044.1
457.232	1052.68
457.606	1040.93
457.979	1110.08
458.352	1080.03
458.725	1116.19
459.099	1093.14
459.472	1156.18
459.845	1126.58
460.218	1140.14
460.591	1123.64
460.964	1162.74
461.337	1175.62
461.71	1182.62
462.083	1213.36
462.456	1207.71
462.829	1221.27
463.201	1231.44
463.574	1232.57
463.947	1265.79
464.32	1269.63
464.692	1295.16
465.065	1291.1
465.438	1333.81
465.81	1310.08
466.183	1363.18
466.555	1377.87
466.928	1400.02
467.3	1400.92
467.672	1391.43
468.045	1441.37
468.417	1440.92
468.789	1448.15
469.161	1433.24
469.534	1497.19
469.906	1527.93
470.278	1511.43
470.65	1524.08
471.022	1577.64
471.394	1572.9
471.766	1583.29
472.138	1660.35
472.51	1687.02
472.882	1689.73
473.253	1711.2
473.625	1747.81
473.997	1774.47
474.369	1796.39
474.74	1789.61
475.112	1820.12
475.484	1881.81
475.855	1925.43
476.227	1941.47
476.598	1995.71
476.97	2027.35
477.341	2041.58
477.713	2071.64
478.084	2066.67
478.455	2140.11
478.827	2175.59
479.198	2265.31
479.569	2258.08
479.94	2309.15
480.311	2337.17
480.682	2377.62
481.053	2439.54
481.424	2495.58
481.795	2496.04
482.166	2556.15
482.537	2595.92
482.908	2669.14
483.279	2687.44
483.65	2743.49
484.021	2809.25
484.391	2827.33
484.762	2860.55
485.133	2866.65
485.503	2956.59
485.874	3007.89
486.244	3013.76
486.615	3077.04
486.985	3160.65
487.356	3202.01
487.726	3273.19
488.097	3292.4
488.467	3294.89
488.837	3405.39
489.207	3425.73
489.578	3498.5
489.948	3557.48
490.318	3610.36
490.688	3633.41
491.058	3642.45
491.428	3738.04
491.798	3761.99
492.168	3830.01
492.538	3888.09
492.908	3896
493.278	3950.69
493.648	3921.76
494.017	4102.55
494.387	4039.5
494.757	4136.22
495.126	4179.38
495.496	4172.38
495.866	4242.2
496.235	4265.03
496.605	4307.51
496.974	4337.34
497.344	4379.15
497.713	4433.16
498.082	4420.96
498.452	4488.75
498.821	4523.1
499.19	4493.5
499.559	4582.31
499.928	4609.88
500.298	4651.69
500.667	4702.76
501.036	4673.61
501.405	4746.15
501.774	4743.66
502.143	4794.51
502.512	4819.59
502.88	4895.52
503.249	4861.4
503.618	4900.72
503.987	4969.64
504.356	4956.99
504.724	4965.8
505.093	5006.25
505.462	5012.58
505.83	5004.22
506.199	5121.28
506.567	5178
506.936	5168.28
507.304	5232.69
507.672	5240.14
508.041	5268.17
508.409	5268.62
508.777	5324.44
509.145	5307.94
509.514	5350.42
509.882	5343.42
510.25	5417.99
510.618	5449.63
510.986	5394.72
511.354	5551.55
511.722	5549.52
512.09	5539.8
512.458	5571.66
512.826	5576.86
513.193	5617.08
513.561	5657.31
513.929	5675.84
514.297	5710.41
514.664	5766.68
515.032	5773.92
515.4	5796.29
515.767	5828.38
516.135	5869.28
516.502	5867.7
516.869	5922.84
517.237	5937.08
517.604	5931.2
517.972	5974.14
518.339	5953.57
518.706	5981.14
519.073	6047.58
519.44	6065.21
519.808	6112.89
520.175	6111.99
520.542	6118.09
520.909	6218.42
521.276	6228.14
521.643	6231.53
522.009	6309.95
522.376	6363.96
522.743	6368.7
523.11	6389.04
523.477	6451.41
523.843	6467.91
524.21	6460.45
524.577	6522.37
524.943	6571.18
525.31	6591.07
525.676	6734.57
526.043	6744.06
526.409	6730.95
526.776	6812.76
527.142	6776.6
527.508	6826.09
527.874	6858.86
528.241	6973.21
528.607	6951.29
528.973	7008.46
529.339	7043.94
529.705	7061.57
530.071	7173.88
530.437	7104.28
530.803	7186.53
531.169	7204.84
531.535	7243.48
531.901	7260.66
532.267	7334.55
532.632	7379.75
532.998	7349.24
533.364	7437.6
533.73	7389.92
534.095	7454.55
534.461	7548.56
534.826	7551.5
535.192	7578.16
535.557	7611.38
535.923	7586.3
536.288	7639.63
536.653	7729.12
537.019	7696.13
537.384	7689.12
537.749	7736.35
538.114	7720.08
538.479	7801.66
538.845	7850.92
539.21	7840.08
539.575	7912.62
539.94	7869.23
540.305	7923.01
540.67	8043.91
541.034	8017.92
541.399	8112.84
541.764	8037.13
542.129	8111.48
542.494	8164.59
542.858	8187.64
543.223	8190.35
543.587	8249.78
543.952	8246.62
544.316	8250.24
544.681	8289.78
545.045	8407.97
545.41	8443.9
545.774	8453.62
546.138	8364.58
546.503	8516.44
546.867	8493.62
547.231	8527.97
547.595	8578.14
547.959	8560.06
548.324	8621.52
548.688	8596.21
549.052	8708.53
549.416	8694.07
549.779	8708.08
550.143	8751.92
550.507	8783.78
550.871	8823.33
551.235	8838.92
551.599	8848.86
551.962	8947.39
552.326	8938.8
552.689	8971.35
553.053	8920.95
553.417	9064
553.78	9144.9
554.143	9070.55
554.507	9092.47
554.87	9186.03
555.234	9242.07
555.597	9173.83
555.96	9251.34
556.323	9241.4
556.686	9282.07
557.05	9295.86
557.413	9404.78
557.776	9412.01
558.139	9444.33
558.502	9416.08
558.865	9470.99
559.228	9548.05
559.59	9555.96
559.953	9571.1
560.316	9700.59
560.679	9682.06
561.041	9732.91
561.404	9759.35
561.767	9805
562.129	9756.64
562.492	9861.04
562.854	9890.42
563.217	9859.01
563.579	9902.17
563.941	9974.26
564.304	10000.02
564.666	10103.52
565.028	10078.21
565.39	10142.39
565.753	10147.81
566.115	10195.27
566.477	10226.68
566.839	10248.15
567.201	10394.13
567.563	10332.21
567.925	10372.44
568.287	10381.03
568.648	10423.74
569.01	10501.48
569.372	10550.29
569.734	10549.84
570.095	10658.53
570.457	10702.6
570.819	10672.77
571.18	10720.9
571.542	10743.73
571.903	10835.7
572.265	10816.5
572.626	10973.55
572.987	11022.59
573.349	11015.81
573.71	11168.58
574.071	11108.92
574.432	11158.41
574.794	11211.51
575.155	11288.35
575.516	11349.14
575.877	11459.19
576.238	11489.92
576.599	11647.43
576.96	11616.25
577.32	11671.39
577.681	11733.53
578.042	11823.7
578.403	11946.86
578.763	12016.46
579.124	12115.44
579.485	12213.07
579.845	12344.82
580.206	12265.72
580.566	12543.68
580.927	12625.04
581.287	12776.67
581.648	12853.28
582.008	13004.91
582.368	13119.03
582.728	13238.13
583.089	13323.55
583.449	13496.2
583.809	13635.86
584.169	13880.37
584.529	13964.89
584.889	14261.15
585.249	14281.49
585.609	14502.5
585.969	14697.52
586.329	14849.16
586.688	15206.44
587.048	15315.59
587.408	15525.07
587.768	15743.6
588.127	15934.33
588.487	16094.77
588.846	16506.74
589.206	16594.2
589.565	16791.03
589.925	17184.46
590.284	17287.06
590.643	17805.92
591.003	17943.99
591.362	18309.41
591.721	18505.33
592.08	18797.75
592.44	19181.47
592.799	19381.02
593.158	19723.15
593.517	19876.82
593.876	20226.64
594.235	20540.08
594.593	20849.45
594.952	21164.47
595.311	21357.01
595.67	21782.31
596.029	22117.44
596.387	22461.16
596.746	22635.17
597.104	22888.49
597.463	23106.57
597.822	23595.59
598.18	23788.81
598.538	24018.18
598.897	24619.75
599.255	24662.46
599.613	25264.25
599.972	25436.22
600.33	25916.44
600.688	26024.91
601.046	26444.78
601.404	26788.73
601.762	27028.95
602.12	27422.39
602.478	27778.31
602.836	27891.3
603.194	28128.81
603.552	28527.67
603.91	28635.46
604.268	29043.36
604.625	29238.61
604.983	29621.88
605.341	29857.35
605.698	30304.34
606.056	30591.79
606.413	30716.09
606.771	31130.54
607.128	31276.97
607.485	31482.62
607.843	31748.15
608.2	32177.97
608.557	32462.93
608.914	32607.33
609.272	32968.68
609.629	33126.19
609.986	33625.39
610.343	33620.64
610.7	33920.52
611.057	34151.47
611.414	34350.34
611.771	34610.9
612.127	34891.12
612.484	35121.39
612.841	35372.46
613.198	35474.83
613.554	35640.7
613.911	36012.67
614.267	36224.19
614.624	36318.2
614.98	36498.53
615.337	36865.98
615.693	36952.08
616.05	37096.26
616.406	37520.43
616.762	37515.45
617.118	37684.72
617.475	37831.6
617.831	38088.32
618.187	38260.97
618.543	38347.75
618.899	38788.19
619.255	38726.5
619.611	38820.05
619.967	39214.62
620.323	39357.67
620.678	39227.05
621.034	39327.16
621.39	39495.06
621.746	39542.75
622.101	40048.27
622.457	39848.05
622.812	40213.69
623.168	40381.37
623.523	40433.12
623.879	40679.44
624.234	40378.66
624.589	40696.61
624.945	40777.29
625.3	40725.54
625.655	40768.02
626.01	40988.36
626.365	41099.54
626.72	41187.9
627.075	41147.9
627.43	41368.46
627.785	41289.14
628.14	41403.94
628.495	41457.72
628.85	41577.72
629.205	41467.44
629.559	41733.87
629.914	41565.74
630.269	41650.49
630.623	41716.25
630.978	41649.58
631.332	41855
631.687	42008.22
632.041	41809.13
632.396	42005.73
632.75	41885.73
633.104	42067.42
633.459	42055.45
633.813	41975.45
634.167	41970.25
634.521	41911.27
634.875	42110.14
635.229	42045.5
635.583	41830.37
635.937	41967.09
636.291	42011.38
636.645	42017.71
636.999	42015.45
637.352	42114.2
637.706	41873.53
638.06	42167.54
638.413	41969.12
638.767	42035.34
639.121	42011.38
639.474	41826.3
639.828	41953.76
640.181	42007.77
640.534	42102
640.888	41994.66
641.241	41762.57
641.594	41873.98
641.947	42078.95
642.301	41861.1
642.654	42055.45
643.007	42117.59
643.36	41958.73
643.713	41988.33
644.066	42104.94
644.419	41915.56
644.771	41737.72
645.124	41300.44
645.477	41221.57
645.83	41070.39
646.182	40971.18
646.535	40937.74
646.888	41027.9
647.24	40608.71
647.593	40814.58
647.945	40949.94
648.298	40621.81
648.65	40574.13
649.002	40602.15
649.355	40784.29
649.707	40677.63
650.059	40926.44
650.411	41378.63
650.763	41348.35
651.115	41561.45
651.467	41737.49
651.819	41561
652.171	41542.69
652.523	41430.15
652.875	41444.84
653.227	41324.39
653.578	41510.6
653.93	41575.23
654.282	41405.52
654.633	41286.65
654.985	41457.5
655.337	41407.1
655.688	41456.82
656.039	41622.92
656.391	41285.3
656.742	41297.73
657.094	41315.81
657.445	41404.62
657.796	41361.45
658.147	41355.35
658.498	41274.45
658.849	41373.43
659.2	41250.95
659.551	41138.18
659.902	41324.85
660.253	41245.53
660.604	41371.62
660.955	41109.48
661.306	41292.53
661.656	41274.68
662.007	41366.43
662.358	41260.21
662.708	41319.87
663.059	41263.83
663.409	41025.64
663.76	41258.63
664.11	41215.47
664.461	41342.25
664.811	41362.81
665.161	41275.81
665.511	41183.15
665.862	41148.58
666.212	41188.58
666.562	41269.25
666.912	41189.03
667.262	41087.56
667.612	41166.21
667.962	41226.54
668.312	41087.56
668.662	41383.15
669.011	41098.18
669.361	41037.4
669.711	41086.21
670.06	41080.33
670.41	41097.28
670.76	40973.44
671.109	41124.4
671.459	41036.49
671.808	40933.67
672.157	41157.62
672.507	40856.61
672.856	40845.31
673.205	40970.73
673.554	41039.43
673.904	40890.73
674.253	41044.18
674.602	41008.02
674.951	40387.47
675.3	40144.99
675.649	40867.68
675.998	40719.89
676.346	40700.46
676.695	40845.99
677.044	40565.32
677.393	40803.5
677.741	40701.13
678.09	40630.17
678.438	40579.1
678.787	40637.86
679.135	40721.47
679.484	40426.11
679.832	40559.22
680.181	40342.95
680.529	40426.34
680.877	40252.33
681.225	40237.42
681.573	40579.1
681.922	40046.24
682.27	40152.45
682.618	40101.83
682.966	39995.62
683.314	40058.44
683.661	39963.07
684.009	39806.92
684.357	39710.65
684.705	39829.07
685.053	39873.36
685.4	39702.74
685.748	39483.54
686.095	39604.66
686.443	39398.79
686.79	39294.39
687.138	39374.61
687.485	39400.15
687.832	39279.7
688.18	39298.23
688.527	39025.92
688.874	39116.54
689.221	38818.02
689.568	38921.97
689.915	38837
690.262	38816.66
690.609	38663.9
690.956	38529.21
691.303	38525.6
691.65	38330.57
691.997	38519.5
692.344	38230.69
692.69	38171.26
693.037	38146.17
693.383	37880.42
693.73	38015.1
694.077	37829.34
694.423	37833.41
694.769	37718.84
695.116	37701.66
695.462	37568.56
695.808	37383.48
696.155	37621.67
696.501	37136.71
696.847	37240.89
697.193	37021.46
697.539	37183.94
697.885	36845.19
698.231	36730.84
698.577	36727.68
698.923	36683.84
699.269	36622.6
699.614	36453.11
699.96	36406.56
700.306	36383.96
700.651	36159.56
700.997	36091.76
701.342	35978.09
701.688	35957.98
702.033	35810.64
702.379	35792.79
702.724	35739.46
703.069	35761.38
703.415	35277.32
703.76	35416.07
704.105	35469.18
704.45	35262.18
704.795	35086.14
705.14	35029.87
705.485	35024.9
705.83	34830.33
706.175	34876.65
706.52	34934.28
706.865	34719.82
707.209	34700.84
707.554	34425.14
707.899	34611.12
708.243	34313.05
708.588	34362.77
708.932	34191.25
709.277	34060.63
709.621	34154.19
709.966	33942.21
710.31	33929.33
710.654	33602.79
710.998	33687.98
711.342	33780.64
711.687	33570.93
712.031	33423.58
712.375	33410.7
712.719	33481.21
713.063	33304.94
713.407	33569.8
713.75	33221.33
714.094	33207.09
714.438	33254.55
714.782	33273.31
715.125	33004.16
715.469	33095.91
715.812	32820.89
716.156	32701.12
716.499	32738.18
716.843	32738.86
717.186	32689.14
717.53	32722.36
717.873	32688.24
718.216	32537.96
718.559	32559.88
718.902	32380.67
719.246	32311.3
719.589	32211.64
719.932	32113.79
720.275	32131.42
720.617	32147.69
720.96	32081.92
721.303	31902.04
721.646	31956.5
721.989	31806
722.331	32079.21
722.674	31797.64
723.016	31846.9
723.359	31809.39
723.701	31833.12
724.044	31537.08
724.386	31472.9
724.729	31527.59
725.071	31419.34
725.413	31270.19
725.755	31392
726.097	31266.8
726.439	31078.34
726.782	31135.73
727.124	31229.29
727.465	30991.56
727.807	31166.69
728.149	31012.35
728.491	30873.59
728.833	30941.84
729.175	30686.71
729.516	30935.51
729.858	30814.61
730.199	30670.21
730.541	30768.29
730.882	30748.63
731.224	30810.77
731.565	30512.47
731.906	30607.39
732.248	30441.29
732.589	30465.92
732.93	30256.21
733.271	30368.98
733.612	30385.92
733.953	30261.18
734.294	30156.55
734.635	30139.38
734.976	30208.53
735.317	29982.77
735.658	30045.37
735.999	30053.05
736.339	29967.86
736.68	30010.79
737.021	29859.61
737.361	29776.67
737.702	29915.88
738.042	29804.02
738.383	29693.29
738.723	29701.42
739.063	29710.01
739.404	29631.59
739.744	29773.96
740.084	29519.28
740.424	29569.9
740.764	29435.21
741.104	29545.04
741.444	29390.02
741.784	29372.39
742.124	29373.07
742.464	29391.6
742.804	29258.27
743.143	29238.61
743.483	29235.45
743.823	29073.19
744.162	29011.05
744.502	29154.09
744.841	29008.11
745.181	29073.64
745.52	28965.62
745.86	29014.21
746.199	28943.7
746.538	28917.71
746.877	28887.66
747.216	28870.94
747.556	28857.15
747.895	28768.79
748.234	28605.18
748.573	28522.24
748.911	28763.59
749.25	28590.04
749.589	28531.96
749.928	28504.84
750.267	28428.46
750.605	28482.7
750.944	28303.72
751.283	28280.22
751.621	28321.35
751.96	28164.74
752.298	28144.4
752.636	28200.67
752.975	28014.69
753.313	27911.41
753.651	28196.6
753.989	27850.17
754.327	27901.24
754.666	27778.31
755.004	27724.98
755.342	27783.73
755.679	27627.35
756.017	27691.08
756.355	27600.46
756.693	27555.26
757.031	27559.33
757.368	27431.88
757.706	27350.98
758.044	27181.71
758.381	27227.82
758.719	27214.71
759.056	27237.76
759.394	27029.63
759.731	26951.89
