Data from hue_100_FLMS001491_00004.txt Node
Date: Tue Feb 07 17:02:33 GMT 2017
User: dcchb
Spectrometer: FLMS00149
Trigger mode: 0
Integration Time (sec): 2.000000E-2
Scans to average: 10
Electric dark correction enabled: true
Nonlinearity correction enabled: false
Boxcar width: 0
XAxis mode: Wavelengths
Number of Pixels in Spectrum: 2048
>>>>>Begin Spectral Data<<<<<
341.393	7.34
341.776	7.34
342.16	7.34
342.543	-59.55
342.927	-55.7
343.31	-74.24
343.693	-78.75
344.077	-65.65
344.46	-64.52
344.843	-54.12
345.226	-25.88
345.61	-21.36
345.993	-4.63
346.376	-6.44
346.759	0.34
347.142	23.39
347.525	35.82
347.908	47.8
348.291	87.12
348.674	95.48
349.057	105.65
349.44	117.17
349.823	153.56
350.206	156.72
350.588	193.33
350.971	234.23
351.354	228.13
351.737	242.14
352.119	272.42
352.502	263.61
352.884	291.4
353.267	274.23
353.65	284.85
354.032	288.69
354.414	320.78
354.797	301.57
355.179	333.21
355.562	330.05
355.944	334.34
356.326	340.44
356.709	353.55
357.091	359.88
357.473	335.92
357.855	368.69
358.238	352.87
358.62	346.77
359.002	335.7
359.384	343.38
359.766	350.84
360.148	328.24
360.53	356.04
360.912	333.89
361.294	349.48
361.676	339.99
362.057	347.22
362.439	338.18
362.821	319.65
363.203	322.82
363.584	350.16
363.966	305.42
364.348	330.73
364.729	314.23
365.111	333.66
365.493	343.38
365.874	323.72
366.256	322.14
366.637	335.25
367.019	330.95
367.4	306.55
367.781	309.71
368.163	316.04
368.544	312.2
368.925	325.53
369.306	336.6
369.688	353.1
370.069	320.33
370.45	344.74
370.831	320.56
371.212	308.35
371.593	302.03
371.974	341.12
372.355	334.79
372.736	323.04
373.117	318.52
373.498	337.96
373.879	335.92
374.26	332.76
374.641	311.74
375.021	319.2
375.402	328.24
375.783	326.66
376.163	343.38
376.544	333.21
376.925	336.6
377.305	356.71
377.686	334.79
378.066	344.28
378.447	328.47
378.827	337.28
379.208	330.05
379.588	333.44
379.968	336.6
380.349	341.57
380.729	346.54
381.109	349.26
381.489	344.51
381.87	334.12
382.25	332.99
382.63	342.93
383.01	344.06
383.39	364.4
383.77	343.15
384.15	350.84
384.53	365.53
384.91	354.45
385.29	374.34
385.67	381.35
386.049	365.53
386.429	372.08
386.809	377.73
387.189	381.8
387.568	380.89
387.948	352.65
388.328	371.4
388.707	387.22
389.087	391.52
389.466	372.53
389.846	380.89
390.225	387.67
390.605	382.48
390.984	383.61
391.363	390.16
391.743	384.06
392.122	399.42
392.501	387.9
392.881	376.83
393.26	396.03
393.639	411.4
394.018	395.13
394.397	387.22
394.776	398.29
395.155	396.49
395.534	415.47
395.913	412.08
396.292	403.94
396.671	395.58
397.05	401.91
397.429	392.42
397.808	415.24
398.186	410.5
398.565	425.19
398.944	417.28
399.323	422.25
399.701	396.71
400.08	423.38
400.458	410.05
400.837	436.71
401.215	442.14
401.594	431.97
401.972	444.4
402.351	440.1
402.729	431.06
403.107	444.4
403.486	456.15
403.864	423.83
404.242	444.17
404.62	448.69
404.999	460.67
405.377	463.6
405.755	494.34
406.133	470.38
406.511	456.6
406.889	468.58
407.267	481.23
407.645	471.96
408.023	490.95
408.401	495.69
408.779	476.94
409.156	468.58
409.534	488.91
409.912	473.55
410.29	495.02
410.667	481.23
411.045	489.14
411.422	506.31
411.8	499.76
412.178	525.3
412.555	504.28
412.933	539.08
413.31	527.33
413.687	531.17
414.065	540.66
414.442	533.21
414.819	530.95
415.197	531.17
415.574	554.22
415.951	556.93
416.328	543.6
416.705	558.29
417.082	562.81
417.46	574.79
417.837	575.92
418.214	557.61
418.591	584.28
418.967	569.14
419.344	571.17
419.721	555.13
420.098	567.33
420.475	586.76
420.852	586.09
421.228	602.58
421.605	616.82
421.982	603.71
422.358	617.27
422.735	634.22
423.111	617.27
423.488	609.36
423.864	639.87
424.241	645.29
424.617	633.54
424.994	648.23
425.37	627.44
425.746	623.37
426.123	641
426.499	659.76
426.875	681.68
427.251	682.58
427.627	684.39
428.003	699.98
428.379	698.85
428.756	697.27
429.132	698.63
429.507	709.7
429.883	719.42
430.259	697.04
430.635	721.68
431.011	734.78
431.387	752.64
431.763	739.3
432.138	745.18
432.514	758.96
432.89	775.91
433.265	759.19
433.641	779.08
434.016	780.43
434.392	802.35
434.767	791.73
435.143	789.7
435.518	831.28
435.894	828.34
436.269	811.62
436.644	852.52
437.02	867.66
437.395	869.24
437.77	838.96
438.145	883.71
438.52	880.77
438.895	892.52
439.271	868.79
439.646	881.45
440.021	925.74
440.395	934.33
440.77	923.93
441.145	898.17
441.52	925.74
441.895	947.21
442.27	950.14
442.645	907.89
443.019	959.18
443.394	970.26
443.769	958.28
444.143	953.31
444.518	991.95
444.892	1003.48
445.267	1018.39
445.641	1003.7
446.016	994.89
446.39	1024.94
446.764	1030.37
447.139	1001.44
447.513	1023.36
447.887	1050.71
448.262	1031.27
448.636	1039.18
449.01	1056.81
449.384	1080.76
449.758	1070.37
450.132	1084.6
450.506	1077.6
450.88	1103.59
451.254	1104.94
451.628	1117.6
452.002	1141.55
452.376	1129.57
452.75	1135.45
453.123	1130.48
453.497	1155.79
453.871	1180.19
454.244	1197.82
454.618	1186.3
454.992	1236.24
455.365	1229.69
455.739	1270.36
456.112	1284.6
456.486	1271.04
456.859	1279.18
457.232	1316.01
457.606	1292.96
457.979	1324.37
458.352	1360.3
458.725	1360.08
459.099	1362.56
459.472	1384.94
459.845	1421.32
460.218	1419.28
460.591	1443.92
460.964	1474.2
461.337	1479.17
461.71	1486.63
462.083	1519.17
462.456	1530.47
462.829	1522.11
463.201	1566.63
463.574	1577.25
463.947	1594.2
464.32	1626.74
464.692	1664.02
465.065	1668.09
465.438	1711.48
465.81	1719.62
466.183	1749.22
466.555	1764.13
466.928	1789.22
467.3	1808.2
467.672	1862.44
468.045	1901.31
468.417	1885.94
468.789	1908.54
469.161	1944.47
469.534	2035.09
469.906	2054.97
470.278	2029.66
470.65	2080.74
471.022	2126.38
471.394	2193.5
471.766	2188.76
472.138	2242.09
472.51	2294.74
472.882	2361.63
473.253	2341.52
473.625	2452.7
473.997	2471.01
474.369	2522.31
474.74	2558.01
475.112	2614.28
475.484	2671.91
475.855	2788.97
476.227	2829.87
476.598	2872.35
476.97	2935.18
477.341	3032.58
477.713	3111.44
478.084	3119.58
478.455	3287.03
478.827	3295.85
479.198	3386.24
479.569	3456.07
479.94	3617.64
480.311	3611.32
480.682	3728.38
481.053	3877.3
481.424	3947.58
481.795	4017.86
482.166	4176.27
482.537	4238.65
482.908	4404.06
483.279	4489.94
483.65	4577.62
484.021	4729.48
484.391	4836.14
484.762	4885.63
485.133	5051.51
485.503	5153.2
485.874	5322.01
486.244	5411.04
486.615	5585.5
486.985	5708.44
487.356	5822.78
487.726	5947.98
488.097	6153.62
488.467	6252.15
488.837	6428.64
489.207	6516.78
489.578	6658.02
489.948	6864.79
490.318	6996.77
490.688	7108.17
491.058	7216.87
491.428	7416.87
491.798	7574.15
492.168	7803.75
492.538	7855.73
492.908	8063.4
493.278	8210.74
493.648	8296.17
494.017	8481.47
494.387	8548.36
494.757	8751.75
495.126	8934.12
495.496	9009.14
495.866	9098.18
496.235	9303.37
496.605	9414.1
496.974	9476.7
497.344	9713.08
497.713	9799.63
498.082	9845.73
498.452	10107.87
498.821	10214.99
499.19	10284.14
499.559	10461.53
499.928	10564.81
500.298	10644.13
500.667	10853.16
501.036	10879.15
501.405	11014.29
501.774	11111.01
502.143	11173.15
502.512	11267.16
502.88	11485.91
503.249	11466.25
503.618	11554.39
503.987	11667.38
504.356	11781.5
504.724	11905.34
505.093	12002.74
505.462	11936.3
505.83	12176.97
506.199	12267.14
506.567	12473.68
506.936	12468.03
507.304	12641.59
507.672	12700.57
508.041	12851.3
508.409	12934.69
508.777	13016.49
509.145	13091.52
509.514	13183.5
509.882	13199.99
510.25	13275.02
510.618	13289.03
510.986	13365.86
511.354	13465.3
511.722	13599.53
512.09	13671.84
512.458	13617.16
512.826	13743.25
513.193	13873.65
513.561	13853.53
513.929	13983.02
514.297	14110.93
514.664	14055.34
515.032	14258.27
515.4	14290.13
515.767	14344.59
516.135	14439.06
516.502	14292.84
516.869	14525.83
517.237	14592.05
517.604	14506.62
517.972	14662.78
518.339	14605.83
518.706	14699.16
519.073	14714.75
519.44	14761.31
519.808	14945.26
520.175	14890.57
520.542	15032.03
520.909	15038.81
521.276	15058.93
521.643	15193.84
522.009	15191.8
522.376	15329.88
522.743	15274.51
523.11	15404
523.477	15470.67
523.843	15484.9
524.21	15529.2
524.577	15648.52
524.943	15631.79
525.31	15679.02
525.676	15895.74
526.043	15921.05
526.409	15874.72
526.776	16065.68
527.142	15925.12
527.508	16019.13
527.874	16092.12
528.241	16065.68
528.607	16120.37
528.973	16173.7
529.339	16111.55
529.705	16238.33
530.071	16268.84
530.437	16355.62
530.803	16281.94
531.169	16331.21
531.535	16271.55
531.901	16348.38
532.267	16301.15
532.632	16224.09
532.998	16279.91
533.364	16399.91
533.73	16245.56
534.095	16332.79
534.461	16344.99
534.826	16416.4
535.192	16424.09
535.557	16430.19
535.923	16417.53
536.288	16393.81
536.653	16340.02
537.019	16315.84
537.384	16301.83
537.749	16233.36
538.114	16285.56
538.479	16260.48
538.845	16248.5
539.21	16131.67
539.575	16131.21
539.94	16204.88
540.305	16188.39
540.67	16197.65
541.034	16153.59
541.399	16227.26
541.764	16096.64
542.129	16170.08
542.494	16082.18
542.858	16055.74
543.223	16086.02
543.587	16023.87
543.952	15898.68
544.316	16031.33
544.681	15853.03
545.045	15904.78
545.41	15876.08
545.774	16001.95
546.138	15796.76
546.503	15813.26
546.867	15683.54
547.231	15757.66
547.595	15769.64
547.959	15774.39
548.324	15663.66
548.688	15675.18
549.052	15688.97
549.416	15595.18
549.779	15687.16
550.143	15627.5
550.507	15618.69
550.871	15609.42
551.235	15573.04
551.599	15592.92
551.962	15457.56
552.326	15537.78
552.689	15528.29
553.053	15468.86
553.417	15413.27
553.78	15573.26
554.143	15370.1
554.507	15452.36
554.87	15411.46
555.234	15530.33
555.597	15394.74
555.96	15461.85
556.323	15412.59
556.686	15447.84
557.05	15424.34
557.413	15435.87
557.776	15379.82
558.139	15471.34
558.502	15364.68
558.865	15416.2
559.228	15450.33
559.59	15438.8
559.953	15362.87
560.316	15563.55
560.679	15449.65
561.041	15534.62
561.404	15472.47
561.767	15603.54
562.129	15446.26
562.492	15637.89
562.854	15515.19
563.217	15571.91
563.579	15575.97
563.941	15639.7
564.304	15737.78
564.666	15710.66
565.028	15710.89
565.39	15685.8
565.753	15798.34
566.115	15791.79
566.477	15819.58
566.839	15772.13
567.201	15836.31
567.563	15799.47
567.925	15931.45
568.287	15867.49
568.648	15888.06
569.01	15883.54
569.372	16022.06
569.734	15999.01
570.095	15975.96
570.457	15947.26
570.819	16021.61
571.18	16087.83
571.542	16043.08
571.903	16112.01
572.265	16128.5
572.626	16100.93
572.987	16154.04
573.349	16215.28
573.71	16160.59
574.071	16179.57
574.432	16160.59
574.794	16340.93
575.155	16182.06
575.516	16309.51
575.877	16161.72
576.238	16246.47
576.599	16335.05
576.96	16293.92
577.32	16320.14
577.681	16387.7
578.042	16352
578.403	16450.53
578.763	16339.12
579.124	16389.96
579.485	16393.35
579.845	16379.8
580.206	16399.68
580.566	16328.72
580.927	16431.32
581.287	16373.47
581.648	16547.47
582.008	16389.06
582.368	16416.4
582.728	16408.27
583.089	16335.28
583.449	16361.49
583.809	16427.93
584.169	16410.75
584.529	16285.56
584.889	16416.63
585.249	16344.99
585.609	16231.32
585.969	16327.59
586.329	16356.52
586.688	16340.25
587.048	16299.8
587.408	16280.59
587.768	16258.67
588.127	16272.91
588.487	16163.3
588.846	16374.37
589.206	16190.42
589.565	16166.92
589.925	16222.74
590.284	16166.92
590.643	16275.39
591.003	16310.19
591.362	16260.25
591.721	16169.41
592.08	16189.07
592.44	16215.28
592.799	16250.53
593.158	16106.13
593.517	16195.85
593.876	16175.51
594.235	16053.7
594.593	16124.43
594.952	16150.87
595.311	16033.59
595.67	16177.54
596.029	16244.43
596.387	16193.36
596.746	16179.57
597.104	16082.63
597.463	16173.7
597.822	16218.67
598.18	16078.79
598.538	16135.73
598.897	16126.02
599.255	16085.79
599.613	16253.47
599.972	16045.79
600.33	16200.59
600.688	16031.1
601.046	16121.95
601.404	16201.72
601.762	16114.94
602.12	16224.32
602.478	16191.33
602.836	16177.99
603.194	16090.76
603.552	16111.1
603.91	16050.76
604.268	16169.86
604.625	16090.31
604.983	16115.4
605.341	16068.17
605.698	16222.74
606.056	16168.05
606.413	16181.38
606.771	16190.87
607.128	16219.12
607.485	16201.04
607.843	16104.32
608.2	16211.66
608.557	16264.54
608.914	16232.68
609.272	16202.85
609.629	16207.37
609.986	16395.39
610.343	16250.99
610.7	16343.86
611.057	16328.05
611.414	16299.57
611.771	16426.12
612.127	16380.7
612.484	16429.51
612.841	16326.46
613.198	16367.14
613.554	16439.45
613.911	16431.09
614.267	16474.03
614.624	16446.46
614.98	16397.87
615.337	16627.7
615.693	16486.69
616.05	16389.51
616.406	16608.72
616.762	16502.73
617.118	16508.38
617.475	16621.82
617.831	16561.94
618.187	16605.1
618.543	16596.74
618.899	16704.76
619.255	16551.32
619.611	16525.78
619.967	16658.88
620.323	16758.77
620.678	16551.77
621.034	16719.67
621.39	16579.56
621.746	16544.99
622.101	16831.08
622.457	16658.43
622.812	16718.09
623.168	16748.6
623.523	16735.49
623.879	16792.21
624.234	16667.25
624.589	16700.92
624.945	16622.95
625.3	16716.51
625.655	16630.18
626.01	16694.82
626.365	16746.11
626.72	16657.75
627.075	16580.02
627.43	16693.46
627.785	16454.6
628.14	16662.73
628.495	16604.65
628.85	16589.73
629.205	16587.93
629.559	16578.66
629.914	16567.14
630.269	16486.69
630.623	16446.23
630.978	16462.73
631.332	16546.34
631.687	16612.11
632.041	16500.47
632.396	16558.1
632.75	16403.52
633.104	16463.41
633.459	16332.56
633.813	16461.6
634.167	16471.32
634.521	16450.75
634.875	16477.42
635.229	16392.22
635.583	16339.34
635.937	16253.7
636.291	16314.03
636.645	16327.82
636.999	16185.68
637.352	16358.33
637.706	16128.05
638.06	16250.99
638.413	16140.25
638.767	16163.76
639.121	16100.93
639.474	16026.36
639.828	15989.98
640.181	16005.12
640.534	16020.26
640.888	16037.21
641.241	15944.55
641.594	15965.12
641.947	16038.79
642.301	15985.91
642.654	16019.13
643.007	16006.92
643.36	15881.05
643.713	15931.45
644.066	15985.68
644.419	15917.66
644.771	15833.59
645.124	15621.85
645.477	15637.67
645.83	15533.94
646.182	15571.91
646.535	15434.28
646.888	15504.79
647.24	15358.35
647.593	15390.22
647.945	15483.1
648.298	15260.5
648.65	15377.56
649.002	15310.9
649.355	15345.25
649.707	15393.83
650.059	15495.52
650.411	15628.4
650.763	15701.17
651.115	15735.29
651.467	15747.04
651.819	15706.37
652.171	15653.94
652.523	15636.09
652.875	15734.84
653.227	15534.39
653.578	15733.94
653.93	15680.83
654.282	15635.41
654.633	15584.56
654.985	15613.04
655.337	15705.24
655.688	15642.64
656.039	15749.08
656.391	15616.43
656.742	15685.12
657.094	15694.84
657.445	15736.2
657.796	15699.81
658.147	15628.4
658.498	15666.14
658.849	15611.23
659.2	15629.31
659.551	15656.42
659.902	15662.53
660.253	15722.86
660.604	15716.31
660.955	15601.74
661.306	15770.77
661.656	15699.36
662.007	15722.86
662.358	15646.93
662.708	15670.66
663.059	15739.59
663.409	15651.45
663.76	15698.23
664.11	15619.82
664.461	15709.53
664.811	15804.9
665.161	15746.59
665.511	15699.81
665.862	15711.34
666.212	15747.5
666.562	15724.9
666.912	15684.67
667.262	15712.02
667.612	15723.77
667.962	15670.21
668.312	15674.5
668.662	15756.31
669.011	15735.74
669.361	15628.85
669.711	15733.48
670.06	15673.83
670.41	15556.09
670.76	15582.53
671.109	15631.34
671.459	15664.33
671.808	15596.09
672.157	15600.38
672.507	15489.88
672.856	15518.58
673.205	15499.14
673.554	15587.5
673.904	15501.17
674.253	15602.64
674.602	15546.37
674.951	15300.28
675.3	15201.3
675.649	15443.77
675.998	15470.89
676.346	15474.96
676.695	15466.37
677.044	15347.51
677.393	15357.68
677.741	15450.55
678.09	15368.3
678.438	15239.03
678.787	15312.25
679.135	15390.22
679.484	15333.04
679.832	15260.5
680.181	15252.14
680.529	15215.31
680.877	15220.96
681.225	15219.6
681.573	15294.85
681.922	15077.23
682.27	15053.28
682.618	15118.13
682.966	15002.2
683.314	15020.73
683.661	15044.01
684.009	14985.26
684.357	14883.34
684.705	14961.98
685.053	14886.73
685.4	14817.8
685.748	14746.39
686.095	14798.14
686.443	14708.88
686.79	14667.52
687.138	14661.42
687.485	14662.1
687.832	14634.53
688.18	14616.45
688.527	14530.13
688.874	14533.52
689.221	14466.17
689.568	14491.94
689.915	14398.38
690.262	14419.62
690.609	14374.88
690.956	14284.03
691.303	14277.7
691.65	14177.59
691.997	14232.06
692.344	14056.92
692.69	14079.29
693.037	14128.1
693.383	13914.32
693.73	14014.66
694.077	13937.83
694.423	13912.74
694.769	13851.73
695.116	13751.84
695.462	13705.97
695.808	13625.29
696.155	13749.81
696.501	13613.09
696.847	13574.22
697.193	13565.63
697.539	13587.1
697.885	13421.68
698.231	13355.69
698.577	13328.58
698.923	13388.24
699.269	13233.89
699.614	13167.68
699.96	13104.63
700.306	13081.58
700.651	13047.45
700.997	13071.18
701.342	13001.81
701.688	12960.68
702.033	12900.79
702.379	12906.67
702.724	12810.85
703.069	12912.54
703.415	12661.47
703.76	12744.41
704.105	12684.75
704.45	12731.98
704.795	12573.57
705.14	12525.66
705.485	12530.63
705.83	12488.6
706.175	12483.4
706.52	12464.42
706.865	12344.87
707.209	12322.5
707.554	12302.84
707.899	12371.77
708.243	12196.85
708.588	12200.02
708.932	12099.91
709.277	12044.54
709.621	12060.36
709.966	12000.93
710.31	11990.53
710.654	11946.92
710.998	11946.24
711.342	11979.01
711.687	11902.62
712.031	11844.77
712.375	11872.8
712.719	11855.17
713.063	11834.15
713.407	11792.8
713.75	11745.11
714.094	11799.35
714.438	11701.5
714.782	11662.63
715.125	11655.63
715.469	11613.14
715.812	11598.45
716.156	11582.41
716.499	11473.48
716.843	11510.77
717.186	11492.24
717.53	11565.01
717.873	11478.91
718.216	11546.48
718.559	11377.44
718.902	11327.5
719.246	11461.05
719.589	11394.39
719.932	11305.58
720.275	11259.03
720.617	11212.7
720.96	11340.38
721.303	11231.23
721.646	11288.4
721.989	11257.67
722.331	11301.74
722.674	11232.36
723.016	11258.35
723.359	11229.2
723.701	11263.55
724.044	11198.01
724.386	11110.33
724.729	11254.73
725.071	11134.51
725.413	11161.18
725.755	11174.51
726.097	11135.19
726.439	11018.58
726.782	11047.96
727.124	11103.78
727.465	11035.98
727.807	11013.61
728.149	11091.35
728.491	10980.62
728.833	11030.11
729.175	11037.34
729.516	10973.38
729.858	10948.98
730.199	10964.34
730.541	10958.24
730.882	10926.61
731.224	10968.86
731.565	10943.78
731.906	10902.88
732.248	10961.41
732.589	10883.22
732.93	10860.62
733.271	10900.39
733.612	10940.16
733.953	10877.34
734.294	10911.01
734.635	10892.71
734.976	10835.31
735.317	10932.25
735.658	10824.91
735.999	10912.14
736.339	10839.38
736.68	10879.6
737.021	10889.32
737.361	10935.19
737.702	11015.19
738.042	10861.07
738.383	10813.61
738.723	10901.97
739.063	10886.61
739.404	10875.99
739.744	10912.59
740.084	10881.18
740.424	10883.67
740.764	10986.04
741.104	10951.24
741.444	10888.87
741.784	11008.41
742.124	11015.87
742.464	10974.74
742.804	11026.72
743.143	11024.46
743.483	11034.4
743.823	11071.23
744.162	11034.4
744.502	11170.21
744.841	11143.32
745.181	11253.15
745.52	11179.25
745.86	11230.55
746.199	11249.31
746.538	11291.79
746.877	11414.5
747.216	11388.97
747.556	11427.61
747.895	11445.69
748.234	11480.72
748.573	11525.69
748.911	11595.51
749.25	11779.46
749.589	11740.37
749.928	11874.15
750.267	11883.87
750.605	11889.52
750.944	12012.9
751.283	12041.6
751.621	12183.75
751.96	12271.2
752.298	12321.37
752.636	12451.31
752.975	12499.22
753.313	12566.56
753.651	12629.16
753.989	12766.78
754.327	12927.23
754.666	12908.7
755.004	13128.58
755.342	13232.76
755.679	13373.32
