Data from hue_200_FLMS001491_00047.txt Node
Date: Tue Feb 07 16:43:21 GMT 2017
User: dcchb
Spectrometer: FLMS00149
Trigger mode: 0
Integration Time (sec): 2.000000E-2
Scans to average: 10
Electric dark correction enabled: true
Nonlinearity correction enabled: false
Boxcar width: 0
XAxis mode: Wavelengths
Number of Pixels in Spectrum: 2048
>>>>>Begin Spectral Data<<<<<
341.393	8.83
341.776	8.83
342.16	8.83
342.543	-58.97
342.927	-65.97
343.31	-85.86
343.693	-62.81
344.077	-58.97
344.46	-49.25
344.843	-59.42
345.226	-37.72
345.61	-32.3
345.993	-14.45
346.376	1.37
346.759	-0.21
347.142	27.13
347.525	32.1
347.908	61.48
348.291	87.24
348.674	68.71
349.057	122.95
349.44	136.28
349.823	136.96
350.206	142.38
350.588	186.45
350.971	201.14
351.354	208.14
351.737	231.65
352.119	252.44
352.502	261.02
352.884	268.48
353.267	304.41
353.65	305.99
354.032	300.8
354.414	311.19
354.797	307.12
355.179	317.29
355.562	334.02
355.944	304.19
356.326	332.89
356.709	323.17
357.091	322.72
357.473	338.99
357.855	336.05
358.238	345.32
358.62	338.99
359.002	336.28
359.384	345.77
359.766	350.97
360.148	362.49
360.53	350.51
360.912	323.17
361.294	329.72
361.676	344.86
362.057	341.02
362.439	323.85
362.821	329.95
363.203	317.07
363.584	325.2
363.966	326.56
364.348	327.01
364.729	319.33
365.111	305.54
365.493	322.27
365.874	322.94
366.256	307.58
366.637	314.13
367.019	308.25
367.4	304.86
367.781	318.65
368.163	298.54
368.544	302.83
368.925	322.94
369.306	313
369.688	313.9
370.069	294.47
370.45	304.86
370.831	310.06
371.212	307.35
371.593	315.49
371.974	308.71
372.355	313.45
372.736	322.27
373.117	310.51
373.498	302.15
373.879	310.29
374.26	325.43
374.641	314.36
375.021	333.56
375.402	330.63
375.783	332.21
376.163	326.79
376.544	331.08
376.925	340.57
377.305	334.69
377.686	318.65
378.066	342.38
378.447	331.76
378.827	327.69
379.208	314.36
379.588	321.59
379.968	347.35
380.349	324.98
380.729	308.03
381.109	328.59
381.489	347.12
381.87	346.22
382.25	352.32
382.63	342.15
383.01	330.85
383.39	336.05
383.77	336.5
384.15	360.46
384.53	345.77
384.91	332.66
385.29	325.2
385.67	348.25
386.049	344.64
386.429	352.1
386.809	348.25
387.189	347.12
387.568	354.36
387.948	366.78
388.328	345.54
388.707	355.94
389.087	356.16
389.466	353.68
389.846	341.7
390.225	365.43
390.605	364.52
390.984	374.24
391.363	381.02
391.743	375.15
392.122	374.47
392.501	370.4
392.881	377.63
393.26	381.25
393.639	367.91
394.018	381.25
394.397	367.69
394.776	375.37
395.155	402.72
395.534	398.87
395.913	413.56
396.292	399.55
396.671	393
397.05	398.42
397.429	390.74
397.808	399.1
398.186	395.26
398.565	424.18
398.944	390.51
399.323	422.15
399.701	411.08
400.08	419.66
400.458	412.43
400.837	429.61
401.215	426.9
401.594	430.74
401.972	444.07
402.351	426.22
402.729	440.68
403.107	450.4
403.486	450.4
403.864	446.1
404.242	447.69
404.62	474.58
404.999	444.75
405.377	477.06
405.755	473.45
406.133	452.66
406.511	454.24
406.889	475.93
407.267	488.14
407.645	482.04
408.023	506.22
408.401	520.45
408.779	505.99
409.156	500.34
409.534	540.56
409.912	525.42
410.29	537.4
410.667	543.95
411.045	543.73
411.422	563.62
411.8	579.66
412.178	597.96
412.555	572.2
412.933	608.13
413.31	595.7
413.687	621.01
414.065	631.18
414.442	642.03
414.819	640.22
415.197	639.77
415.574	670.05
415.951	686.32
416.328	691.07
416.705	707.57
417.082	715.02
417.46	728.58
417.837	718.41
418.214	735.81
418.591	742.14
418.967	741.46
419.344	751.86
419.721	757.96
420.098	773.33
420.475	804.96
420.852	808.13
421.228	816.26
421.605	851.52
421.982	848.81
422.358	864.17
422.735	908.24
423.111	903.27
423.488	924.28
423.864	937.39
424.241	942.36
424.617	960.21
424.994	1000.21
425.37	1000.89
425.746	1003.83
426.123	1015.58
426.499	1012.87
426.875	1056.71
427.251	1079.31
427.627	1081.34
428.003	1093.32
428.379	1114.79
428.756	1105.75
429.132	1156.14
429.507	1136.26
429.883	1151.62
430.259	1165.18
430.635	1194.11
431.011	1210.6
431.387	1240.89
431.763	1273.65
432.138	1262.13
432.514	1282.47
432.89	1296.03
433.265	1332.86
433.641	1326.76
434.016	1347.1
434.392	1392.97
434.767	1435.68
435.143	1415.12
435.518	1500.99
435.894	1489.92
436.269	1534.44
436.644	1555.91
437.02	1580.54
437.395	1585.96
437.77	1652.63
438.145	1691.04
438.52	1673.64
438.895	1690.37
439.271	1752.96
439.646	1808.55
440.021	1797.03
440.395	1829.12
440.77	1822.79
441.145	1836.58
441.52	1893.52
441.895	1941.66
442.27	1919.51
442.645	1947.53
443.019	2015.78
443.394	1977.14
443.769	1997.25
444.143	2026.18
444.518	2081.77
444.892	2073.41
445.267	2085.61
445.641	2140.97
446.016	2159.05
446.39	2161.99
446.764	2140.52
447.139	2170.13
447.513	2221.42
447.887	2199.5
448.262	2242.22
448.636	2251.03
449.01	2288.54
449.384	2301.2
449.758	2327.41
450.132	2343.91
450.506	2353.17
450.88	2384.36
451.254	2398.14
451.628	2430.46
452.002	2456.45
452.376	2455.54
452.75	2491.47
453.123	2485.15
453.497	2582.32
453.871	2575.31
454.244	2614.41
454.618	2661.19
454.992	2676.1
455.365	2651.47
455.739	2759.94
456.112	2775.31
456.486	2794.29
456.859	2789.77
457.232	2880.84
457.606	2856.21
457.979	2928.75
458.352	2960.16
458.725	3015.08
459.099	3005.58
459.472	3085.13
459.845	3117.67
460.218	3133.72
460.591	3185.92
460.964	3184.56
461.337	3260.27
461.71	3317.67
462.083	3332.13
462.456	3329.64
462.829	3370.1
463.201	3419.59
463.574	3440.83
463.947	3517.44
464.32	3556.76
464.692	3595.4
465.065	3631.11
465.438	3665.68
465.81	3708.84
466.183	3775.06
466.555	3850.08
466.928	3900.7
467.3	3897.76
467.672	3909.29
468.045	4028.83
468.417	4064.31
468.789	3986.35
469.161	4108.83
469.534	4184.31
469.906	4266.34
470.278	4266.79
470.65	4265.44
471.022	4394.47
471.394	4471.99
471.766	4495.26
472.138	4573
472.51	4625.2
472.882	4712.21
473.253	4736.84
473.625	4804.41
473.997	4907.46
474.369	4952.88
474.74	4963.5
475.112	5075.81
475.484	5158.52
475.855	5194
476.227	5304.51
476.598	5398.97
476.97	5396.71
477.341	5494.11
477.713	5633.99
478.084	5636.25
478.455	5803.03
478.827	5875.34
479.198	5952.17
479.569	5994.88
479.94	6150.59
480.311	6166.18
480.682	6305.39
481.053	6477.58
481.424	6520.29
481.795	6613.85
482.166	6669.22
482.537	6790.8
482.908	6866.73
483.279	6951.47
483.65	7048.87
484.021	7206.15
484.391	7217.45
484.762	7294.29
485.133	7384.9
485.503	7513.71
485.874	7627.38
486.244	7705.12
486.615	7806.14
486.985	7855.63
487.356	8017.43
487.726	8061.05
488.097	8152.12
488.467	8232.34
488.837	8377.19
489.207	8404.09
489.578	8514.37
489.948	8635.49
490.318	8733.8
490.688	8748.94
491.058	8858.76
491.428	8926.56
491.798	9085.42
492.168	9161.81
492.538	9222.6
492.908	9272.99
493.278	9429.6
493.648	9349.6
494.017	9532.42
494.387	9605.41
494.757	9625.52
495.126	9743.03
495.496	9734.9
495.866	9811.73
496.235	9837.5
496.605	9948.91
496.974	9948
497.344	10074.1
497.713	10061.67
498.082	10133.76
498.452	10187.99
498.821	10196.81
499.19	10265.96
499.559	10304.15
499.928	10381.44
500.298	10347.09
500.667	10483.81
501.036	10414.2
501.405	10535.56
501.774	10507.76
502.143	10576.01
502.512	10610.36
502.88	10648.1
503.249	10761.31
503.618	10705.5
503.987	10782.1
504.356	10780.3
504.724	10831.14
505.093	10812.16
505.462	10811.26
505.83	10901.2
506.199	11004.02
506.567	11043.34
506.936	10970.57
507.304	11121.76
507.672	11070.01
508.041	11233.84
508.409	11206.73
508.777	11256.89
509.145	11284.46
509.514	11259.83
509.882	11294.63
510.25	11366.95
510.618	11371.69
510.986	11291.24
511.354	11402.65
511.722	11440.39
512.09	11476.1
512.458	11436.55
512.826	11527.39
513.193	11565.59
513.561	11505.93
513.929	11605.58
514.297	11652.36
514.664	11712.02
515.032	11684
515.4	11686.26
515.767	11692.36
516.135	11732.36
516.502	11620.95
516.869	11748.18
517.237	11723.1
517.604	11724.68
517.972	11777.56
518.339	11838.57
518.706	11810.55
519.073	11760.83
519.44	11828.86
519.808	11856.88
520.175	11888.06
520.542	11856.43
520.909	11923.99
521.276	11817.1
521.643	11975.52
522.009	11927.84
522.376	12007.38
522.743	11980.26
523.11	12022.52
523.477	12006.48
523.843	11999.47
524.21	12101.84
524.577	12160.82
524.943	12115.63
525.31	12148.62
525.676	12184.33
526.043	12185.46
526.409	12220.94
526.776	12223.87
527.142	12166.47
527.508	12187.94
527.874	12200.6
528.241	12219.13
528.607	12203.99
528.973	12225.91
529.339	12157.89
529.705	12203.76
530.071	12272.46
530.437	12182.29
530.803	12204.21
531.169	12258
531.535	12104.1
531.901	12159.92
532.267	12114.72
532.632	12098.91
532.998	12138.45
533.364	11993.15
533.73	12046.25
534.095	12036.99
534.461	12086.48
534.826	11974.16
535.192	11934.62
535.557	12012.81
535.923	11911.34
536.288	11858.46
536.653	11947.04
537.019	11776.43
537.384	11718.8
537.749	11743.66
538.114	11636.32
538.479	11640.84
538.845	11603.32
539.21	11553.16
539.575	11563.55
539.94	11513.38
540.305	11524.68
540.67	11410.11
541.034	11429.54
541.399	11399.49
541.764	11340.51
542.129	11261.86
542.494	11306.16
542.858	11254.63
543.223	11166.95
543.587	11183.45
543.952	11094.41
544.316	11082.89
544.681	11001.98
545.045	10991.59
545.41	10948.43
545.774	10846.28
546.138	10832.72
546.503	10774.65
546.867	10695.1
547.231	10780.75
547.595	10678.6
547.959	10721.99
548.324	10601.77
548.688	10536.91
549.052	10544.6
549.416	10473.86
549.779	10449
550.143	10341.89
550.507	10467.31
550.871	10369.46
551.235	10314.32
551.599	10286.98
551.962	10296.92
552.326	10260.99
552.689	10193.87
553.053	10082.69
553.417	10136.92
553.78	10150.93
554.143	10080.88
554.507	10120.65
554.87	10049.69
555.234	10078.85
555.597	9907.78
555.96	9941.67
556.323	9946.87
556.686	9852.64
557.05	9888.79
557.413	9825.74
557.776	9823.26
558.139	9872.07
558.502	9773.09
558.865	9805.41
559.228	9725.86
559.59	9745.29
559.953	9716.59
560.316	9804.05
560.679	9662.13
561.041	9765.18
561.404	9703.04
561.767	9721.34
562.129	9616.03
562.492	9676.14
562.854	9660.33
563.217	9607.67
563.579	9635.92
563.941	9630.95
564.304	9640.89
564.666	9607.9
565.028	9612.42
565.39	9652.64
565.753	9682.92
566.115	9653.09
566.477	9658.74
566.839	9592.3
567.201	9693.09
567.563	9679.99
567.925	9663.71
568.287	9654.45
568.648	9626.88
569.01	9640.66
569.372	9674.56
569.734	9660.33
570.095	9639.99
570.457	9738.29
570.819	9713.66
571.18	9624.85
571.542	9751.62
571.903	9686.99
572.265	9720.21
572.626	9756.59
572.987	9697.39
573.349	9720.89
573.71	9766.99
574.071	9708.23
574.432	9767.21
574.794	9741.45
575.155	9699.42
575.516	9721.34
575.877	9747.1
576.238	9697.16
576.599	9684.96
576.96	9748.46
577.32	9769.47
577.681	9782.81
578.042	9734.67
578.403	9706.88
578.763	9698.29
579.124	9715.69
579.485	9754.56
579.845	9704.17
580.206	9803.6
580.566	9692.41
580.927	9740.77
581.287	9747.33
581.648	9706.43
582.008	9746.2
582.368	9679.08
582.728	9727.89
583.089	9712.98
583.449	9665.07
583.809	9723.83
584.169	9711.85
584.529	9646.99
584.889	9777.38
585.249	9710.49
585.609	9664.62
585.969	9712.08
586.329	9643.38
586.688	9682.47
587.048	9623.72
587.408	9640.21
587.768	9636.82
588.127	9681.34
588.487	9670.95
588.846	9649.48
589.206	9567.9
589.565	9579.88
589.925	9591.17
590.284	9564.51
590.643	9541.23
591.003	9563.83
591.362	9543.72
591.721	9556.82
592.08	9580.1
592.44	9606.99
592.799	9600.89
593.158	9528.8
593.517	9468.69
593.876	9607.22
594.235	9483.83
594.593	9521.8
594.952	9605.86
595.311	9475.92
595.67	9536.94
596.029	9499.65
596.387	9498.52
596.746	9505.75
597.104	9451.52
597.463	9482.02
597.822	9515.7
598.18	9460.78
598.538	9431.86
598.897	9470.27
599.255	9386.43
599.613	9513.21
599.972	9489.03
600.33	9492.65
600.688	9439.54
601.046	9474.34
601.404	9481.8
601.762	9484.06
602.12	9508.24
602.478	9497.84
602.836	9443.83
603.194	9415.59
603.552	9398.86
603.91	9418.52
604.268	9469.6
604.625	9460.56
604.983	9391.63
605.341	9467.11
605.698	9457.84
606.056	9444.51
606.413	9416.72
606.771	9436.83
607.128	9392.08
607.485	9442.48
607.843	9448.58
608.2	9426.21
608.557	9512.98
608.914	9431.4
609.272	9547.33
609.629	9510.5
609.986	9520.22
610.343	9524.51
610.7	9526.54
611.057	9486.32
611.414	9519.76
611.771	9466.88
612.127	9505.07
612.484	9505.98
612.841	9510.05
613.198	9524.51
613.554	9572.19
613.911	9546.43
614.267	9554.34
614.624	9539.42
614.98	9524.28
615.337	9586.65
615.693	9591.63
616.05	9558.41
616.406	9615.58
616.762	9595.24
617.118	9577.62
617.475	9588.69
617.831	9616.26
618.187	9605.41
618.543	9632.98
618.899	9633.21
619.255	9651.06
619.611	9626.88
619.967	9604.51
620.323	9671.4
620.678	9666.88
621.034	9668.91
621.39	9675.01
621.746	9595.92
622.101	9716.37
622.457	9647.44
622.812	9581.23
623.168	9635.24
623.523	9576.49
623.879	9700.78
624.234	9592.08
624.589	9654.45
624.945	9629.82
625.3	9627.56
625.655	9625.75
626.01	9578.75
626.365	9693.32
626.72	9646.09
627.075	9567.22
627.43	9585.07
627.785	9614.9
628.14	9575.36
628.495	9577.84
628.85	9598.63
629.205	9523.83
629.559	9594.79
629.914	9626.43
630.269	9577.16
630.623	9549.37
630.978	9555.24
631.332	9534.23
631.687	9592.3
632.041	9491.52
632.396	9500.1
632.75	9522.02
633.104	9434.57
633.459	9448.58
633.813	9490.84
634.167	9420.11
634.521	9405.42
634.875	9442.25
635.229	9429.6
635.583	9386.89
635.937	9340.79
636.291	9288.36
636.645	9303.27
636.999	9305.08
637.352	9364.51
637.706	9276.83
638.06	9335.36
638.413	9344.18
638.767	9242.48
639.121	9314.57
639.474	9207
639.828	9211.52
640.181	9245.19
640.534	9229.38
640.888	9197.51
641.241	9161.36
641.594	9201.13
641.947	9198.42
642.301	9219.88
642.654	9190.05
643.007	9225.99
643.36	9205.2
643.713	9198.64
644.066	9167.91
644.419	9081.36
644.771	9079.1
645.124	9061.24
645.477	8991.19
645.83	8962.49
646.182	8894.24
646.535	8903.28
646.888	8881.14
647.24	8812.21
647.593	8855.15
647.945	8818.54
648.298	8825.32
648.65	8837.75
649.002	8906.67
649.355	8849.27
649.707	8837.75
650.059	8892.66
650.411	8988.93
650.763	9005.88
651.115	9050.4
651.467	9015.82
651.819	9082.49
652.171	9087.68
652.523	8984.86
652.875	9073.22
653.227	9062.6
653.578	9110.74
653.93	9030.96
654.282	9028.25
654.633	8966.11
654.985	9026.9
655.337	9043.17
655.688	9013.79
656.039	9076.39
656.391	9025.09
656.742	9024.86
657.094	9031.64
657.445	9044.75
657.796	9024.41
658.147	9085.42
658.498	9055.6
658.849	9056.5
659.2	9022.83
659.551	8989.83
659.902	9096.95
660.253	8988.48
660.604	9063.5
660.955	9010.62
661.306	9128.14
661.656	9142.15
662.007	9096.27
662.358	9129.72
662.708	9116.16
663.059	9136.05
663.409	9085.2
663.76	9140.34
664.11	9096.72
664.461	9171.07
664.811	9156.38
665.161	9130.85
665.511	9082.71
665.862	9119.32
666.212	9172.2
666.562	9160.45
666.912	9150.28
667.262	9094.69
667.612	9158.42
667.962	9192.99
668.312	9110.28
668.662	9177.17
669.011	9180.79
669.361	9113.9
669.711	9124.97
670.06	9165.65
670.41	9120.9
670.76	9153.67
671.109	9101.02
671.459	9160.68
671.808	9112.09
672.157	9107.57
672.507	9024.64
672.856	9134.46
673.205	9086.55
673.554	9127.91
673.904	9052.66
674.253	9119.77
674.602	9069.83
674.951	8924.3
675.3	8908.03
675.649	9001.59
675.998	8992.55
676.346	9056.27
676.695	8972.89
677.044	8987.35
677.393	9023.28
677.741	9019.66
678.09	8882.27
678.438	8935.6
678.787	8942.15
679.135	8932.66
679.484	8852.21
679.832	8875.49
680.181	8853.57
680.529	8843.85
680.877	8821.25
681.225	8807.69
681.573	8898.76
681.922	8754.81
682.27	8762.04
682.618	8725.66
682.966	8750.74
683.314	8698.09
683.661	8761.37
684.009	8680.01
684.357	8543.74
684.705	8597.98
685.053	8666.45
685.4	8608.83
685.748	8581.71
686.095	8553.01
686.443	8497.19
686.79	8470.53
687.138	8538.77
687.485	8534.25
687.832	8496.97
688.18	8486.34
688.527	8419.68
688.874	8400.92
689.221	8376.52
689.568	8323.41
689.915	8310.76
690.262	8374.03
690.609	8314.82
690.956	8289.74
691.303	8278.21
691.65	8147.82
691.997	8156.86
692.344	8187.6
692.69	8134.49
693.037	8155.73
693.383	8090.65
693.73	8033.7
694.077	7988.05
694.423	8014.27
694.769	7952.57
695.116	7934.27
695.462	7948.96
695.808	7833.48
696.155	7904.67
696.501	7809.75
696.847	7828.51
697.193	7767.95
697.539	7797.1
697.885	7698.57
698.231	7650.89
698.577	7660.15
698.923	7638.23
699.269	7572.47
699.614	7588.06
699.96	7534.05
700.306	7525.47
700.651	7425.58
700.997	7484.34
701.342	7465.58
701.688	7430.33
702.033	7366.15
702.379	7289.54
702.724	7287.51
703.069	7346.49
703.415	7204.57
703.76	7201.41
704.105	7213.38
704.45	7193.05
704.795	7182.42
705.14	7163.67
705.485	7104.69
705.83	7078.7
706.175	7126.61
706.52	7046.38
706.865	7076.21
707.209	7049.09
707.554	7024.69
707.899	6986.5
708.243	6973.62
708.588	6937.23
708.932	6933.84
709.277	6877.8
709.621	6930.23
709.966	6871.47
710.31	6861.3
710.654	6795.09
710.998	6835.54
711.342	6789.21
711.687	6769.78
712.031	6775.66
712.375	6695.88
712.719	6757.35
713.063	6706.05
713.407	6701.08
713.75	6651.59
714.094	6671.48
714.438	6631.48
714.782	6619.28
715.125	6659.73
715.469	6600.74
715.812	6575.66
716.156	6563.23
716.499	6608.43
716.843	6553.97
717.186	6529.33
717.53	6513.74
717.873	6499.5
718.216	6533.18
718.559	6476.91
718.902	6484.59
719.246	6483.46
719.589	6495.44
719.932	6421.77
720.275	6484.14
720.617	6462.22
720.96	6428.55
721.303	6440.52
721.646	6410.47
721.989	6440.52
722.331	6377.93
722.674	6383.58
723.016	6429.68
723.359	6394.2
723.701	6422.22
724.044	6332.95
724.386	6356.01
724.729	6413.4
725.071	6357.14
725.413	6367.53
725.755	6375.21
726.097	6307.87
726.439	6306.29
726.782	6335.21
727.124	6352.39
727.465	6287.31
727.807	6285.72
728.149	6297.02
728.491	6320.75
728.833	6300.19
729.175	6287.53
729.516	6320.53
729.858	6307.87
730.199	6291.6
730.541	6316.68
730.882	6355.55
731.224	6315.55
731.565	6291.37
731.906	6252.73
732.248	6330.47
732.589	6265.39
732.93	6219.74
733.271	6272.62
733.612	6299.96
733.953	6315.55
734.294	6311.49
734.635	6288.89
734.976	6301.77
735.317	6283.01
735.658	6332.28
735.999	6334.76
736.339	6306.74
736.68	6360.07
737.021	6334.54
737.361	6312.62
737.702	6331.15
738.042	6329.57
738.383	6286.63
738.723	6330.24
739.063	6362.33
739.404	6402.78
739.744	6358.27
740.084	6331.37
740.424	6383.12
740.764	6371.37
741.104	6432.16
741.444	6418.38
741.784	6417.02
742.124	6450.69
742.464	6398.72
742.804	6449.11
743.143	6530.01
743.483	6525.04
743.823	6481.43
744.162	6601.2
744.502	6572.72
744.841	6649.78
745.181	6647.52
745.52	6615.89
745.86	6701.53
746.199	6744.24
746.538	6796.9
746.877	6859.95
747.216	6878.48
747.556	6879.61
747.895	7014.74
748.234	6988.76
748.573	7025.37
748.911	7109.43
749.25	7214.74
749.589	7224.68
749.928	7268.75
750.267	7325.47
750.605	7416.09
750.944	7535.41
751.283	7596.88
751.621	7675.52
751.96	7742.86
752.298	7791.67
752.636	7951.67
752.975	8013.14
753.313	8074.6
753.651	8256.52
753.989	8333.13
754.327	8391.88
754.666	8503.75
755.004	8639.33
755.342	8779.22
755.679	8882.49
756.017	9026.9
756.355	9157.97
756.693	9309.15
757.031	9496.26
757.368	9575.58
757.706	9699.19
758.044	9816.93
758.381	10022.35
758.719	10229.58
759.056	10350.48
759.394	10498.27
759.731	10602.67
760.068	10837.24
760.405	10895.55
760.743	11130.12
761.08	11291.69
761.417	11502.08
761.754	11585.25
762.091	11825.24
762.428	11967.38
762.765	12053.48
763.102	12323.76
763.438	12380.03
763.775	12628.83
764.112	12912.67
764.449	13051.2
764.785	13162.15
765.122	13281.92
765.458	13471.07
