Data from hue_40_FLMS001491_47.txt Node
Date: Mon Feb 06 15:07:58 GMT 2017
User: dcchb
Spectrometer: FLMS00149
Trigger mode: 0
Integration Time (sec): 2.000000E-2
Scans to average: 10
Electric dark correction enabled: true
Nonlinearity correction enabled: false
Boxcar width: 0
XAxis mode: Wavelengths
Number of Pixels in Spectrum: 2048
>>>>>Begin Spectral Data<<<<<
341.393	-9.19
341.776	-9.19
342.16	-9.19
342.543	-43.77
342.927	-60.72
343.31	-55.75
343.693	-67.5
344.077	-69.31
344.46	-47.16
344.843	-61.17
345.226	-42.87
345.61	-29.99
345.993	-30.44
346.376	-4.22
346.759	-11.45
347.142	28.77
347.525	42.1
347.908	49.56
348.291	73.52
348.674	99.05
349.057	126.85
349.44	113.74
349.823	152.61
350.206	169.11
350.588	197.58
350.971	219.95
351.354	233.06
351.737	258.59
352.119	242.55
352.502	278.93
352.884	283
353.267	298.82
353.65	289.55
354.032	287.07
354.414	294.75
354.797	313.96
355.179	341.76
355.562	319.16
355.944	317.58
356.326	344.02
356.709	347.63
357.091	329.55
357.473	334.53
357.855	328.2
358.238	303.57
358.62	353.73
359.002	356.45
359.384	355.32
359.766	343.34
360.148	339.95
360.53	340.85
360.912	332.04
361.294	335.88
361.676	318.03
362.057	343.34
362.439	334.53
362.821	331.36
363.203	336.33
363.584	331.36
363.966	315.54
364.348	338.59
364.729	343.11
365.111	325.94
365.493	325.71
365.874	316.9
366.256	308.76
366.637	328.42
367.019	299.05
367.4	316.22
367.781	294.07
368.163	301.98
368.544	313.51
368.925	316.45
369.306	330.91
369.688	287.97
370.069	321.19
370.45	327.29
370.831	311.47
371.212	299.5
371.593	316.22
371.974	314.64
372.355	309.22
372.736	336.33
373.117	334.07
373.498	312.38
373.879	321.64
374.26	326.39
374.641	315.54
375.021	327.29
375.402	332.49
375.783	309.89
376.163	320.06
376.544	325.71
376.925	303.34
377.305	340.63
377.686	323.68
378.066	329.78
378.447	313.51
378.827	335.43
379.208	321.42
379.588	331.36
379.968	332.49
380.349	313.73
380.729	308.99
381.109	323.45
381.489	339.04
381.87	335.43
382.25	309.44
382.63	337.24
383.01	370.23
383.39	335.66
383.77	331.59
384.15	339.27
384.53	358.93
384.91	335.43
385.29	346.95
385.67	354.64
386.049	355.99
386.429	332.49
386.809	346.73
387.189	350.8
387.568	368.2
387.948	349.21
388.328	365.94
388.707	375.2
389.087	357.35
389.466	366.16
389.846	360.74
390.225	378.14
390.605	359.84
390.984	350.34
391.363	351.25
391.743	374.3
392.122	352.38
392.501	357.35
392.881	381.76
393.26	361.87
393.639	366.61
394.018	358.25
394.397	385.82
394.776	409.55
395.155	375.43
395.534	365.03
395.913	384.24
396.292	391.25
396.671	384.02
397.05	385.82
397.429	390.57
397.808	377.24
398.186	391.47
398.565	365.26
398.944	385.15
399.323	392.38
399.701	403
400.08	408.2
400.458	405.71
400.837	421.98
401.215	401.19
401.594	375.65
401.972	394.41
402.351	406.84
402.729	400.06
403.107	407.74
403.486	371.13
403.864	404.13
404.242	422.66
404.62	419.49
404.999	418.14
405.377	403.45
405.755	422.43
406.133	414.07
406.511	410.23
406.889	419.04
407.267	426.95
407.645	415.43
408.023	435.99
408.401	438.03
408.779	428.76
409.156	426.27
409.534	428.76
409.912	435.09
410.29	436.22
410.667	428.31
411.045	436.22
411.422	444.13
411.8	444.8
412.178	457.46
412.555	449.78
412.933	479.61
413.31	445.71
413.687	475.31
414.065	464.01
414.442	452.04
414.819	479.61
415.197	472.6
415.574	495.65
415.951	489.32
416.328	509.66
416.705	506.95
417.082	511.02
417.46	497.46
417.837	505.14
418.214	507.63
418.591	490.45
418.967	495.42
419.344	512.37
419.721	516.89
420.098	516.44
420.475	509.44
420.852	535.88
421.228	528.42
421.605	508.08
421.982	526.38
422.358	522.77
422.735	512.15
423.111	526.38
423.488	522.09
423.864	544.46
424.241	558.47
424.617	558.25
424.994	568.19
425.37	533.84
425.746	555.99
426.123	572.71
426.499	552.6
426.875	570.68
427.251	574.74
427.627	579.26
428.003	600.51
428.379	587.85
428.756	584.24
429.132	595.76
429.507	591.47
429.883	611.13
430.259	612.48
430.635	602.77
431.011	604.35
431.387	635.08
431.763	625.36
432.138	615.87
432.514	640.05
432.89	624.69
433.265	635.76
433.641	659.71
434.016	633.73
434.392	676.21
434.767	656.1
435.143	686.83
435.518	679.15
435.894	668.53
436.269	682.54
436.644	694.29
437.02	715.08
437.395	709.43
437.77	701.97
438.145	734.74
438.52	707.4
438.895	690.67
439.271	677.57
439.646	741.75
440.021	715.08
440.395	717.57
440.77	737.23
441.145	762.31
441.52	765.25
441.895	765.02
442.27	764.8
442.645	765.47
443.019	757.56
443.394	765.47
443.769	761.41
444.143	789.88
444.518	753.72
444.892	757.79
445.267	759.82
445.641	774.97
446.016	784.23
446.39	808.86
446.764	801.63
447.139	781.07
447.513	814.74
447.887	798.69
448.262	815.87
448.636	798.47
449.01	835.3
449.384	834.62
449.758	819.71
450.132	842.31
450.506	833.72
450.88	849.09
451.254	849.54
451.628	861.29
452.002	874.62
452.376	863.55
452.75	900.84
453.123	876.43
453.497	887.5
453.871	910.78
454.244	941.29
454.618	938.13
454.992	927.96
455.365	941.51
455.739	937
456.112	971.57
456.486	998.01
456.859	963.66
457.232	971.34
457.606	992.81
457.979	1002.98
458.352	1007.73
458.725	1039.14
459.099	1048.63
459.472	1039.59
459.845	1060.83
460.218	1052.47
460.591	1068.97
460.964	1102.19
461.337	1092.02
461.71	1106.93
462.083	1133.15
462.456	1108.52
462.829	1150.77
463.201	1175.63
463.574	1172.7
463.947	1174.05
464.32	1224.22
464.692	1234.84
465.065	1219.93
465.438	1256.31
465.81	1282.07
466.183	1275.97
466.555	1295.63
466.928	1313.71
467.3	1309.87
467.672	1315.52
468.045	1344.22
468.417	1372.92
468.789	1379.47
469.161	1420.82
469.534	1440.71
469.906	1484.78
470.278	1469.64
470.65	1485.46
471.022	1527.71
471.394	1562.52
471.766	1579.69
472.138	1590.76
472.51	1641.84
472.882	1683.87
473.253	1693.36
473.625	1726.13
473.997	1769.29
474.369	1788.95
474.74	1820.59
475.112	1887.48
475.484	1930.87
475.855	1941.71
476.227	1974.93
476.598	2028.27
476.97	2044.54
477.341	2130.41
477.713	2188.94
478.084	2198.88
478.455	2290.63
478.827	2301.48
479.198	2404.98
479.569	2414.24
479.94	2536.73
480.311	2505.09
480.682	2637.52
481.053	2705.31
481.424	2818.08
481.795	2856.27
482.166	2904.4
482.537	2962.93
482.908	3085.19
483.279	3130.16
483.65	3192.76
484.021	3318.4
484.391	3391.85
484.762	3437.49
485.133	3539.19
485.503	3607.21
485.874	3728.56
486.244	3862.34
486.615	3936.46
486.985	4003.58
487.356	4120.19
487.726	4219.39
488.097	4341.43
488.467	4401.99
488.837	4504.81
489.207	4632.27
489.578	4707.07
489.948	4823.45
490.318	4906.38
490.688	4973.27
491.058	5109.31
491.428	5225.02
491.798	5348.86
492.168	5503.2
492.538	5571
492.908	5690.54
493.278	5772.35
493.648	5898.9
494.017	5991.33
494.387	6100.7
494.757	6159.23
495.126	6359.9
495.496	6410.52
495.866	6507.02
496.235	6620.69
496.605	6753.11
496.974	6820.91
497.344	6959.66
497.713	7056.16
498.082	7122.14
498.452	7190.16
498.821	7357.62
499.19	7352.87
499.559	7588.12
499.928	7615.24
500.298	7699.98
500.667	7847.77
501.036	7872.41
501.405	7996.02
501.774	8032.18
502.143	8099.97
502.512	8222.45
502.88	8348.33
503.249	8328.21
503.618	8437.59
503.987	8516.23
504.356	8629.45
504.724	8664.7
505.093	8777.01
505.462	8809.33
505.83	8974.98
506.199	9003
506.567	9202.54
506.936	9222.88
507.304	9338.36
507.672	9415.64
508.041	9494.96
508.409	9541.51
508.777	9646.6
509.145	9713.71
509.514	9696.09
509.882	9798.68
510.25	9881.62
510.618	10021.05
510.986	10070.09
511.354	10167.03
511.722	10313.47
512.09	10313.7
512.458	10330.42
512.826	10440.25
513.193	10527.25
513.561	10632.56
513.929	10708.72
514.297	10831.42
514.664	10849.5
515.032	10876.39
515.4	10983.74
515.767	10969.05
516.135	11076.39
516.502	11066.67
516.869	11227.35
517.237	11329.49
517.604	11319.55
517.972	11451.75
518.339	11483.84
518.706	11512.08
519.073	11629.37
519.44	11671.4
519.808	11888.12
520.175	11831.62
520.542	11971.06
520.909	12083.14
521.276	12053.31
521.643	12229.13
522.009	12237.04
522.376	12298.96
522.743	12433.64
523.11	12423.25
523.477	12598.61
523.843	12708.66
524.21	12856
524.577	12911.14
524.943	12948.2
525.31	13011.25
525.676	13168.31
526.043	13274.52
526.409	13225.71
526.776	13433.84
527.142	13442.88
527.508	13553.61
527.874	13700.95
528.241	13764.91
528.607	13799.93
528.973	13884.23
529.339	13895.07
529.705	14034.96
530.071	14140.49
530.437	14142.3
530.803	14226.36
531.169	14298
531.535	14283.08
531.901	14415.28
532.267	14526.92
532.632	14536.86
532.998	14640.59
533.364	14760.13
533.73	14744.99
534.095	14798.33
534.461	14915.61
534.826	15039.45
535.192	15029.96
535.557	15144.31
535.923	15238.54
536.288	15216.62
536.653	15297.3
537.019	15372.55
537.384	15383.17
537.749	15504.3
538.114	15592.88
538.479	15576.61
538.845	15631.98
539.21	15740
539.575	15673.56
539.94	15791.75
540.305	15907.22
540.67	15947.9
541.034	15962.36
541.399	16120.32
541.764	16159.42
542.129	16230.6
542.494	16195.35
542.858	16263.82
543.223	16307.21
543.587	16406.87
543.952	16429.24
544.316	16438.06
544.681	16502.46
545.045	16553.99
545.41	16709.46
545.774	16821.32
546.138	16832.85
546.503	16873.75
546.867	16851.38
547.231	17075.55
547.595	17014.54
547.959	17121.65
548.324	17110.58
548.688	17200.52
549.052	17315.1
549.416	17324.13
549.779	17313.06
550.143	17442.55
550.507	17554.41
550.871	17622.66
551.235	17564.13
551.599	17617.69
551.962	17818.36
552.326	17740.85
552.689	17877.79
553.053	17811.13
553.417	17990.78
553.78	18214.51
554.143	18050.67
554.507	18234.85
554.87	18263.77
555.234	18379.25
555.597	18290.44
555.96	18383.77
556.323	18471.68
556.686	18426.48
557.05	18620.15
557.413	18668.73
557.776	18666.25
558.139	18848.84
558.502	18834.15
558.865	18919.8
559.228	19016.97
559.59	19110.53
559.953	19146.23
560.316	19381.26
560.679	19322.73
561.041	19387.58
561.404	19481.59
561.767	19639.33
562.129	19534.02
562.492	19796.16
562.854	19734.69
563.217	19765.88
563.579	19812.43
563.941	19913.45
564.304	20106.89
564.666	20116.15
565.028	20300.1
565.39	20237.28
565.753	20356.82
566.115	20493.54
566.477	20616.93
566.839	20566.76
567.201	20788.22
567.563	20613.09
567.925	20773.31
568.287	20838.39
568.648	20875.23
569.01	21113.64
569.372	21242.45
569.734	21119.74
570.095	21249.68
570.457	21408.77
570.819	21538.04
571.18	21516.79
571.542	21616.68
571.903	21681.99
572.265	21806.28
572.626	21855.77
572.987	21936.44
573.349	22025.48
573.71	22195.42
574.071	22296.43
574.432	22410.33
574.794	22482.42
575.155	22569.87
575.516	22469.76
575.877	22669.76
576.238	22695.52
576.599	22932.8
576.96	23018.22
577.32	23019.13
577.681	23309.29
578.042	23343.64
578.403	23474.71
578.763	23662.95
579.124	23648.26
579.485	23950.63
579.845	24027.24
580.206	24122.15
580.566	24061.81
580.927	24293.67
581.287	24700.44
581.648	24534.79
582.008	24812.3
582.368	24877.38
582.728	25083.25
583.089	25197.6
583.449	25358.73
583.809	25529.12
584.169	25823.57
584.529	25848.2
584.889	26172.94
585.249	26094.75
585.609	26181.98
585.969	26633.04
586.329	26779.93
586.688	27042.3
587.048	26958.91
587.408	27102.63
587.768	27268.96
588.127	27556.18
588.487	27734.93
588.846	28175.83
589.206	28191.19
589.565	28253.11
589.925	28597.96
590.284	28794.12
590.643	28977.61
591.003	29266.42
591.362	29408.56
591.721	29576.02
592.08	29729.01
592.44	30057.13
592.799	30166.28
593.158	30366.73
593.517	30472.72
593.876	30616.67
594.235	30875.19
594.593	31068.41
594.952	31334.84
595.311	31369.64
595.67	31674.49
596.029	31960.59
596.387	32133.46
596.746	32321.71
597.104	32327.36
597.463	32550.85
597.822	32782.49
598.18	32830.85
598.538	33109.26
598.897	33324.84
599.255	33204.4
599.613	33707.21
599.972	33871.04
600.33	34064.71
600.688	34119.85
601.046	34234.65
601.404	34541.76
601.762	34506.96
602.12	34885.93
602.478	34952.82
602.836	34933.84
603.194	35115.53
603.552	35317.56
603.91	35353.49
604.268	35598.68
604.625	35734.72
604.983	35998.9
605.341	35817.21
605.698	36162.96
606.056	36340.36
606.413	36430.07
606.771	36525.66
607.128	36716.62
607.485	36689.73
607.843	36916.39
608.2	37120.22
608.557	37384.85
608.914	37224.18
609.272	37663.94
609.629	37795.01
609.986	37810.6
610.343	37823.48
610.7	38205.39
611.057	38159.52
611.414	38299.63
611.771	38392.06
612.127	38608.32
612.484	38625.04
612.841	38819.84
613.198	38659.62
613.554	38842.67
613.911	39089.89
614.267	39179.61
614.624	39280.62
614.98	39213.73
615.337	39523.78
615.693	39556.77
616.05	39526.26
616.406	39806.48
616.762	39687.61
617.118	39824.56
617.475	39725.35
617.831	39852.36
618.187	40116.08
618.543	40176.19
618.899	40446.92
619.255	40488.27
619.611	40514.71
619.967	40632.67
620.323	40783.18
620.678	40647.82
621.034	40702.05
621.39	40674.48
621.746	40548.38
622.101	41078.09
622.457	40730.75
622.812	40980.24
623.168	41100.68
623.523	41142.94
623.879	41298.19
624.234	41136.39
624.589	41367.8
624.945	41316.95
625.3	41383.16
625.655	41387.23
626.01	41354.92
626.365	41429.72
626.72	41276.95
627.075	41434.69
627.43	41340
627.785	41323.28
628.14	41569.37
628.495	41515.14
628.85	41491.64
629.205	41464.07
629.559	41709.71
629.914	41562.82
630.269	41564.85
630.623	41500.22
630.978	41339.1
631.332	41671.29
631.687	41824.28
632.041	41567.79
632.396	41684.17
632.75	41609.15
633.104	41640.11
633.459	41630.61
633.813	41499.54
634.167	41536.15
634.521	41485.08
634.875	41590.62
635.229	41412.99
635.583	41361.47
635.937	41395.14
636.291	41418.87
636.645	41427.46
636.999	41262.71
637.352	41437.85
637.706	41224.52
638.06	41373.9
638.413	41295.93
638.767	41184.07
639.121	41236.27
639.474	41035.83
639.828	41117.18
640.181	41056.84
640.534	41264.52
640.888	41092.32
641.241	40959.67
641.594	41037.41
641.947	41199.44
642.301	40972.1
642.654	41027.47
643.007	40950.63
643.36	41002.16
643.713	40955.6
644.066	41149.72
644.419	40998.31
644.771	40590.64
645.124	40319.46
645.477	40197.43
645.83	39922.64
646.182	39930.32
646.535	39721.74
646.888	39925.12
647.24	39605.13
647.593	39712.02
647.945	39670.89
648.298	39550.67
648.65	39539.37
649.002	39464.34
649.355	39599.71
649.707	39497.34
650.059	39744.34
650.411	40235.85
650.763	40163.31
651.115	40576.86
651.467	40302.29
651.819	40361.72
652.171	40213.02
652.523	40242.4
652.875	40163.53
653.227	39994.95
653.578	40337.09
653.93	40083.08
654.282	40122.63
654.633	39886.25
654.985	40110.43
655.337	40110.88
655.688	40112.24
656.039	40123.99
656.391	39798.8
656.742	39965.12
657.094	39892.58
657.445	40028.4
657.796	39879.93
658.147	39956.31
658.498	39905.69
658.849	40131.9
659.2	39931.68
659.551	39919.92
659.902	40015.29
660.253	39828.4
660.604	39952.69
660.955	39650.78
661.306	39885.8
661.656	39771.68
662.007	39837.44
662.358	39762.87
662.708	39707.73
663.059	39840.38
663.409	39442.2
663.76	39909.08
664.11	39772.81
664.461	39686.94
664.811	39825.92
665.161	39838.12
665.511	39656.66
665.862	39717.44
666.212	39912.02
666.562	39761.51
666.912	39682.87
667.262	39615.98
667.612	39560.16
667.962	39581.63
668.312	39522.42
668.662	39616.43
669.011	39610.78
669.361	39476.77
669.711	39517.68
670.06	39389.32
670.41	39362.43
670.76	39375.53
671.109	39640.38
671.459	39531.91
671.808	39372.37
672.157	39460.5
672.507	39276.33
672.856	39304.12
673.205	39337.34
673.554	39361.3
673.904	39357
674.253	39515.42
674.602	39218.7
674.951	38918.37
675.3	38612.61
675.649	39167.85
675.998	39259.15
676.346	39122.88
676.695	39294.63
677.044	38912.95
677.393	39138.25
677.741	39232.94
678.09	39075.65
678.438	38967.86
678.787	39123.79
679.135	38957.69
679.484	38854.19
679.832	38867.75
680.181	38728.77
680.529	38900.74
680.877	38834.98
681.225	38722.67
681.573	38898.48
681.922	38577.59
682.27	38498.27
682.618	38490.13
682.966	38463.47
683.314	38587.3
683.661	38447.87
684.009	38281.1
684.357	38150.71
684.705	38159.97
685.053	38278.39
685.4	38111.84
685.748	37966.98
686.095	38025.29
686.443	37860.54
686.79	37765.86
687.138	37794.11
687.485	37726.31
687.832	37610.61
688.18	37849.02
688.527	37511.63
688.874	37505.75
689.221	37465.75
689.568	37338.07
689.915	37243.16
690.262	37279.77
690.609	37078.19
690.956	37034.13
691.303	36905.99
691.65	36819.67
691.997	36945.99
692.344	36430.3
692.69	36608.37
693.037	36597.53
693.383	36181.72
693.73	36422.16
694.077	36284.31
694.423	36184.43
694.769	36208.16
695.116	35990.08
695.462	35934.72
695.808	35876.42
696.155	35908.73
696.501	35815.63
696.847	35631.22
697.193	35439.14
697.539	35579.25
697.885	35342.64
698.231	35145.36
698.577	35227.84
698.923	35180.16
699.269	35017
699.614	34734.07
699.96	34610.46
700.306	34840.06
700.651	34513.97
700.997	34479.16
701.342	34551.93
701.688	34493.17
702.033	34270.36
702.379	34385.83
702.724	34115.33
703.069	34291.37
703.415	33827.88
703.76	33695
704.105	33788.79
704.45	33689.81
704.795	33505.18
705.14	33439.19
705.485	33420.43
705.83	33292.3
706.175	33337.73
706.52	33129.82
706.865	33027.9
707.209	33055.7
707.554	33000.11
707.899	33048.47
708.243	32779.32
708.588	32844.18
708.932	32609.16
709.277	32675.37
709.621	32570.97
709.966	32513.79
710.31	32411.87
710.654	32303.18
710.998	32446.45
711.342	32246.91
711.687	32162.39
712.031	32082.62
712.375	31993.81
712.719	31891.44
713.063	31852.34
713.407	32034.93
713.75	31766.24
714.094	31754.26
714.438	31511.56
714.782	31626.36
715.125	31407.61
715.469	31518.11
715.812	31390.21
716.156	31276.08
716.499	31296.87
716.843	31181.17
717.186	31053.49
717.53	31187.95
717.873	31166.71
718.216	31171.45
718.559	31011.23
718.902	30766.27
719.246	30862.76
719.589	30807.4
719.932	30680.85
720.275	30653.05
720.617	30637.23
720.96	30604.01
721.303	30488.31
721.646	30485.14
721.989	30271.82
722.331	30458.7
722.674	30256.45
723.016	30341.65
723.359	30266.17
723.701	30166.06
724.044	29976.01
724.386	29845.84
724.729	29998.6
725.071	29966.29
725.413	29961.77
725.755	29962.67
726.097	29863.69
726.439	29657.14
726.782	29712.74
727.124	29816.69
727.465	29659.86
727.807	29481.33
728.149	29485.62
728.491	29457.38
728.833	29538.05
729.175	29422.8
729.516	29308.68
729.858	29376.25
730.199	29452.86
730.541	29304.84
730.882	29179.87
731.224	29250.83
731.565	29080.89
731.906	29075.01
732.248	29063.04
732.589	28935.58
732.93	28849.26
733.271	28708.24
733.612	28932.19
733.953	28785.75
734.294	28642.93
734.635	28551.18
734.976	28687.68
735.317	28601.35
735.658	28478.19
735.999	28432.32
736.339	28458.76
736.68	28555.25
737.021	28383.05
737.361	28318.42
737.702	28376.05
738.042	28281.13
738.383	28308.25
738.723	28274.58
739.063	28173.57
739.404	28192.78
739.744	27990.52
740.084	28074.59
740.424	27913.23
740.764	27951.43
741.104	28007.24
741.444	27835.04
741.784	27877.53
742.124	27996.62
742.464	27920.24
742.804	27743.52
743.143	27681.38
743.483	27781.04
743.823	27502.4
744.162	27525.9
744.502	27437.99
744.841	27434.6
745.181	27548.5
745.52	27307.6
745.86	27502.4
746.199	27313.02
746.538	27241.84
746.877	27393.47
747.216	27238
747.556	27373.81
747.895	27109.64
748.234	27016.99
748.573	27041.62
748.911	26933.15
749.25	26930.66
749.589	27035.97
749.928	26904.9
750.267	26939.25
750.605	26805.02
750.944	26738.8
751.283	26627.85
751.621	26663.32
751.96	26482.54
752.298	26514.18
752.636	26397.12
752.975	26363.45
753.313	26345.59
753.651	26447.74
753.989	26214.75
754.327	26109.67
754.666	26134.07
755.004	26087.52
755.342	26120.06
755.679	26049.1
756.017	25922.1
756.355	26055.2
756.693	25819.05
757.031	25930.01
