Data from hue_280_FLMS001491_00009.txt Node
Date: Tue Feb 07 15:54:44 GMT 2017
User: dcchb
Spectrometer: FLMS00149
Trigger mode: 0
Integration Time (sec): 2.000000E-2
Scans to average: 10
Electric dark correction enabled: true
Nonlinearity correction enabled: false
Boxcar width: 0
XAxis mode: Wavelengths
Number of Pixels in Spectrum: 2048
>>>>>Begin Spectral Data<<<<<
341.393	-6.68
341.776	-6.68
342.16	-6.68
342.543	-74.25
342.927	-67.7
343.31	-76.96
343.693	-76.06
344.077	-82.61
344.46	-71.54
344.843	-59.79
345.226	-42.16
345.61	-21.6
345.993	-30.86
346.376	7.56
346.759	25.18
347.142	21.79
347.525	62.24
347.908	50.04
348.291	88.46
348.674	97.72
349.057	108.57
349.44	117.84
349.823	163.03
350.206	153.99
350.588	181.56
350.971	215.23
351.354	217.04
351.737	233.09
352.119	235.8
352.502	256.59
352.884	266.98
353.267	280.09
353.65	288
354.032	290.71
354.414	309.02
354.797	290.94
355.179	325.06
355.562	334.1
355.944	315.8
356.326	323.03
356.709	353.99
357.091	336.36
357.473	335.01
357.855	346.98
358.238	351.73
358.62	349.92
359.002	318.51
359.384	338.17
359.766	333.2
360.148	327.55
360.53	330.94
360.912	341.78
361.294	314.89
361.676	340.65
362.057	338.62
362.439	319.19
362.821	307.66
363.203	291.16
363.584	309.02
363.966	312.86
364.348	300.88
364.729	321.9
365.111	329.36
365.493	311.5
365.874	327.77
366.256	321.9
366.637	303.59
367.019	299.53
367.4	324.38
367.781	324.38
368.163	305.85
368.544	305.4
368.925	288.68
369.306	310.37
369.688	304.95
370.069	313.76
370.45	304.05
370.831	318.28
371.212	318.51
371.593	319.41
371.974	299.75
372.355	304.27
372.736	306.08
373.117	319.19
373.498	332.29
373.879	327.77
374.26	332.07
374.641	295.68
375.021	300.2
375.402	325.97
375.783	326.42
376.163	318.51
376.544	339.3
376.925	336.14
377.305	326.64
377.686	323.48
378.066	313.54
378.447	327.77
378.827	333.88
379.208	320.09
379.588	327.32
379.968	339.3
380.349	340.65
380.729	320.99
381.109	343.14
381.489	332.97
381.87	329.81
382.25	342.91
382.63	347.21
383.01	336.59
383.39	338.4
383.77	336.81
384.15	343.37
384.53	348.56
384.91	379.3
385.29	359.41
385.67	341.11
386.049	339.3
386.429	326.64
386.809	353.99
387.189	341.56
387.568	353.54
387.948	374.55
388.328	361.9
388.707	385.17
389.087	346.53
389.466	378.85
389.846	354.21
390.225	383.82
390.605	403.25
390.984	382.01
391.363	370.03
391.743	385.4
392.122	366.42
392.501	380.43
392.881	380.2
393.26	393.08
393.639	379.3
394.018	381.11
394.397	401.44
394.776	374.33
395.155	408.68
395.534	405.74
395.913	391.95
396.292	397.83
396.671	402.57
397.05	410.26
397.429	404.38
397.808	420.88
398.186	409.13
398.565	424.49
398.944	426.08
399.323	416.36
399.701	413.65
400.08	388.34
400.458	420.88
400.837	431.05
401.215	423.14
401.594	421.1
401.972	435.79
402.351	431.05
402.729	431.27
403.107	452.74
403.486	441.44
403.864	454.32
404.242	436.47
404.62	473.98
404.999	455
405.377	479.63
405.755	441.22
406.133	472.4
406.511	493.19
406.889	487.32
407.267	477.37
407.645	485.28
408.023	494.32
408.401	494.55
408.779	503.81
409.156	518.5
409.534	507.43
409.912	507.66
410.29	525.73
410.667	548.79
411.045	544.27
411.422	537.49
411.8	541.33
412.178	539.97
412.555	560.31
412.933	558.5
413.31	594.43
413.687	615.68
414.065	590.37
414.442	593.53
414.819	585.62
415.197	608.67
415.574	596.02
415.951	625.17
416.328	659.06
416.705	638.05
417.082	673.75
417.46	661.78
417.837	681.66
418.214	680.31
418.591	662.45
418.967	694.32
419.344	695.9
419.721	705.84
420.098	716.01
420.475	711.94
420.852	714.2
421.228	736.12
421.605	751.72
421.982	749.01
422.358	784.26
422.735	773.19
423.111	782.9
423.488	772.51
423.864	790.59
424.241	807.31
424.617	835.33
424.994	824.71
425.37	835.33
425.746	866.74
426.123	884.14
426.499	871.94
426.875	870.58
427.251	870.36
427.627	918.94
428.003	920.07
428.379	920.07
428.756	935.22
429.132	936.57
429.507	970.92
429.883	941.77
430.259	977.93
430.635	1017.47
431.011	993.52
431.387	967.08
431.763	1029
432.138	1051.37
432.514	1056.12
432.89	1051.14
433.265	1102.44
433.641	1106.74
434.016	1118.71
434.392	1125.04
434.767	1146.96
435.143	1140.86
435.518	1165.72
435.894	1179.05
436.269	1183.8
436.644	1181.76
437.02	1218.37
437.395	1205.49
437.77	1256.11
438.145	1267.86
438.52	1272.83
438.895	1289.33
439.271	1269.22
439.646	1316.9
440.021	1316.22
440.395	1356.67
440.77	1344.92
441.145	1352.15
441.52	1395.99
441.895	1373.85
442.27	1420.63
442.645	1401.42
443.019	1436.22
443.394	1415.88
443.769	1428.99
444.143	1428.54
444.518	1472.83
444.892	1472.6
445.267	1475.09
445.641	1490.46
446.016	1483
446.39	1472.6
446.764	1506.73
447.139	1519.61
447.513	1525.71
447.887	1521.41
448.262	1513.28
448.636	1548.08
449.01	1537.01
449.384	1545.82
449.758	1539.72
450.132	1600.28
450.506	1602.77
450.88	1612.94
451.254	1598.93
451.628	1647.51
452.002	1626.95
452.376	1652.71
452.75	1659.94
453.123	1654.74
453.497	1682.99
453.871	1658.13
454.244	1671.69
454.618	1726.16
454.992	1741.75
455.365	1765.25
455.739	1783.55
456.112	1830.56
456.486	1795.08
456.859	1830.56
457.232	1862.2
457.606	1834.85
457.979	1863.1
458.352	1899.94
458.725	1895.87
459.099	1896.77
459.472	1959.6
459.845	1941.52
460.218	1972.25
460.591	1956.43
460.964	1976.54
461.337	2033.94
461.71	2044.11
462.083	2061.74
462.456	2080.5
462.829	2092.25
463.201	2124.11
463.574	2113.72
463.947	2105.58
464.32	2184
464.692	2177.44
465.065	2178.8
465.438	2187.84
465.81	2262.86
466.183	2248.85
466.555	2277.55
466.928	2282.75
467.3	2288.85
467.672	2311.68
468.045	2416.08
468.417	2390.77
468.789	2376.76
469.161	2422.63
469.534	2455.18
469.906	2506.93
470.278	2523.87
470.65	2536.76
471.022	2588.96
471.394	2590.54
471.766	2611.1
472.138	2653.59
472.51	2675.73
472.882	2714.38
473.253	2719.8
473.625	2778.33
473.997	2808.84
474.369	2814.26
474.74	2847.48
475.112	2864.88
475.484	2926.12
475.855	2953.24
476.227	2976.52
476.598	3048.61
476.97	3047.48
477.341	3120.02
477.713	3142.16
478.084	3183.97
478.455	3205.21
478.827	3247.02
479.198	3322.5
479.569	3293.57
479.94	3411.08
480.311	3418.99
480.682	3467.13
481.053	3495.6
481.424	3554.36
481.795	3593.9
482.166	3636.84
482.537	3638.65
482.908	3715.03
483.279	3751.19
483.65	3826.44
484.021	3872.77
484.391	3878.64
484.762	3902.14
485.133	3908.7
485.503	3990.5
485.874	4047.68
486.244	4046.32
486.615	4143.27
486.985	4171.06
487.356	4262.59
487.726	4262.13
488.097	4323.38
488.467	4316.82
488.837	4392.98
489.207	4441.79
489.578	4484.05
489.948	4526.53
490.318	4595.23
490.688	4584.39
491.058	4635.23
491.428	4694.44
491.798	4734.44
492.168	4823.25
492.538	4825.51
492.908	4865.96
493.278	4919.29
493.648	4851.95
494.017	4945.73
494.387	4968.56
494.757	4980.53
495.126	5029.8
495.496	5026.86
495.866	5066.41
496.235	5098.04
496.605	5122
496.974	5156.12
497.344	5194.31
497.713	5220.98
498.082	5244.71
498.452	5293.07
498.821	5311.37
499.19	5324.25
499.559	5355.44
499.928	5378.71
500.298	5410.35
500.667	5446.51
501.036	5399.05
501.405	5526.28
501.774	5515.89
502.143	5553.85
502.512	5498.03
502.88	5597.24
503.249	5578.48
503.618	5590.23
503.987	5622.78
504.356	5665.26
504.724	5672.72
505.093	5693.51
505.462	5702.77
505.83	5753.85
506.199	5724.02
506.567	5765.37
506.936	5788.65
507.304	5866.84
507.672	5862.32
508.041	5890.34
508.409	5938.02
508.777	5904.58
509.145	5910.23
509.514	5964.69
509.882	5983.22
510.25	5954.74
510.618	5992.26
510.986	6011.47
511.354	6039.71
511.722	6052.6
512.09	6106.15
512.458	6131.24
512.826	6135.53
513.193	6159.48
513.561	6146.15
513.929	6206.49
514.297	6236.32
514.664	6205.59
515.032	6255.53
515.4	6311.12
515.767	6281.06
516.135	6274.06
516.502	6281.52
516.869	6348.86
517.237	6366.26
517.604	6297.11
517.972	6348.63
518.339	6381.4
518.706	6440.38
519.073	6402.19
519.44	6453.94
519.808	6441.06
520.175	6468.63
520.542	6585.24
520.909	6636.76
521.276	6546.59
521.643	6580.94
522.009	6623.88
522.376	6610.77
522.743	6639.02
523.11	6726.25
523.477	6725.35
523.843	6786.14
524.21	6813.71
524.577	6789.52
524.943	6886.02
525.31	6860.71
525.676	6887.6
526.043	6914.72
526.409	6993.36
526.776	7028.84
527.142	7041.72
527.508	7060.25
527.874	7074.26
528.241	7102.06
528.607	7101.38
528.973	7117.88
529.339	7159.68
529.705	7197.65
530.071	7214.82
530.437	7204.2
530.803	7270.87
531.169	7340.02
531.535	7293.01
531.901	7313.8
532.267	7349.96
532.632	7361.04
532.998	7436.06
533.364	7389.96
533.73	7482.61
534.095	7497.75
534.461	7536.62
534.826	7550.18
535.192	7540.01
535.557	7671.54
535.923	7589.5
536.288	7556.96
536.653	7642.16
537.019	7631.99
537.384	7616.62
537.749	7622.72
538.114	7633.34
538.479	7705.66
538.845	7719.9
539.21	7718.09
539.575	7727.81
539.94	7711.76
540.305	7806.22
540.67	7767.13
541.034	7766.67
541.399	7821.36
541.764	7823.85
542.129	7834.92
542.494	7948.36
542.858	7899.55
543.223	7914.02
543.587	7935.26
543.952	7889.38
544.316	7923.51
544.681	7975.71
545.045	7958.08
545.41	8024.97
545.774	7964.41
546.138	8075.14
546.503	8035.82
546.867	8090.06
547.231	8076.72
547.595	8063.84
547.959	8118.08
548.324	8135.25
548.688	8103.61
549.052	8147.68
549.416	8178.41
549.779	8176.61
550.143	8154.23
550.507	8190.39
550.871	8262.48
551.235	8173.67
551.599	8282.59
551.962	8248.92
552.326	8284.4
552.689	8309.03
553.053	8245.98
553.417	8261.58
553.78	8367.11
554.143	8377.05
554.507	8441.23
554.87	8404.62
555.234	8440.1
555.597	8416.83
555.96	8438.52
556.323	8500.21
556.686	8476.94
557.05	8528.69
557.413	8558.07
557.776	8550.38
558.139	8548.12
558.502	8612.75
558.865	8576.82
559.228	8632.41
559.59	8650.04
559.953	8678.97
560.316	8767.55
560.679	8733.88
561.041	8816.14
561.404	8808.45
561.767	8902.92
562.129	8867.89
562.492	8905.18
562.854	8949.69
563.217	8932.75
563.579	8927.55
563.941	8958.28
564.304	9050.93
564.666	9022.91
565.028	9109.92
565.39	9083.48
565.753	9142.91
566.115	9210.93
566.477	9221.78
566.839	9223.81
567.201	9246.41
567.563	9289.35
567.925	9392.17
568.287	9406.63
568.648	9372.96
569.01	9403.24
569.372	9451.15
569.734	9388.1
570.095	9479.17
570.457	9517.36
570.819	9559.17
571.18	9587.64
571.542	9615.67
571.903	9639.39
572.265	9727.3
572.626	9702.22
572.987	9760.29
573.349	9713.97
573.71	9785.15
574.071	9837.13
574.432	9891.59
574.794	9941.76
575.155	9965.03
575.516	9986.28
575.877	10034.64
576.238	10101.53
576.599	10106.73
576.96	10149.89
577.32	10187.85
577.681	10277.34
578.042	10251.35
578.403	10247.97
578.763	10315.31
579.124	10432.59
579.485	10413.84
579.845	10436.43
580.206	10519.37
580.566	10506.49
580.927	10631.23
581.287	10629.42
581.648	10578.8
582.008	10769.76
582.368	10745.81
582.728	10845.92
583.089	10894.95
583.449	10906.93
583.809	10949.87
584.169	11080.71
584.529	11062.86
584.889	11173.82
585.249	11167.94
585.609	11181.27
585.969	11308.73
586.329	11405.67
586.688	11435.05
587.048	11465.79
587.408	11449.06
587.768	11584.65
588.127	11629.85
588.487	11775.38
588.846	11837.3
589.206	11798.66
589.565	11946.23
589.925	11974.93
590.284	12055.38
590.643	12139.67
591.003	12227.35
591.362	12274.58
591.721	12344.86
592.08	12388.7
592.44	12479.54
592.799	12558.41
593.158	12571.29
593.517	12632.31
593.876	12786.2
594.235	12785.53
594.593	12732.42
594.952	12939.87
595.311	12866.43
595.67	12966.31
596.029	13124.05
596.387	13141.67
596.746	13255.57
597.104	13286.08
597.463	13308
597.822	13356.13
598.18	13422.34
598.538	13531.72
598.897	13529.69
599.255	13461.67
599.613	13758.61
599.972	13647.88
600.33	13741.21
600.688	13827.53
601.046	13858.94
601.404	13978.71
601.762	13963.8
602.12	14020.75
602.478	14106.39
602.836	14128.31
603.194	14187.52
603.552	14228.43
603.91	14179.61
604.268	14254.41
604.625	14284.7
604.983	14326.95
605.341	14320.85
605.698	14488.76
606.056	14528.08
606.413	14484.92
606.771	14565.37
607.128	14574.86
607.485	14570.79
607.843	14617.57
608.2	14732.37
608.557	14771.24
608.914	14742.99
609.272	14809.65
609.629	14881.52
609.986	14986.6
610.343	14838.13
610.7	14968.07
611.057	15013.26
611.414	15032.7
611.771	15060.95
612.127	15172.81
612.484	15118.8
612.841	15240.6
613.198	15150.66
613.554	15268.4
613.911	15295.74
614.267	15259.13
614.624	15287.83
614.98	15344.33
615.337	15438.56
615.693	15449.18
616.05	15423.42
616.406	15530.54
616.762	15438.34
617.118	15513.14
617.475	15520.82
617.831	15592.68
618.187	15575.96
618.543	15581.61
618.899	15582.29
619.255	15619.58
619.611	15590.2
619.967	15773.92
620.323	15748.39
620.678	15681.49
621.034	15723.75
621.39	15727.82
621.746	15706.58
622.101	15884.65
622.457	15684.88
622.812	15821.15
623.168	15904.54
623.523	15857.99
623.879	15896.4
624.234	15813.92
624.589	15837.2
624.945	15924.65
625.3	15897.99
625.655	15887.59
626.01	15875.16
626.365	15911.09
626.72	15933.92
627.075	15908.83
627.43	15966.91
627.785	15794.71
628.14	15939.79
628.495	15934.82
628.85	15838.1
629.205	15823.41
629.559	15987.02
629.914	15866.57
630.269	15875.16
630.623	15821.6
630.978	15827.71
631.332	15825.45
631.687	15924.2
632.041	15855.5
632.396	15801.49
632.75	15798.1
633.104	15856.18
633.459	15690.99
633.813	15703.64
634.167	15806.46
634.521	15733.02
634.875	15748.39
635.229	15775.05
635.583	15659.12
635.937	15632.23
636.291	15647.82
636.645	15724.21
636.999	15686.92
637.352	15654.38
637.706	15478.79
638.06	15634.04
638.413	15599.91
638.767	15613.47
639.121	15571.44
639.474	15501.39
639.828	15539.13
640.181	15486.92
640.534	15525.79
640.888	15482.18
641.241	15380.94
641.594	15514.04
641.947	15485.12
642.301	15519.01
642.654	15444.89
643.007	15443.76
643.36	15395.4
643.713	15405.12
644.066	15480.82
644.419	15330.09
644.771	15264.1
645.124	15115.63
645.477	15138.01
645.83	15012.36
646.182	15044.22
646.535	14863.21
646.888	14915.41
647.24	14861.85
647.593	14884.68
647.945	14928.29
648.298	14807.17
648.65	14859.14
649.002	14839.48
649.355	14864.11
649.707	14893.27
650.059	14883.32
650.411	15159.7
650.763	15139.59
651.115	15342.52
651.467	15268.17
651.819	15189.98
652.171	15243.99
652.523	15175.07
652.875	15235.18
653.227	15219.36
653.578	15292.13
653.93	15297.1
654.282	15126.71
654.633	15180.72
654.985	15266.14
655.337	15283.31
655.688	15216.42
656.039	15321.5
656.391	15156.31
656.742	15273.37
657.094	15185.91
657.445	15335.29
657.796	15246.93
658.147	15219.81
658.498	15222.07
658.849	15241.05
659.2	15278.57
659.551	15292.8
659.902	15203.54
660.253	15211.22
660.604	15312.46
660.955	15227.72
661.306	15303.43
661.656	15334.16
662.007	15326.93
662.358	15301.84
662.708	15343.88
663.059	15232.24
663.409	15253.71
663.76	15370.54
664.11	15377.1
664.461	15359.47
664.811	15347.72
665.161	15303.88
665.511	15314.05
665.862	15376.64
666.212	15441.5
666.562	15354.95
666.912	15418.68
667.262	15291
667.612	15308.85
667.962	15458.9
668.312	15334.84
668.662	15401.73
669.011	15282.18
669.361	15279.92
669.711	15269.75
670.06	15252.58
670.41	15261.17
670.76	15258.91
671.109	15265.23
671.459	15216.2
671.808	15205.12
672.157	15218.46
672.507	15164.9
672.856	15172.36
673.205	15243.54
673.554	15195.86
673.904	15107.5
674.253	15239.02
674.602	15216.2
674.951	15008.29
675.3	14884.91
675.649	15191.34
675.998	15107.27
676.346	15081.74
676.695	15155.18
677.044	15043.32
677.393	15140.27
677.741	15084
678.09	15026.14
678.438	15058.01
678.787	15045.35
679.135	14997.67
679.484	14913.38
679.832	14962.42
680.181	14862.53
680.529	14897.79
680.877	14980.5
681.225	14888.29
681.573	15060.49
681.922	14777.34
682.27	14755.64
682.618	14617.57
682.966	14767.62
683.314	14767.39
683.661	14653.5
684.009	14591.81
684.357	14572.15
684.705	14602.65
685.053	14522.2
685.4	14566.95
685.748	14562.65
686.095	14388.2
686.443	14388.42
686.79	14355.2
687.138	14432.04
687.485	14425.48
687.832	14325.82
688.18	14316.11
688.527	14242.66
688.874	14179.84
689.221	14225.04
689.568	14123.57
689.915	14051.71
690.262	14120.63
690.609	14005.15
690.956	13926.29
691.303	13905.72
691.65	13906.4
691.997	13860.75
692.344	13795.44
692.69	13699.85
693.037	13711.83
693.383	13541.89
693.73	13643.13
694.077	13576.01
694.423	13534.88
694.769	13463.93
695.116	13400.2
695.462	13465.28
695.808	13415.79
696.155	13393.19
696.501	13294.44
696.847	13289.69
697.193	13154.56
697.539	13189.81
697.885	13029.59
698.231	13039.08
698.577	12989.14
698.923	13032.07
699.269	12934.9
699.614	12895.8
699.96	12853.32
700.306	12814.45
700.651	12790.27
700.997	12643.16
701.342	12617.62
701.688	12701.23
702.033	12601.35
702.379	12620.78
702.724	12476.38
703.069	12510.28
703.415	12452.65
703.76	12429.6
704.105	12385.54
704.45	12363.39
704.795	12281.58
705.14	12246.1
705.485	12177.86
705.83	12186.9
706.175	12115.26
706.52	12166.56
706.865	12070.29
707.209	12045.43
707.554	11913.91
707.899	11957.75
708.243	11949.62
708.588	11931.31
708.932	11780.58
709.277	11812.9
709.621	11812.22
709.966	11723.86
710.31	11682.96
710.654	11604.31
710.998	11573.81
711.342	11675.72
711.687	11637.98
712.031	11550.08
712.375	11535.61
712.719	11534.71
713.063	11491.77
713.407	11480.47
713.75	11432.11
714.094	11420.59
714.438	11374.49
714.782	11362.51
715.125	11339.69
715.469	11269.63
715.812	11216.75
716.156	11292.46
716.499	11229.86
716.843	11273.93
717.186	11163.2
717.53	11207.94
717.873	11246.81
718.216	11208.17
718.559	11155.29
718.902	11043.2
719.246	11101.28
719.589	11114.38
719.932	11089.3
720.275	11012.69
720.617	10980.38
720.96	11014.27
721.303	11018.79
721.646	11015.85
721.989	11010.88
722.331	10970.43
722.674	10999.81
723.016	10991.22
723.359	10885.24
723.701	10925.91
724.044	10846.14
724.386	10861.28
724.729	10871
725.071	10887.5
725.413	10798.68
725.755	10794.39
726.097	10776.31
726.439	10764.56
726.782	10736.09
727.124	10812.47
727.465	10762.98
727.807	10810.89
728.149	10759.14
728.491	10709.2
728.833	10795.3
729.175	10767.73
729.516	10756.88
729.858	10733.15
730.199	10796.2
730.541	10705.81
730.882	10730.21
731.224	10698.57
731.565	10680.27
731.906	10668.07
732.248	10694.05
732.589	10665.58
732.93	10563.44
733.271	10658.35
733.612	10724.56
733.953	10660.61
734.294	10677.56
734.635	10570.44
734.976	10673.72
735.317	10689.54
735.658	10682.98
735.999	10626.03
736.339	10679.59
736.68	10682.98
737.021	10696.31
737.361	10577.45
737.702	10683.89
738.042	10673.94
738.383	10644.79
738.723	10750.32
739.063	10707.16
739.404	10719.82
739.744	10670.78
740.084	10690.44
740.424	10659.25
740.764	10699.7
741.104	10841.85
741.444	10733.15
741.784	10746.03
742.124	10748.06
742.464	10803.66
742.804	10811.11
743.143	10826.71
743.483	10887.5
743.823	10866.93
744.162	10868.74
744.502	10896.08
744.841	10933.82
745.181	10969.98
745.52	10950.32
745.86	11043.65
746.199	11063.08
746.538	11097.66
746.877	11143.99
747.216	11274.15
747.556	11231.67
747.895	11270.09
748.234	11367.26
748.573	11334.72
748.911	11416.3
749.25	11557.31
749.589	11527.93
749.928	11553.92
750.267	11693.12
750.605	11725.67
750.944	11853.35
751.283	11880.92
751.621	12090.85
751.96	12070.52
752.298	12202.49
752.636	12294.69
752.975	12324.52
753.313	12391.86
753.651	12554.12
753.989	12629.15
754.327	12795.02
754.666	12865.07
755.004	13022.13
755.342	13110.04
755.679	13284.95
756.017	13345.51
756.355	13454.21
756.693	13570.82
757.031	13717.25
757.368	13863.69
757.706	14027.75
758.044	14205.83
758.381	14384.81
758.719	14404.24
759.056	14582.99
759.394	14624.8
