Data from hue_140_FLMS001491_00035.txt Node
Date: Tue Feb 07 16:55:50 GMT 2017
User: dcchb
Spectrometer: FLMS00149
Trigger mode: 0
Integration Time (sec): 2.000000E-2
Scans to average: 10
Electric dark correction enabled: true
Nonlinearity correction enabled: false
Boxcar width: 0
XAxis mode: Wavelengths
Number of Pixels in Spectrum: 2048
>>>>>Begin Spectral Data<<<<<
341.393	6.65
341.776	6.65
342.16	6.65
342.543	-53.69
342.927	-62.05
343.31	-64.31
343.693	-64.08
344.077	-55.04
344.46	-58.88
344.843	-65.21
345.226	-36.28
345.61	-32.44
345.993	-39.67
346.376	1.91
346.759	-1.93
347.142	1.91
347.525	64.05
347.908	53.66
348.291	95.24
348.674	80.1
349.057	121
349.44	115.8
349.823	147.21
350.206	162.13
350.588	208.91
350.971	207.1
351.354	229.92
351.737	234.67
352.119	250.26
352.502	269.92
352.884	255.69
353.267	293.42
353.65	301.11
354.032	313.76
354.414	295.23
354.797	310.15
355.179	313.31
355.562	321.67
355.944	317.38
356.326	352.41
356.709	335.91
357.091	325.06
357.473	334.78
357.855	332.29
358.238	360.32
358.62	338.4
359.002	366.42
359.384	340.43
359.766	329.36
360.148	341.56
360.53	325.51
360.912	334.1
361.294	331.84
361.676	325.97
362.057	333.88
362.439	340.88
362.821	323.03
363.203	332.52
363.584	323.93
363.966	319.19
364.348	323.03
364.729	318.73
365.111	328.68
365.493	346.53
365.874	318.51
366.256	331.62
366.637	327.1
367.019	334.78
367.4	325.97
367.781	309.02
368.163	315.8
368.544	323.48
368.925	327.1
369.306	347.21
369.688	319.19
370.069	309.02
370.45	320.09
370.831	315.34
371.212	316.47
371.593	319.41
371.974	298.85
372.355	339.07
372.736	305.4
373.117	320.99
373.498	313.99
373.879	347.43
374.26	329.13
374.641	316.47
375.021	323.48
375.402	328.45
375.783	337.72
376.163	342.91
376.544	326.19
376.925	325.97
377.305	332.97
377.686	328.23
378.066	311.5
378.447	343.37
378.827	338.4
379.208	345.4
379.588	335.46
379.968	328.23
380.349	325.97
380.729	346.98
381.109	350.6
381.489	351.05
381.87	343.14
382.25	346.53
382.63	342.91
383.01	340.88
383.39	342.91
383.77	362.12
384.15	369.58
384.53	389.92
384.91	325.74
385.29	371.84
385.67	360.54
386.049	358.06
386.429	369.58
386.809	362.8
387.189	371.16
387.568	389.92
387.948	385.63
388.328	368
388.707	362.35
389.087	370.71
389.466	372.97
389.846	354.89
390.225	372.97
390.605	358.73
390.984	381.78
391.363	377.72
391.743	373.65
392.122	368.9
392.501	387.89
392.881	370.48
393.26	389.24
393.639	380.88
394.018	392.18
394.397	393.76
394.776	391.73
395.155	401.67
395.534	393.99
395.913	402.12
396.292	395.12
396.671	415.68
397.05	398.96
397.429	412.52
397.808	401.67
398.186	411.84
398.565	405.29
398.944	390.6
399.323	400.09
399.701	416.81
400.08	418.39
400.458	408.68
400.837	401.9
401.215	436.02
401.594	419.75
401.972	432.18
402.351	412.97
402.729	415.23
403.107	417.04
403.486	417.49
403.864	421.78
404.242	417.49
404.62	438.96
404.999	457.71
405.377	446.41
405.755	442.57
406.133	433.76
406.511	444.83
406.889	467.21
407.267	435.34
407.645	471.72
408.023	465.62
408.401	471.5
408.779	452.74
409.156	464.95
409.534	470.37
409.912	499.97
410.29	485.28
410.667	478.96
411.045	460.88
411.422	485.51
411.8	494.32
412.178	512.18
412.555	505.62
412.933	503.14
413.31	477.37
413.687	497.94
414.065	491.16
414.442	508.33
414.819	518.96
415.197	509.46
415.574	517.6
415.951	531.16
416.328	538.84
416.705	536.36
417.082	549.46
417.46	548.33
417.837	561.44
418.214	548.79
418.591	543.14
418.967	558.95
419.344	547.43
419.721	579.07
420.098	560.76
420.475	545.62
420.852	559.63
421.228	559.63
421.605	574.32
421.982	582
422.358	556.92
422.735	579.97
423.111	576.81
423.488	584.04
423.864	586.75
424.241	590.14
424.617	597.82
424.994	610.7
425.37	608.9
425.746	629.91
426.123	613.87
426.499	607.99
426.875	627.43
427.251	644.15
427.627	650.7
428.003	627.88
428.379	652.51
428.756	666.52
429.132	648.44
429.507	664.94
429.883	681.66
430.259	696.13
430.635	689.57
431.011	682.57
431.387	692.96
431.763	701.32
432.138	699.52
432.514	697.48
432.89	716.01
433.265	711.72
433.641	740.87
434.016	737.48
434.392	729.8
434.767	738.84
435.143	751.72
435.518	754.66
435.894	777.93
436.269	774.54
436.644	784.71
437.02	786.29
437.395	751.72
437.77	784.26
438.145	791.94
438.52	793.75
438.895	833.07
439.271	837.82
439.646	834.2
440.021	826.97
440.395	825.39
440.77	847.76
441.145	843.47
441.52	852.28
441.895	868.55
442.27	874.2
442.645	871.26
443.019	870.58
443.394	873.3
443.769	899.28
444.143	914.43
444.518	894.99
444.892	878.27
445.267	913.97
445.641	926.18
446.016	919.17
446.39	916.23
446.764	948.1
447.139	933.63
447.513	918.94
447.887	947.42
448.262	947.87
448.636	960.07
449.01	974.31
449.384	951.03
449.758	985.84
450.132	1002.78
450.506	992.84
450.88	983.8
451.254	991.26
451.628	1016.34
452.002	1035.33
452.376	1037.13
452.75	1038.04
453.123	1039.62
453.497	1048.88
453.871	1073.29
454.244	1097.92
454.618	1112.61
454.992	1090.24
455.365	1102.22
455.739	1132.95
456.112	1134.53
456.486	1134.08
456.859	1180.86
457.232	1190.12
457.606	1188.09
457.979	1211.59
458.352	1221.54
458.725	1246.17
459.099	1249.33
459.472	1265.6
459.845	1264.92
460.218	1278.03
460.591	1308.54
460.964	1311.48
461.337	1318.03
461.71	1335.43
462.083	1366.62
462.456	1358.93
462.829	1408.65
463.201	1414.75
463.574	1404.36
463.947	1447.97
464.32	1468.76
464.692	1509.66
465.065	1484.13
465.438	1527.06
465.81	1542.66
466.183	1556.89
466.555	1598.7
466.928	1610
467.3	1592.37
467.672	1635.76
468.045	1693.16
468.417	1690.45
468.789	1727.74
469.161	1762.54
469.534	1744.69
469.906	1841.86
470.278	1801.41
470.65	1859.49
471.022	1923.44
471.394	1957.56
471.766	1979.26
472.138	2003.89
472.51	2071.46
472.882	2082.08
473.253	2135.86
473.625	2190.55
473.997	2225.35
474.369	2269.64
474.74	2319.13
475.112	2358.23
475.484	2430.77
475.855	2490.2
476.227	2512.35
476.598	2570.2
476.97	2662.63
477.341	2705.11
477.713	2813.81
478.084	2844.32
478.455	2917.31
478.827	2962.05
479.198	3098.77
479.569	3087.93
479.94	3265.32
480.311	3277.07
480.682	3381.93
481.053	3500.57
481.424	3613.79
481.795	3660.12
482.166	3770.17
482.537	3894.01
482.908	3977.4
483.279	4063.04
483.65	4179.88
484.021	4314.11
484.391	4461.22
484.762	4550.94
485.133	4644.95
485.503	4760.2
485.874	4900.53
486.244	4969.69
486.615	5167.87
486.985	5276.12
487.356	5442.44
487.726	5484.25
488.097	5697.35
488.467	5771.25
488.837	5935.31
489.207	6087.17
489.578	6234.29
489.948	6388.18
490.318	6533.71
490.688	6648.74
491.058	6784.78
491.428	6952.46
491.798	7078.33
492.168	7339.79
492.538	7417.98
492.908	7619.11
493.278	7688.26
493.648	7845.77
494.017	8016.61
494.387	8184.74
494.757	8322.82
495.126	8437.17
495.496	8517.16
495.866	8644.17
496.235	8824.05
496.605	8953.99
496.974	9056.36
497.344	9227.43
497.713	9325.96
498.082	9437.36
498.452	9590.13
498.821	9723.46
499.19	9811.82
499.559	9877.81
499.928	9995.77
500.298	10181.3
500.667	10257.23
501.036	10303.56
501.405	10504
501.774	10572.02
502.143	10595.53
502.512	10750.55
502.88	10887.04
503.249	10901.06
503.618	11050.2
503.987	11158
504.356	11268.28
504.724	11363.87
505.093	11408.39
505.462	11506.69
505.83	11570.19
506.199	11609.51
506.567	11872.78
506.936	11799.56
507.304	11912.55
507.672	11978.54
508.041	12088.37
508.409	12146.67
508.777	12301.24
509.145	12406.78
509.514	12446.55
509.882	12513.67
510.25	12508.92
510.618	12574.23
510.986	12653.55
511.354	12770.61
511.722	12820.78
512.09	12934.45
512.458	12929.93
512.826	12988.91
513.193	13077.5
513.561	13194.33
513.929	13186.19
514.297	13375.79
514.664	13336.47
515.032	13347.09
515.4	13502.57
515.767	13467.09
516.135	13544.38
516.502	13406.53
516.869	13667.31
517.237	13617.37
517.604	13538.73
517.972	13736.91
518.339	13748.21
518.706	13748.89
519.073	13734.88
519.44	13821.88
519.808	13960.86
520.175	13885.84
520.542	14081.99
520.909	14083.12
521.276	13988.88
521.643	14138.26
522.009	14125.38
522.376	14190.23
522.743	14284.02
523.11	14297.8
523.477	14339.61
523.843	14373.28
524.21	14488.76
524.577	14552.94
524.943	14528.3
525.31	14519.04
525.676	14622.09
526.043	14645.82
526.409	14712.93
526.776	14789.09
527.142	14732.37
527.508	14736.66
527.874	14811.23
528.241	14863.66
528.607	14760.84
528.973	14861.18
529.339	14863.66
529.705	14878.8
530.071	14924.45
530.437	14885.58
530.803	14951.57
531.169	14955.19
531.535	14861.18
531.901	14796.55
532.267	14804.23
532.632	14907.5
532.998	14843.78
533.364	14870.89
533.73	14884.45
534.095	14890.78
534.461	14794.06
534.826	14934.85
535.192	14839.48
535.557	14894.17
535.923	14821.63
536.288	14848.52
536.653	14758.13
537.019	14683.1
537.384	14666.61
537.749	14718.13
538.114	14665.7
538.479	14688.07
538.845	14639.04
539.21	14591.58
539.575	14549.09
539.94	14472.71
540.305	14523.78
540.67	14493.28
541.034	14535.31
541.399	14486.95
541.764	14361.08
542.129	14422.09
542.494	14316.33
542.858	14409.21
543.223	14321.08
543.587	14302.1
543.952	14266.39
544.316	14211.93
544.681	14128.31
545.045	14110.91
545.41	14211.25
545.774	14133.96
546.138	14020.52
546.503	14079.73
546.867	13961.99
547.231	14015.78
547.595	13942.33
547.959	13951.14
548.324	13867.08
548.688	13814.42
549.052	13877.25
549.416	13826.63
549.779	13746.18
550.143	13738.04
550.507	13840.64
550.871	13706.41
551.235	13588.44
551.599	13746.18
551.962	13692.17
552.326	13596.58
552.689	13660.76
553.053	13513.19
553.417	13573.53
553.78	13573.08
554.143	13468.9
554.507	13523.13
554.87	13543.7
555.234	13517.03
555.597	13467.99
555.96	13376.7
556.323	13472.96
556.686	13367.66
557.05	13399.97
557.413	13384.61
557.776	13347.77
558.139	13406.98
558.502	13376.24
558.865	13355.45
559.228	13468.9
559.59	13375.79
559.953	13376.92
560.316	13518.16
560.679	13387.54
561.041	13450.82
561.404	13475.68
561.767	13532.17
562.129	13321.56
562.492	13535.56
562.854	13436.81
563.217	13393.65
563.579	13512.29
563.941	13441.1
564.304	13522.46
564.666	13515.9
565.028	13484.94
565.39	13530.59
565.753	13590.48
566.115	13572.17
566.477	13619.63
566.839	13590.48
567.201	13677.71
567.563	13641.1
567.925	13710.47
568.287	13663.69
568.648	13721.55
569.01	13750.7
569.372	13740.53
569.734	13709.79
570.095	13706.18
570.457	13860.53
570.819	13670.47
571.18	13696.01
571.542	13767.87
571.903	13845.61
572.265	13758.61
572.626	13799.74
572.987	13840.86
573.349	13828.66
573.71	13877.02
574.071	13865.27
574.432	13906.85
574.794	13962.9
575.155	13978.04
575.516	13832.96
575.877	13934.65
576.238	13913.63
576.599	13985.95
576.96	13967.87
577.32	13979.62
577.681	14013.52
578.042	14045.83
578.403	13970.35
578.763	14003.12
579.124	14049.9
579.485	14084.93
579.845	14056.23
580.206	13975.32
580.566	14003.35
580.927	14046.74
581.287	14030.69
581.648	13954.31
582.008	14002.67
582.368	14020.3
582.728	14069.56
583.089	13956.34
583.449	14027.3
583.809	13962.67
584.169	13949.11
584.529	13966.74
584.889	14085.15
585.249	13984.59
585.609	13903.69
585.969	14009.67
586.329	13946.4
586.688	13947.08
587.048	13914.54
587.408	13883.58
587.768	13962.67
588.127	13848.1
588.487	13870.47
588.846	13990.92
589.206	13870.92
589.565	13865.5
589.925	13845.61
590.284	13876.57
590.643	13786.63
591.003	13876.34
591.362	13837.48
591.721	13854.65
592.08	13816.01
592.44	13818.72
592.799	13883.35
593.158	13890.81
593.517	13825.72
593.876	13772.62
594.235	13776.91
594.593	13791.15
594.952	13836.12
595.311	13696.69
595.67	13790.02
596.029	13832.73
596.387	13797.48
596.746	13868.66
597.104	13711.83
597.463	13775.33
597.822	13872.28
598.18	13684.71
598.538	13749.34
598.897	13826.4
599.255	13665.28
599.613	13871.37
599.972	13723.58
600.33	13777.82
600.688	13639.97
601.046	13758.38
601.404	13851.03
601.762	13738.27
602.12	13831.83
602.478	13681.55
602.836	13738.95
603.194	13740.75
603.552	13730.81
603.91	13694.2
604.268	13818.72
604.625	13646.52
604.983	13773.75
605.341	13750.02
605.698	13724.71
606.056	13769.91
606.413	13731.26
606.771	13839.73
607.128	13771.71
607.485	13717.93
607.843	13780.98
608.2	13802.45
608.557	13887.42
608.914	13836.8
609.272	13884.25
609.629	13900.3
609.986	14000.18
610.343	13869.34
610.7	13973.97
611.057	13864.14
611.414	13889.23
611.771	13936.68
612.127	13903.46
612.484	13892.61
612.841	13978.26
613.198	13966.51
613.554	14009.45
613.911	14026.4
614.267	13930.58
614.624	14047.64
614.98	14062.33
615.337	14023.68
615.693	14070.01
616.05	14040.18
616.406	14076.34
616.762	14089.67
617.118	14046.06
617.475	13975.32
617.831	14099.16
618.187	14065.49
618.543	14127.41
618.899	14161.76
619.255	14130.57
619.611	14096.45
619.967	14114.76
620.323	14228.43
620.678	14225.49
621.034	14137.13
621.39	14141.2
621.746	14179.61
622.101	14240.63
622.457	14162.89
622.812	14145.26
623.168	14260.29
623.523	14230.69
623.879	14207.86
624.234	14141.65
624.589	14066.17
624.945	14210.57
625.3	14272.72
625.655	14199.73
626.01	14173.06
626.365	14235.66
626.72	14165.15
627.075	14158.6
627.43	14199.5
627.785	14063.68
628.14	14141.65
628.495	14205.83
628.85	14157.01
629.205	14127.86
629.559	14274.07
629.914	14076.34
630.269	14063.23
630.623	14068.66
630.978	14053.51
631.332	14133.29
631.687	14162.89
632.041	14112.27
632.396	14098.49
632.75	14014.87
633.104	14074.53
633.459	13921.99
633.813	14006.74
634.167	13996.79
634.521	13982.1
634.875	13985.49
635.229	13886.97
635.583	13854.2
635.937	13915.21
636.291	13854.42
636.645	13880.41
636.999	13875.44
637.352	13831.83
637.706	13780.53
638.06	13815.1
638.413	13825.72
638.767	13810.36
639.121	13759.06
639.474	13647.2
639.828	13664.15
640.181	13800.64
640.534	13680.64
640.888	13663.02
641.241	13650.36
641.594	13639.29
641.947	13709.79
642.301	13552.96
642.654	13663.69
643.007	13553.87
643.36	13643.81
643.713	13626.41
644.066	13561.55
644.419	13596.8
644.771	13430.93
645.124	13369.92
645.477	13381.22
645.83	13301.9
646.182	13213.76
646.535	13097.38
646.888	13138.51
647.24	13114.56
647.593	13122.47
647.945	13188.23
648.298	13081.11
648.65	13088.12
649.002	13032.07
649.355	13024.84
649.707	13101.22
650.059	13113.43
650.411	13317.04
650.763	13267.77
651.115	13466.64
651.467	13318.62
651.819	13329.69
652.171	13314.78
652.523	13342.57
652.875	13326.53
653.227	13323.82
653.578	13407.66
653.93	13361.1
654.282	13267.32
654.633	13362.91
654.985	13284.27
655.337	13351.16
655.688	13349.13
656.039	13437.71
656.391	13269.58
656.742	13322.23
657.094	13319.52
657.445	13445.85
657.796	13339.18
658.147	13295.57
658.498	13290.6
658.849	13304.16
659.2	13398.16
659.551	13272.29
659.902	13346.41
660.253	13363.14
660.604	13348.22
660.955	13332.86
661.306	13345.96
661.656	13334.89
662.007	13357.26
662.358	13322.46
662.708	13382.57
663.059	13274.33
663.409	13255.8
663.76	13399.97
664.11	13375.57
664.461	13418.5
664.811	13378.28
665.161	13411.95
665.511	13326.3
665.862	13405.17
666.212	13424.38
666.562	13523.36
666.912	13400.65
667.262	13295.12
667.612	13430.71
667.962	13394.55
668.312	13364.49
668.662	13428.67
669.011	13472.51
669.361	13406.75
669.711	13365.85
670.06	13315.68
670.41	13304.16
670.76	13296.92
671.109	13376.92
671.459	13381.44
671.808	13233.88
672.157	13382.12
672.507	13278.62
672.856	13215.12
673.205	13256.47
673.554	13356.13
673.904	13280.2
674.253	13261.45
674.602	13289.01
674.951	13091.05
675.3	13025.07
675.649	13245.4
675.998	13222.35
676.346	13219.19
676.695	13263.48
677.044	13131.51
677.393	13188.68
677.741	13176.48
678.09	13121.79
678.438	13143.71
678.787	13173.54
679.135	13116.36
679.484	13020.32
679.832	13014.9
680.181	12985.07
680.529	13014.45
680.877	12967.22
681.225	13041.56
681.573	13002.47
681.922	12878.18
682.27	12892.87
682.618	12920.89
682.966	12815.36
683.314	12876.6
683.661	12875.24
684.009	12787.56
684.357	12740.78
684.705	12714.57
685.053	12725.64
685.4	12689.48
685.748	12704.4
686.095	12625.3
686.443	12526.78
686.79	12611.97
687.138	12648.58
687.485	12629.6
687.832	12573.78
688.18	12495.36
688.527	12463.95
688.874	12340.79
689.221	12355.93
689.568	12305.09
689.915	12288.82
690.262	12305.76
690.609	12279.32
690.956	12216.05
691.303	12150.51
691.65	12133.11
691.997	12104.64
692.344	12040.91
692.69	12051.53
693.037	11955.94
693.383	11870.97
693.73	11948.03
694.077	11886.57
694.423	11870.07
694.769	11792.33
695.116	11790.98
695.462	11709.17
695.808	11736.06
696.155	11694.25
696.501	11630.53
696.847	11593.92
697.193	11547.37
697.539	11485.22
697.885	11473.92
698.231	11346.92
698.577	11374.04
698.923	11382.4
699.269	11290.65
699.614	11242.29
699.96	11252.23
700.306	11257.2
700.651	11158.45
700.997	11190.54
701.342	11068.51
701.688	11069.19
702.033	11004.33
702.379	11000.94
702.724	10987.38
703.069	11058.11
703.415	10768.18
703.76	10895.41
704.105	10874.16
704.45	10824.22
704.795	10765.24
705.14	10710.78
705.485	10699.93
705.83	10637.11
706.175	10632.81
706.52	10546.71
706.865	10515.08
707.209	10550.33
707.554	10473.27
707.899	10463.33
708.243	10497.9
708.588	10480.28
708.932	10359.6
709.277	10388.98
709.621	10318.7
709.966	10308.98
710.31	10301.07
710.654	10179.94
710.998	10230.56
711.342	10218.14
711.687	10193.5
712.031	10130.68
712.375	10042.55
712.719	10173.39
713.063	10084.58
713.407	10080.74
713.75	10027.41
714.094	10029.44
714.438	9985.6
714.782	9988.99
715.125	10004.36
715.469	9939.27
715.812	9906.96
716.156	9848.88
716.499	9899.5
716.843	9936.79
717.186	9784.7
717.53	9862.21
717.873	9836.22
718.216	9897.47
718.559	9803.23
718.902	9743.12
719.246	9793.51
719.589	9686.85
719.932	9755.77
720.275	9726.85
720.617	9661.99
720.96	9666.74
721.303	9608.66
721.646	9678.71
721.989	9646.4
722.331	9628.09
722.674	9637.81
723.016	9644.14
723.359	9559.17
723.701	9614.08
724.044	9595.1
724.386	9586.06
724.729	9499.74
725.071	9611.15
725.413	9553.29
725.755	9546.97
726.097	9551.94
726.439	9426.97
726.782	9506.06
727.124	9523.46
727.465	9516.01
727.807	9502.67
728.149	9529.11
728.491	9454.54
728.833	9428.1
729.175	9486.18
729.516	9449.12
729.858	9406.63
730.199	9471.94
730.541	9412.51
730.882	9426.74
731.224	9434.43
731.565	9429.46
731.906	9363.47
732.248	9423.81
732.589	9379.29
732.93	9428.1
733.271	9432.17
733.612	9403.02
733.953	9447.08
734.294	9443.01
734.635	9377.71
734.976	9428.78
735.317	9349.91
735.658	9410.47
735.999	9341.55
736.339	9378.61
736.68	9349.23
737.021	9473.97
737.361	9438.49
737.702	9376.58
738.042	9483.01
738.383	9409.12
738.723	9433.3
739.063	9384.71
739.404	9400.3
739.744	9405.5
740.084	9452.28
740.424	9455.9
740.764	9382.45
741.104	9530.7
741.444	9442.34
741.784	9417.48
742.124	9467.65
742.464	9527.08
742.804	9606.4
743.143	9518.49
743.483	9610.02
743.823	9477.36
744.162	9517.14
744.502	9632.61
744.841	9628.77
745.181	9750.8
745.52	9646.62
745.86	9738.37
746.199	9802.78
746.538	9783.8
746.877	9918.93
747.216	9904.02
747.556	9924.81
747.895	9993.28
748.234	9953.96
748.573	10018.37
748.911	10146.95
749.25	10172.03
749.589	10236.67
749.928	10309.43
750.267	10426.27
750.605	10371.8
750.944	10464.46
751.283	10595.07
751.621	10671.68
751.96	10667.16
752.298	10774.73
752.636	10920.26
752.975	11004.33
753.313	11119.81
753.651	11270.54
753.989	11335.85
754.327	11380.14
754.666	11589.17
755.004	11689.96
755.342	11787.36
755.679	11996.17
756.017	11990.52
756.355	12364.29
756.693	12302.6
757.031	12541.92
757.368	12610.84
757.706	12806.09
758.044	12955.46
