Data from hue_00_FLMS001491_70.txt Node
Date: Mon Feb 06 15:30:04 GMT 2017
User: dcchb
Spectrometer: FLMS00149
Trigger mode: 0
Integration Time (sec): 2.000000E-2
Scans to average: 10
Electric dark correction enabled: true
Nonlinearity correction enabled: false
Boxcar width: 0
XAxis mode: Wavelengths
Number of Pixels in Spectrum: 2048
>>>>>Begin Spectral Data<<<<<
341.393	0.32
341.776	0.32
342.16	0.32
342.543	-65.21
342.927	-69.28
343.31	-65.44
343.693	-71.76
344.077	-77.64
344.46	-37.41
344.843	-60.69
345.226	-35.15
345.61	-42.39
345.993	-19.11
346.376	0.55
346.759	-6.91
347.142	16.6
347.525	52.75
347.908	74.45
348.291	68.8
348.674	87.1
349.057	116.25
349.44	120.55
349.823	109.02
350.206	153.77
350.588	179.98
350.971	205.29
351.354	220.43
351.737	239.19
352.119	259.3
352.502	267.89
352.884	268.11
353.267	278.28
353.65	291.16
354.032	306.53
354.414	292.52
354.797	315.12
355.179	330.26
355.562	314.67
355.944	310.83
356.326	305.63
356.709	313.99
357.091	332.75
357.473	335.68
357.855	354.67
358.238	342.91
358.62	333.65
359.002	363.25
359.384	329.58
359.766	326.64
360.148	346.3
360.53	334.33
360.912	322.8
361.294	340.43
361.676	346.76
362.057	318.06
362.439	338.62
362.821	316.7
363.203	345.85
363.584	313.54
363.966	311.96
364.348	314.89
364.729	310.37
365.111	309.92
365.493	308.57
365.874	290.49
366.256	312.41
366.637	315.8
367.019	298.62
367.4	308.34
367.781	318.96
368.163	300.43
368.544	308.11
368.925	312.63
369.306	307.21
369.688	316.93
370.069	289.13
370.45	291.84
370.831	297.49
371.212	284.61
371.593	293.65
371.974	304.05
372.355	320.32
372.736	309.47
373.117	313.31
373.498	316.7
373.879	325.97
374.26	302.92
374.641	302.24
375.021	324.61
375.402	323.71
375.783	327.32
376.163	344.5
376.544	313.31
376.925	306.76
377.305	314.67
377.686	325.51
378.066	310.37
378.447	299.75
378.827	331.84
379.208	325.97
379.588	314.21
379.968	318.28
380.349	327.1
380.729	312.41
381.109	322.8
381.489	326.64
381.87	330.94
382.25	323.48
382.63	342.24
383.01	335.46
383.39	345.85
383.77	341.33
384.15	336.14
384.53	330.03
384.91	339.52
385.29	332.52
385.67	361.22
386.049	347.66
386.429	333.2
386.809	334.55
387.189	334.55
387.568	355.12
387.948	339.07
388.328	340.43
388.707	345.17
389.087	343.14
389.466	338.62
389.846	346.76
390.225	328.23
390.605	336.59
390.984	350.6
391.363	361.22
391.743	332.07
392.122	363.48
392.501	359.64
392.881	366.64
393.26	377.49
393.639	350.37
394.018	385.17
394.397	339.52
394.776	362.8
395.155	353.54
395.534	372.97
395.913	371.39
396.292	382.01
396.671	357.6
397.05	383.37
397.429	338.17
397.808	375.68
398.186	375.46
398.565	363.93
398.944	377.26
399.323	373.65
399.701	372.97
400.08	389.69
400.458	379.52
400.837	370.03
401.215	375
401.594	374.33
401.972	390.37
402.351	418.17
402.729	403.25
403.107	398.05
403.486	371.16
403.864	386.53
404.242	383.37
404.62	406.42
404.999	394.21
405.377	429.24
405.755	400.54
406.133	411.39
406.511	397.15
406.889	420.88
407.267	408.9
407.645	414.55
408.023	408.68
408.401	418.39
408.779	411.39
409.156	413.87
409.534	425.17
409.912	424.27
410.29	419.52
410.667	454.1
411.045	429.92
411.422	436.25
411.8	443.03
412.178	419.07
412.555	441.9
412.933	442.57
413.31	440.31
413.687	463.14
414.065	473.31
414.442	442.57
414.819	440.77
415.197	489.58
415.574	448.67
415.951	488
416.328	470.59
416.705	471.5
417.082	462.91
417.46	465.85
417.837	441.22
418.214	490.26
418.591	487.09
418.967	490.03
419.344	481.67
419.721	507.66
420.098	490.26
420.475	500.88
420.852	499.29
421.228	489.13
421.605	491.39
421.982	484.61
422.358	513.98
422.735	534.32
423.111	546.75
423.488	502.68
423.864	520.54
424.241	536.36
424.617	538.84
424.994	534.1
425.37	533.19
425.746	525.96
426.123	537.49
426.499	550.82
426.875	548.79
427.251	527.09
427.627	553.76
428.003	558.5
428.379	571.61
428.756	573.42
429.132	576.13
429.507	574.77
429.883	570.48
430.259	584.72
430.635	592.17
431.011	592.63
431.387	622.23
431.763	617.94
432.138	615.9
432.514	624.26
432.89	606.64
433.265	629.69
433.641	633.75
434.016	620.42
434.392	643.47
434.767	653.19
435.143	633.53
435.518	654.54
435.894	655.22
436.269	652.06
436.644	668.33
437.02	672.4
437.395	680.31
437.77	688.89
438.145	676.01
438.52	702
438.895	687.31
439.271	707.42
439.646	712.4
440.021	677.6
440.395	723.02
440.77	695
441.145	714.2
441.52	742.9
441.895	718.27
442.27	746.97
442.645	716.24
443.019	737.71
443.394	735.45
443.769	731.15
444.143	740.19
444.518	761.21
444.892	724.37
445.267	765.28
445.641	752.4
446.016	743.81
446.39	754.43
446.764	763.92
447.139	747.88
447.513	784.03
447.887	789.23
448.262	780.87
448.636	786.29
449.01	787.65
449.384	806.41
449.758	782.45
450.132	829.68
450.506	805.28
450.88	805.5
451.254	810.47
451.628	842.34
452.002	797.82
452.376	848.66
452.75	841.21
453.123	856.12
453.497	845.05
453.871	860.42
454.244	875.56
454.618	880.98
454.992	877.14
455.365	885.05
455.739	915.56
456.112	909.91
456.486	909
456.859	907.65
457.232	911.49
457.606	927.31
457.979	925.5
458.352	957.81
458.725	962.56
459.099	967.31
459.472	989.68
459.845	988.1
460.218	989
460.591	997.81
460.964	1011.82
461.337	1026.96
461.71	1019.28
462.083	1035.33
462.456	1042.33
462.829	1044.37
463.201	1058.15
463.574	1059.05
463.947	1061.54
464.32	1078.71
464.692	1110.13
465.065	1120.75
465.438	1130.69
465.81	1147.41
466.183	1156
466.555	1157.36
466.928	1181.08
467.3	1170.92
467.672	1182.67
468.045	1198.03
468.417	1223.12
468.789	1238.03
469.161	1242.33
469.534	1277.35
469.906	1288.88
470.278	1332.49
470.65	1307.18
471.022	1332.27
471.394	1361.64
471.766	1354.64
472.138	1399.84
472.51	1419.04
472.882	1407.07
473.253	1440.06
473.625	1472.15
473.997	1507.63
474.369	1504.69
474.74	1483.9
475.112	1548.76
475.484	1595.54
475.855	1593.28
476.227	1616.55
476.598	1646.84
476.97	1670.34
477.341	1734.74
477.713	1708.98
478.084	1739.04
478.455	1795.08
478.827	1794.4
479.198	1859.94
479.569	1858.81
479.94	1903.78
480.311	1943.78
480.682	1956.66
481.053	1987.84
481.424	2059.71
481.795	2039.59
482.166	2080.27
482.537	2109.42
482.908	2170.89
483.279	2182.64
483.65	2236.42
484.021	2282.07
484.391	2288.4
484.762	2320.72
485.133	2358.23
485.503	2424.67
485.874	2484.78
486.244	2488.17
486.615	2530.43
486.985	2581.27
487.356	2618.56
487.726	2640.93
488.097	2676.64
488.467	2680.93
488.837	2749.63
489.207	2813.58
489.578	2845
489.948	2887.48
490.318	2901.49
490.688	2922.96
491.058	2994.14
491.428	3014.93
491.798	3036.86
492.168	3112.33
492.538	3108.72
492.908	3137.87
493.278	3192.56
493.648	3210.64
494.017	3220.35
494.387	3272.1
494.757	3322.05
495.126	3376.96
495.496	3372.44
495.866	3397.75
496.235	3430.52
496.605	3451.76
496.974	3488.59
497.344	3515.49
497.713	3539.44
498.082	3593.22
498.452	3601.59
498.821	3616.05
499.19	3581.02
499.559	3685.43
499.928	3702.6
500.298	3746.67
500.667	3715.48
501.036	3741.7
501.405	3750.73
501.774	3794.12
502.143	3818.98
502.512	3826.44
502.88	3880.9
503.249	3851.07
503.618	3886.1
503.987	3915.7
504.356	3969.03
504.724	3950.96
505.093	3965.19
505.462	3996.83
505.83	4038.86
506.199	4027.34
506.567	4100.56
506.936	4081.57
507.304	4139.2
507.672	4157.96
508.041	4126.77
508.409	4193.21
508.777	4191.85
509.145	4187.33
509.514	4220.55
509.882	4224.17
510.25	4248.12
510.618	4293.55
510.986	4293.77
511.354	4332.64
511.722	4352.07
512.09	4376.03
512.458	4377.84
512.826	4354.11
513.193	4427.78
513.561	4411.06
513.929	4425.97
514.297	4462.58
514.664	4511.39
515.032	4559.75
515.4	4556.14
515.767	4508
516.135	4570.37
516.502	4557.49
516.869	4588.45
517.237	4658.96
517.604	4573.76
517.972	4646.53
518.339	4655.57
518.706	4675.46
519.073	4701.44
519.44	4691.05
519.808	4732.4
520.175	4711.39
520.542	4791.84
520.909	4755.45
521.276	4774.44
521.643	4777.6
522.009	4776.47
522.376	4823.93
522.743	4872.29
523.11	4917.03
523.477	4944.15
523.843	4937.14
524.21	4989.57
524.577	5023.7
524.943	5042.68
525.31	5066.18
525.676	5097.82
526.043	5154.09
526.409	5124.26
526.776	5185.95
527.142	5141.43
527.508	5222.33
527.874	5254.2
528.241	5267.76
528.607	5278.6
528.973	5314.31
529.339	5366.51
529.705	5357.47
530.071	5383.69
530.437	5390.92
530.803	5446.51
531.169	5487.41
531.535	5466.17
531.901	5473.18
532.267	5491.71
532.632	5589.56
532.998	5571.25
533.364	5595.21
533.73	5615.77
534.095	5602.44
534.461	5655.77
534.826	5688.08
535.192	5726.05
535.557	5765.37
535.923	5731.02
536.288	5733.06
536.653	5839.27
537.019	5804.24
537.384	5785.48
537.749	5874.07
538.114	5879.49
538.479	5909.55
538.845	5933.95
539.21	5931.47
539.575	5970.79
539.94	5985.03
540.305	6042.2
540.67	6050.11
541.034	6070.45
541.399	6108.41
541.764	6105.7
542.129	6121.97
542.494	6188.86
542.858	6197
543.223	6217.56
543.587	6243.78
543.952	6208.75
544.316	6249.65
544.681	6273.61
545.045	6358.8
545.41	6336.66
545.774	6376.43
546.138	6376.65
546.503	6422.3
546.867	6393.38
547.231	6428.4
547.595	6451.23
547.959	6551.34
548.324	6492.13
548.688	6555.18
549.052	6589.3
549.416	6654.16
549.779	6615.07
550.143	6596.08
550.507	6682.41
550.871	6704.56
551.235	6672.69
551.599	6717.44
551.962	6762.41
552.326	6785.46
552.689	6777.32
553.053	6757.89
553.417	6799.24
553.78	6906.36
554.143	6863.87
554.507	6897.32
554.87	6893.25
555.234	6947.49
555.597	6987.94
555.96	6925.79
556.323	7009.18
556.686	7029.52
557.05	7044.89
557.413	7045.11
557.776	7104.77
558.139	7078.33
558.502	7130.98
558.865	7128.05
559.228	7193.36
559.59	7240.81
559.953	7162.4
560.316	7265.67
560.679	7295.5
561.041	7319.23
561.404	7365.55
561.767	7452.33
562.129	7357.42
562.492	7439.45
562.854	7423.18
563.217	7501.37
563.579	7465.89
563.941	7485.1
564.304	7508.38
564.666	7556.06
565.028	7559.9
565.39	7590.63
565.753	7669.73
566.115	7690.74
566.477	7706.56
566.839	7682.38
567.201	7812.1
567.563	7785.66
567.925	7846.22
568.287	7844.86
568.648	7854.36
569.01	7915.82
569.372	7975.48
569.734	7918.99
570.095	8012.32
570.457	7982.49
570.819	8070.62
571.18	8118.98
571.542	8199.43
571.903	8177.96
572.265	8234.68
572.626	8274.01
572.987	8288.47
573.349	8386.32
573.71	8395.13
574.071	8443.94
574.432	8545.64
574.794	8538.18
575.155	8601.68
575.516	8605.97
575.877	8706.54
576.238	8708.8
576.599	8863.59
576.96	8836.93
577.32	8967.55
577.681	9019.52
578.042	9071.27
578.403	9118.28
578.763	9204.15
579.124	9326.41
579.485	9489.57
579.845	9551.71
580.206	9660.86
580.566	9719.17
580.927	9836
581.287	10011.36
581.648	10034.19
582.008	10212.71
582.368	10307.4
582.728	10448.41
583.089	10596.88
583.449	10748.52
583.809	10900.83
584.169	10986.93
584.529	11218.79
584.889	11416.07
585.249	11520.93
585.609	11651.77
585.969	11959.78
586.329	12130.18
586.688	12308.7
587.048	12541.01
587.408	12724.51
587.768	12968.35
588.127	13074.11
588.487	13333.08
588.846	13603.36
589.206	13783.47
589.565	14041.31
589.925	14252.61
590.284	14567.85
590.643	14848.75
591.003	15065.47
591.362	15353.37
591.721	15572.12
592.08	15883.98
592.44	16150.86
592.799	16351.76
593.158	16615.93
593.517	16911.29
593.876	17174.79
594.235	17445.97
594.593	17727.32
594.952	18039.4
595.311	18202.56
595.67	18604.58
596.029	18849.09
596.387	19098.13
596.746	19378.12
597.104	19727.26
597.463	19930.42
597.822	20318.43
598.18	20541.71
598.538	20759.1
598.897	21263.04
599.255	21311.63
599.613	21911.16
599.972	21961.1
600.33	22351.83
600.688	22435.67
601.046	22738.26
601.404	23186.16
601.762	23357.68
602.12	23736.2
602.478	24006.93
602.836	24116.53
603.194	24267.48
603.552	24698.21
603.91	24798.32
604.268	25186.1
604.625	25387.68
604.983	25602.14
605.341	25755.58
605.698	26212.52
606.056	26408.44
606.413	26587.2
606.771	26943.57
607.128	27216.78
607.485	27217.91
607.843	27575.19
608.2	27878.01
608.557	28029.87
608.914	28160.49
609.272	28570.65
609.629	28799.34
609.986	29129.73
610.343	29114.81
610.7	29452.88
611.057	29587.34
611.414	29716.61
611.771	29966.99
612.127	30141
612.484	30259.42
612.841	30537.83
613.198	30605.4
613.554	30806.52
613.911	31147.75
614.267	31327.18
614.624	31352.27
614.98	31681.3
615.337	31865.25
615.693	31917.68
616.05	32041.74
616.406	32300.04
616.762	32351.79
617.118	32591.11
617.475	32707.71
617.831	32909.74
618.187	32989.51
618.543	33171.2
618.899	33358.54
619.255	33433.57
619.611	33480.12
619.967	33676.95
620.323	33919.21
620.678	33839.66
621.034	33970.05
621.39	33948.36
621.746	34163.95
622.101	34566.42
622.457	34287.78
622.812	34445.52
623.168	34568.46
623.523	34725.97
623.879	34744.27
624.234	34660.88
624.589	34944.94
624.945	35039.4
625.3	35095.22
625.655	35072.85
626.01	35265.84
626.365	35395.1
626.72	35408.43
627.075	35452.05
627.43	35593.06
627.785	35517.13
628.14	35607.07
628.495	35843.45
628.85	35758.93
629.205	35593.06
629.559	36022.88
629.914	35712.38
630.269	35769.1
630.623	35721.65
630.978	35780.18
631.332	35891.81
631.687	36124.35
632.041	35910.34
632.396	35941.98
632.75	35854.98
633.104	36065.59
633.459	35963
633.813	35953.05
634.167	36060.85
634.521	36014.75
634.875	36110.34
635.229	36010
635.583	35861.08
635.937	35945.37
636.291	36007.74
636.645	36077.79
636.999	35952.15
637.352	36118.02
637.706	35850.91
638.06	36080.28
638.413	36020.17
638.767	35986.05
639.121	36097.91
639.474	35942.66
639.828	36024.91
640.181	36069.66
640.534	36076.44
640.888	35859.72
641.241	35854.3
641.594	35854.07
641.947	35884.58
642.301	35886.84
642.654	35959.38
643.007	35923.9
643.36	35976.55
643.713	35862.21
644.066	36000.51
644.419	35730.01
644.771	35525.94
645.124	35216.8
645.477	35263.8
645.83	35007.77
646.182	34885.74
646.535	34786.98
646.888	34799.64
647.24	34687.32
647.593	34881.89
647.945	34885.28
648.298	34749.47
648.65	34746.98
649.002	34627.66
649.355	34713.76
649.707	34688
650.059	34748.11
650.411	35179.29
650.763	35130.93
651.115	35642.78
651.467	35369.56
651.819	35496.79
652.171	35472.39
652.523	35334.31
652.875	35401.2
653.227	35205.73
653.578	35466.06
653.93	35444.36
654.282	35281.43
654.633	35143.36
654.985	35195.11
655.337	35286.85
655.688	35302.9
656.039	35289.79
656.391	35045.28
656.742	35123.7
657.094	35056.35
657.445	35333.18
657.796	35162.79
658.147	35202.79
658.498	35167.99
658.849	35239.62
659.2	35117.82
659.551	35038.5
659.902	35215.9
660.253	35137.25
660.604	35193.52
660.955	35039.63
661.306	35172.28
661.656	35071.95
662.007	35116.24
662.358	35070.82
662.708	34982
663.059	35009.8
663.409	34904.49
663.76	35055.67
664.11	35126.63
664.461	35137.93
664.811	35010.03
665.161	35052.28
665.511	35023.13
665.862	34971.83
666.212	35182.68
666.562	35078.05
666.912	35102.45
667.262	35004.15
667.612	34960.76
667.962	35010.7
668.312	34923.93
668.662	35106.97
669.011	34953.98
669.361	35002.57
669.711	34919.18
670.06	34843.7
670.41	34771.61
670.76	34787.66
671.109	34905.85
671.459	34785.17
671.808	34695.46
672.157	34929.12
672.507	34672.63
672.856	34680.99
673.205	34775.23
673.554	34776.36
673.904	34580.21
674.253	34900.2
674.602	34700.2
674.951	34204.85
675.3	34098.41
675.649	34685.29
675.998	34544.95
676.346	34665.63
676.695	34639.41
677.044	34403.71
677.393	34620.88
677.741	34748.56
678.09	34599.42
678.438	34396.93
678.787	34511.96
679.135	34612.52
679.484	34218.86
679.832	34380.44
680.181	34249.59
680.529	34352.64
680.877	34183.38
681.225	34131.4
681.573	34380.21
681.922	33961.47
682.27	33994.01
682.618	34058.64
682.966	33913.78
683.314	34066.55
683.661	33946.1
684.009	33659.33
684.357	33710.17
684.705	33549.73
685.053	33661.13
685.4	33559.67
685.748	33278.77
686.095	33559.67
686.443	33337.3
686.79	33274.25
687.138	33290.52
687.485	33396.28
687.832	33188.38
688.18	33259.34
688.527	33071.77
688.874	33116.29
689.221	33076.29
689.568	32964.2
689.915	32928.05
690.262	32857.77
690.609	32723.53
690.956	32597.43
691.303	32645.57
691.65	32512.24
691.997	32458.23
692.344	32294.84
692.69	32342.75
693.037	32321.96
693.383	32161.74
693.73	32166.26
694.077	32021.86
694.423	32005.13
694.769	31948.41
695.116	31769.43
695.462	31753.39
695.808	31592.04
696.155	31719.49
696.501	31448.09
696.847	31377.8
697.193	31277.92
697.539	31349.56
697.885	31040.86
698.231	31150.69
698.577	31167.41
698.923	30964.93
699.269	30820.76
699.614	30663.25
699.96	30671.83
700.306	30557.49
700.651	30461.44
700.997	30370.6
701.342	30298.74
701.688	30351.84
702.033	30189.81
702.379	30130.38
702.724	30098.52
703.069	30133.09
703.415	29806.55
703.76	29815.59
704.105	29814.68
704.45	29780.56
704.795	29720
705.14	29595.25
705.485	29453.56
705.83	29482.04
706.175	29538.31
706.52	29356.62
706.865	29251.31
707.209	29189.16
707.554	29098.32
707.899	29217.18
708.243	29087.02
708.588	28936.51
708.932	28837.98
709.277	28687.03
709.621	28805.67
709.966	28505.34
710.31	28680.25
710.654	28404.55
710.998	28564.55
711.342	28346.02
711.687	28236.87
712.031	28192.58
712.375	28137.44
712.719	28212.92
713.063	28135.18
713.407	28173.6
713.75	28103.31
714.094	28099.92
714.438	28013.6
714.782	27948.06
715.125	27865.35
715.469	27758.24
715.812	27682.08
716.156	27518.92
716.499	27521.64
716.843	27633.27
717.186	27416.1
717.53	27584.91
717.873	27471.92
718.216	27555.31
718.559	27422.2
718.902	27140.4
719.246	27225.15
719.589	27215.65
719.932	27097.01
720.275	27214.3
720.617	27077.8
720.96	26999.61
721.303	26939.28
721.646	27011.37
721.989	26594.65
722.331	26905.83
722.674	26820.18
723.016	26869.45
723.359	26652.73
723.701	26797.36
724.044	26518.95
724.386	26555.33
724.729	26504.49
725.071	26536.35
725.413	26506.07
725.755	26342.91
726.097	26402.57
726.439	26245.51
726.782	26206.19
727.124	26339.75
727.465	26149.47
727.807	26129.13
728.149	26053.65
728.491	26001.9
728.833	26090.03
729.175	25994.9
729.516	25904.95
729.858	25928
730.199	25988.57
730.541	25728.24
730.882	25834.9
731.224	25913.32
731.565	25684.62
731.906	25671.51
732.248	25753.09
732.589	25535.47
732.93	25477.4
733.271	25535.47
733.612	25374.8
733.953	25516.04
734.294	25361.01
734.635	25406.44
734.976	25417.51
735.317	25250.28
735.658	25267.68
735.999	25251.64
736.339	25080.34
736.68	25292.09
737.021	25152.66
737.361	25019.33
737.702	25097.74
738.042	25067.91
738.383	25016.39
738.723	25075.82
739.063	24949.27
739.404	25018.42
739.744	24871.54
740.084	24708.15
740.424	24819.56
740.764	24753.57
741.104	24857.52
741.444	24629.28
741.784	24633.58
742.124	24714.93
742.464	24629.51
742.804	24486.69
743.143	24487.59
743.483	24579.34
743.823	24391.77
744.162	24492.56
744.502	24564.88
744.841	24342.06
745.181	24471.77
745.52	24319.23
745.86	24292.57
746.199	24311.55
746.538	24176.86
746.877	24206.69
747.216	24193.81
747.556	24171.44
747.895	24147.71
748.234	23997.66
748.573	24075.17
748.911	23901.39
749.25	23987.94
749.589	23841.05
749.928	23796.76
750.267	23926.25
750.605	23810.09
750.944	23786.14
751.283	23590.89
751.621	23728.74
751.96	23570.55
752.298	23571.46
752.636	23624.34
752.975	23439.26
753.313	23391.35
753.651	23439.26
753.989	23250.11
754.327	23310.67
754.666	23258.02
755.004	23320.62
755.342	23256.21
755.679	23061.64
756.017	23043.56
756.355	23114.07
756.693	22979.61
757.031	23040.4
757.368	22906.84
757.706	22834.53
758.044	22708.43
758.381	22755.88
758.719	22774.19
759.056	22728.09
759.394	22703.68
759.731	22446.51
760.068	22477.7
760.405	22282.22
760.743	22317.93
761.08	22316.57
761.417	22246.07
