Data from hue_28_FLMS001491_00073.txt Node
Date: Tue Feb 07 17:17:47 GMT 2017
User: dcchb
Spectrometer: FLMS00149
Trigger mode: 0
Integration Time (sec): 2.000000E-2
Scans to average: 10
Electric dark correction enabled: true
Nonlinearity correction enabled: false
Boxcar width: 0
XAxis mode: Wavelengths
Number of Pixels in Spectrum: 2048
>>>>>Begin Spectral Data<<<<<
341.393	-28.91
341.776	-28.91
342.16	-28.91
342.543	-62.81
342.927	-55.35
343.31	-72.98
343.693	-77.95
344.077	-58.74
344.46	-58.52
344.843	-39.08
345.226	-56.26
345.61	-32.3
345.993	-33.43
346.376	-20.32
346.759	6.79
347.142	11.77
347.525	57.64
347.908	72.78
348.291	86.34
348.674	89.73
349.057	124.53
349.44	134.7
349.823	144.64
350.206	158.43
350.588	198.2
350.971	206.34
351.354	228.48
351.737	251.53
352.119	249.05
352.502	263.06
352.884	262.83
353.267	288.59
353.65	292.44
354.032	283.62
354.414	295.6
354.797	318.65
355.179	338.08
355.562	317.52
355.944	328.14
356.326	331.08
356.709	322.94
357.091	344.19
357.473	329.5
357.855	360
358.238	327.69
358.62	356.84
359.002	344.41
359.384	323.62
359.766	328.37
360.148	342.38
360.53	357.52
360.912	355.71
361.294	342.83
361.676	327.69
362.057	349.61
362.439	316.16
362.821	329.5
363.203	334.69
363.584	326.33
363.966	330.85
364.348	315.71
364.729	310.51
365.111	315.71
365.493	322.72
365.874	331.3
366.256	327.46
366.637	324.53
367.019	309.61
367.4	301.93
367.781	329.27
368.163	313.9
368.544	315.94
368.925	303.51
369.306	314.13
369.688	317.97
370.069	307.58
370.45	312.77
370.831	319.78
371.212	305.77
371.593	301.25
371.974	318.2
372.355	308.03
372.736	305.77
373.117	324.75
373.498	321.36
373.879	293.34
374.26	316.16
374.641	313.9
375.021	321.14
375.402	318.42
375.783	326.79
376.163	343.96
376.544	334.92
376.925	319.78
377.305	331.53
377.686	305.54
378.066	320.46
378.447	322.94
378.827	333.79
379.208	323.85
379.588	343.28
379.968	328.14
380.349	346.22
380.729	344.64
381.109	332.89
381.489	351.64
381.87	331.76
382.25	341.25
382.63	332.89
383.01	357.97
383.39	329.95
383.77	345.54
384.15	355.71
384.53	352.55
384.91	334.47
385.29	363.85
385.67	340.8
386.049	362.72
386.429	390.51
386.809	383.96
387.189	359.78
387.568	352.55
387.948	353.23
388.328	363.39
388.707	350.29
389.087	378.99
389.466	352.1
389.846	350.97
390.225	382.38
390.605	386.9
390.984	371.08
391.363	365.43
391.743	379.89
392.122	374.47
392.501	382.15
392.881	390.29
393.26	382.38
393.639	379.44
394.018	388.48
394.397	398.65
394.776	380.8
395.155	380.57
395.534	400.91
395.913	362.26
396.292	393.9
396.671	394.81
397.05	383.05
397.429	384.86
397.808	394.81
398.186	390.51
398.565	385.99
398.944	388.93
399.323	394.13
399.701	406.33
400.08	391.87
400.458	402.72
400.837	402.04
401.215	405.2
401.594	403.17
401.972	427.35
402.351	414.69
402.729	400.68
403.107	407.01
403.486	407.69
403.864	430.96
404.242	419.21
404.62	409.49
404.999	398.65
405.377	401.59
405.755	424.18
406.133	438.65
406.511	423.96
406.889	433.9
407.267	428.25
407.645	423.28
408.023	429.16
408.401	427.57
408.779	449.04
409.156	453.34
409.534	435.26
409.912	442.71
410.29	458.08
410.667	443.62
411.045	471.41
411.422	455.82
411.8	462.83
412.178	476.16
412.555	469.38
412.933	468.93
413.31	477.74
413.687	487.46
414.065	488.14
414.442	494.46
414.819	483.62
415.197	471.87
415.574	496.05
415.951	517.06
416.328	501.7
416.705	488.59
417.082	497.85
417.46	486.33
417.837	495.59
418.214	511.87
418.591	509.38
418.967	531.53
419.344	520.23
419.721	532.2
420.098	527.01
420.475	536.5
420.852	537.18
421.228	542.37
421.605	526.1
421.982	538.98
422.358	554.12
422.735	542.15
423.111	552.77
423.488	549.38
423.864	556.84
424.241	579.66
424.617	579.66
424.994	574.91
425.37	572.65
425.746	567
426.123	576.27
426.499	573.78
426.875	567
427.251	575.37
427.627	599.32
428.003	579.89
428.379	597.29
428.756	607.68
429.132	614.46
429.507	616.72
429.883	611.75
430.259	627.57
430.635	614.01
431.011	612.88
431.387	625.53
431.763	647.23
432.138	650.84
432.514	653.1
432.89	641.13
433.265	675.93
433.641	682.03
434.016	677.28
434.392	699.88
434.767	694.23
435.143	710.28
435.518	682.71
435.894	708.24
436.269	691.52
436.644	694.23
437.02	723.61
437.395	762.93
437.77	719.77
438.145	731.52
438.52	725.64
438.895	736.04
439.271	727.68
439.646	765.64
440.021	769.71
440.395	773.55
440.77	760.9
441.145	752.54
441.52	790.95
441.895	778.98
442.27	786.66
442.645	793.44
443.019	775.36
443.394	797.06
443.769	806.09
444.143	791.63
444.518	824.85
444.892	810.39
445.267	814.68
445.641	812.87
446.016	809.48
446.39	814
446.764	836.15
447.139	828.24
447.513	821.69
447.887	827.11
448.262	843.83
448.636	856.04
449.01	847.45
449.384	843.16
449.758	865.98
450.132	861.69
450.506	886.77
450.88	871.4
451.254	896.04
451.628	898.75
452.002	894.23
452.376	917.28
452.75	947.79
453.123	900.33
453.497	923.15
453.871	941.46
454.244	959.31
454.618	957.73
454.992	957.28
455.365	980.33
455.739	996.37
456.112	980.1
456.486	1003.38
456.859	1032.53
457.232	1040.21
457.606	1029.14
457.979	1044.28
458.352	1055.81
458.725	1079.76
459.099	1050.61
459.472	1082.7
459.845	1092.87
460.218	1092.41
460.591	1101.23
460.964	1129.48
461.337	1141.68
461.71	1156.82
462.083	1180.77
462.456	1154.79
462.829	1192.3
463.201	1173.99
463.574	1173.32
463.947	1200.43
464.32	1223.94
464.692	1251.73
465.065	1233.65
465.438	1288.79
465.81	1283.82
466.183	1292.86
466.555	1329.7
466.928	1346.19
467.3	1336.25
467.672	1389.36
468.045	1395.01
468.417	1407.43
468.789	1424.38
469.161	1422.12
469.534	1446.98
469.906	1488.56
470.278	1485.17
470.65	1504.38
471.022	1513.19
471.394	1557.26
471.766	1569.46
472.138	1569.01
472.51	1598.62
472.882	1654.21
473.253	1668.67
473.625	1688.56
473.997	1751.61
474.369	1720.87
474.74	1766.75
475.112	1803.58
475.484	1851.04
475.855	1865.95
476.227	1873.64
476.598	1902.79
476.97	1981.88
477.341	2002.9
477.713	2042.9
478.084	2081.54
478.455	2146.4
478.827	2167.87
479.198	2250.35
479.569	2220.52
479.94	2310.69
480.311	2323.12
480.682	2375.09
481.053	2437.92
481.424	2489.44
481.795	2515.43
482.166	2551.36
482.537	2603.79
482.908	2690.79
483.279	2687.63
483.65	2773.95
484.021	2844.69
484.391	2830
484.762	2888.98
485.133	2935.98
485.503	3014.4
485.874	3060.5
486.244	3128.52
486.615	3193.15
486.985	3224.34
487.356	3330.1
487.726	3353.37
488.097	3443.31
488.467	3477.21
488.837	3556.76
489.207	3607.6
489.578	3642.18
489.948	3709.75
490.318	3764.66
490.688	3752.01
491.058	3879.01
491.428	3932.11
491.798	4000.81
492.168	4023.41
492.538	4111.32
492.908	4174.37
493.278	4218.89
493.648	4223.86
494.017	4266.12
494.387	4384.31
494.757	4402.61
495.126	4494.81
495.496	4489.16
495.866	4548.6
496.235	4624.98
496.605	4643.96
496.974	4706.56
497.344	4726.22
497.713	4768.02
498.082	4802.15
498.452	4855.48
498.821	4910.85
499.19	4963.95
499.559	5014.12
499.928	5062.48
500.298	5083.27
500.667	5162.36
501.036	5133.21
501.405	5189.48
501.774	5217.73
502.143	5254.34
502.512	5309.48
502.88	5356.26
503.249	5340.66
503.618	5426.99
503.987	5424.28
504.356	5486.65
504.724	5516.71
505.093	5547.89
505.462	5539.53
505.83	5652.29
506.199	5641
506.567	5692.29
506.936	5690.94
507.304	5780.88
507.672	5782.23
508.041	5869.24
508.409	5844.15
508.777	5861.78
509.145	5913.98
509.514	5968.9
509.882	6024.71
510.25	5994.66
510.618	6020.19
510.986	6042.79
511.354	6070.59
511.722	6182.68
512.09	6201.43
512.458	6176.8
512.826	6224.03
513.193	6266.06
513.561	6253.64
513.929	6334.08
514.297	6437.13
514.664	6425.38
515.032	6473.52
515.4	6467.19
515.767	6507.64
516.135	6483.46
516.502	6491.37
516.869	6615.66
517.237	6565.04
517.604	6586.73
517.972	6637.13
518.339	6690.01
518.706	6694.53
519.073	6737.69
519.44	6779.27
519.808	6840.06
520.175	6844.35
520.542	6880.96
520.909	6920.51
521.276	6926.16
521.643	6896.33
522.009	7033.5
522.376	7002.77
522.743	7070.34
523.11	7121.63
523.477	7160.5
523.843	7212.71
524.21	7261.07
524.577	7342.19
524.943	7303.1
525.31	7293.83
525.676	7426.03
526.043	7506.71
526.409	7521.17
526.776	7558.69
527.142	7550.55
527.508	7637.33
527.874	7710.77
528.241	7709.87
528.607	7732.01
528.973	7763.65
529.339	7762.3
529.705	7850.43
530.071	7918.68
530.437	7896.3
530.803	7976.53
531.169	8009.07
531.535	8037.09
531.901	8061.5
532.267	8081.61
532.632	8150.99
532.998	8173.58
533.364	8192.34
533.73	8204.09
534.095	8388.04
534.461	8349.4
534.826	8418.32
535.192	8429.4
535.557	8513.01
535.923	8481.6
536.288	8483.86
536.653	8564.76
537.019	8526.57
537.384	8570.41
537.749	8678.43
538.114	8654.02
538.479	8757.3
538.845	8762.95
539.21	8774.25
539.575	8788.03
539.94	8856.96
540.305	8900.12
540.67	8866.9
541.034	8893.11
541.399	8957.29
541.764	9015.37
542.129	9067.35
542.494	9089.94
542.858	9103.73
543.223	9100.79
543.587	9184.18
543.952	9162.94
544.316	9283.84
544.681	9212.88
545.045	9350.28
545.41	9396.83
545.774	9395.47
546.138	9427.79
546.503	9463.72
546.867	9464.85
547.231	9599.54
547.595	9566.54
547.959	9600.89
548.324	9610.16
548.688	9598.41
549.052	9698.52
549.416	9708.23
549.779	9709.14
550.143	9714.56
550.507	9796.37
550.871	9814.45
551.235	9853.09
551.599	9908
551.962	9986.87
552.326	9994.55
552.689	10059.86
553.053	9988
553.417	10028
553.78	10189.8
554.143	10124.49
554.507	10232.74
554.87	10227.09
555.234	10328.56
555.597	10253.76
555.96	10313.64
556.323	10321.55
556.686	10376.69
557.05	10412.17
557.413	10362.45
557.776	10475.9
558.139	10470.7
558.502	10558.15
558.865	10493.07
559.228	10635.21
559.59	10652.62
559.953	10750.92
560.316	10747.98
560.679	10730.81
561.041	10870.24
561.404	10867.3
561.767	10967.86
562.129	10882.21
562.492	11004.24
562.854	10996.34
563.217	10993.62
563.579	11024.81
563.941	11078.59
564.304	11107.07
564.666	11266.84
565.028	11240.62
565.39	11218.7
565.753	11285.59
566.115	11271.58
566.477	11378.02
566.839	11467.06
567.201	11443.1
567.563	11572.82
567.925	11531.91
568.287	11554.51
568.648	11619.37
569.01	11680.84
569.372	11745.92
569.734	11688.29
570.095	11845.13
570.457	11808.29
570.819	11910.44
571.18	11945.46
571.542	12092.8
571.903	12003.54
572.265	12161.28
572.626	12203.08
572.987	12212.57
573.349	12350.2
573.71	12331.89
574.071	12406.92
574.432	12551.55
574.794	12593.13
575.155	12655.5
575.516	12660.7
575.877	12816.4
576.238	12836.29
576.599	12958.09
576.96	13008.03
577.32	13081.7
577.681	13195.15
578.042	13330.74
578.403	13360.34
578.763	13481.24
579.124	13564.63
579.485	13698.19
579.845	13841.23
580.206	13920.55
580.566	14085.29
580.927	14188.12
581.287	14329.81
581.648	14444.61
582.008	14683.24
582.368	14846.63
582.728	15026.74
583.089	15121.2
583.449	15328.88
583.809	15475.99
584.169	15755.31
584.529	15827.62
584.889	16196.42
585.249	16238.46
585.609	16328.62
585.969	16703.08
586.329	16897.2
586.688	17131.99
587.048	17292.21
587.408	17526.33
587.768	17732.43
588.127	17995.02
588.487	18228.24
588.846	18698.73
589.206	18774.66
589.565	19084.48
589.925	19417.36
590.284	19651.47
590.643	19905.71
591.003	20209.43
591.362	20545.24
591.721	20682.18
592.08	20972.8
592.44	21266.8
592.799	21638.54
593.158	21855.94
593.517	22126.89
593.876	22534.34
594.235	22748.79
594.593	23043.02
594.952	23364.37
595.311	23563.91
595.67	23871.02
596.029	24235.54
596.387	24506.71
596.746	24817.21
597.104	24934.73
597.463	25296.98
597.822	25686.34
598.18	25838.66
598.538	26159.55
598.897	26651.97
599.255	26694.45
599.613	27326.08
599.972	27471.16
600.33	27804.93
600.688	28103.46
601.046	28358.82
601.404	28705.02
601.762	28935.52
602.12	29258
602.478	29473.36
602.836	29839.23
603.194	29855.95
603.552	30205.1
603.91	30412.32
604.268	30809.83
604.625	30924.85
604.983	31283.94
605.341	31304.5
605.698	31800.08
606.056	32011.15
606.413	32266.28
606.771	32500.85
607.128	32837.12
607.485	32944.01
607.843	33175.64
608.2	33528.85
608.557	33792.8
608.914	33853.81
609.272	34073.69
609.629	34379.9
609.986	34620.12
610.343	34704.86
610.7	35103.72
611.057	35338.97
611.414	35460.55
611.771	35638.17
612.127	36023.02
612.484	35990.03
612.841	36429.34
613.198	36383.69
613.554	36533.74
613.911	36767.63
614.267	37070.9
614.624	37033.62
614.98	37285.81
615.337	37675.86
615.693	37669.31
616.05	37765.8
616.406	38072.01
616.762	38166.24
617.118	38204.66
617.475	38335.96
617.831	38667.47
618.187	38637.19
618.543	38893
618.899	39125.31
619.255	39166.22
619.611	39166.89
619.967	39476.04
620.323	39591.74
620.678	39449.82
621.034	39610.05
621.39	39693.66
621.746	39893.65
622.101	40329.8
622.457	40081.9
622.812	40178.39
623.168	40449.12
623.523	40430.59
623.879	40713.29
624.234	40495.67
624.589	40657.48
624.945	40814.08
625.3	40863.8
625.655	40808.66
626.01	41013.4
626.365	41081.87
626.72	41025.15
627.075	40958.03
627.43	41168.88
627.785	41211.81
628.14	41436.66
628.495	41250.68
628.85	41255.43
629.205	41226.5
629.559	41493.39
629.914	41504.46
630.269	41523.22
630.623	41399.38
630.978	41492.93
631.332	41756.66
631.687	41708.75
632.041	41637.56
632.396	41870.33
632.75	41594.17
633.104	41903.09
633.459	41669.88
633.813	41666.04
634.167	41767.96
634.521	41812.93
634.875	41815.41
635.229	41847.5
635.583	41648.86
635.937	41629.43
636.291	41753.72
636.645	41834.85
636.999	41779.48
637.352	41879.36
637.706	41633.04
638.06	41754.4
638.413	41709.88
638.767	41677.56
639.121	41823.55
639.474	41532.03
639.828	41647.96
640.181	41673.04
640.534	41603.44
640.888	41535.19
641.241	41523.44
641.594	41651.57
641.947	41604.12
642.301	41527.96
642.654	41654.96
643.007	41569.32
643.36	41514.18
643.713	41480.05
644.066	41598.92
644.419	41359.83
644.771	41190.12
645.124	40801.43
645.477	40776.8
645.83	40523.69
646.182	40299.75
646.535	40356.47
646.888	40486.86
647.24	40210.48
647.593	40492.06
647.945	40390.14
648.298	40199.41
648.65	40188.34
649.002	40191.73
649.355	40449.57
649.707	40293.64
650.059	40540.64
650.411	40885.27
650.763	40952.38
651.115	41254.97
651.467	41096.11
651.819	41132.04
652.171	41068.76
652.523	41056.11
652.875	40872.61
653.227	40876.45
653.578	41099.05
653.93	40975.89
654.282	40813.18
654.633	40721.2
654.985	40924.14
655.337	40962.78
655.688	40945.6
656.039	41034.42
656.391	40727.76
656.742	40890.46
657.094	40827.87
657.445	40900.41
657.796	40928.43
658.147	40932.5
658.498	40863.57
658.849	40919.62
659.2	40761.43
659.551	40845.49
659.902	40973.63
660.253	40718.94
660.604	40880.07
660.955	40590.13
661.306	40694.76
661.656	40705.38
662.007	40732.73
662.358	40802.78
662.708	40745.16
663.059	40839.39
663.409	40412.51
663.76	40725.95
664.11	40804.14
664.461	40719.17
664.811	40789.22
665.161	40669
665.511	40640.53
665.862	40652.05
666.212	40692.73
666.562	40769.11
666.912	40699.96
667.262	40589.91
667.612	40809.34
667.962	40705.61
668.312	40689.11
668.662	40968.88
669.011	40622.67
669.361	40600.53
669.711	40591.04
670.06	40619.29
670.41	40517.14
670.76	40541.55
671.109	40606.4
671.459	40577.03
671.808	40417.71
672.157	40648.44
672.507	40081.9
672.856	40334.55
673.205	40482.79
673.554	40512.85
673.904	40394.43
674.253	40540.42
674.602	40265.85
674.951	39793.32
675.3	39670.16
675.649	40271.05
675.998	40222.69
676.346	40264.04
676.695	40342
677.044	40075.57
677.393	40232.4
677.741	40229.01
678.09	40055.46
678.438	40062.24
678.787	40163.03
679.135	40109.69
679.484	39805.75
679.832	39909.25
680.181	39666.77
680.529	39850.94
680.877	39754.9
681.225	39814.11
681.573	39854.79
681.922	39651.85
682.27	39487.79
682.618	39591.97
682.966	39521.69
683.314	39648.24
683.661	39499.31
684.009	39323.95
684.357	39285.99
684.705	39236.04
685.053	39277.4
685.4	39222.71
685.748	38970.74
686.095	38997.41
686.443	38937.52
686.79	38888.26
687.138	39039.89
687.485	38863.17
687.832	38867.92
688.18	38737.75
688.527	38647.59
688.874	38555.61
689.221	38499.79
689.568	38530.75
689.915	38375.28
690.262	38276.52
690.609	38285.79
690.956	38152.01
691.303	38091.44
691.65	37912.24
691.997	37989.07
692.344	37796.99
692.69	37728.51
693.037	37575.3
693.383	37366.49
693.73	37507.28
694.077	37239.94
694.423	37348.64
694.769	37133.28
695.116	37130.34
695.462	37041.07
695.808	36878.59
696.155	37013.96
696.501	36631.14
696.847	36676.11
697.193	36459.62
697.539	36614.42
697.885	36322.45
698.231	36277.7
698.577	36377.59
698.923	36281.09
699.269	36010.82
699.614	35760.88
699.96	35790.26
700.306	35855.79
700.651	35670.04
700.997	35626.65
701.342	35568.8
701.688	35516.14
702.033	35335.13
702.379	35329.25
702.724	35155.7
703.069	35237.96
703.415	34974.01
703.76	34992.99
704.105	35009.94
704.45	34875.71
704.795	34785.09
705.14	34655.15
705.485	34546.9
705.83	34434.36
706.175	34542.16
706.52	34304.2
706.865	34211.54
707.209	34168.16
707.554	34047.71
707.899	34249.74
708.243	33950.99
708.588	33981.27
708.932	33760.71
709.277	33703.99
709.621	33671.22
709.966	33442.98
710.31	33504.22
710.654	33244.56
710.998	33376.09
711.342	33405.92
711.687	33292.7
712.031	33031.01
712.375	32972.48
712.719	33085.02
713.063	33038.69
713.407	33071.01
713.75	32822.43
714.094	32940.84
714.438	32595.99
714.782	32822.65
715.125	32608.42
715.469	32669.89
715.812	32339.95
716.156	32259.28
716.499	32344.25
716.843	32280.3
717.186	32055.89
717.53	32233.52
717.873	32287.75
718.216	32097.93
718.559	31985.84
718.902	31823.81
719.246	32014.09
719.589	31847.76
719.932	31632.85
720.275	31708.11
720.617	31798.27
720.96	31602.57
721.303	31575.46
721.646	31577.49
721.989	31404.61
722.331	31591.95
722.674	31514.67
723.016	31428.79
723.359	31328.23
723.701	31330.26
724.044	31143.15
724.386	31025.41
724.729	31213.88
725.071	31038.52
725.413	31029.71
725.755	31043.94
726.097	30947.67
726.439	30651.86
726.782	30775.7
727.124	30838.53
727.465	30782.03
727.807	30711.75
728.149	30526.22
728.491	30519.21
728.833	30564.63
729.175	30470.63
729.516	30471.3
729.858	30380.23
730.199	30451.87
730.541	30352.66
730.882	30226.11
731.224	30431.08
731.565	30253
731.906	30234.47
732.248	30167.36
732.589	30016.85
732.93	29939.57
733.271	29856.63
733.612	29956.51
733.953	29966.91
734.294	29803.07
734.635	29825.22
734.976	29745.45
735.317	29715.84
735.658	29587.26
735.999	29538.22
736.339	29530.09
736.68	29731.44
737.021	29524.44
737.361	29324.67
737.702	29394.95
738.042	29393.59
738.383	29398.34
738.723	29434.04
739.063	29247.61
739.404	29325.34
739.744	29186.59
740.084	29124.22
740.424	29160.38
740.764	29137.78
741.104	29279.7
741.444	29068.18
741.784	28895.53
742.124	28950.21
742.464	28895.75
742.804	28837.45
743.143	28816.43
743.483	28769.88
743.823	28606.49
744.162	28681.52
744.502	28707.06
744.841	28535.76
745.181	28748.18
745.52	28552.03
745.86	28619.6
746.199	28487.4
746.538	28467.29
746.877	28585.93
747.216	28503.67
747.556	28444.24
747.895	28301.42
748.234	28102.55
748.573	28285.6
748.911	28260.74
749.25	28136
749.589	28045.6
749.928	28134.42
750.267	28159.27
750.605	27952.95
750.944	27878.15
751.283	27813.29
751.621	27836.57
751.96	27695.33
752.298	27757.02
752.636	27796.8
752.975	27576.46
753.313	27518.39
753.651	27774.88
753.989	27379.18
754.327	27419.41
754.666	27363.59
755.004	27336.92
755.342	27421.67
755.679	27346.19
756.017	27199.98
756.355	27229.81
756.693	27083.82
757.031	27203.14
757.368	26956.59
757.706	26897.39
758.044	26769.25
758.381	26877.73
758.719	26671.4
759.056	26741.46
759.394	26696.26
