Data from hue_190_FLMS001491_00028.txt Node
Date: Tue Feb 07 16:45:04 GMT 2017
User: dcchb
Spectrometer: FLMS00149
Trigger mode: 0
Integration Time (sec): 2.000000E-2
Scans to average: 10
Electric dark correction enabled: true
Nonlinearity correction enabled: false
Boxcar width: 0
XAxis mode: Wavelengths
Number of Pixels in Spectrum: 2048
>>>>>Begin Spectral Data<<<<<
341.393	-5.06
341.776	-5.06
342.16	-5.06
342.543	-75.56
342.927	-83.92
343.31	-70.82
343.693	-68.78
344.077	-66.52
344.46	-62.68
344.843	-53.64
345.226	-47.32
345.61	-19.75
345.993	-27.65
346.376	-2.8
346.759	-7.77
347.142	34.49
347.525	43.76
347.908	52.12
348.291	87.6
348.674	85.56
349.057	124.21
349.44	119.01
349.823	133.47
350.206	182.06
350.588	174.15
350.971	200.81
351.354	223.64
351.737	261.6
352.119	246.01
352.502	262.06
352.884	254.6
353.267	259.34
353.65	300.92
354.032	269.96
354.414	286.46
354.797	276.52
355.179	316.29
355.562	318.1
355.944	316.97
356.326	336.18
356.709	326.23
357.091	333.01
357.473	344.31
357.855	338.44
358.238	333.24
358.62	347.7
359.002	327.36
359.384	351.32
359.766	324.65
360.148	342.51
360.53	337.76
360.912	329.62
361.294	341.15
361.676	337.53
362.057	318.78
362.439	328.27
362.821	306.57
363.203	299.79
363.584	320.36
363.966	316.97
364.348	311.32
364.729	318.78
365.111	303.41
365.493	325.33
365.874	320.13
366.256	314.26
366.637	312.68
367.019	323.52
367.4	324.88
367.781	279.46
368.163	320.13
368.544	295.95
368.925	309.29
369.306	312
369.688	282.62
370.069	332.56
370.45	297.99
370.831	330.3
371.212	298.66
371.593	300.25
371.974	305.9
372.355	303.41
372.736	307.25
373.117	312.22
373.498	318.78
373.879	305.22
374.26	318.78
374.641	303.41
375.021	313.35
375.402	303.64
375.783	318.55
376.163	302.73
376.544	347.02
376.925	312.9
377.305	309.29
377.686	317.87
378.066	328.95
378.447	305.9
378.827	323.75
379.208	309.06
379.588	308.38
379.968	328.72
380.349	321.04
380.729	328.95
381.109	321.26
381.489	329.17
381.87	304.77
382.25	333.92
382.63	338.44
383.01	325.1
383.39	355.39
383.77	335.73
384.15	343.86
384.53	330.3
384.91	344.99
385.29	349.28
385.67	327.59
386.049	330.3
386.429	355.61
386.809	344.76
387.189	339.12
387.568	337.76
387.948	331.66
388.328	351.77
388.707	329.85
389.087	351.09
389.466	351.54
389.846	342.73
390.225	335.73
390.605	343.64
390.984	353.8
391.363	344.09
391.743	344.31
392.122	355.84
392.501	385.89
392.881	361.94
393.26	356.06
393.639	368.95
394.018	347.7
394.397	375.95
394.776	362.62
395.155	367.14
395.534	370.98
395.913	359.23
396.292	370.3
396.671	375.27
397.05	364.65
397.429	367.59
397.808	374.59
398.186	380.02
398.565	383.41
398.944	381.83
399.323	399.45
399.701	392.67
400.08	389.96
400.458	397.64
400.837	386.8
401.215	398.77
401.594	407.59
401.972	405.33
402.351	416.18
402.729	401.49
403.107	408.72
403.486	396.06
403.864	416.85
404.242	407.59
404.62	424.99
404.999	432.9
405.377	441.26
405.755	444.88
406.133	444.65
406.511	450.75
406.889	433.58
407.267	425.89
407.645	433.58
408.023	452.33
408.401	471.09
408.779	473.8
409.156	450.3
409.534	471.77
409.912	494.59
410.29	496.4
410.667	518.77
411.045	494.82
411.422	508.38
411.8	505.21
412.178	533.01
412.555	516.51
412.933	559.67
413.31	561.26
413.687	587.92
414.065	561.48
414.442	567.36
414.819	596.74
415.197	592.22
415.574	613.68
415.951	611.2
416.328	617.75
416.705	612.1
417.082	645.55
417.46	642.16
417.837	644.87
418.214	644.19
418.591	655.94
418.967	678.09
419.344	711.76
419.721	686.45
420.098	699.33
420.475	729.84
420.852	710.63
421.228	710.41
421.605	739.33
421.982	753.12
422.358	760.35
422.735	799.44
423.111	790.85
423.488	823.62
423.864	806.67
424.241	831.31
424.617	853.68
424.994	865.88
425.37	885.09
425.746	887.35
426.123	898.87
426.499	882.83
426.875	923.28
427.251	927.35
427.627	927.8
428.003	961.25
428.379	983.17
428.756	970.51
429.132	976.61
429.507	995.6
429.883	1027.01
430.259	1013
430.635	1050.28
431.011	1046.44
431.387	1074.24
431.763	1084.86
432.138	1092.09
432.514	1105.87
432.89	1138.87
433.265	1142.71
433.641	1177.51
434.016	1167.34
434.392	1214.12
434.767	1234.91
435.143	1247.34
435.518	1280.11
435.894	1297.96
436.269	1318.98
436.644	1330.5
437.02	1352.65
437.395	1394
437.77	1392.42
438.145	1428.8
438.52	1457.05
438.895	1478.52
439.271	1477.16
439.646	1500.89
440.021	1536.15
440.395	1579.31
440.77	1592.87
441.145	1588.12
441.52	1643.04
441.895	1626.09
442.27	1620.89
442.645	1662.02
443.019	1659.76
443.394	1681
443.769	1723.49
444.143	1723.71
444.518	1787.44
444.892	1725.07
445.267	1780.43
445.641	1779.08
446.016	1803.48
446.39	1823.6
446.764	1828.57
447.139	1812.3
447.513	1891.16
447.887	1857.27
448.262	1896.81
448.636	1887.1
449.01	1965.97
449.384	1983.37
449.758	1984.27
450.132	1979.52
450.506	1988.11
450.88	2033.99
451.254	2015.68
451.628	2044.83
452.002	2057.49
452.376	2089.8
452.75	2132.29
453.123	2130.93
453.497	2170.71
453.871	2172.06
454.244	2221.33
454.618	2230.37
454.992	2276.01
455.365	2305.84
455.739	2329.8
456.112	2331.61
456.486	2378.84
456.859	2370.7
457.232	2429.23
457.606	2431.49
457.979	2478.72
458.352	2537.02
458.725	2538.15
459.099	2575.44
459.472	2575.89
459.845	2645.72
460.218	2672.16
460.591	2685.72
460.964	2724.82
461.337	2731.14
461.71	2787.86
462.083	2826.28
462.456	2813.17
462.829	2847.07
463.201	2943.34
463.574	2939.27
463.947	2992.15
464.32	3048.2
464.692	3018.59
465.065	3085.48
465.438	3120.06
465.81	3147.4
466.183	3200.06
466.555	3245.03
466.928	3312.14
467.3	3312.6
467.672	3374.06
468.045	3447.73
468.417	3498.81
468.789	3480.28
469.161	3548.07
469.534	3606.6
469.906	3651.57
470.278	3713.72
470.65	3758.46
471.022	3779.02
471.394	3855.86
471.766	3906.48
472.138	3937.21
472.51	4039.36
472.882	4104.21
473.253	4145.34
473.625	4207.04
473.997	4305.56
474.369	4381.72
474.74	4360.93
475.112	4477.99
475.484	4560.02
475.855	4602.28
476.227	4666.69
476.598	4828.94
476.97	4834.82
477.341	4917.53
477.713	4980.58
478.084	5048.6
478.455	5207.01
478.827	5248.36
479.198	5404.74
479.569	5442.94
479.94	5574.01
480.311	5596.83
480.682	5716.15
481.053	5868.69
481.424	5939.19
481.795	5990.94
482.166	6133.09
482.537	6142.8
482.908	6330.6
483.279	6378.05
483.65	6492.4
484.021	6606.52
484.391	6645.62
484.762	6792.28
485.133	6891.03
485.503	6952.73
485.874	7076.34
486.244	7109.56
486.615	7245.37
486.985	7413.96
487.356	7458.02
487.726	7512.71
488.097	7661.63
488.467	7713.38
488.837	7892.14
489.207	7936.2
489.578	8048.07
489.948	8134.16
490.318	8223.65
490.688	8266.36
491.058	8385.23
491.428	8497.54
491.798	8571.89
492.168	8745
492.538	8768.27
492.908	8858.44
493.278	8931.66
493.648	9002.16
494.017	9123.29
494.387	9099.79
494.757	9238.09
495.126	9319.22
495.496	9362.15
495.866	9385.88
496.235	9419.55
496.605	9562.83
496.974	9569.83
497.344	9646.22
497.713	9676.95
498.082	9747.46
498.452	9815.48
498.821	9836.72
499.19	9877.62
499.559	9964.62
499.928	10021.12
500.298	10059.09
500.667	10074.45
501.036	10089.82
501.405	10172.98
501.774	10182.25
502.143	10261.11
502.512	10255.69
502.88	10304.96
503.249	10300.66
503.618	10382.47
503.987	10366.87
504.356	10371.85
504.724	10468.57
505.093	10497.49
505.462	10429.92
505.83	10557.83
506.199	10555.8
506.567	10748.56
506.936	10710.59
507.304	10760.54
507.672	10753.76
508.041	10767.32
508.409	10800.54
508.777	10889.35
509.145	10855.9
509.514	10821.55
509.882	10836.69
510.25	10844.15
510.618	10902.91
510.986	10880.08
511.354	11015.67
511.722	10996.24
512.09	11031.26
512.458	11060.87
512.826	11046.86
513.193	11104.03
513.561	11172.05
513.929	11098.38
514.297	11123.92
514.664	11155.1
515.032	11224.25
515.4	11151.49
515.767	11223.12
516.135	11144.03
516.502	11121.88
516.869	11232.39
517.237	11258.6
517.604	11130.47
517.972	11243.46
518.339	11265.38
518.706	11247.3
519.073	11163.69
519.44	11229.9
519.808	11276
520.175	11178.38
520.542	11226.06
520.909	11297.92
521.276	11198.49
521.643	11364.36
522.009	11283.46
522.376	11324.59
522.743	11297.25
523.11	11304.02
523.477	11354.87
523.843	11340.18
524.21	11386.73
524.577	11398.03
524.943	11357.81
525.31	11320.75
525.676	11452.04
526.043	11340.63
526.409	11403.23
526.776	11370.92
527.142	11292.27
527.508	11353.29
527.874	11402.55
528.241	11323.01
528.607	11310.8
528.973	11356
529.339	11271.48
529.705	11320.97
530.071	11255.89
530.437	11237.36
530.803	11205.04
531.169	11141.32
531.535	11129.79
531.901	11170.92
532.267	11055.22
532.632	11130.92
532.998	11010.47
533.364	10989.23
533.73	10927.09
534.095	11002.79
534.461	10991.26
534.826	10886.41
535.192	10856.35
535.557	10838.5
535.923	10762.34
536.288	10701.78
536.653	10640.77
537.019	10681.44
537.384	10580.65
537.749	10508.11
538.114	10518.96
538.479	10411.39
538.845	10424.05
539.21	10324.16
539.575	10365.52
539.94	10260.89
540.305	10213.88
540.67	10164.17
541.034	10130.5
541.399	10100.67
541.764	9979.54
542.129	10036.94
542.494	9923.72
542.858	9909.49
543.223	9829.04
543.587	9844.85
543.952	9656.61
544.316	9720.11
544.681	9619.55
545.045	9581.36
545.41	9531.19
545.774	9497.97
546.138	9447.35
546.503	9381.36
546.867	9285.77
547.231	9389.27
547.595	9221.82
547.959	9202.61
548.324	9175.49
548.688	9087.59
549.052	9086.23
549.416	8999.45
549.779	9027.93
550.143	8971.66
550.507	8884.65
550.871	8833.81
551.235	8832.45
551.599	8798.33
551.962	8792.9
552.326	8663.42
552.689	8716.07
553.053	8587.26
553.417	8530.99
553.78	8547.71
554.143	8414.61
554.507	8492.35
554.87	8400.15
555.234	8448.51
555.597	8321.73
555.96	8279.25
556.323	8269.75
556.686	8220.04
557.05	8229.3
557.413	8132.58
557.776	8142.75
558.139	8158.8
558.502	8041.51
558.865	7992.02
559.228	8035.18
559.59	8066.82
559.953	7931.91
560.316	8024.79
560.679	7943.89
561.041	8023.43
561.404	7941.18
561.767	7939.14
562.129	7846.26
562.492	7891.23
562.854	7852.82
563.217	7864.34
563.579	7859.6
563.941	7827.51
564.304	7814.85
564.666	7796.55
565.028	7786.83
565.39	7774.17
565.753	7757.23
566.115	7646.95
566.477	7751.58
566.839	7674.29
567.201	7731.69
567.563	7717.45
567.925	7673.61
568.287	7708.41
568.648	7702.99
569.01	7664.35
569.372	7643.33
569.734	7630.45
570.095	7657.79
570.457	7633.16
570.819	7697.11
571.18	7607.17
571.542	7634.74
571.903	7602.2
572.265	7639.94
572.626	7682.43
572.987	7574.63
573.349	7626.16
573.71	7586.38
574.071	7599.26
574.432	7592.26
574.794	7649.43
575.155	7553.61
575.516	7549.55
575.877	7610.56
576.238	7601.52
576.599	7498.25
576.96	7565.37
577.32	7607.62
577.681	7541.41
578.042	7528.3
578.403	7500.28
578.763	7508.87
579.124	7560.62
579.485	7569.89
579.845	7586.38
580.206	7507.97
580.566	7507.97
580.927	7491.47
581.287	7581.64
581.648	7488.53
582.008	7484.01
582.368	7472.49
582.728	7512.49
583.089	7466.16
583.449	7480.4
583.809	7415.99
584.169	7442.66
584.529	7467.29
584.889	7395.2
585.249	7361.53
585.609	7428.42
585.969	7344.58
586.329	7329.44
586.688	7370.34
587.048	7337.58
587.408	7360.4
587.768	7291.93
588.127	7286.96
588.487	7257.8
588.846	7387.07
589.206	7272.27
589.565	7300.74
589.925	7300.51
590.284	7237.24
590.643	7271.81
591.003	7274.75
591.362	7262.55
591.721	7261.19
592.08	7230.23
592.44	7274.53
592.799	7220.74
593.158	7215.54
593.517	7157.02
593.876	7236.56
594.235	7169.22
594.593	7170.35
594.952	7185.72
595.311	7106.17
595.67	7116.56
596.029	7128.99
596.387	7144.81
596.746	7164.02
597.104	7107.07
597.463	7089.67
597.822	7150.91
598.18	7034.31
598.538	7100.52
598.897	7110.01
599.255	7085.6
599.613	7098.94
599.972	7082.21
600.33	7070.92
600.688	7013.06
601.046	7071.82
601.404	7064.81
601.762	7077.47
602.12	7043.8
602.478	7074.08
602.836	7091.71
603.194	7061.42
603.552	6973.07
603.91	6954.76
604.268	7000.41
604.625	6996.57
604.983	7030.24
605.341	7040.86
605.698	7030.01
606.056	7022.33
606.413	7016.91
606.771	7034.31
607.128	6979.62
607.485	7004.93
607.843	6981.43
608.2	6959.73
608.557	7049.45
608.914	7067.53
609.272	6998.6
609.629	6985.49
609.986	7030.46
610.343	6979.62
610.7	7081.76
611.057	7065.27
611.414	6995.89
611.771	7030.01
612.127	7073.4
612.484	7004.7
612.841	7080.63
613.198	7093.06
613.554	7012.39
613.911	7110.24
614.267	7075.21
614.624	7049.67
614.98	7058.71
615.337	7150.91
615.693	7080.18
616.05	7099.62
616.406	7078.15
616.762	7071.37
617.118	7085.15
617.475	7111.14
617.831	7091.93
618.187	7106.85
618.543	7079.28
618.899	7156.56
619.255	7080.18
619.611	7097.13
619.967	7112.72
620.323	7092.16
620.678	7112.72
621.034	7141.87
621.39	7126.73
621.746	7055.1
622.101	7151.82
622.457	7127.86
622.812	7096
623.168	7131.93
623.523	7122.89
623.879	7145.49
624.234	7077.92
624.589	7076.79
624.945	7144.81
625.3	7056.23
625.655	7126.06
626.01	7117.69
626.365	7095.77
626.72	7086.06
627.075	7046.74
627.43	7074.98
627.785	7118.15
628.14	7113.85
628.495	7095.32
628.85	7077.24
629.205	7091.71
629.559	7097.13
629.914	7082.44
630.269	7071.37
630.623	7058.71
630.978	7068.88
631.332	7093.29
631.687	7047.41
632.041	7010.35
632.396	6983.91
632.75	6993.63
633.104	6990.69
633.459	6982.1
633.813	7034.08
634.167	6943.46
634.521	6915.44
634.875	6931.94
635.229	6970.35
635.583	6930.58
635.937	6942.11
636.291	6910.24
636.645	6947.08
636.999	6885.38
637.352	6876.34
637.706	6870.24
638.06	6886.74
638.413	6911.15
638.767	6891.26
639.121	6857.14
639.474	6783.69
639.828	6790.25
640.181	6818.04
640.534	6854.2
640.888	6772.62
641.241	6753.86
641.594	6794.76
641.947	6797.02
642.301	6759.96
642.654	6800.87
643.007	6785.73
643.36	6795.22
643.713	6797.48
644.066	6774.65
644.419	6789.79
644.771	6725.16
645.124	6627.76
645.477	6618.27
645.83	6555.45
646.182	6593.41
646.535	6575.11
646.888	6575.11
647.24	6485.85
647.593	6597.71
647.945	6632.06
648.298	6541.89
648.65	6542.34
649.002	6524.72
649.355	6546.18
649.707	6534.21
650.059	6582.79
650.411	6678.16
650.763	6680.19
651.115	6746.18
651.467	6732.85
651.819	6730.59
652.171	6743.92
652.523	6762.45
652.875	6672.51
653.227	6650.59
653.578	6694.88
653.93	6682.9
654.282	6713.86
654.633	6678.61
654.985	6672.96
655.337	6673.86
655.688	6707.76
656.039	6729
656.391	6752.28
656.742	6764.94
657.094	6727.87
657.445	6737.14
657.796	6784.82
658.147	6687.87
658.498	6755.67
658.849	6745.5
659.2	6721.77
659.551	6755.9
659.902	6785.5
660.253	6778.04
660.604	6809.68
660.955	6767.19
661.306	6806.06
661.656	6769.23
662.007	6781.88
662.358	6770.13
662.708	6748.44
663.059	6772.17
663.409	6726.52
663.76	6774.2
664.11	6759.06
664.461	6802.45
664.811	6799.74
665.161	6830.47
665.511	6767.87
665.862	6882.45
666.212	6826.18
666.562	6837.02
666.912	6860.07
667.262	6889.23
667.612	6807.42
667.962	6849
668.312	6835.22
668.662	6876.12
669.011	6801.77
669.361	6746.86
669.711	6838.15
670.06	6799.74
670.41	6804.03
670.76	6756.8
671.109	6798.83
671.459	6815.33
671.808	6834.76
672.157	6864.14
672.507	6810.58
672.856	6776.91
673.205	6786.63
673.554	6804.48
673.904	6781.21
674.253	6804.93
674.602	6785.27
674.951	6705.73
675.3	6605.39
675.649	6722
675.998	6746.86
676.346	6774.65
676.695	6726.07
677.044	6689
677.393	6715.44
677.741	6693.98
678.09	6687.65
678.438	6696.46
678.787	6708.67
679.135	6637.25
679.484	6633.87
679.832	6722
680.181	6644.71
680.529	6612.85
680.877	6599.97
681.225	6543.47
681.573	6590.48
681.922	6579.63
682.27	6563.81
682.618	6508.9
682.966	6528.56
683.314	6493.98
683.661	6536.01
684.009	6511.83
684.357	6489.91
684.705	6460.08
685.053	6458.28
685.4	6437.94
685.748	6368.34
686.095	6399.07
686.443	6387.09
686.79	6378.5
687.138	6392.06
687.485	6379.41
687.832	6387.54
688.18	6336.02
688.527	6305.06
688.874	6305.96
689.221	6215.35
689.568	6241.33
689.915	6262.58
690.262	6262.8
690.609	6225.51
690.956	6166.08
691.303	6145.97
691.65	6120.66
691.997	6106.65
692.344	6098.51
692.69	6055.35
693.037	6034.78
693.383	6010.38
693.73	6014.45
694.077	5988.46
694.423	5963.15
694.769	5926.99
695.116	5962.92
695.462	5922.7
695.808	5927.67
696.155	5882.7
696.501	5796.37
696.847	5806.99
697.193	5786.2
697.539	5774
697.885	5708.01
698.231	5717.05
698.577	5685.64
698.923	5662.59
699.269	5648.81
699.614	5632.31
699.96	5594.57
700.306	5581.69
700.651	5598.64
700.997	5581.92
701.342	5577.62
701.688	5487.68
702.033	5501.24
702.379	5517.06
702.724	5462.37
703.069	5434.35
703.415	5397.29
703.76	5403.61
704.105	5373.79
704.45	5337.85
704.795	5316.84
705.14	5291.98
705.485	5356.84
705.83	5243.85
706.175	5311.41
706.52	5263.96
706.865	5251.08
707.209	5282.71
707.554	5252.21
707.899	5175.37
708.243	5193.45
708.588	5147.58
708.932	5113.23
709.277	5126.56
709.621	5149.16
709.966	5129.95
710.31	5119.55
710.654	5032.33
710.998	5030.52
711.342	5033.23
711.687	5035.04
712.031	5050.63
712.375	5021.03
712.719	5012.89
713.063	5017.86
713.407	4988.26
713.75	4980.35
714.094	4966.11
714.438	4946
714.782	4970.18
715.125	4949.16
715.469	4893.8
715.812	4877.53
716.156	4878.43
716.499	4874.82
716.843	4904.87
717.186	4934.93
717.53	4905.77
717.873	4879.79
718.216	4847.25
718.559	4859.22
718.902	4887.7
719.246	4885.44
719.589	4795.27
719.932	4806.79
720.275	4842.05
720.617	4771.77
720.96	4776.29
721.303	4830.75
721.646	4807.47
721.989	4793.01
722.331	4779.45
722.674	4775.83
723.016	4728.38
723.359	4740.36
723.701	4814.7
724.044	4800.47
724.386	4763.63
724.729	4791.43
725.071	4769.96
725.413	4783.52
725.755	4806.34
726.097	4725.44
726.439	4686.8
726.782	4758.21
727.124	4755.5
727.465	4728.6
727.807	4776.06
728.149	4733.12
728.491	4732.45
728.833	4761.15
729.175	4744.42
729.516	4731.77
729.858	4760.02
730.199	4707.81
730.541	4748.49
730.882	4725.67
731.224	4755.72
731.565	4746.01
731.906	4746.46
732.248	4732.45
732.589	4733.35
732.93	4734.03
733.271	4781.94
733.612	4771.32
733.953	4755.27
734.294	4767.25
734.635	4755.95
734.976	4827.36
735.317	4751.43
735.658	4806.12
735.999	4769.96
736.339	4768.83
736.68	4801.82
737.021	4780.81
737.361	4827.36
737.702	4838.88
738.042	4802.73
738.383	4899.45
738.723	4870.07
739.063	4875.72
739.404	4849.28
739.744	4844.08
740.084	4891.76
740.424	4891.09
740.764	4881.14
741.104	4946.45
741.444	4938.32
741.784	4951.2
742.124	5026
742.464	4954.81
742.804	5012.44
743.143	4986.68
743.483	5091.53
743.823	5061.48
744.162	5116.16
744.502	5129.95
744.841	5163.17
745.181	5247.01
745.52	5203.85
745.86	5249.04
746.199	5264.18
746.538	5340.79
746.877	5383.5
747.216	5438.87
747.556	5462.82
747.895	5555.02
748.234	5570.16
748.573	5601.35
748.911	5704.62
749.25	5644.29
749.589	5751.4
749.928	5843.83
750.267	5912.53
750.605	5986.88
750.944	6009.25
751.283	6102.35
751.621	6214.89
751.96	6284.72
752.298	6345.29
752.636	6444.94
752.975	6542.12
753.313	6645.39
753.651	6726.74
753.989	6788.66
754.327	6955.21
754.666	7037.47
755.004	7185.94
755.342	7353.39
755.679	7440.62
756.017	7569.89
756.355	7783.44
756.693	7895.07
757.031	8004
757.368	8105.69
757.706	8327.83
758.044	8458.22
758.381	8645.34
758.719	8800.81
759.056	8899.57
759.394	9177.08
759.731	9228.15
760.068	9477.41
760.405	9565.31
760.743	9754.01
761.08	9913.33
761.417	10073.32
761.754	10274
762.091	10445.74
762.428	10648.45
762.765	10692.74
763.102	11009.57
763.438	11187.87
763.775	11269.22
764.112	11525.94
764.449	11695.88
764.785	11789.21
765.122	12004.12
765.458	12144.91
765.795	12383.09
766.131	12474.62
766.467	12689.3
766.804	12850.2
767.14	12911.21
