Data from hue_300_FLMS001491_00082.txt Node
Date: Tue Feb 07 15:51:19 GMT 2017
User: dcchb
Spectrometer: FLMS00149
Trigger mode: 0
Integration Time (sec): 2.000000E-2
Scans to average: 10
Electric dark correction enabled: true
Nonlinearity correction enabled: false
Boxcar width: 0
XAxis mode: Wavelengths
Number of Pixels in Spectrum: 2048
>>>>>Begin Spectral Data<<<<<
341.393	3.16
341.776	3.16
342.16	3.16
342.543	-56.04
342.927	-56.95
343.31	-65.31
343.693	-62.15
344.077	-62.15
344.46	-66.66
344.843	-50.39
345.226	-39.55
345.61	-38.64
345.993	-23.28
346.376	-6.33
346.759	12.2
347.142	33.67
347.525	50.17
347.908	58.53
348.291	59.43
348.674	107.57
349.057	92.88
349.44	143.5
349.823	140.56
350.206	159.09
350.588	183.5
350.971	208.58
351.354	215.36
351.737	211.52
352.119	260.33
352.502	258.07
352.884	276.38
353.267	280.9
353.65	292.65
354.032	282.7
354.414	278.64
354.797	309.14
355.179	316.38
355.562	327.45
355.944	322.03
356.326	333.55
356.709	334.23
357.091	337.84
357.473	334.68
357.855	352.31
358.238	360.89
358.62	352.99
359.002	349.82
359.384	338.97
359.766	350.27
360.148	331.52
360.53	352.99
360.912	338.52
361.294	328.58
361.676	338.07
362.057	345.75
362.439	319.31
362.821	342.82
363.203	335.36
363.584	353.89
363.966	341.46
364.348	329.48
364.729	330.61
365.111	313.89
365.493	308.01
365.874	315.92
366.256	331.06
366.637	324.29
367.019	339.88
367.4	313.66
367.781	305.08
368.163	317.05
368.544	328.58
368.925	334.68
369.306	323.83
369.688	324.06
370.069	315.7
370.45	323.83
370.831	310.5
371.212	315.47
371.593	308.92
371.974	310.95
372.355	322.48
372.736	321.57
373.117	329.48
373.498	310.27
373.879	318.18
374.26	340.33
374.641	294
375.021	307.56
375.402	322.48
375.783	319.09
376.163	337.17
376.544	342.14
376.925	327.9
377.305	319.09
377.686	346.88
378.066	337.84
378.447	346.43
378.827	370.84
379.208	344.17
379.588	342.59
379.968	359.54
380.349	351.86
380.729	346.66
381.109	349.14
381.489	335.58
381.87	359.54
382.25	357.05
382.63	345.08
383.01	352.31
383.39	358.86
383.77	354.34
384.15	360.22
384.53	372.87
384.91	376.04
385.29	352.53
385.67	369.48
386.049	367
386.429	369.03
386.809	367.9
387.189	362.25
387.568	381.68
387.948	369.26
388.328	368.58
388.707	388.01
389.087	385.75
389.466	375.36
389.846	354.11
390.225	376.49
390.605	410.38
390.984	387.11
391.363	379.88
391.743	363.15
392.122	386.88
392.501	400.44
392.881	410.61
393.26	403.38
393.639	388.92
394.018	402.7
394.397	436.37
394.776	428.46
395.155	411.29
395.534	404.51
395.913	398.86
396.292	438.18
396.671	451.74
397.05	408.35
397.429	399.54
397.808	408.35
398.186	447.67
398.565	418.97
398.944	459.2
399.323	420.1
399.701	459.2
400.08	441.57
400.458	433.43
400.837	437.05
401.215	442.7
401.594	466.88
401.972	456.49
402.351	469.14
402.729	457.62
403.107	480.44
403.486	476.15
403.864	484.96
404.242	484.06
404.62	501.68
404.999	492.19
405.377	491.51
405.755	509.37
406.133	495.58
406.511	510.04
406.889	515.47
407.267	522.02
407.645	527.22
408.023	528.12
408.401	543.94
408.779	554.56
409.156	543.49
409.534	556.82
409.912	555.69
410.29	590.94
410.667	581.23
411.045	578.97
411.422	594.56
411.8	578.06
412.178	616.48
412.555	629.81
412.933	614.67
413.31	656.93
413.687	641.79
414.065	653.77
414.442	652.19
414.819	676.82
415.197	682.47
415.574	731.73
415.951	705.29
416.328	735.12
416.705	714.56
417.082	730.83
417.46	783.03
417.837	778.74
418.214	770.15
418.591	779.87
418.967	786.65
419.344	766.53
419.721	803.82
420.098	833.65
420.475	845.4
420.852	836.36
421.228	820.09
421.605	864.16
421.982	873.65
422.358	884.5
422.735	901.67
423.111	895.8
423.488	919.75
423.864	919.52
424.241	917.72
424.617	949.13
424.994	969.69
425.37	966.75
425.746	976.92
426.123	990.03
426.499	969.69
426.875	1018.5
427.251	1016.92
427.627	1060.09
428.003	1042.46
428.379	1060.54
428.756	1081.55
429.132	1097.15
429.507	1121.55
429.883	1119.07
430.259	1155.68
430.635	1128.11
431.011	1156.35
431.387	1197.93
431.763	1173.53
432.138	1223.47
432.514	1225.73
432.89	1215.56
433.265	1276.58
433.641	1270.93
434.016	1266.41
434.392	1306.86
434.767	1306.18
435.143	1317.71
435.518	1329.68
435.894	1340.3
436.269	1341.66
436.644	1391.6
437.02	1401.55
437.395	1421.21
437.77	1408.1
438.145	1427.08
438.52	1436.35
438.895	1485.61
439.271	1491.03
439.646	1493.29
440.021	1526.74
440.395	1498.72
440.77	1498.72
441.145	1507.98
441.52	1565.16
441.895	1535.1
442.27	1532.62
442.645	1528.77
443.019	1571.71
443.394	1588.21
443.769	1594.08
444.143	1580.52
444.518	1582.56
444.892	1610.13
445.267	1653.29
445.641	1604.7
446.016	1642.44
446.39	1618.49
446.764	1661.88
447.139	1634.31
447.513	1665.94
447.887	1647.19
448.262	1654.42
448.636	1642.22
449.01	1691.93
449.384	1660.07
449.758	1678.37
450.132	1678.6
450.506	1730.12
450.88	1744.59
451.254	1722.67
451.628	1731.71
452.002	1754.08
452.376	1757.69
452.75	1786.62
453.123	1792.5
453.497	1779.61
453.871	1808.54
454.244	1806.96
454.618	1840.63
454.992	1834.53
455.365	1856.45
455.739	1886.73
456.112	1880.63
456.486	1895.09
456.859	1941.19
457.232	1937.8
457.606	1938.48
457.979	1954.98
458.352	1975.54
458.725	1980.74
459.099	1995.88
459.472	2050.12
459.845	2088.53
460.218	2055.31
460.591	2100.28
460.964	2073.17
461.337	2122.2
461.71	2137.8
462.083	2172.15
462.456	2133.05
462.829	2164.69
463.201	2192.03
463.574	2193.84
463.947	2235.65
464.32	2251.92
464.692	2259.83
465.065	2310.9
465.438	2271.13
465.81	2309.32
466.183	2349.77
466.555	2392.25
466.928	2389.99
467.3	2377.79
467.672	2424.57
468.045	2489.88
468.417	2435.19
468.789	2452.14
469.161	2471.57
469.534	2542.08
469.906	2583.21
470.278	2533.04
470.65	2615.75
471.022	2639.93
471.394	2665.01
471.766	2676.54
472.138	2707.05
472.51	2698.23
472.882	2778.46
473.253	2752.47
473.625	2780.49
473.997	2897.1
474.369	2852.13
474.74	2874.27
475.112	2899.36
475.484	2956.53
475.855	3002.86
476.227	3008.96
476.598	3067.72
476.97	3069.07
477.341	3134.38
477.713	3162.85
478.084	3162.18
478.455	3258.45
478.827	3249.86
479.198	3332.34
479.569	3315.85
479.94	3407.82
480.311	3439.91
480.682	3490.53
481.053	3523.52
481.424	3563.3
481.795	3578.89
482.166	3617.98
482.537	3650.07
482.908	3714.7
483.279	3777.3
483.65	3774.59
484.021	3829.05
484.391	3836.74
484.762	3905.21
485.133	3931.2
485.503	3928.94
485.874	4048.71
486.244	4052.55
486.615	4062.72
486.985	4109.72
487.356	4206.44
487.726	4198.08
488.097	4247.12
488.467	4274.92
488.837	4323.95
489.207	4422.71
489.578	4416.38
489.948	4439.66
490.318	4464.74
490.688	4470.62
491.058	4569.82
491.428	4593.78
491.798	4664.28
492.168	4674
492.538	4698.63
492.908	4759.42
493.278	4777.05
493.648	4749.03
494.017	4837.84
494.387	4864.05
494.757	4906.76
495.126	4900.89
495.496	4927.78
495.866	4962.58
496.235	5021.56
496.605	5071.05
496.974	5096.82
497.344	5088.23
497.713	5148.57
498.082	5181.56
498.452	5220.43
498.821	5191.5
499.19	5188.79
499.559	5240.99
499.928	5280.77
500.298	5258.17
500.667	5325.74
501.036	5310.14
501.405	5318.96
501.774	5386.53
502.143	5418.61
502.512	5439.41
502.88	5433.76
503.249	5403.7
503.618	5452.74
503.987	5481.44
504.356	5514.66
504.724	5521.89
505.093	5551.72
505.462	5567.76
505.83	5589.91
506.199	5630.13
506.567	5669
506.936	5651.6
507.304	5726.18
507.672	5734.09
508.041	5763.92
508.409	5740.87
508.777	5800.07
509.145	5874.87
509.514	5814.08
509.882	5821.77
510.25	5873.52
510.618	5921.2
510.986	5844.82
511.354	5907.42
511.722	5999.39
512.09	5994.87
512.458	5986.74
512.826	6028.99
513.193	6027.41
513.561	6111.93
513.929	6107.86
514.297	6129.56
514.664	6164.13
515.032	6178.37
515.4	6178.82
515.767	6155.54
516.135	6205.03
516.502	6193.74
516.869	6295.2
517.237	6255.2
517.604	6236.45
517.972	6288.42
518.339	6322.32
518.706	6316.44
519.073	6416.78
519.44	6392.37
519.808	6487.29
520.175	6398.7
520.542	6436.44
520.909	6481.64
521.276	6512.15
521.643	6481.41
522.009	6591.47
522.376	6645.02
522.743	6640.73
523.11	6684.34
523.477	6739.48
523.843	6743.55
524.21	6806.83
524.577	6746.26
524.943	6846.15
525.31	6835.75
525.676	6923.21
526.043	6939.25
526.409	7002.75
526.776	7014.73
527.142	7040.94
527.508	7176.53
527.874	7120.49
528.241	7143.54
528.607	7154.16
528.973	7193.03
529.339	7190.09
529.705	7284.33
530.071	7369.07
530.437	7334.27
530.803	7370.2
531.169	7397.77
531.535	7470.31
531.901	7448.84
532.267	7481.16
532.632	7566.13
532.998	7555.28
533.364	7659.23
533.73	7597.09
534.095	7680.02
534.461	7749.4
534.826	7751.66
535.192	7783.98
535.557	7788.72
535.923	7821.94
536.288	7799.34
536.653	7862.84
537.019	7878.21
537.384	7911.88
537.749	7972.45
538.114	7987.59
538.479	7976.06
538.845	8007.25
539.21	8011.99
539.575	8046.12
539.94	8124.76
540.305	8157.98
540.67	8148.71
541.034	8204.98
541.399	8245.88
541.764	8309.39
542.129	8340.8
542.494	8374.02
542.858	8395.03
543.223	8376.5
543.587	8447.01
543.952	8423.73
544.316	8499.89
544.681	8481.81
545.045	8528.59
545.41	8640.45
545.774	8661.92
546.138	8671.18
546.503	8696.95
546.867	8710.05
547.231	8752.09
547.595	8795.47
547.959	8829.82
548.324	8837.96
548.688	8875.47
549.052	8927.22
549.416	8901.46
549.779	8937.17
550.143	8990.05
550.507	9035.24
550.871	9074.11
551.235	9037.28
551.599	9071.85
551.962	9164.05
552.326	9193.66
552.689	9202.7
553.053	9136.71
553.417	9212.64
553.78	9288.34
554.143	9319.53
554.507	9323.82
554.87	9297.83
555.234	9497.38
555.597	9378.51
555.96	9478.39
556.323	9454.89
556.686	9479.75
557.05	9554.1
557.413	9513.87
557.776	9549.58
558.139	9591.84
558.502	9638.39
558.865	9613.53
559.228	9718.16
559.59	9744.6
559.953	9672.74
560.316	9803.36
560.679	9879.06
561.041	9868.22
561.404	9882
561.767	9974.88
562.129	9861.44
562.492	9988.21
562.854	10047.87
563.217	10013.3
563.579	10074.99
563.941	10104.59
564.304	10098.04
564.666	10147.76
565.028	10154.76
565.39	10204.93
565.753	10299.84
566.115	10282.67
566.477	10358.6
566.839	10335.55
567.201	10364.02
567.563	10459.16
567.925	10544.13
568.287	10449.89
568.648	10548.88
569.01	10668.65
569.372	10719.94
569.734	10621.87
570.095	10747.97
570.457	10767.85
570.819	10817.34
571.18	10869.54
571.542	10885.82
571.903	10972.37
572.265	10971.01
572.626	10984.8
572.987	11109.09
573.349	11163.1
573.71	11179.82
574.071	11251
574.432	11406.93
574.794	11571
575.155	11494.16
575.516	11552.69
575.877	11684.21
576.238	11715.62
576.599	11796.3
576.96	11982.06
577.32	12004.66
577.681	12105.44
578.042	12263.18
578.403	12340.24
578.763	12401.48
579.124	12625.88
579.485	12728.93
579.845	12890.28
580.206	12990.39
580.566	13123.95
580.927	13247.56
581.287	13415.92
581.648	13616.37
582.008	13824.04
582.368	13997.37
582.728	14169.57
583.089	14326.63
583.449	14554.65
583.809	14733.17
584.169	14944.47
584.529	15167.74
584.889	15488.18
585.249	15524.56
585.609	15829.87
585.969	16163.87
586.329	16349.85
586.688	16695.38
587.048	16935.6
587.408	17125.65
587.768	17413.78
588.127	17719.31
588.487	17915.24
588.846	18441.1
589.206	18601.54
589.565	18914.3
589.925	19315.65
590.284	19604
590.643	19900.72
591.003	20243.31
591.362	20630.19
591.721	20818.66
592.08	21169.84
592.44	21633.78
592.799	22005.75
593.158	22178.4
593.517	22521.22
593.876	22895.9
594.235	23286.85
594.593	23630.34
594.952	24041.4
595.311	24235.29
595.67	24591.44
596.029	25079.79
596.387	25414.25
596.746	25796.61
597.104	26029.82
597.463	26332.41
597.822	26780.09
598.18	27077.03
598.538	27339.85
598.897	27797.24
599.255	27880.4
599.613	28586.14
599.972	28809.41
600.33	29022.51
600.688	29340.7
601.046	29707.24
601.404	30198.98
601.762	30282.59
602.12	30724.62
602.478	31051.16
602.836	31402.11
603.194	31458.61
603.552	31866.28
603.91	32046.16
604.268	32453.38
604.625	32692.47
604.983	33120.26
605.341	33131.78
605.698	33715.95
606.056	33952.33
606.413	34208.59
606.771	34456.95
607.128	34763.83
607.485	34844.73
607.843	35023.26
608.2	35537.37
608.557	35856.23
608.914	35891.94
609.272	36242.44
609.629	36386.61
609.986	36914.06
610.343	36869.54
610.7	37296.42
611.057	37477.66
611.414	37607.6
611.771	37818.89
612.127	38169.17
612.484	38383.4
612.841	38664.29
613.198	38617.97
613.554	38862.25
613.911	39159.87
614.267	39247.33
614.624	39465.18
614.98	39638.73
615.337	39824.04
615.693	40099.96
616.05	40038.27
616.406	40496.79
616.762	40381.09
617.118	40604.81
617.475	40657.46
617.831	41001.41
618.187	41202.08
618.543	41337.9
618.899	41642.52
619.255	41541.73
619.611	41632.58
619.967	41832.35
620.323	42100.14
620.678	42139.46
621.034	42011.78
621.39	42374.48
621.746	42280.47
622.101	42857.18
622.457	42620.12
622.812	42830.51
623.168	42898.99
623.523	43117.96
623.879	43366.77
624.234	42935.82
624.589	43280.9
624.945	43337.17
625.3	43406.32
625.655	43608.34
626.01	43526.09
626.365	43666.65
626.72	43754.33
627.075	43773.31
627.43	43883.37
627.785	43806.08
628.14	43863.25
628.495	44020.99
628.85	44066.86
629.205	43992.74
629.559	44333.07
629.914	44113.64
630.269	44317.93
630.623	44120.65
630.978	44088.33
631.332	44293.07
631.687	44335.56
632.041	44171.04
632.396	44397.02
632.75	44242
633.104	44370.58
633.459	44182.34
633.813	44292.39
634.167	44240.42
634.521	44253.53
634.875	44263.02
635.229	44316.57
635.583	44220.31
635.937	44109.35
636.291	44094.21
636.645	44265.28
636.999	44055.34
637.352	44351.38
637.706	44115
638.06	44266.86
638.413	44268.89
638.767	44176.69
639.121	44248.55
639.474	44037.71
639.828	44145.05
640.181	44181.66
640.534	44255.79
640.888	44128.11
641.241	43864.84
641.594	43948.22
641.947	44101.21
642.301	44001.55
642.654	44046.07
643.007	43947.32
643.36	44138.5
643.713	43938.96
644.066	44194.32
644.419	43915.23
644.771	43624.62
645.124	43285.42
645.477	43233.21
645.83	43142.14
646.182	42941.24
646.535	42606.79
646.888	42891.98
647.24	42729.72
647.593	42944.63
647.945	42830.74
648.298	42686.79
648.65	42644.3
649.002	42536.51
649.355	42770.85
649.707	42718.88
650.059	42911.87
650.411	43343.49
650.763	43231.41
651.115	43726.08
651.467	43642.47
651.819	43703.26
652.171	43528.57
652.523	43447.45
652.875	43502.81
653.227	43406.54
653.578	43670.26
653.93	43581.68
654.282	43270.5
654.633	43340.78
654.985	43500.55
655.337	43529.7
655.688	43527.44
656.039	43720.66
656.391	43297.39
656.742	43248.81
657.094	43235.25
657.445	43423.27
657.796	43409.03
658.147	43371.74
658.498	43305.3
658.849	43399.08
659.2	43184.4
659.551	43235.25
659.902	43376.26
660.253	43216.04
660.604	43287.45
660.955	43074.35
661.306	43227.11
661.656	43257.17
662.007	43162.48
662.358	43074.8
662.708	43104.4
663.059	43140.11
663.409	42949.61
663.76	43264.63
664.11	43219.43
664.461	43196.15
664.811	43125.87
665.161	43143.27
665.511	43084.06
665.862	43152.54
666.212	43237.06
666.562	43119.09
666.912	43081.81
667.262	42985.76
667.612	43113.89
667.962	43135.36
668.312	43037.96
668.662	43300.33
669.011	42972.43
669.361	43079.77
669.711	42974.92
670.06	43076.61
670.41	43019.21
670.76	42756.84
671.109	42947.35
671.459	42920
671.808	42938.53
672.157	42921.36
672.507	42652.66
672.856	42694.92
673.205	42708.71
673.554	42838.87
673.904	42797.52
674.253	42821.02
674.602	42887.91
674.951	42228.27
675.3	41967.26
675.649	42728.82
675.998	42593.68
676.346	42694.92
676.695	42722.49
677.044	42427.81
677.393	42538.77
677.741	42493.8
678.09	42342.16
678.438	42335.16
678.787	42456.51
679.135	42388.94
679.484	42100.81
679.832	42241.15
680.181	42113.69
680.529	42206.12
680.877	42100.59
681.225	42035.73
681.573	42308.27
681.922	41905.79
682.27	41856.07
682.618	41950.08
682.966	41822.86
683.314	41777.66
683.661	41743.54
684.009	41636.65
684.357	41652.01
684.705	41554.84
685.053	41568.62
685.4	41407.05
685.748	41242.31
686.095	41372.47
686.443	41029.43
686.79	41210.22
687.138	41151.46
687.485	41189.43
687.832	40963.22
688.18	41016.55
688.527	40893.16
688.874	40849.1
689.221	40620.63
689.568	40720.51
689.915	40520.06
690.262	40482.55
690.609	40395.32
690.956	40346.51
691.303	40341.31
691.65	40029.46
691.997	40025.84
692.344	39832.17
692.69	39692.06
693.037	39904.26
693.383	39450.26
693.73	39645.29
694.077	39467.89
694.423	39498.85
694.769	39238.52
695.116	39167.11
695.462	39198.97
695.808	38979.77
696.155	39045.75
696.501	38674.69
696.847	38738.19
697.193	38518.08
697.539	38640.11
697.885	38440.12
698.231	38238.99
698.577	38288.94
698.923	38049.17
699.269	38068.15
699.614	37917.65
699.96	37869.29
700.306	37902.28
700.651	37550.43
700.997	37464.1
701.342	37450.77
701.688	37497.77
702.033	37280.38
702.379	37237.66
702.724	37095.52
703.069	37281.73
703.415	36829.31
703.76	36952.7
704.105	36779.82
704.45	36777.79
704.795	36526.5
705.14	36446.5
705.485	36353.85
705.83	36227.75
706.175	36343.68
706.52	36270.01
706.865	36004.7
707.209	36037.92
707.554	35924.25
707.899	35999.73
708.243	35847.65
708.588	35752.28
708.932	35434.32
709.277	35423.7
709.621	35503.7
709.966	35255.57
710.31	35315
710.654	35115.69
710.998	35149.36
711.342	35120.21
711.687	34959.08
712.031	34896.03
712.375	34777.16
712.719	34798.63
713.063	34773.1
713.407	34836.37
713.75	34671.63
714.094	34502.6
714.438	34407.68
714.782	34309.61
715.125	34304.86
715.469	34271.42
715.812	34097.86
716.156	34000.91
716.499	34053.12
716.843	34076.62
717.186	33770.64
717.53	33965.66
717.873	33949.84
718.216	33763.18
718.559	33668.04
718.902	33413.58
719.246	33580.59
719.589	33349.63
719.932	33376.07
720.275	33499.46
720.617	33291.1
720.96	33321.84
721.303	33164.1
721.646	33207.71
721.989	32958.23
722.331	33196.19
722.674	33115.97
723.016	33175.62
723.359	32943.77
723.701	33003.43
724.044	32739.25
724.386	32614.06
724.729	32827.16
725.071	32607.05
725.413	32639.14
725.755	32603.89
726.097	32467.85
726.439	32428.98
726.782	32341.97
727.124	32438.02
727.465	32293.16
727.807	32312.82
728.149	32282.99
728.491	32225.37
728.833	32228.53
729.175	31972.49
729.516	32050.68
729.858	31999.84
730.199	31991.7
730.541	31907.18
730.882	31934.08
731.224	31963.68
731.565	31858.6
731.906	31762.33
732.248	31832.16
732.589	31565.72
732.93	31511.04
733.271	31572.73
733.612	31532.96
733.953	31487.31
734.294	31384.94
734.635	31186.3
734.976	31367.76
735.317	31244.38
735.658	31321.44
735.999	31150.14
736.339	31119.63
736.68	31150.59
737.021	31102.46
737.361	30993.76
737.702	31077.15
738.042	30899.98
738.383	30984.04
738.723	30925.06
739.063	30883.71
739.404	30852.3
739.744	30829.7
740.084	30667.89
740.424	30778.63
740.764	30818.85
741.104	30861.56
741.444	30569.59
741.784	30517.16
742.124	30618.63
742.464	30563.72
742.804	30519.2
743.143	30375.02
743.483	30382.48
743.823	30245.31
744.162	30172.99
744.502	30267.68
744.841	30241.92
745.181	30229.26
745.52	30030.62
745.86	30150.17
746.199	30145.2
746.538	30044.18
746.877	30236.95
747.216	30104.29
747.556	30071.53
747.895	30058.19
748.234	29862.94
748.573	29837.86
748.911	29788.14
749.25	29828.82
749.589	29657.53
749.928	29869.72
750.267	29772.78
750.605	29722.83
750.944	29586.34
751.283	29535.27
751.621	29617.07
751.96	29552.9
752.298	29463.63
752.636	29513.35
752.975	29477.19
753.313	29321.49
753.651	29353.13
753.989	29254.15
754.327	29236.97
754.666	29166.24
755.004	29280.13
755.342	29254.37
755.679	29079.24
756.017	28916.53
756.355	29082.17
756.693	28971.89
757.031	29054.83
757.368	28779.36
757.706	28936.41
758.044	28667.27
