Data from hue_10_FLMS001491_17.txt Node
Date: Mon Feb 06 15:31:30 GMT 2017
User: dcchb
Spectrometer: FLMS00149
Trigger mode: 0
Integration Time (sec): 2.000000E-2
Scans to average: 10
Electric dark correction enabled: true
Nonlinearity correction enabled: false
Boxcar width: 0
XAxis mode: Wavelengths
Number of Pixels in Spectrum: 2048
>>>>>Begin Spectral Data<<<<<
341.393	-18.04
341.776	-18.04
342.16	-18.04
342.543	-58.04
342.927	-53.06
343.31	-83.8
343.693	-56
344.077	-75.66
344.46	-65.94
344.843	-53.52
345.226	-25.72
345.61	-27.08
345.993	-18.04
346.376	6.82
346.759	5.92
347.142	36.2
347.525	32.58
347.908	53.15
348.291	68.06
348.674	99.7
349.057	103.32
349.44	113.03
349.823	144.22
350.206	163.43
350.588	195.29
350.971	213.37
351.354	225.12
351.737	242.07
352.119	241.39
352.502	233.03
352.884	267.15
353.267	291.56
353.65	294.72
354.032	313.48
354.414	309.19
354.797	334.27
355.179	317.1
355.562	322.52
355.944	349.64
356.326	318.23
356.709	325.01
357.091	332.69
357.473	353.25
357.855	372.46
358.238	327.27
358.62	336.53
359.002	341.5
359.384	363.2
359.766	342.18
360.148	334.5
360.53	343.76
360.912	341.28
361.294	343.54
361.676	342.86
362.057	334.04
362.439	331.79
362.821	320.71
363.203	306.47
363.584	326.59
363.966	314.16
364.348	344.67
364.729	344.44
365.111	323.2
365.493	307.38
365.874	298.34
366.256	325.68
366.637	318.45
367.019	343.31
367.4	319.13
367.781	319.13
368.163	314.16
368.544	309.19
368.925	286.81
369.306	325.68
369.688	322.52
370.069	305.8
370.45	311.67
370.831	350.09
371.212	326.59
371.593	312.12
371.974	323.2
372.355	297.89
372.736	309.19
373.117	314.61
373.498	318.9
373.879	324.55
374.26	301.28
374.641	306.47
375.021	338.11
375.402	329.53
375.783	298.79
376.163	327.27
376.544	309.19
376.925	317.1
377.305	343.08
377.686	314.61
378.066	332.69
378.447	318.9
378.827	327.04
379.208	327.94
379.588	336.53
379.968	320.71
380.349	318.68
380.729	350.77
381.109	331.33
381.489	335.17
381.87	329.53
382.25	338.79
382.63	357.1
383.01	350.32
383.39	342.86
383.77	342.63
384.15	346.02
384.53	346.47
384.91	347.83
385.29	343.08
385.67	327.94
386.049	351.9
386.429	337.21
386.809	340.82
387.189	334.04
387.568	342.63
387.948	339.69
388.328	342.41
388.707	359.35
389.087	324.55
389.466	339.47
389.846	360.26
390.225	336.98
390.605	352.58
390.984	340.37
391.363	351.9
391.743	363.65
392.122	344.21
392.501	337.66
392.881	364.55
393.26	363.87
393.639	361.61
394.018	356.87
394.397	397.09
394.776	383.08
395.155	370.2
395.534	378.34
395.913	384.44
396.292	385.12
396.671	359.81
397.05	384.44
397.429	379.69
397.808	387.38
398.186	374.95
398.565	381.5
398.944	393.48
399.323	384.89
399.701	382.18
400.08	380.15
400.458	377.43
400.837	379.69
401.215	381.28
401.594	379.69
401.972	405.23
402.351	388.51
402.729	377.89
403.107	395.06
403.486	403.2
403.864	405.46
404.242	389.41
404.62	395.29
404.999	394.38
405.377	407.49
405.755	402.97
406.133	394.83
406.511	419.69
406.889	403.87
407.267	398.22
407.645	421.05
408.023	433.48
408.401	411.78
408.779	398.22
409.156	412.69
409.534	408.62
409.912	416.98
410.29	428.51
410.667	421.05
411.045	431.44
411.422	428.51
411.8	433.03
412.178	435.51
412.555	443.42
412.933	443.42
413.31	441.61
413.687	423.31
414.065	445
414.442	428.28
414.819	439.58
415.197	458.11
415.574	469.63
415.951	450.43
416.328	471.44
416.705	475.28
417.082	465.57
417.46	473.02
417.837	458.11
418.214	455.62
418.591	467.15
418.967	479.13
419.344	457.66
419.721	484.78
420.098	482.29
420.475	478.9
420.852	491.55
421.228	476.64
421.605	466.02
421.982	492.23
422.358	508.96
422.735	478.67
423.111	501.95
423.488	509.63
423.864	521.16
424.241	516.86
424.617	517.09
424.994	485.45
425.37	499.46
425.746	499.01
426.123	514.15
426.499	538.56
426.875	515.51
427.251	509.86
427.627	510.76
428.003	531.78
428.379	539.92
428.756	530.88
429.132	548.5
429.507	561.84
429.883	544.66
430.259	550.08
430.635	566.81
431.011	548.5
431.387	575.39
431.763	560.48
432.138	577.43
432.514	567.94
432.89	585.79
433.265	568.84
433.641	598.9
434.016	597.77
434.392	619.69
434.767	602.51
435.143	594.38
435.518	613.36
435.894	614.72
436.269	595.51
436.644	624.66
437.02	642.29
437.395	629.4
437.77	663.08
438.145	655.39
438.52	634.15
438.895	652
439.271	636.41
439.646	663.3
440.021	649.29
440.395	669.63
440.77	674.37
441.145	680.93
441.52	675.5
441.895	667.6
442.27	672.12
442.645	673.92
443.019	685.9
443.394	691.1
443.769	694.49
444.143	683.64
444.518	690.65
444.892	713.47
445.267	693.58
445.641	689.52
446.016	712.11
446.39	702.62
446.764	715.05
447.139	704.2
447.513	741.49
447.887	704.2
448.262	727.48
448.636	727.71
449.01	733.58
449.384	739.23
449.758	745.11
450.132	759.57
450.506	754.37
450.88	762.96
451.254	760.7
451.628	783.98
452.002	778.33
452.376	791.66
452.75	776.75
453.123	800.25
453.497	781.26
453.871	789.17
454.244	797.99
454.618	804.77
454.992	814.94
455.365	798.21
455.739	821.94
456.112	834.6
456.486	830.3
456.859	854.26
457.232	856.29
457.606	862.62
457.979	866.91
458.352	878.21
458.725	880.47
459.099	875.5
459.472	890.41
459.845	907.59
460.218	914.59
460.591	929.28
460.964	939.9
461.337	938.32
461.71	933.58
462.083	927.93
462.456	960.7
462.829	953.01
463.201	975.61
463.574	979.45
463.947	997.3
464.32	1019.22
464.692	1006.8
465.065	1029.17
465.438	1030.3
465.81	1062.16
466.183	1052.9
466.555	1059.9
466.928	1074.36
467.3	1078.66
467.672	1097.19
468.045	1103.97
468.417	1110.07
468.789	1130.18
469.161	1169.28
469.534	1154.36
469.906	1170.63
470.278	1173.34
470.65	1197.3
471.022	1220.58
471.394	1226.22
471.766	1249.28
472.138	1258.54
472.51	1327.92
472.882	1322.49
473.253	1321.14
473.625	1365.88
473.997	1388.48
474.369	1390.74
474.74	1406.11
475.112	1423.96
475.484	1445.65
475.855	1467.12
476.227	1482.04
476.598	1502.83
476.97	1524.75
477.341	1558.87
477.713	1625.08
478.084	1594.58
478.455	1640.45
478.827	1675.25
479.198	1708.92
479.569	1705.99
479.94	1771.97
480.311	1795.48
480.682	1886.77
481.053	1820.33
481.424	1886.09
481.795	1894
482.166	1920.67
482.537	1996.15
482.908	2042.7
483.279	2096.26
483.65	2106.2
484.021	2127.67
484.391	2178.97
484.762	2181.68
485.133	2214.22
485.503	2254.22
485.874	2310.04
486.244	2318.63
486.615	2373.77
486.985	2435.91
487.356	2462.58
487.726	2526.76
488.097	2557.94
488.467	2548.22
488.837	2623.48
489.207	2639.75
489.578	2683.36
489.948	2745.51
490.318	2766.75
490.688	2759.29
491.058	2844.94
491.428	2875.45
491.798	2893.98
492.168	2946.63
492.538	2972.85
492.908	2998.16
493.278	3075.22
493.648	3077.48
494.017	3113.86
494.387	3133.75
494.757	3193.18
495.126	3209.9
495.496	3251.93
495.866	3267.3
496.235	3304.59
496.605	3365.83
496.974	3348.43
497.344	3405.83
497.713	3391.82
498.082	3464.13
498.452	3472.72
498.821	3539.61
499.19	3488.99
499.559	3533.51
499.928	3532.38
500.298	3564.02
500.667	3637.91
501.036	3664.58
501.405	3657.35
501.774	3628.87
502.143	3694.18
502.512	3748.64
502.88	3751.13
503.249	3764.46
503.618	3792.94
503.987	3788.64
504.356	3819.15
504.724	3830.22
505.093	3860.73
505.462	3857.34
505.83	3868.87
506.199	3920.17
506.567	3986.6
506.936	3981.63
507.304	4030.44
507.672	4003.55
508.041	4044
508.409	4062.08
508.777	4086.49
509.145	4141.85
509.514	4118.8
509.882	4126.26
510.25	4158.13
510.618	4173.72
510.986	4198.8
511.354	4200.61
511.722	4258.69
512.09	4322.41
512.458	4256.43
512.826	4278.8
513.193	4328.97
513.561	4308.18
513.929	4311.34
514.297	4364.22
514.664	4339.59
515.032	4399.93
515.4	4419.14
515.767	4439.25
516.135	4397.89
516.502	4436.76
516.869	4494.84
517.237	4447.84
517.604	4497.1
517.972	4520.38
518.339	4541.17
518.706	4535.97
519.073	4520.15
519.44	4575.06
519.808	4614.84
520.175	4582.97
520.542	4666.13
520.909	4646.7
521.276	4663.42
521.643	4705
522.009	4704.33
522.376	4749.97
522.743	4728.96
523.11	4733.7
523.477	4804.44
523.843	4834.27
524.21	4899.8
524.577	4905.9
524.943	4923.98
525.31	4931.44
525.676	4964.43
526.043	4996.97
526.409	5002.4
526.776	5071.77
527.142	5020.48
527.508	5041.04
527.874	5085.11
528.241	5079.46
528.607	5105.44
528.973	5110.87
529.339	5130.53
529.705	5209.17
530.071	5254.14
530.437	5266.34
530.803	5277.87
531.169	5277.87
531.535	5333.24
531.901	5300.47
532.267	5369.39
532.632	5397.87
532.998	5439
533.364	5488.94
533.73	5465.21
534.095	5477.41
534.461	5561.25
534.826	5514.93
535.192	5550.86
535.557	5594.02
535.923	5625.66
536.288	5628.82
536.653	5629.72
537.019	5638.99
537.384	5667.92
537.749	5671.31
538.114	5763.28
538.479	5724.64
538.845	5757.41
539.21	5730.97
539.575	5814.35
539.94	5775.94
540.305	5838.08
540.67	5862.26
541.034	5839.44
541.399	5914.46
541.764	5891.19
542.129	5941.36
542.494	5981.58
542.858	6010.51
543.223	6019.32
543.587	5997.17
543.952	6104.51
544.316	6082.59
544.681	6073.78
545.045	6121.01
545.41	6164.4
545.774	6187.68
546.138	6185.87
546.503	6210.5
546.867	6234.45
547.231	6290.5
547.595	6305.41
547.959	6332.31
548.324	6336.37
548.688	6337.28
549.052	6404.85
549.416	6396.94
549.779	6446.65
550.143	6431.96
550.507	6492.98
550.871	6470.15
551.235	6482.13
551.599	6586.99
551.962	6596.71
552.326	6624.73
552.689	6591.51
553.053	6601.9
553.417	6591.28
553.78	6689.36
554.143	6672.41
554.507	6766.19
554.87	6747.89
555.234	6826.98
555.597	6697.04
555.96	6748.79
556.323	6822.01
556.686	6791.28
557.05	6836.02
557.413	6925.74
557.776	6840.77
558.139	6876.92
558.502	6920.54
558.865	6976.81
559.228	7001.67
559.59	7041.44
559.953	7021.55
560.316	7060.65
560.679	7051.38
561.041	7127.54
561.404	7137.26
561.767	7157.82
562.129	7177.48
562.492	7201.89
562.854	7193.53
563.217	7245.28
563.579	7233.98
563.941	7270.13
564.304	7318.49
564.666	7374.31
565.028	7346.52
565.39	7385.16
565.753	7439.39
566.115	7453.41
566.477	7510.81
566.839	7511.48
567.201	7594.64
567.563	7525.27
567.925	7605.49
568.287	7604.81
568.648	7616.34
569.01	7644.14
569.372	7678.03
569.734	7622.89
570.095	7772.95
570.457	7790.35
570.819	7842.77
571.18	7853.62
571.542	7888.87
571.903	7924.81
572.265	7940.4
572.626	7950.57
572.987	8023.11
573.349	8067.17
573.71	8162.31
574.071	8167.06
574.432	8225.59
574.794	8376.32
575.155	8384.91
575.516	8396.88
575.877	8433.04
576.238	8526.37
576.599	8625.35
576.96	8620.38
577.32	8690.21
577.681	8791.68
578.042	8885.46
578.403	8816.53
578.763	8940.37
579.124	9088.16
579.485	9145.34
579.845	9265.34
580.206	9363.64
580.566	9479.57
580.927	9568.6
581.287	9687.02
581.648	9815.83
582.008	9840.69
582.368	10015.15
582.728	10247
583.089	10342.6
583.449	10460.56
583.809	10596.37
584.169	10777.39
584.529	10911.85
584.889	11140.99
585.249	11277.03
585.609	11407.43
585.969	11722.67
586.329	11837.47
586.688	12004.92
587.048	12225.26
587.408	12357.23
587.768	12672.48
588.127	12860.27
588.487	13046.93
588.846	13379.8
589.206	13545
589.565	13743.18
589.925	14050.97
590.284	14229.5
590.643	14596.04
591.003	14770.73
591.362	15012.53
591.721	15255.46
592.08	15555.57
592.44	15980.19
592.799	16167.53
593.158	16452.04
593.517	16651.81
593.876	17024
594.235	17320.04
594.593	17511.67
594.952	17859.23
595.311	18055.39
595.67	18459.44
596.029	18753.67
596.387	19099.88
596.746	19429.36
597.104	19559.98
597.463	19919.07
597.822	20185.05
598.18	20474.53
598.538	20724.24
598.897	21121.75
599.255	21210.33
599.613	21826.59
599.972	21973.7
600.33	22242.85
600.688	22515.38
601.046	22808.03
601.404	23136.38
601.762	23437.84
602.12	23810.94
602.478	24026.53
602.836	24379.74
603.194	24572.73
603.552	24808.66
603.91	25028.76
604.268	25374.06
604.625	25612.7
604.983	25975.63
605.341	26028.74
605.698	26483.64
606.056	26676.86
606.413	26967.02
606.771	27289.72
607.128	27453.11
607.485	27659.65
607.843	27859.42
608.2	28198.62
608.557	28441.1
608.914	28619.63
609.272	29010.58
609.629	29133.97
609.986	29331.93
610.343	29558.14
610.7	29921.29
611.057	30119.93
611.414	30142.53
611.771	30465.46
612.127	30666.13
612.484	30868.16
612.841	31145.21
613.198	31295.49
613.554	31418.2
613.911	31603.28
614.267	31878.3
614.624	31945.87
614.98	32173.66
615.337	32474.67
615.693	32543.82
616.05	32674.44
616.406	33124.37
616.762	33031.72
617.118	33281.43
617.475	33428.09
617.831	33635.54
618.187	33774.97
618.543	33757.57
618.899	34210.22
619.255	34169.77
619.611	34352.81
619.967	34547.38
620.323	34666.7
620.678	34618.12
621.034	34795.06
621.39	34924.1
621.746	35038.67
622.101	35459.45
622.457	35308.49
622.812	35552.33
623.168	35655.6
623.523	35710.06
623.879	35902.6
624.234	35642.95
624.589	35938.98
624.945	36090.62
625.3	36177.85
625.655	36179.2
626.01	36288.13
626.365	36374
626.72	36407.67
627.075	36589.81
627.43	36518.18
627.785	36547.56
628.14	36630.04
628.495	36716.59
628.85	36781.22
629.205	36727.21
629.559	36869.13
629.914	36856.25
630.269	36984.83
630.623	36953.65
630.978	36835.91
631.332	37100.99
631.687	37216.46
632.041	37046.53
632.396	37100.54
632.75	37162.23
633.104	37195
633.459	37025.06
633.813	37112.51
634.167	37122.46
634.521	37170.14
634.875	37336.46
635.229	37284.26
635.583	37174.66
635.937	37360.64
636.291	37148.67
636.645	37344.82
636.999	37187.09
637.352	37485.16
637.706	37057.83
638.06	37400.41
638.413	37215.56
638.767	37202.45
639.121	37165.39
639.474	37041.78
639.828	37203.36
640.181	37275.67
640.534	37229.12
640.888	37144.38
641.241	37096.69
641.594	37150.48
641.947	37306.18
642.301	37136.02
642.654	37100.99
643.007	37253.98
643.36	37105.28
643.713	37110.48
644.066	37340.76
644.419	37037.26
644.771	36932.18
645.124	36511.62
645.477	36400.67
645.83	36294
646.182	36263.95
646.535	36125.87
646.888	36260.56
647.24	35948.02
647.593	36255.13
647.945	36121.35
648.298	35932.66
648.65	35906.44
649.002	35863.73
649.355	36060.34
649.707	35929.27
650.059	36061.69
650.411	36507.11
650.763	36431.63
651.115	36839.98
651.467	36792.07
651.819	36685.41
652.171	36693.77
652.523	36800.43
652.875	36717.27
653.227	36583.04
653.578	36917.72
653.93	36762.69
654.282	36577.39
654.633	36548.01
654.985	36673.2
655.337	36635.24
655.688	36619.87
656.039	36802.01
656.391	36334.91
656.742	36578.74
657.094	36559.53
657.445	36700.55
657.796	36569.25
658.147	36467.33
658.498	36516.14
658.849	36611.74
659.2	36470.5
659.551	36453.77
659.902	36400.44
660.253	36494.45
660.604	36575.8
660.955	36319.77
661.306	36517.5
661.656	36368.35
662.007	36364.28
662.358	36307.11
662.708	36423.27
663.059	36451.29
663.409	36190.96
663.76	36510.49
664.11	36427.11
664.461	36425.53
664.811	36454.68
665.161	36385.75
665.511	36233.44
665.862	36531.74
666.212	36450.38
666.562	36528.57
666.912	36426.88
667.262	36411.97
667.612	36398.18
667.962	36406.09
668.312	36217.17
668.662	36527.9
669.011	36432.76
669.361	36232.08
669.711	36247.68
670.06	36389.59
670.41	36185.76
670.76	36117.51
671.109	36267.79
671.459	36295.81
671.808	36159.54
672.157	36279.09
672.507	36121.13
672.856	36085.42
673.205	36110.05
673.554	36177.62
673.904	36199.99
674.253	36250.61
674.602	36089.26
674.951	35699.67
675.3	35612.21
675.649	36169.71
675.998	35959.55
676.346	36064.4
676.695	36160.67
677.044	35753
677.393	36106.89
677.741	36010.39
678.09	35958.87
678.438	35765.2
678.787	35838.65
679.135	35899.66
679.484	35654.02
679.832	35896.27
680.181	35653.79
680.529	35772.89
680.877	35633.68
681.225	35644.53
681.573	35896.5
681.922	35526.11
682.27	35435.49
682.618	35361.15
682.966	35416.51
683.314	35365.67
683.661	35246.35
684.009	35107.37
684.357	35106.69
684.705	35073.24
685.053	35142.85
685.4	35073.92
685.748	34903.08
686.095	34804.32
686.443	34820.6
686.79	34709.86
687.138	34849.52
687.485	34809.07
687.832	34593.26
688.18	34695.4
688.527	34502.41
688.874	34475.52
689.221	34369.31
689.568	34244.79
689.915	34335.41
690.262	34226.94
690.609	34104.46
690.956	34038.47
691.303	34045.93
691.65	33878.7
691.997	33840.28
692.344	33722.32
692.69	33646.62
693.037	33646.16
693.383	33430.12
693.73	33692.49
694.077	33350.13
694.423	33323.46
694.769	33172.73
695.116	33163.92
695.462	33076.91
695.808	32961.66
696.155	32977.71
696.501	32703.82
696.847	32686.64
697.193	32527.32
697.539	32653.87
697.885	32436.93
698.231	32267.22
698.577	32328.46
698.923	32346.31
699.269	32132.98
699.614	31971.63
699.96	31917.62
700.306	32065.64
700.651	31827.45
700.997	31674.69
701.342	31727.57
701.688	31674.01
702.033	31500.91
702.379	31594.47
702.724	31494.58
703.069	31415.71
703.415	31153.8
703.76	31188.15
704.105	31134.14
704.45	31050.53
704.795	30875.61
705.14	30863.41
705.485	30755.84
705.83	30649.18
706.175	30626.36
706.52	30570.54
706.865	30458.68
707.209	30481.5
707.554	30288.06
707.899	30459.58
708.243	30300.04
708.588	30295.74
708.932	30046.03
709.277	30020.04
709.621	30081.96
709.966	29909.31
710.31	29946.6
710.654	29617.34
710.998	29720.62
711.342	29701.63
711.687	29639.72
712.031	29636.33
712.375	29411.25
712.719	29398.82
713.063	29404.24
713.407	29338.25
713.75	29211.93
714.094	29381.19
714.438	29064.59
714.782	29034.76
715.125	29028.21
715.469	29143
715.812	28835.44
716.156	28737.59
716.499	28598.39
716.843	28890.58
717.186	28625.96
717.53	28778.95
717.873	28728.33
718.216	28576.69
718.559	28570.14
718.902	28319.07
719.246	28400.65
719.589	28361.33
719.932	28160.66
720.275	28202.46
720.617	28167.44
720.96	28087.44
721.303	28145.74
721.646	28101.22
721.989	27884.51
722.331	27952.08
722.674	27830.05
723.016	28032.75
723.359	27774
723.701	27783.04
724.044	27593.67
724.386	27583.72
724.729	27614.91
725.071	27564.06
725.413	27605.42
725.755	27506.44
726.097	27484.74
726.439	27315.93
726.782	27453.78
727.124	27573.78
727.465	27351.64
727.807	27343.05
728.149	27247.46
728.491	27214.47
728.833	27164.07
729.175	27062.38
729.516	27056.28
729.858	27073.23
730.199	26993.91
730.541	26920.24
730.882	26958.66
731.224	27100.12
731.565	26802.05
731.906	26710.07
732.248	26766.12
732.589	26677.76
732.93	26626.46
733.271	26532
733.612	26608.61
733.953	26528.16
734.294	26539.91
734.635	26358.45
734.976	26367.03
735.317	26289.75
735.658	26334.49
735.999	26349.18
736.339	26247.71
736.68	26355.06
737.021	26341.27
737.361	26117.1
737.702	26144.89
738.042	26145.57
738.383	26084.33
738.723	26152.8
739.063	26046.36
739.404	26116.64
739.744	25967.95
740.084	25984.22
740.424	25913.26
740.764	25879.81
741.104	25902.41
741.444	25774.73
741.784	25658.12
742.124	25816.76
742.464	25703.77
742.804	25740.83
743.143	25572.93
743.483	25712.36
743.823	25480.73
744.162	25502.65
744.502	25510.78
744.841	25459.94
745.181	25525.02
745.52	25300.85
745.86	25428.53
746.199	25423.55
746.538	25289.32
746.877	25373.39
747.216	25336.1
747.556	25230.11
747.895	25202.77
748.234	25172.49
748.573	25041.87
748.911	25015.43
749.25	25050.68
749.589	24867.19
749.928	25137.23
750.267	24980.4
750.605	24949.44
750.944	24894.98
751.283	24845.49
751.621	24884.36
751.96	24694.31
752.298	24682.56
752.636	24623.12
752.975	24547.19
753.313	24526.4
753.651	24675.55
753.989	24485.27
754.327	24398.27
754.666	24292.28
755.004	24404.15
755.342	24316.69
755.679	24287.09
756.017	24251.16
756.355	24200.99
756.693	24126.87
757.031	24222.68
757.368	23989.02
757.706	23960.99
758.044	23962.12
758.381	24015
758.719	23844.39
759.056	23912.86
759.394	23755.58
759.731	23672.64
760.068	23706.76
760.405	23512.19
760.743	23619.76
761.08	23384.51
761.417	23367.34
