Data from hue_28_FLMS001491_00078.txt Node
Date: Tue Feb 07 17:17:48 GMT 2017
User: dcchb
Spectrometer: FLMS00149
Trigger mode: 0
Integration Time (sec): 2.000000E-2
Scans to average: 10
Electric dark correction enabled: true
Nonlinearity correction enabled: false
Boxcar width: 0
XAxis mode: Wavelengths
Number of Pixels in Spectrum: 2048
>>>>>Begin Spectral Data<<<<<
341.393	1.54
341.776	1.54
342.16	1.54
342.543	-60.15
342.927	-68.52
343.31	-60.61
343.693	-90.44
344.077	-66.26
344.46	-47.05
344.843	-61.74
345.226	-34.39
345.61	-26.71
345.993	-13.6
346.376	-0.72
346.759	2.22
347.142	34.53
347.525	26.4
347.908	61.88
348.291	73.63
348.674	95.32
349.057	107.53
349.44	117.02
349.823	136.23
350.206	164.25
350.588	192.04
350.971	204.7
351.354	227.52
351.737	254.41
352.119	274.53
352.502	252.83
352.884	269.56
353.267	285.6
353.65	301.42
354.032	294.87
354.414	315.43
354.797	324.47
355.179	319.72
355.562	317.24
355.944	319.72
356.326	304.81
356.709	347.07
357.091	343.45
357.473	347.29
357.855	350.46
358.238	357.91
358.62	348.42
359.002	342.32
359.384	331.7
359.766	349.55
360.148	354.52
360.53	344.36
360.912	340.51
361.294	324.92
361.676	325.37
362.057	341.64
362.439	327.41
362.821	347.29
363.203	332.83
363.584	333.73
363.966	350.46
364.348	333.51
364.729	313.4
365.111	333.28
365.493	333.51
365.874	318.37
366.256	313.62
366.637	302.1
367.019	322.21
367.4	321.08
367.781	317.46
368.163	320.4
368.544	317.46
368.925	296.67
369.306	301.64
369.688	338.93
370.069	302.55
370.45	317.69
370.831	305.03
371.212	324.92
371.593	333.51
371.974	309.78
372.355	326.05
372.736	313.17
373.117	311.59
373.498	339.61
373.879	314.3
374.26	335.09
374.641	330.8
375.021	328.08
375.402	328.54
375.783	333.06
376.163	327.86
376.544	349.55
376.925	328.76
377.305	331.93
377.686	332.15
378.066	329.44
378.447	336.9
378.827	332.6
379.208	326.95
379.588	335.32
379.968	350.91
380.349	343.9
380.729	318.14
381.109	344.58
381.489	335.54
381.87	340.06
382.25	346.62
382.63	342.77
383.01	347.97
383.39	353.39
383.77	341.64
384.15	358.14
384.53	351.59
384.91	350.23
385.29	364.24
385.67	356.78
386.049	365.6
386.429	344.36
386.809	355.88
387.189	362.21
387.568	349.78
387.948	371.47
388.328	366.05
388.707	339.38
389.087	345.94
389.466	378.48
389.846	370.12
390.225	377.8
390.605	375.99
390.984	370.8
391.363	368.76
391.743	364.92
392.122	358.82
392.501	364.24
392.881	387.97
393.26	375.31
393.639	380.06
394.018	379.61
394.397	371.25
394.776	372.15
395.155	376.22
395.534	390.46
395.913	376.67
396.292	398.14
396.671	401.75
397.05	400.63
397.429	395.88
397.808	373.73
398.186	403.79
398.565	393.62
398.944	394.07
399.323	405.37
399.701	403.79
400.08	396.78
400.458	418.03
400.837	393.39
401.215	405.6
401.594	428.42
401.972	392.49
402.351	407.63
402.729	414.18
403.107	391.81
403.486	415.77
403.864	412.15
404.242	420.06
404.62	431.13
404.999	437.69
405.377	426.39
405.755	442.21
406.133	434.52
406.511	425.94
406.889	438.14
407.267	434.52
407.645	426.61
408.023	425.71
408.401	430.91
408.779	439.04
409.156	457.12
409.534	473.17
409.912	464.8
410.29	472.04
410.667	471.36
411.045	451.02
411.422	449.66
411.8	463.45
412.178	460.06
412.555	471.36
412.933	477.91
413.31	472.71
413.687	469.78
414.065	486.27
414.442	486.95
414.819	487.4
415.197	509.1
415.574	523.56
415.951	500.74
416.328	498.02
416.705	495.09
417.082	520.17
417.46	520.17
417.837	522.43
418.214	495.09
418.591	500.96
418.967	504.13
419.344	521.98
419.721	520.17
420.098	513.39
420.475	531.24
420.852	512.26
421.228	552.03
421.605	543.45
421.982	565.37
422.358	557.23
422.735	557.68
423.111	537.57
423.488	551.36
423.864	565.59
424.241	562.65
424.617	550.45
424.994	589.09
425.37	554.29
425.746	584.12
426.123	578.02
426.499	562.65
426.875	599.72
427.251	585.7
427.627	580.73
428.003	583.45
428.379	588.42
428.756	606.04
429.132	603.33
429.507	635.87
429.883	616.66
430.259	614.18
430.635	626.38
431.011	616.44
431.387	642.2
431.763	649.21
432.138	652.14
432.514	660.28
432.89	657.34
433.265	663.22
433.641	660.28
434.016	659.38
434.392	668.41
434.767	677.45
435.143	691.46
435.518	704.35
435.894	701.18
436.269	708.41
436.644	722.42
437.02	702.09
437.395	744.12
437.77	698.02
438.145	736.66
438.52	730.11
438.895	743.67
439.271	731.24
439.646	753.16
440.021	767.85
440.395	783.44
440.77	762.65
441.145	757.68
441.52	778.24
441.895	769.88
442.27	783.21
442.645	790.45
443.019	803.78
443.394	788.41
443.769	792.25
444.143	785.02
444.518	790.9
444.892	810.56
445.267	829.54
445.641	812.37
446.016	834.96
446.39	825.25
446.764	831.8
447.139	844.46
447.513	849.43
447.887	842.65
448.262	847.84
448.636	849.65
449.01	879.26
449.384	862.31
449.758	893.95
450.132	872.93
450.506	875.41
450.88	877.45
451.254	865.25
451.628	895.75
452.002	907.73
452.376	901.18
452.75	914.74
453.123	936.88
453.497	931.01
453.871	934.17
454.244	942.08
454.618	959.48
454.992	961.97
455.365	971.46
455.739	949.99
456.112	1002.64
456.486	1007.39
456.859	1006.94
457.232	1012.59
457.606	999.93
457.979	1046.94
458.352	1058.23
458.725	1079.03
459.099	1063.88
459.472	1080.38
459.845	1106.14
460.218	1124.22
460.591	1114.96
460.964	1119.7
461.337	1151.57
461.71	1160.38
462.083	1199.7
462.456	1159.25
462.829	1195.18
463.201	1177.78
463.574	1183.88
463.947	1261.62
464.32	1225.46
464.692	1244.67
465.065	1248.06
465.438	1294.16
465.81	1280.38
466.183	1294.84
466.555	1313.14
466.928	1341.17
467.3	1332.8
467.672	1346.14
468.045	1398.11
468.417	1393.82
468.789	1408.28
469.161	1412.58
469.534	1441.28
469.906	1467.94
470.278	1487.6
470.65	1473.14
471.022	1510.65
471.394	1550.2
471.766	1554.72
472.138	1568.96
472.51	1628.39
472.882	1635.62
473.253	1676.98
473.625	1698.67
473.997	1752.45
474.369	1761.27
474.74	1784.54
475.112	1798.33
475.484	1855.95
475.855	1846.01
476.227	1875.39
476.598	1945.9
476.97	1968.27
477.341	2005.1
477.713	2027.7
478.084	2069.73
478.455	2110.86
478.827	2156.29
479.198	2196.06
479.569	2210.07
479.94	2286.45
480.311	2335.49
480.682	2341.82
481.053	2451.19
481.424	2482.38
481.795	2540.91
482.166	2580.23
482.537	2615.93
482.908	2629.72
483.279	2713.56
483.65	2726.21
484.021	2821.35
484.391	2849.6
484.762	2919.88
485.133	2928.69
485.503	3011.18
485.874	3077.62
486.244	3106.77
486.615	3163.04
486.985	3215.24
487.356	3323.71
487.726	3364.39
488.097	3464.05
488.467	3435.8
488.837	3566.42
489.207	3614.78
489.578	3661.56
489.948	3689.35
490.318	3783.81
490.688	3806.86
491.058	3870.59
491.428	3932.74
491.798	3967.54
492.168	4077.36
492.538	4099.96
492.908	4137.25
493.278	4219.96
493.648	4256.12
494.017	4283.01
494.387	4373.85
494.757	4392.84
495.126	4504.25
495.496	4509.9
495.866	4543.12
496.235	4571.59
496.605	4605.26
496.974	4683.9
497.344	4770
497.713	4790.34
498.082	4808.64
498.452	4918.47
498.821	4911.01
499.19	4938.81
499.559	4974.74
499.928	5079.6
500.298	5048.86
500.667	5111.01
501.036	5127.51
501.405	5171.35
501.774	5199.82
502.143	5300.16
502.512	5265.36
502.88	5335.86
503.249	5339.48
503.618	5453.6
503.987	5411.79
504.356	5494.28
504.724	5445.46
505.093	5535.63
505.462	5590.55
505.83	5574.95
506.199	5662.86
506.567	5687.04
506.936	5702.18
507.304	5771.78
507.672	5770.2
508.041	5842.74
508.409	5888.16
508.777	5900.37
509.145	5943.98
509.514	5950.76
509.882	5959.57
510.25	5953.93
510.618	6026.69
510.986	6027.14
511.354	6061.04
511.722	6131.77
512.09	6222.84
512.458	6215.84
512.826	6220.59
513.193	6214.26
513.561	6278.44
513.929	6363.18
514.297	6382.16
514.664	6393.01
515.032	6431.43
515.4	6486.79
515.767	6488.15
516.135	6523.4
516.502	6518.2
516.869	6576.73
517.237	6627.81
517.604	6528.15
517.972	6606.11
518.339	6736.28
518.706	6667.58
519.073	6683.62
519.44	6767.46
519.808	6835.94
520.175	6814.92
520.542	6854.47
520.909	6903.73
521.276	6919.32
521.643	6939.89
522.009	6977.85
522.376	7013.56
522.743	7096.72
523.11	7105.53
523.477	7176.27
523.843	7203.84
524.21	7275.7
524.577	7345.3
524.943	7291.29
525.31	7327.45
525.676	7463.49
526.043	7425.98
526.409	7489.25
526.776	7614.22
527.142	7541.91
527.508	7583.26
527.874	7702.35
528.241	7667.55
528.607	7743.03
528.973	7768.57
529.339	7830.03
529.705	7851.28
530.071	7898.73
530.437	7971.27
530.803	7983.25
531.169	8088.33
531.535	8038.84
531.901	8075
532.267	8160.2
532.632	8139.18
532.998	8207.65
533.364	8172.4
533.73	8319.74
534.095	8305.05
534.461	8414.88
534.826	8395.67
535.192	8492.39
535.557	8458.27
535.923	8529.22
536.288	8531.03
536.653	8560.18
537.019	8564.25
537.384	8611.71
537.749	8688.09
538.114	8710.46
538.479	8627.53
538.845	8715.89
539.21	8792.49
539.575	8762.67
539.94	8852.38
540.305	8890.8
540.67	8851.48
541.034	8945.71
541.399	8984.35
541.764	9025.71
542.129	9059.15
542.494	9088.53
542.858	9095.54
543.223	9154.52
543.587	9182.77
543.952	9235.87
544.316	9306.83
544.681	9229.09
545.045	9321.29
545.41	9333.95
545.774	9396.09
546.138	9453.72
546.503	9497.79
546.867	9514.74
547.231	9544.57
547.595	9585.92
547.959	9599.03
548.324	9642.64
548.688	9631.34
549.052	9752.92
549.416	9712.02
549.779	9680.16
550.143	9750.44
550.507	9782.75
550.871	9823.88
551.235	9796.99
551.599	9905.69
551.962	9994.72
552.326	9967.38
552.689	10020.03
553.053	10028.85
553.417	10045.12
553.78	10157.88
554.143	10102.97
554.507	10265.45
554.87	10279.01
555.234	10322.62
555.597	10233.59
555.96	10353.58
556.323	10321.72
556.686	10358.1
557.05	10437.2
557.413	10437.2
557.776	10449.63
558.139	10475.61
558.502	10421.83
558.865	10544.99
559.228	10621.37
559.59	10663.86
559.953	10698.21
560.316	10737.53
560.679	10815.72
561.041	10842.61
561.404	10902.04
561.767	10897.07
562.129	10912.44
562.492	10988.14
562.854	11034.92
563.217	10976.62
563.579	11121.47
563.941	11156.05
564.304	11068.37
564.666	11199.21
565.028	11272.66
565.39	11250.74
565.753	11257.06
566.115	11348.59
566.477	11391.97
566.839	11414.12
567.201	11511.07
567.563	11469.03
567.925	11636.94
568.287	11594.46
568.648	11550.16
569.01	11683.27
569.372	11795.13
569.734	11726.43
570.095	11822.02
570.457	11917.84
570.819	11878.29
571.18	11900.44
571.542	11997.61
571.903	12049.13
572.265	12127.32
572.626	12142.69
572.987	12168.9
573.349	12276.25
573.71	12417.94
574.071	12429.69
574.432	12466.52
574.794	12704.71
575.155	12576.8
575.516	12687.53
575.877	12697.25
576.238	12856.12
576.599	12993.51
576.96	12946.96
577.32	13104.02
577.681	13195.32
578.042	13261.76
578.403	13329.78
578.763	13485.93
579.124	13588.3
579.485	13734.29
579.845	13862.87
580.206	14046.37
580.566	14101.96
580.927	14209.53
581.287	14399.13
581.648	14458.11
582.008	14643.41
582.368	14795.27
582.728	15028.72
583.089	15137.19
583.449	15368.37
583.809	15564.75
584.169	15728.58
584.529	15824.85
584.889	16159.98
585.249	16251.73
585.609	16388.23
585.969	16761.55
586.329	16918.38
586.688	17150.92
587.048	17362.66
587.408	17526.05
587.768	17793.16
588.127	18065.47
588.487	18241.74
588.846	18688.96
589.206	18702.74
589.565	19034.71
589.925	19363.74
590.284	19533.91
590.643	19899.1
591.003	20214.57
591.362	20496.82
591.721	20706.98
592.08	21036.69
592.44	21369.57
592.799	21647.07
593.158	21831.25
593.517	22157.57
593.876	22472.81
594.235	22696.54
594.593	23031.67
594.952	23236.18
595.311	23502.16
595.67	23901.02
596.029	24221.02
596.387	24501.01
596.746	24850.6
597.104	25020.09
597.463	25276.58
597.822	25781.2
598.18	25815.55
598.538	26320.62
598.897	26553.38
599.255	26788.41
599.613	27314.95
599.972	27412.34
600.33	27858.89
600.688	27984.98
601.046	28257.07
601.404	28670.84
601.762	28873.55
602.12	29327.55
602.478	29532.06
602.836	29885.95
603.194	29873.52
603.552	30151.48
603.91	30411.14
604.268	30750.56
604.625	30998.69
604.983	31254.05
605.341	31413.14
605.698	31907.14
606.056	32099.68
606.413	32321.14
606.771	32538.76
607.128	32848.81
607.485	32800.68
607.843	33144.4
608.2	33513.2
608.557	33726.98
608.914	33870.03
609.272	34148.21
609.629	34366.29
609.986	34642.21
610.343	34642.21
610.7	35095.31
611.057	35323.55
611.414	35311.12
611.771	35424.34
612.127	35924.44
612.484	36003.98
612.841	36302.51
613.198	36347.7
613.554	36561.93
613.911	36865.2
614.267	36955.14
614.624	37082.37
614.98	37377.05
615.337	37717.61
615.693	37774.56
616.05	37770.94
616.406	38102.91
616.762	38053.19
617.118	38190.37
617.475	38396.69
617.831	38555.78
618.187	38739.96
618.543	38817.24
618.899	39174.07
619.255	39109.21
619.611	39308.98
619.967	39435.76
620.323	39493.38
620.678	39566.6
621.034	39602.08
621.39	39691.12
621.746	39867.61
622.101	40254.04
622.457	40045.91
622.812	40214.95
623.168	40388.27
623.523	40484.32
623.879	40537.2
624.234	40383.53
624.589	40666.01
624.945	40833.46
625.3	40752.11
625.655	40837.98
626.01	40894.93
626.365	41094.92
626.72	41115.03
627.075	41058.09
627.43	41107.35
627.785	41235.71
628.14	41388.93
628.495	41392.99
628.85	41404.74
629.205	41284.3
629.559	41555.25
629.914	41346.22
630.269	41482.48
630.623	41575.36
630.978	41397.51
631.332	41694
631.687	41699.43
632.041	41712.76
632.396	41723.83
632.75	41701.01
633.104	41968.57
633.459	41711.86
633.813	41739.65
634.167	41672.53
634.521	41796.15
634.875	41762.25
635.229	41823.04
635.583	41704.85
635.937	41773.1
636.291	41769.48
636.645	41647.9
636.999	41725.41
637.352	41814.68
637.706	41532.88
638.06	41743.49
638.413	41741.68
638.767	41659.43
639.121	41763.61
639.474	41496.72
639.828	41588.92
640.181	41637.51
640.534	41544.63
640.888	41556.15
641.241	41509.83
641.594	41552.76
641.947	41607.68
642.301	41644.06
642.654	41626.21
643.007	41565.19
643.36	41500.56
643.713	41485.65
644.066	41554.57
644.419	41383.05
644.771	41228.7
645.124	40805.89
645.477	40805.21
645.83	40670.75
646.182	40529.06
646.535	40423.98
646.888	40431.44
647.24	40241.39
647.593	40498.55
647.945	40348.05
648.298	40162.29
648.65	40223.08
649.002	39961.39
649.355	40262.18
649.707	40094.04
650.059	40331.78
650.411	40797.08
650.763	40784.2
651.115	41351.19
651.467	41087.01
651.819	41068.26
652.171	41129.5
652.523	40922.72
652.875	41038.88
653.227	40710.75
653.578	41135.15
653.93	41086.79
654.282	40846.79
654.633	40795.72
654.985	40877.07
655.337	40913.46
655.688	40884.76
656.039	41079.78
656.391	40769.51
656.742	40799.34
657.094	40857.41
657.445	40985.55
657.796	40981.93
658.147	40811.99
658.498	40744.87
658.849	40918.66
659.2	40756.4
659.551	40797.08
659.902	40905.55
660.253	40747.36
660.604	40828.04
660.955	40670.53
661.306	40820.35
661.656	40780.58
662.007	40828.94
662.358	40696.51
662.708	40608.83
663.059	40677.76
663.409	40530.64
663.76	40811.54
664.11	40439.12
664.461	40750.75
664.811	40661.71
665.161	40762.05
665.511	40546.91
665.862	40704.88
666.212	40726.12
666.562	40669.4
666.912	40487.71
667.262	40531.77
667.612	40614.71
667.962	40703.29
668.312	40508.27
668.662	40796.85
669.011	40600.92
669.361	40578.1
669.711	40659.68
670.06	40490.42
670.41	40503.53
670.76	40459.01
671.109	40643.18
671.459	40578.33
671.808	40469.18
672.157	40443.87
672.507	40145.79
672.856	40301.72
673.205	40306.92
673.554	40490.64
673.904	40289.97
674.253	40579.91
674.602	40251.55
674.951	39799.82
675.3	39582.87
675.649	40320.03
675.998	40219.69
676.346	40273.02
676.695	40164.78
677.044	39938.79
677.393	40202.29
677.741	40158
678.09	40083.65
678.438	40167.26
678.787	40136.08
679.135	40090.65
679.484	39861.06
679.832	39981.05
680.181	39763.21
680.529	39858.8
680.877	39675.07
681.225	39809.76
681.573	39945.35
681.922	39745.13
682.27	39653.83
682.618	39688.41
682.966	39465.81
683.314	39560.95
683.661	39525.02
684.009	39172.49
684.357	39207.51
684.705	39231.47
685.053	39242.32
685.4	39102.43
685.748	38875.32
686.095	39064.24
686.443	38958.03
686.79	39068.31
687.138	38951.25
687.485	38972.72
687.832	38695.89
688.18	38740.86
688.527	38584.03
688.874	38638.26
689.221	38571.6
689.568	38307.88
689.915	38427.65
690.262	38458.61
690.609	38237.82
690.956	38152.63
691.303	38036.92
691.65	37858.62
691.997	37872.63
692.344	37713.32
692.69	37633.77
693.037	37671.74
693.383	37416.6
693.73	37491.18
694.077	37129.38
694.423	37229.94
694.769	37174.8
695.116	36978.42
695.462	37021.58
695.808	36895.26
696.155	36824.98
696.501	36568.94
696.847	36712.66
697.193	36533.91
697.539	36540.24
697.885	36283.98
698.231	36268.61
698.577	36225.9
698.923	36186.35
699.269	35974.38
699.614	35819.58
699.96	35908.39
700.306	35784.33
700.651	35600.38
700.997	35593.15
701.342	35454.84
701.688	35505.24
702.033	35417.56
702.379	35309.09
702.724	35250.33
703.069	35415.3
703.415	34943.22
703.76	35034.52
704.105	35099.15
704.45	34909.1
704.795	34755.43
705.14	34581.2
705.485	34593.4
705.83	34326.51
706.175	34538.26
706.52	34344.59
706.865	34179.62
707.209	34259.62
707.554	34106.86
707.899	34020.76
708.243	33883.59
708.588	33823.7
708.932	33678.85
709.277	33660.99
709.621	33662.35
709.966	33464.84
710.31	33544.16
710.654	33280.21
710.998	33350.04
711.342	33332.41
711.687	33203.15
712.031	33093.78
712.375	33025.08
712.719	33037.96
713.063	33052.2
713.407	33061.46
713.75	32764.97
714.094	32773.33
714.438	32580.57
714.782	32667.12
715.125	32441.36
715.469	32555.49
715.812	32445.43
716.156	32273.01
716.499	32404.98
716.843	32349.39
717.186	32263.74
717.53	32280.69
717.873	32221.03
718.216	32082.73
718.559	32074.37
718.902	31784.88
719.246	31962.96
719.589	31731.33
719.932	31660.37
720.275	31737.43
720.617	31573.59
720.96	31557.09
721.303	31611.56
721.646	31603.87
721.989	31414.5
722.331	31449.07
722.674	31422.86
723.016	31351.9
723.359	31200.04
723.701	31307.16
724.044	31107.16
724.386	30932.48
724.729	31151.68
725.071	31110.33
725.413	31109.87
725.755	30902.2
726.097	30875.98
726.439	30685.93
726.782	30623.56
727.124	30862.2
727.465	30603.9
727.807	30628.98
728.149	30531.81
728.491	30443
728.833	30585.37
729.175	30423.34
729.516	30471.47
729.858	30374.75
730.199	30334.08
730.541	30217.02
730.882	30272.38
731.224	30366.84
731.565	30257.24
731.906	30091.6
732.248	30167.07
732.589	30027.87
732.93	29866.29
733.271	29804.6
733.612	29929.57
733.953	29951.94
734.294	29806.63
734.635	29812.96
734.976	29807.99
735.317	29629.69
735.658	29597.15
735.999	29707.43
736.339	29569.8
736.68	29610.7
737.021	29439.41
737.361	29264.95
737.702	29497.04
738.042	29435.34
738.383	29341.56
738.723	29391.28
739.063	29158.74
739.404	29260.43
739.744	29253.65
740.084	29137.72
740.424	29154.9
740.764	29109.47
741.104	29164.39
741.444	28900.44
741.784	28824.51
742.124	28996.03
742.464	28860.67
742.804	28832.65
743.143	28750.39
743.483	28695.25
743.823	28633.78
744.162	28628.58
744.502	28642.59
744.841	28526.67
745.181	28649.6
745.52	28559.43
745.86	28545.65
746.199	28481.24
746.538	28490.28
746.877	28499.55
747.216	28415.93
747.556	28390.62
747.895	28443.05
748.234	28258.42
748.573	28210.52
748.911	28231.31
749.25	28244.19
749.589	28055.27
749.928	28114.7
750.267	27977.75
750.605	28045.77
750.944	28018.43
751.283	27788.83
751.621	27881.71
751.96	27644.88
752.298	27844.42
752.636	27716.29
752.975	27519.91
753.313	27459.8
753.651	27644.43
753.989	27519.46
754.327	27419.12
754.666	27263.87
755.004	27162.18
755.342	27294.38
755.679	27185.68
756.017	27062.75
756.355	27162.63
756.693	27122.86
757.031	27052.81
757.368	26880.38
757.706	26876.54
758.044	26775.52
758.381	26855.07
758.719	26807.16
