Data from hue_10_FLMS001491_21.txt Node
Date: Mon Feb 06 15:31:38 GMT 2017
User: dcchb
Spectrometer: FLMS00149
Trigger mode: 0
Integration Time (sec): 2.000000E-2
Scans to average: 10
Electric dark correction enabled: true
Nonlinearity correction enabled: false
Boxcar width: 0
XAxis mode: Wavelengths
Number of Pixels in Spectrum: 2048
>>>>>Begin Spectral Data<<<<<
341.393	-6.27
341.776	-6.27
342.16	-6.27
342.543	-69.09
342.927	-70.9
343.31	-70.9
343.693	-64.8
344.077	-41.75
344.46	-72.48
344.843	-48.3
345.226	-19.38
345.61	-47.63
345.993	-17.8
346.376	1.64
346.759	17.01
347.142	23.56
347.525	25.37
347.908	54.74
348.291	72.37
348.674	84.57
349.057	103.78
349.44	112.82
349.823	155.76
350.206	155.76
350.588	196.89
350.971	210.22
351.354	228.98
351.737	223.33
352.119	237.11
352.502	250.67
352.884	283.21
353.267	268.75
353.65	283.66
354.032	312.36
354.414	298.13
354.797	311.69
355.179	306.49
355.562	332.93
355.944	328.41
356.326	335.19
356.709	340.84
357.091	338.13
357.473	346.49
357.855	335.19
358.238	356.88
358.62	344.91
359.002	356.21
359.384	353.72
359.766	345.36
360.148	345.13
360.53	351.91
360.912	339.93
361.294	345.58
361.676	316.88
362.057	344.45
362.439	332.03
362.821	336.32
363.203	333.16
363.584	331.35
363.966	312.82
364.348	334.51
364.729	326.6
365.111	356.43
365.493	322.53
365.874	311.91
366.256	303.1
366.637	307.17
367.019	333.83
367.4	332.03
367.781	328.64
368.163	320.5
368.544	330.67
368.925	311.46
369.306	344
369.688	321.4
370.069	313.04
370.45	330.44
370.831	297.45
371.212	320.95
371.593	333.16
371.974	326.6
372.355	329.09
372.736	318.69
373.117	306.72
373.498	335.64
373.879	319.37
374.26	313.04
374.641	317.79
375.021	331.8
375.402	322.08
375.783	324.57
376.163	324.34
376.544	304.46
376.925	340.39
377.305	322.31
377.686	340.39
378.066	327.51
378.447	335.19
378.827	339.93
379.208	320.95
379.588	336.09
379.968	326.38
380.349	358.69
380.729	345.36
381.109	346.71
381.489	345.81
381.87	324.34
382.25	341.97
382.63	333.16
383.01	343.78
383.39	351.46
383.77	336.77
384.15	329.09
384.53	341.52
384.91	345.81
385.29	345.81
385.67	346.04
386.049	359.14
386.429	347.39
386.809	361.85
387.189	352.59
387.568	353.72
387.948	344
388.328	376.09
388.707	364.57
389.087	355.08
389.466	362.98
389.846	379.03
390.225	372.25
390.605	379.03
390.984	352.59
391.363	348.97
391.743	353.49
392.122	368.41
392.501	376.32
392.881	356.66
393.26	377
393.639	383.32
394.018	393.72
394.397	381.29
394.776	388.97
395.155	379.26
395.534	378.58
395.913	375.19
396.292	384
396.671	381.06
397.05	399.59
397.429	374.51
397.808	394.62
398.186	387.39
398.565	371.57
398.944	384.91
399.323	371.35
399.701	366.37
400.08	378.58
400.458	388.29
400.837	384.45
401.215	394.62
401.594	387.84
401.972	397.56
402.351	393.27
402.729	403.44
403.107	380.84
403.486	409.54
403.864	388.29
404.242	424.23
404.62	407.5
404.999	392.14
405.377	394.17
405.755	427.62
406.133	414.06
406.511	421.74
406.889	420.16
407.267	407.05
407.645	407.5
408.023	412.02
408.401	426.71
408.779	440.04
409.156	428.07
409.534	425.58
409.912	447.05
410.29	453.38
410.667	449.31
411.045	461.74
411.422	458.35
411.8	446.6
412.178	447.28
412.555	473.26
412.933	451.34
413.31	468.07
413.687	468.07
414.065	463.55
414.442	466.26
414.819	466.94
415.197	484.34
415.574	485.69
415.951	460.38
416.328	491.34
416.705	482.08
417.082	490.89
417.46	495.64
417.837	471.68
418.214	492.02
418.591	489.99
418.967	474.39
419.344	530.44
419.721	511.23
420.098	496.31
420.475	501.29
420.852	516.2
421.228	506.94
421.605	521.17
421.982	501.51
422.358	507.16
422.735	533.38
423.111	525.01
423.488	540.16
423.864	524.34
424.241	531.34
424.617	541.29
424.994	544.22
425.37	547.61
425.746	568.4
426.123	566.82
426.499	565.24
426.875	543.55
427.251	580.38
427.627	574.5
428.003	568.63
428.379	611.79
428.756	583.32
429.132	579.02
429.507	598.23
429.883	587.61
430.259	600.04
430.635	619.02
431.011	609.31
431.387	617.89
431.763	627.84
432.138	611.11
432.514	616.54
432.89	626.25
433.265	640.49
433.641	637.33
434.016	664.45
434.392	655.86
434.767	656.31
435.143	680.26
435.518	653.6
435.894	645.69
436.269	684.56
436.644	662.86
437.02	678.23
437.395	688.4
437.77	702.86
438.145	702.64
438.52	699.02
438.895	701.96
439.271	715.52
439.646	702.18
440.021	712.13
440.395	705.57
440.77	708.74
441.145	710.32
441.52	714.16
441.895	732.69
442.27	729.75
442.645	730.43
443.019	744.44
443.394	743.99
443.769	759.36
444.143	752.81
444.518	761.84
444.892	763.65
445.267	751.68
445.641	774.95
446.016	764.56
446.39	770.66
446.764	760.04
447.139	778.79
447.513	781.73
447.887	774.73
448.262	789.87
448.636	795.52
449.01	822.41
449.384	801.39
449.758	812.69
450.132	815.4
450.506	808.62
450.88	825.35
451.254	809.98
451.628	840.03
452.002	819.02
452.376	832.35
452.75	842.29
453.123	847.27
453.497	871.22
453.871	847.04
454.244	877.32
454.618	877.77
454.992	894.5
455.365	894.72
455.739	909.19
456.112	921.84
456.486	925
456.859	944.89
457.232	947.6
457.606	935.4
457.979	954.61
458.352	979.69
458.725	978.56
459.099	997.54
459.472	997.09
459.845	984.66
460.218	1002.97
460.591	1011.33
460.964	1012.46
461.337	1030.76
461.71	1026.02
462.083	1071.89
462.456	1070.54
462.829	1091.78
463.201	1090.2
463.574	1057.88
463.947	1127.48
464.32	1116.64
464.692	1117.32
465.065	1129.52
465.438	1180.59
465.81	1146.24
466.183	1181.72
466.555	1186.47
466.928	1202.06
467.3	1207.26
467.672	1214.26
468.045	1240.93
468.417	1271.44
468.789	1260.81
469.161	1264.43
469.534	1273.92
469.906	1277.99
470.278	1333.13
470.65	1356.41
471.022	1377.87
471.394	1398.21
471.766	1405.22
472.138	1400.25
472.51	1433.47
472.882	1469.17
473.253	1491.77
473.625	1524.31
473.997	1533.12
474.369	1522.5
474.74	1570.18
475.112	1592.11
475.484	1628.26
475.855	1638.21
476.227	1661.03
476.598	1689.5
476.97	1731.99
477.341	1762.72
477.713	1808.6
478.084	1811.99
478.455	1875.26
478.827	1888.14
479.198	1927.69
479.569	1931.31
479.94	2018.53
480.311	2021.47
480.682	2073.67
481.053	2083.84
481.424	2139.44
481.795	2146.89
482.166	2214.46
482.537	2259.88
482.908	2286.78
483.279	2299.88
483.65	2335.81
484.021	2385.76
484.391	2409.26
484.762	2473.44
485.133	2529.93
485.503	2518.41
485.874	2629.82
486.244	2668.46
486.615	2704.17
486.985	2710.04
487.356	2786.42
487.726	2818.97
488.097	2847.21
488.467	2910.49
488.837	2942.8
489.207	2948
489.578	3027.77
489.948	3103.25
490.318	3144.38
490.688	3133.76
491.058	3164.04
491.428	3226.19
491.798	3270.93
492.168	3317.48
492.538	3326.97
492.908	3408.55
493.278	3476.12
493.648	3439.29
494.017	3516.8
494.387	3524.26
494.757	3569.68
495.126	3579.85
495.496	3684.93
495.866	3717.92
496.235	3694.2
496.605	3782.33
496.974	3813.29
497.344	3813.74
497.713	3838.37
498.082	3914.08
498.452	3883.12
498.821	3937.81
499.19	3935.09
499.559	3976.45
499.928	3970.35
500.298	4035.43
500.667	4090.8
501.036	4085.15
501.405	4143.68
501.774	4133.06
502.143	4148.87
502.512	4169.66
502.88	4217.12
503.249	4236.1
503.618	4305.25
503.987	4248.98
504.356	4253.5
504.724	4297.12
505.093	4383.67
505.462	4358.13
505.83	4391.35
506.199	4397.23
506.567	4454.85
506.936	4471.8
507.304	4530.78
507.672	4514.06
508.041	4500.28
508.409	4550.45
508.777	4551.8
509.145	4617.79
509.514	4568.3
509.882	4646.94
510.25	4664.79
510.618	4674.51
510.986	4658.92
511.354	4730.78
511.722	4745.24
512.09	4764
512.458	4702.53
512.826	4851.91
513.193	4860.49
513.561	4840.83
513.929	4878.8
514.297	4894.39
514.664	4942.75
515.032	4933.26
515.4	4951.56
515.767	4966.25
516.135	4965.35
516.502	4946.14
516.869	5052.35
517.237	5095.52
517.604	5012.13
517.972	5095.74
518.339	5080.15
518.706	5052.13
519.073	5078.57
519.44	5152.01
519.808	5119.24
520.175	5169.41
520.542	5192.01
520.909	5236.53
521.276	5192.46
521.643	5275.85
522.009	5273.36
522.376	5390.2
522.743	5362.85
523.11	5334.38
523.477	5402.63
523.843	5400.59
524.21	5417.77
524.577	5473.81
524.943	5481.27
525.31	5531.66
525.676	5580.93
526.043	5613.02
526.409	5637.42
526.776	5647.59
527.142	5718.78
527.508	5707.48
527.874	5737.53
528.241	5754.48
528.607	5754.26
528.973	5821.6
529.339	5782.5
529.705	5919.67
530.071	5893.46
530.437	5955.38
530.803	5969.84
531.169	5985.44
531.535	5977.98
531.901	6017.75
532.267	6009.62
532.632	6035.83
532.998	6079.67
533.364	6090.74
533.73	6148.6
534.095	6190.85
534.461	6190.18
534.826	6228.37
535.192	6259.33
535.557	6316.27
535.923	6322.6
536.288	6329.83
536.653	6354.47
537.019	6351.53
537.384	6396.27
537.749	6431.07
538.114	6427.46
538.479	6484.18
538.845	6495.25
539.21	6476.04
539.575	6523.27
539.94	6524.18
540.305	6630.62
540.67	6590.62
541.034	6648.02
541.399	6648.7
541.764	6717.85
542.129	6722.14
542.494	6758.3
542.858	6786.09
543.223	6777.05
543.587	6792.65
543.952	6871.97
544.316	6869.03
544.681	6902.7
545.045	6928.24
545.41	6977.05
545.774	7002.58
546.138	6999.19
546.503	7044.17
546.867	7084.16
547.231	7078.97
547.595	7135.01
547.959	7173.2
548.324	7135.24
548.688	7199.42
549.052	7229.24
549.416	7241.45
549.779	7270.15
550.143	7289.81
550.507	7332.52
550.871	7292.97
551.235	7381.78
551.599	7409.13
551.962	7391.95
552.326	7431.95
552.689	7410.26
553.053	7487.54
553.417	7480.99
553.78	7537.94
554.143	7501.33
554.507	7578.39
554.87	7570.7
555.234	7628.1
555.597	7606.18
555.96	7710.59
556.323	7732.51
556.686	7744.26
557.05	7694.77
557.413	7765.73
557.776	7746.52
558.139	7812.73
558.502	7884.82
558.865	7847.31
559.228	7947.64
559.59	7911.94
559.953	7951.94
560.316	7946.51
560.679	8092.27
561.041	8133.4
561.404	8057.92
561.767	8117.58
562.129	8122.1
562.492	8221.08
562.854	8169.56
563.217	8179.5
563.579	8188.99
563.941	8274.42
564.304	8351.48
564.666	8379.72
565.028	8355.99
565.39	8357.58
565.753	8385.82
566.115	8442.77
566.477	8443.9
566.839	8491.58
567.201	8492.71
567.563	8532.71
567.925	8569.55
568.287	8607.97
568.648	8631.69
569.01	8718.25
569.372	8720.96
569.734	8696.78
570.095	8811.12
570.457	8856.32
570.819	8907.39
571.18	8918.24
571.542	8956.21
571.903	8915.53
572.265	9040.5
572.626	9057.9
572.987	9018.35
573.349	9160.27
573.71	9152.58
574.071	9229.64
574.432	9284.78
574.794	9386.02
575.155	9429.64
575.516	9445.01
575.877	9590.54
576.238	9602.52
576.599	9661.72
576.96	9738.11
577.32	9828.05
577.681	9947.37
578.042	9996.4
578.403	10030.75
578.763	10161.15
579.124	10239.34
579.485	10402.49
579.845	10478.43
580.206	10632.77
580.566	10641.58
580.927	10798.64
581.287	11005.87
581.648	11063.49
582.008	11261
582.368	11374.45
582.728	11512.75
583.089	11655.57
583.449	11835.9
583.809	11947.99
584.169	12165.39
584.529	12377.81
584.889	12687.86
585.249	12794.3
585.609	12988.64
585.969	13296.66
586.329	13462.98
586.688	13736.64
587.048	13872.91
587.408	14149.06
587.768	14315.61
588.127	14629.5
588.487	14898.65
588.846	15236.49
589.206	15306.09
589.565	15670.38
589.925	15953.99
590.284	16164.38
590.643	16502.67
591.003	16866.96
591.362	17165.25
591.721	17613.6
592.08	17774.05
592.44	18184.89
592.799	18447.48
593.158	18705.33
593.517	19108.93
593.876	19404.74
594.235	19767.9
594.593	20137.38
594.952	20346.19
595.311	20650.81
595.67	21081.54
596.029	21542.99
596.387	21901.18
596.746	22265.91
597.104	22500.71
597.463	22794.26
597.822	23243.51
598.18	23532.09
598.538	23828.81
598.897	24203.26
599.255	24454.33
599.613	25049.79
599.972	25219.28
600.33	25661.75
600.688	25790.56
601.046	26273.04
601.404	26679.35
601.762	26885.23
602.12	27331.32
602.478	27756.84
602.836	28011.52
603.194	28173.1
603.552	28585.97
603.91	28784.38
604.268	29233.41
604.625	29305.73
604.983	29850.57
605.341	29957.23
605.698	30334.63
606.056	30923.09
606.413	31014.83
606.771	31335.5
607.128	31740.92
607.485	31888.26
607.843	32196.72
608.2	32612.31
608.557	33007.55
608.914	33006.42
609.272	33485.96
609.629	33831.94
609.986	34156.22
610.343	34186.73
610.7	34604.34
611.057	34686.38
611.414	35003.66
611.771	35155.74
612.127	35460.37
612.484	35705.56
612.841	36037.08
613.198	36164.3
613.554	36294.47
613.911	36648.13
614.267	36964.96
614.624	37042.47
614.98	37205.63
615.337	37703.25
615.693	37671.16
616.05	37753.64
616.406	38152.95
616.762	38220.29
617.118	38499.38
617.475	38569.89
617.831	38832.03
618.187	38980.05
618.543	39225.24
618.899	39634.27
619.255	39516.98
619.611	39794.72
619.967	39888.5
620.323	40181.6
620.678	40024.31
621.034	40091.43
621.39	40309.51
621.746	40516.05
622.101	41035.59
622.457	40716.27
622.812	40919.88
623.168	41079.43
623.523	41226.54
623.879	41459.08
624.234	41205.3
624.589	41575.01
624.945	41662.24
625.3	41737.49
625.655	41958.95
626.01	41934.1
626.365	41973.64
626.72	41969.57
627.075	42069.01
627.43	42199.17
627.785	42169.12
628.14	42382.9
628.495	42453.63
628.85	42332.05
629.205	42404.82
629.559	42598.71
629.914	42540.86
630.269	42665.6
630.623	42516.68
630.978	42540.86
631.332	42808.42
631.687	42972.49
632.041	42731.81
632.396	42811.59
632.75	42807.29
633.104	43037.79
633.459	42709.67
633.813	42848.42
634.167	42902.21
634.521	42989.89
634.875	42994.86
635.229	43126.15
635.583	42904.92
635.937	42856.56
636.291	42859.95
636.645	43003.9
636.999	42871.47
637.352	43128.87
637.706	42797.58
638.06	43206.6
638.413	42894.97
638.767	42941.75
639.121	43028.53
639.474	42790.57
639.828	42830.79
640.181	42788.99
640.534	42998.47
640.888	42816.56
641.241	42739.5
641.594	42704.92
641.947	42961.64
642.301	42839.16
642.654	42898.36
643.007	42932.03
643.36	42915.99
643.713	42827.4
644.066	43004.58
644.419	42675.09
644.771	42545.83
645.124	42155.33
645.477	42104.49
645.83	41870.82
646.182	41852.74
646.535	41654.1
646.888	41750.37
647.24	41551.05
647.593	41775.91
647.945	41786.98
648.298	41509.02
648.65	41390.83
649.002	41320.33
649.355	41587.89
649.707	41452.98
650.059	41727.09
650.411	42116.01
650.763	42192.17
651.115	42637.13
651.467	42355.55
651.819	42508.09
652.171	42364.59
652.523	42276.91
652.875	42428.77
653.227	42202.56
653.578	42276.23
653.93	42415.44
654.282	42181.77
654.633	42052.96
654.985	42291.6
655.337	42248.21
655.688	42085.73
656.039	42292.28
656.391	42090.7
656.742	42066.52
657.094	42060.65
657.445	42206.18
657.796	42090.25
658.147	42107.65
658.498	41896.58
658.849	42208.89
659.2	42043.24
659.551	41989.46
659.902	42246.63
660.253	42076.69
660.604	42143.36
660.955	41784.04
661.306	42137.93
661.656	42015
662.007	41933.87
662.358	42053.64
662.708	41967.77
663.059	42016.13
663.409	41640.77
663.76	42083.7
664.11	41928.67
664.461	42045.28
664.811	41966.64
665.161	41937.71
665.511	41792.18
665.862	41989.46
666.212	41944.72
666.562	41982
666.912	41968.44
667.262	41929.12
667.612	41881.67
667.962	42106.52
668.312	41768.68
668.662	42064.71
669.011	41947.65
669.361	41901.78
669.711	41856.81
670.06	41791.27
670.41	41690.94
670.76	41640.09
671.109	41704.5
671.459	41806.64
671.808	41703.14
672.157	41832.18
672.507	41499.08
672.856	41715.57
673.205	41643.71
673.554	41753.76
673.904	41526.42
674.253	41769.81
674.602	41546.31
674.951	41049.15
675.3	40921.01
675.649	41514.67
675.998	41532.52
676.346	41476.48
676.695	41713.08
677.044	41290.04
677.393	41281.23
677.741	41467.89
678.09	41364.62
678.438	41240.78
678.787	41217.5
679.135	41301.12
679.484	40947.45
679.832	41201.01
680.181	40926.21
680.529	40932.99
680.877	40950.84
681.225	41053.21
681.573	41224.96
681.922	40830.62
682.27	40760.11
682.618	40697.74
682.966	40713.56
683.314	40719.89
683.661	40575.94
684.009	40427.02
684.357	40381.37
684.705	40349.5
685.053	40474.02
685.4	40329.62
685.748	40000.81
686.095	40174.14
686.443	39885.56
686.79	40005.11
687.138	40103.41
687.485	40049.4
687.832	39912
688.18	39948.38
688.527	39847.37
688.874	39768.95
689.221	39601.28
689.568	39517.21
689.915	39456.87
690.262	39484.44
690.609	39304.79
690.956	39105.92
691.303	39217.78
691.65	38985.25
691.997	38935.53
692.344	38812.6
692.69	38803.56
693.037	38731.02
693.383	38449.89
693.73	38655.54
694.077	38430.91
694.423	38360.4
694.769	38107.3
695.116	38106.4
695.462	38138.71
695.808	38040.19
696.155	37914.09
696.501	37792.74
696.847	37779.85
697.193	37496.7
697.539	37668.44
697.885	37315.46
698.231	37188.68
698.577	37254.44
698.923	37190.04
699.269	37031.4
699.614	36847.9
699.96	36878.41
700.306	36912.08
700.651	36708.02
700.997	36683.61
701.342	36545.31
701.688	36471.87
702.033	36288.37
702.379	36179.9
702.724	36061.03
703.069	36185.09
703.415	35955.95
703.76	35820.81
704.105	35857.87
704.45	35888.83
704.795	35598.89
705.14	35505.56
705.485	35451.55
705.83	35368.84
706.175	35412.46
706.52	35289.3
706.865	35146.25
707.209	35131.11
707.554	35013.15
707.899	35120.04
708.243	34899.7
708.588	34784.23
708.932	34544.91
709.277	34561.18
709.621	34553.5
709.966	34361.41
710.31	34366.61
710.654	34109.67
710.998	34257.46
711.342	34371.36
711.687	34121.65
712.031	34061.76
712.375	33872.16
712.719	33941.08
713.063	33844.82
713.407	33943.57
713.75	33704.03
714.094	33741.99
714.438	33611.15
714.782	33672.17
715.125	33371.38
715.469	33560.76
715.812	33321.21
716.156	33104.95
716.499	33160.54
716.843	33262.91
717.186	32986.08
717.53	33065.4
717.873	33154.66
718.216	32975.46
718.559	32818.18
718.902	32565.75
719.246	32634.9
719.589	32638.75
719.932	32407.57
720.275	32411.18
720.617	32505.87
720.96	32487.34
721.303	32358.75
721.646	32328.47
721.989	32166.22
722.331	32288.25
722.674	32183.17
723.016	32231.3
723.359	32143.17
723.701	32168.02
724.044	31928.48
724.386	31736.17
724.729	31874.47
725.071	31823.17
725.413	31750.86
725.755	31664.99
726.097	31722.16
726.439	31489.85
726.782	31537.53
727.124	31612.33
727.465	31461.83
727.807	31403.07
728.149	31460.92
728.491	31367.59
728.833	31271.55
729.175	31156.53
729.516	31094.61
729.858	31145
730.199	31281.27
730.541	31108.84
730.882	31055.06
731.224	31111.33
731.565	30946.14
731.906	30848.28
732.248	31000.15
732.589	30752.69
732.93	30682.41
733.271	30714.5
733.612	30654.39
733.953	30600.61
734.294	30644.22
734.635	30485.58
734.976	30643.32
735.317	30435.19
735.658	30445.36
735.999	30377.79
736.339	30305.7
736.68	30320.84
737.021	30256.44
737.361	30141.64
737.702	30175.99
738.042	30215.99
738.383	30103.67
738.723	30153.39
739.063	29932.83
739.404	30044.69
739.744	29870.46
740.084	29788.2
740.424	29818.93
740.764	29782.78
741.104	29937.57
741.444	29660.75
741.784	29579.17
742.124	29760.4
742.464	29599.05
742.804	29571.03
743.143	29573.52
743.483	29526.29
743.823	29423.24
744.162	29317.48
744.502	29392.96
744.841	29250.36
745.181	29336.01
745.52	29151.61
745.86	29284.26
746.199	29210.14
746.538	29209.91
746.877	29157.93
747.216	29125.17
747.556	29060.99
747.895	29063.93
748.234	28986.86
748.573	28860.99
748.911	28935.79
749.25	28865.51
749.589	28698.96
749.928	28768.79
750.267	28796.59
750.605	28640.89
750.944	28711.17
751.283	28573.32
751.621	28621.9
751.96	28505.07
752.298	28453.32
752.636	28544.84
752.975	28257.39
753.313	28104.18
753.651	28289.26
753.989	28206.32
754.327	28121.12
754.666	28050.84
755.004	28070.96
755.342	28127.68
755.679	27965.42
756.017	27807.91
756.355	27918.19
756.693	27640.23
757.031	27696.73
757.368	27547.58
757.706	27585.55
758.044	27544.87
758.381	27495.15
758.719	27411.31
759.056	27437.08
759.394	27366.57
759.731	27289.06
760.068	27082.06
760.405	27071.89
760.743	26998.89
