Data from hue_250_FLMS001491_00021.txt Node
Date: Tue Feb 07 16:00:44 GMT 2017
User: dcchb
Spectrometer: FLMS00149
Trigger mode: 0
Integration Time (sec): 2.000000E-2
Scans to average: 10
Electric dark correction enabled: true
Nonlinearity correction enabled: false
Boxcar width: 0
XAxis mode: Wavelengths
Number of Pixels in Spectrum: 2048
>>>>>Begin Spectral Data<<<<<
341.393	-10.71
341.776	-10.71
342.16	-10.71
342.543	-45.51
342.927	-80.08
343.31	-70.82
343.693	-73.3
344.077	-70.82
344.46	-54.32
344.843	-46.19
345.226	-40.76
345.61	-25.62
345.993	-26.3
346.376	-17.71
346.759	20.03
347.142	23.42
347.525	46.24
347.908	43.53
348.291	83.53
348.674	104.09
349.057	105
349.44	121.27
349.823	140.48
350.206	163.53
350.588	194.71
350.971	202.17
351.354	203.3
351.737	240.81
352.119	221.83
352.502	264.32
352.884	254.37
353.267	269.96
353.65	290.08
354.032	304.09
354.414	293.47
354.797	314.26
355.179	330.98
355.562	302.51
355.944	322.62
356.326	338.66
356.709	313.35
357.091	328.27
357.473	329.62
357.855	324.43
358.238	340.7
358.62	316.29
359.002	329.85
359.384	358.32
359.766	343.18
360.148	313.35
360.53	333.47
360.912	330.98
361.294	319.68
361.676	323.52
362.057	330.98
362.439	322.84
362.821	332.79
363.203	324.88
363.584	319.91
363.966	325.56
364.348	313.58
364.729	326.91
365.111	326.01
365.493	323.52
365.874	308.83
366.256	310.87
366.637	307.25
367.019	315.39
367.4	295.73
367.781	300.25
368.163	317.2
368.544	316.29
368.925	304.31
369.306	301.15
369.688	324.65
370.069	314.71
370.45	303.86
370.831	327.36
371.212	296.86
371.593	309.96
371.974	308.16
372.355	314.71
372.736	312
373.117	319.45
373.498	315.16
373.879	313.81
374.26	298.89
374.641	305.9
375.021	301.15
375.402	319.45
375.783	337.08
376.163	336.18
376.544	320.58
376.925	331.66
377.305	317.87
377.686	309.96
378.066	311.77
378.447	330.08
378.827	338.66
379.208	343.64
379.588	323.52
379.968	321.26
380.349	323.97
380.729	351.54
381.109	323.97
381.489	343.64
381.87	343.18
382.25	336.4
382.63	340.25
383.01	348.83
383.39	337.31
383.77	334.37
384.15	366.69
384.53	326.69
384.91	353.35
385.29	368.95
385.67	374.14
386.049	355.16
386.429	361.71
386.809	354.93
387.189	365.1
387.568	347.48
387.948	362.39
388.328	366.46
388.707	358.32
389.087	367.14
389.466	363.07
389.846	344.31
390.225	342.96
390.605	387.7
390.984	372.79
391.363	390.41
391.743	366.23
392.122	395.16
392.501	391.77
392.881	384.54
393.26	373.01
393.639	386.12
394.018	382.05
394.397	385.67
394.776	373.46
395.155	413.46
395.534	410.07
395.913	422.5
396.292	400.36
396.671	398.32
397.05	398.77
397.429	394.48
397.808	394.03
398.186	403.75
398.565	387.25
398.944	413.01
399.323	402.84
399.701	406.46
400.08	403.07
400.458	411.2
400.837	430.41
401.215	436.51
401.594	418.66
401.972	412.11
402.351	431.54
402.729	435.84
403.107	428.15
403.486	438.77
403.864	459.34
404.242	441.94
404.62	457.98
404.999	445.78
405.377	435.61
405.755	457.53
406.133	440.58
406.511	475.16
406.889	479.68
407.267	477.42
407.645	502.73
408.023	470.86
408.401	466.12
408.779	503.86
409.156	497.76
409.534	495.95
409.912	503.4
410.29	506.12
410.667	520.81
411.045	523.07
411.422	543.63
411.8	524.87
412.178	547.92
412.555	572.1
412.933	553.12
413.31	575.95
413.687	563.29
414.065	596.74
414.442	595.61
414.819	589.73
415.197	586.34
415.574	599.67
415.951	594.02
416.328	606
416.705	622.95
417.082	607.81
417.46	637.64
417.837	629.73
418.214	643.29
418.591	648.03
418.967	667.69
419.344	667.47
419.721	682.16
420.098	696.17
420.475	686.68
420.852	688.03
421.228	685.55
421.605	697.98
421.982	692.33
422.358	699.56
422.735	748.37
423.111	720.35
423.488	763.96
423.864	773.45
424.241	788.6
424.617	780.01
424.994	782.72
425.37	812.1
425.746	799.22
426.123	810.06
426.499	831.98
426.875	847.12
427.251	862.49
427.627	877.63
428.003	869.04
428.379	894.13
428.756	897.97
429.132	900.91
429.507	900.23
429.883	937.07
430.259	935.94
430.635	928.48
431.011	956.27
431.387	982.71
431.763	967.57
432.138	1007.8
432.514	1013
432.89	1019.1
433.265	1063.84
433.641	1060
434.016	1055.71
434.392	1046.22
434.767	1065.42
435.143	1110.17
435.518	1102.49
435.894	1150.39
436.269	1143.39
436.644	1173.9
437.02	1168.47
437.395	1208.47
437.77	1198.08
438.145	1238.3
438.52	1252.76
438.895	1248.7
439.271	1245.53
439.646	1308.81
440.021	1327.79
440.395	1342.93
440.77	1315.81
441.145	1347
441.52	1375.47
441.895	1362.82
442.27	1400.33
442.645	1380.9
443.019	1415.25
443.394	1435.81
443.769	1395.58
444.143	1404.85
444.518	1458.41
444.892	1458.18
445.267	1441.01
445.641	1469.93
446.016	1494.11
446.39	1509.48
446.764	1520.1
447.139	1506.09
447.513	1508.35
447.887	1516.94
448.262	1527.33
448.636	1539.76
449.01	1569.14
449.384	1563.72
449.758	1575.69
450.132	1609.14
450.506	1621.79
450.88	1614.11
451.254	1651.17
451.628	1668.12
452.002	1675.8
452.376	1678.74
452.75	1668.8
453.123	1692.07
453.497	1757.84
453.871	1753.09
454.244	1770.72
454.618	1793.31
454.992	1818.4
455.365	1801
455.739	1849.36
456.112	1883.03
456.486	1879.87
456.859	1901.79
457.232	1932.52
457.606	1930.71
457.979	1944.72
458.352	1983.59
458.725	2018.39
459.099	2037.6
459.472	2080.99
459.845	2030.6
460.218	2092.97
460.591	2074.66
460.964	2085.28
461.337	2168.67
461.71	2177.26
462.083	2192.85
462.456	2224.72
462.829	2220.87
463.201	2257.93
463.574	2283.02
463.947	2292.06
464.32	2311.04
464.692	2334.32
465.065	2399.17
465.438	2392.62
465.81	2426.07
466.183	2488.66
466.555	2482.79
466.928	2515.78
467.3	2481.66
467.672	2551.26
468.045	2624.25
468.417	2596.46
468.789	2625.61
469.161	2649.56
469.534	2721.65
469.906	2734.08
470.278	2786.06
470.65	2811.37
471.022	2827.41
471.394	2907.64
471.766	2907.64
472.138	2944.02
472.51	2981.98
472.882	3044.81
473.253	3038.25
473.625	3074.64
473.997	3152.15
474.369	3138.59
474.74	3182.2
475.112	3258.59
475.484	3309.21
475.855	3348.98
476.227	3394.4
476.598	3449.99
476.97	3443.44
477.341	3539.94
477.713	3564.79
478.084	3583.32
478.455	3710.78
478.827	3690.21
479.198	3830.32
479.569	3764.11
479.94	3911.9
480.311	3906.48
480.682	3952.81
481.053	4051.79
481.424	4133.14
481.795	4160.48
482.166	4190.54
482.537	4280.25
482.908	4335.85
483.279	4379.91
483.65	4483.41
484.021	4514.82
484.391	4526.8
484.762	4602.28
485.133	4650.41
485.503	4708.72
485.874	4787.81
486.244	4841.37
486.615	4888.15
486.985	4915.04
487.356	4980.58
487.726	5007.47
488.097	5127.46
488.467	5109.84
488.837	5218.31
489.207	5290.62
489.578	5340.79
489.948	5413.11
490.318	5433.22
490.688	5514.35
491.058	5550.28
491.428	5607.68
491.798	5662.14
492.168	5721.12
492.538	5726.09
492.908	5835.02
493.278	5863.94
493.648	5862.81
494.017	5950.49
494.387	5989.81
494.757	6019.42
495.126	6105.52
495.496	6095.35
495.866	6141
496.235	6150.49
496.605	6265.29
496.974	6258.28
497.344	6371.05
497.713	6311.84
498.082	6352.52
498.452	6469.8
498.821	6414.89
499.19	6453.53
499.559	6508.44
499.928	6544.6
500.298	6555.45
500.667	6590.25
501.036	6584.6
501.405	6669.34
501.774	6702.56
502.143	6716.57
502.512	6708.44
502.88	6799.28
503.249	6757.03
503.618	6790.7
503.987	6826.63
504.356	6858.49
504.724	6881.32
505.093	6946.17
505.462	6912.05
505.83	6945.5
506.199	7047.87
506.567	7047.87
506.936	7052.16
507.304	7167.64
507.672	7173.06
508.041	7185.49
508.409	7196.56
508.777	7244.7
509.145	7303.68
509.514	7244.24
509.882	7277.01
510.25	7323.34
510.618	7361.98
510.986	7386.61
511.354	7369.21
511.722	7458.02
512.09	7465.48
512.458	7474.97
512.826	7506.61
513.193	7568.98
513.561	7505.71
513.929	7554.29
514.297	7617.57
514.664	7638.13
515.032	7684.91
515.4	7728.3
515.767	7722.42
516.135	7739.15
516.502	7716.1
516.869	7773.27
517.237	7767.39
517.604	7783.21
517.972	7812.59
518.339	7865.92
518.706	7811.69
519.073	7879.48
519.44	7875.41
519.808	7879.48
520.175	7925.58
520.542	7992.7
520.909	7971.68
521.276	7971.46
521.643	8105.24
522.009	8069.76
522.376	8039.93
522.743	8137.78
523.11	8213.71
523.477	8218.23
523.843	8240.6
524.21	8267.04
524.577	8311.34
524.943	8309.75
525.31	8289.87
525.676	8323.76
526.043	8409.86
526.409	8369.19
526.776	8477.66
527.142	8457.32
527.508	8447.83
527.874	8484.89
528.241	8527.83
528.607	8581.38
528.973	8581.16
529.339	8524.44
529.705	8550.42
530.071	8647.6
530.437	8677.65
530.803	8634.49
531.169	8701.61
531.535	8703.42
531.901	8621.61
532.267	8705.9
532.632	8755.62
532.998	8728.5
533.364	8743.19
533.73	8763.53
534.095	8801.49
534.461	8780.7
534.826	8770.76
535.192	8780.02
535.557	8812.56
535.923	8737.99
536.288	8770.53
536.653	8786.58
537.019	8748.39
537.384	8747.71
537.749	8777.09
538.114	8712.23
538.479	8797.2
538.845	8820.7
539.21	8751.78
539.575	8791.32
539.94	8809.63
540.305	8817.31
540.67	8832.23
541.034	8872.45
541.399	8782.51
541.764	8857.99
542.129	8793.36
542.494	8864.54
542.858	8772.79
543.223	8845.78
543.587	8871.09
543.952	8827.71
544.316	8907.93
544.681	8786.58
545.045	8860.02
545.41	8877.42
545.774	8929.62
546.138	8913.35
546.503	8864.77
546.867	8824.99
547.231	8923.07
547.595	8874.03
547.959	8921.71
548.324	8948.15
548.688	8847.59
549.052	8796.29
549.416	8841.49
549.779	8849.63
550.143	8813.92
550.507	8809.63
550.871	8856.63
551.235	8826.12
551.599	8903.64
551.962	8899.57
552.326	8876.52
552.689	8915.16
553.053	8853.92
553.417	8894.14
553.78	8995.38
554.143	8897.99
554.507	8985.22
554.87	8961.04
555.234	8962.84
555.597	9011.66
555.96	9006.91
556.323	9040.13
556.686	9014.37
557.05	8989.06
557.413	9000.58
557.776	9060.92
558.139	9059.34
558.502	9076.29
558.865	8988.61
559.228	9114.48
559.59	9150.64
559.953	9121.26
560.316	9210.52
560.679	9227.7
561.041	9199
561.404	9227.02
561.767	9283.74
562.129	9240.8
562.492	9285.55
562.854	9214.36
563.217	9308.15
563.579	9328.03
563.941	9366.45
564.304	9422.27
564.666	9434.92
565.028	9462.27
565.39	9446.45
565.753	9468.37
566.115	9493
566.477	9550.85
566.839	9534.35
567.201	9601.7
567.563	9560.79
567.925	9660.23
568.287	9648.48
568.648	9620.91
569.01	9686.21
569.372	9703.61
569.734	9734.57
570.095	9756.04
570.457	9758.75
570.819	9825.19
571.18	9845.76
571.542	9883.72
571.903	9851.41
572.265	9912.87
572.626	9934.12
572.987	9936.6
573.349	9939.54
573.71	9927.56
574.071	10069.03
574.432	10015.7
574.794	10102.47
575.155	10136.6
575.516	10040.1
575.877	10136.15
576.238	10110.84
576.599	10224.51
576.96	10212.53
577.32	10243.04
577.681	10312.41
578.042	10253.66
578.403	10319.87
578.763	10318.29
579.124	10329.14
579.485	10320.55
579.845	10372.75
580.206	10398.29
580.566	10399.64
580.927	10449.36
581.287	10488.45
581.648	10386.99
582.008	10519.64
582.368	10477.38
582.728	10505.18
583.089	10529.36
583.449	10539.98
583.809	10486.42
584.169	10591.5
584.529	10648
584.889	10667.88
585.249	10599.41
585.609	10522.58
585.969	10550.37
586.329	10595.12
586.688	10668.34
587.048	10558.51
587.408	10631.95
587.768	10676.7
588.127	10699.97
588.487	10633.99
588.846	10741.33
589.206	10734.1
589.565	10675.57
589.925	10726.86
590.284	10779.74
590.643	10697.94
591.003	10816.35
591.362	10866.52
591.721	10760.76
592.08	10776.58
592.44	10786.3
592.799	10949.68
593.158	10754.89
593.517	10825.85
593.876	10838.27
594.235	10774.77
594.593	10891.38
594.952	10796.69
595.311	10932.51
595.67	10930.7
596.029	10955.79
596.387	10916.24
596.746	10958.95
597.104	10883.7
597.463	10948.55
597.822	10987.87
598.18	10987.42
598.538	10897.26
598.897	11047.99
599.255	10850.93
599.613	11012.28
599.972	10952.17
600.33	10954.2
600.688	11018.16
601.046	11033.52
601.404	11054.09
601.762	11025.61
602.12	11150.58
602.478	11113.07
602.836	11074.2
603.194	11067.87
603.552	11062.45
603.91	11019.96
604.268	11118.49
604.625	11054.09
604.983	11093.41
605.341	11145.84
605.698	11111.71
606.056	11162.11
606.413	11143.13
606.771	11211.6
607.128	11149.68
607.485	11132.73
607.843	11106.29
608.2	11116.46
608.557	11193.07
608.914	11204.37
609.272	11231.94
609.629	11230.81
609.986	11350.8
610.343	11285.04
610.7	11256.12
611.057	11298.83
611.414	11264.93
611.771	11350.8
612.127	11416.79
612.484	11313.06
612.841	11383.12
613.198	11380.41
613.554	11271.48
613.911	11338.6
614.267	11382.44
614.624	11371.14
614.98	11399.39
615.337	11430.35
615.693	11380.18
616.05	11472.16
616.406	11409.78
616.762	11387.41
617.118	11419.73
617.475	11438.71
617.831	11514.41
618.187	11482.55
618.543	11564.13
618.899	11598.03
619.255	11530.01
619.611	11480.29
619.967	11574.98
620.323	11532.72
620.678	11535.43
621.034	11546.28
621.39	11556.9
621.746	11383.12
622.101	11574.75
622.457	11467.64
622.812	11535.43
623.168	11540.18
623.523	11609.78
623.879	11598.03
624.234	11544.92
624.589	11604.36
624.945	11518.03
625.3	11541.98
625.655	11494.53
626.01	11656.33
626.365	11547.63
626.72	11450.69
627.075	11571.36
627.43	11505.6
627.785	11501.31
628.14	11448.43
628.495	11453.4
628.85	11570.68
629.205	11544.02
629.559	11470.12
629.914	11430.8
630.269	11450.46
630.623	11406.39
630.978	11438.71
631.332	11479.39
631.687	11490.69
632.041	11365.49
632.396	11459.27
632.75	11377.47
633.104	11291.82
633.459	11335.44
633.813	11303.35
634.167	11242.11
634.521	11303.8
634.875	11313.29
635.229	11299.28
635.583	11239.17
635.937	11273.07
636.291	11252.95
636.645	11276
636.999	11245.72
637.352	11277.13
637.706	11186.97
638.06	11251.82
638.413	11183.58
638.767	11153.07
639.121	11164.14
639.474	11116.01
639.828	11118.49
640.181	11137.7
640.534	11196.01
640.888	11105.39
641.241	10996.91
641.594	11155.55
641.947	11040.3
642.301	11125.72
642.654	11012.73
643.007	11048.66
643.36	11038.5
643.713	11012.73
644.066	11047.31
644.419	10918.95
644.771	10904.49
645.124	10744.94
645.477	10669.24
645.83	10661.33
646.182	10635.79
646.535	10588.34
646.888	10625.85
647.24	10573.2
647.593	10633.31
647.945	10636.02
648.298	10549.47
648.65	10555.8
649.002	10493.65
649.355	10633.76
649.707	10613.65
650.059	10628.11
650.411	10708.11
650.763	10762.57
651.115	10867.65
651.467	10828.33
651.819	10836.47
652.171	10748.11
652.523	10772.97
652.875	10826.07
653.227	10712.4
653.578	10813.42
653.93	10779.74
654.282	10766.86
654.633	10707.88
654.985	10750.37
655.337	10772.97
655.688	10768.9
656.039	10755.79
656.391	10735
656.742	10743.36
657.094	10703.81
657.445	10751.5
657.796	10770.71
658.147	10685.74
658.498	10749.01
658.849	10738.39
659.2	10707.66
659.551	10650.93
659.902	10824.94
660.253	10690.71
660.604	10777.71
660.955	10658.39
661.306	10753.53
661.656	10751.27
662.007	10705.17
662.358	10760.76
662.708	10748.79
663.059	10747.66
663.409	10629.47
663.76	10786.3
664.11	10756.02
664.461	10764.83
664.811	10723.93
665.161	10798.28
665.511	10722.8
665.862	10777.26
666.212	10797.37
666.562	10769.8
666.912	10711.5
667.262	10694.55
667.612	10747.66
667.962	10673.53
668.312	10677.15
668.662	10702.46
669.011	10719.41
669.361	10688
669.711	10669.47
670.06	10676.92
670.41	10645.51
670.76	10617.72
671.109	10758.5
671.459	10672.4
671.808	10581.78
672.157	10634.66
672.507	10579.75
672.856	10623.36
673.205	10609.13
673.554	10605.51
673.904	10600.54
674.253	10608.68
674.602	10565.51
674.951	10464.72
675.3	10380.43
675.649	10575.23
675.998	10505.85
676.346	10520.09
676.695	10550.6
677.044	10381.79
677.393	10517.83
677.741	10469.47
678.09	10451.39
678.438	10387.89
678.787	10497.27
679.135	10478.74
679.484	10417.27
679.832	10507.44
680.181	10357.38
680.529	10385.4
680.877	10317.38
681.225	10320.77
681.573	10433.09
681.922	10309.93
682.27	10315.12
682.618	10274.9
682.966	10206.88
683.314	10302.02
683.661	10265.18
684.009	10213.21
684.357	10067
684.705	10141.12
685.053	10177.05
685.4	10165.98
685.748	10076.26
686.095	10101.34
686.443	10086.88
686.79	10066.54
687.138	9994.45
687.485	10061.12
687.832	10074.23
688.18	9981.12
688.527	9974.34
688.874	9937.06
689.221	9871.29
689.568	9875.81
689.915	9827.91
690.262	9826.32
690.609	9824.97
690.956	9744.52
691.303	9722.15
691.65	9699.32
691.997	9686.21
692.344	9633.56
692.69	9645.54
693.037	9616.16
693.383	9500.68
693.73	9579.78
694.077	9528.03
694.423	9546.33
694.769	9488.93
695.116	9399.22
695.462	9389.27
695.808	9394.02
696.155	9424.07
696.501	9310.86
696.847	9326.45
697.193	9202.16
697.539	9295.04
697.885	9216.4
698.231	9170.75
698.577	9199.22
698.923	9146.79
699.269	9080.13
699.614	9041.71
699.96	8976.63
700.306	9021.82
700.651	8884.43
700.997	8912.9
701.342	8879.68
701.688	8857.76
702.033	8846.46
702.379	8831.1
702.724	8799.91
703.069	8794.71
703.415	8681.95
703.76	8623.19
704.105	8711.1
704.45	8666.81
704.795	8639.46
705.14	8579.8
705.485	8621.61
705.83	8518.56
706.175	8514.72
706.52	8510.2
706.865	8454.38
707.209	8500.03
707.554	8443.08
707.899	8418.9
708.243	8421.61
708.588	8372.35
708.932	8344.55
709.277	8282.86
709.621	8279.25
709.966	8207.61
710.31	8293.71
710.654	8243.31
710.998	8212.35
711.342	8192.92
711.687	8176.65
712.031	8156.08
712.375	8133.26
712.719	8147.05
713.063	8098.01
713.407	8189.98
713.75	8065.92
714.094	8080.15
714.438	8066.82
714.782	8023.21
715.125	8012.81
715.469	8013.72
715.812	8025.47
716.156	7942.31
716.499	7976.65
716.843	7930.78
717.186	7899.59
717.53	7962.87
717.873	7921.29
718.216	7917.45
718.559	7868.18
718.902	7833.16
719.246	7812.14
719.589	7778.24
719.932	7802.87
720.275	7854.62
720.617	7792.7
720.96	7807.62
721.303	7794.96
721.646	7775.08
721.989	7756.1
722.331	7772.37
722.674	7734.18
723.016	7688.75
723.359	7721.97
723.701	7692.59
724.044	7680.84
724.386	7653.95
724.729	7684.23
725.071	7632.71
725.413	7591.35
725.755	7622.77
726.097	7623.67
726.439	7573.28
726.782	7586.83
727.124	7612.14
727.465	7563.33
727.807	7575.08
728.149	7606.72
728.491	7563.56
728.833	7596.78
729.175	7486.95
729.516	7582.31
729.858	7571.47
730.199	7555.42
730.541	7502.77
730.882	7517.01
731.224	7517.23
731.565	7490.34
731.906	7550.45
732.248	7498.93
732.589	7451.92
732.93	7411.7
733.271	7421.42
733.612	7487.4
733.953	7476.1
734.294	7493.96
734.635	7467.29
734.976	7478.81
735.317	7419.61
735.658	7449.89
735.999	7482.66
736.339	7434.97
736.68	7490.11
737.021	7387.29
737.361	7439.49
737.702	7450.11
738.042	7472.04
738.383	7479.04
738.723	7453.73
739.063	7466.84
739.404	7439.49
739.744	7439.27
740.084	7457.57
740.424	7505.03
740.764	7545.48
741.104	7471.36
741.444	7507.97
741.784	7444.69
742.124	7503.45
742.464	7451.24
742.804	7491.24
743.143	7467.29
743.483	7547.29
743.823	7481.98
744.162	7493.73
744.502	7500.51
744.841	7561.07
745.181	7613.27
745.52	7519.72
745.86	7579.83
746.199	7649.66
746.538	7665.25
746.877	7629.55
747.216	7691.24
747.556	7719.94
747.895	7729.2
748.234	7764.91
748.573	7816.21
748.911	7810.33
749.25	7851.69
749.589	7862.53
749.928	7936.88
750.267	7919.03
750.605	7963.77
750.944	8091.45
751.283	8100.95
751.621	8178.23
751.96	8188.63
752.298	8253.48
752.636	8311.56
752.975	8337.32
753.313	8401.05
753.651	8479.24
753.989	8532.35
754.327	8618.22
754.666	8651.21
755.004	8793.58
755.342	8859.34
755.679	8936.86
756.017	8944.99
756.355	9111.99
756.693	9107.25
757.031	9225.89
757.368	9311.08
757.706	9367.58
758.044	9493.22
758.381	9634.24
758.719	9670.17
759.056	9778.64
759.394	9848.02
759.731	9925.08
760.068	10056.37
760.405	10093.44
760.743	10223.83
761.08	10328.46
761.417	10421.34
761.754	10466.08
762.091	10605.29
762.428	10718.05
762.765	10752.17
763.102	10935.9
