Data from hue_60_FLMS001491_68.txt Node
Date: Mon Feb 06 15:17:44 GMT 2017
User: dcchb
Spectrometer: FLMS00149
Trigger mode: 0
Integration Time (sec): 2.000000E-2
Scans to average: 10
Electric dark correction enabled: true
Nonlinearity correction enabled: false
Boxcar width: 0
XAxis mode: Wavelengths
Number of Pixels in Spectrum: 2048
>>>>>Begin Spectral Data<<<<<
341.393	-5.83
341.776	-5.83
342.16	-5.83
342.543	-57.58
342.927	-69.11
343.31	-72.5
343.693	-73.63
344.077	-57.81
344.46	-70.69
344.843	-49
345.226	-43.8
345.61	-27.3
345.993	-42.22
346.376	-15.1
346.759	7.73
347.142	32.81
347.525	48.4
347.908	55.18
348.291	62.19
348.674	113.71
349.057	132.02
349.44	133.6
349.823	128.4
350.206	155.29
350.588	217.21
350.971	208.4
351.354	220.6
351.737	231.67
352.119	241.84
352.502	234.84
352.884	284.55
353.267	293.82
353.65	305.35
354.032	276.42
354.414	306.7
354.797	313.71
355.179	317.77
355.562	309.86
355.944	321.84
356.326	322.07
356.709	338.79
357.091	341.28
357.473	341.95
357.855	363.2
358.238	333.14
358.62	352.58
359.002	350.54
359.384	346.02
359.766	332.69
360.148	337.89
360.53	339.69
360.912	352.12
361.294	336.53
361.676	341.5
362.057	322.97
362.439	325.23
362.821	337.66
363.203	312.8
363.584	316.87
363.966	349.19
364.348	324.78
364.729	324.1
365.111	312.58
365.493	322.52
365.874	308.96
366.256	313.03
366.637	310.32
367.019	335.4
367.4	319.81
367.781	310.99
368.163	313.03
368.544	294.5
368.925	306.25
369.306	323.88
369.688	333.82
370.069	327.04
370.45	317.32
370.831	318.45
371.212	317.77
371.593	299.7
371.974	314.61
372.355	306.93
372.736	309.64
373.117	333.37
373.498	318.45
373.879	318.9
374.26	308.73
374.641	304.89
375.021	319.81
375.402	320.49
375.783	339.24
376.163	335.4
376.544	332.24
376.925	314.84
377.305	312.35
377.686	318.9
378.066	318.9
378.447	347.38
378.827	318.68
379.208	328.4
379.588	329.07
379.968	324.78
380.349	330.88
380.729	317.1
381.109	314.38
381.489	347.6
381.87	320.49
382.25	318.23
382.63	334.04
383.01	346.93
383.39	335.63
383.77	341.05
384.15	330.2
384.53	343.08
384.91	334.27
385.29	334.72
385.67	333.37
386.049	361.61
386.429	341.95
386.809	347.15
387.189	348.96
387.568	346.02
387.948	351.67
388.328	330.43
388.707	332.24
389.087	341.28
389.466	331.56
389.846	357.77
390.225	354.84
390.605	360.71
390.984	355.51
391.363	360.26
391.743	339.47
392.122	352.58
392.501	365
392.881	358.45
393.26	363.2
393.639	380.82
394.018	354.84
394.397	357.55
394.776	376.76
395.155	348.51
395.534	357.32
395.913	360.94
396.292	371.78
396.671	368.17
397.05	385.57
397.429	360.94
397.808	398.68
398.186	376.53
398.565	391.22
398.944	377.43
399.323	392.12
399.701	378.11
400.08	380.37
400.458	382.86
400.837	381.95
401.215	389.86
401.594	368.85
401.972	392.57
402.351	389.41
402.729	381.5
403.107	387.15
403.486	384.44
403.864	383.31
404.242	387.15
404.62	396.87
404.999	408.85
405.377	389.18
405.755	383.99
406.133	410.88
406.511	422.86
406.889	399.35
407.267	403.42
407.645	428.51
408.023	417.43
408.401	405.46
408.779	423.08
409.156	423.99
409.534	415.62
409.912	412.01
410.29	429.41
410.667	426.47
411.045	440.48
411.422	444.55
411.8	428.28
412.178	447.71
412.555	445.45
412.933	440.71
413.31	453.36
413.687	466.92
414.065	456.08
414.442	475.51
414.819	456.53
415.197	471.22
415.574	468.73
415.951	467.37
416.328	476.64
416.705	458.34
417.082	463.53
417.46	459.24
417.837	470.54
418.214	474.15
418.591	492.91
418.967	487.49
419.344	492.91
419.721	501.72
420.098	506.47
420.475	481.16
420.852	497.43
421.228	501.72
421.605	506.24
421.982	501.27
422.358	507.37
422.735	525.45
423.111	501.05
423.488	525.68
423.864	531.78
424.241	529.52
424.617	529.52
424.994	522.29
425.37	542.85
425.746	547.82
426.123	558.45
426.499	533.36
426.875	533.81
427.251	566.81
427.627	541.95
428.003	567.26
428.379	555.73
428.756	561.16
429.132	565.9
429.507	566.36
429.883	565.45
430.259	572.68
430.635	571.78
431.011	579.91
431.387	594.38
431.763	613.36
432.138	598.22
432.514	588.28
432.89	596.64
433.265	629.86
433.641	624.66
434.016	629.18
434.392	638.44
434.767	647.03
435.143	630.76
435.518	627.82
435.894	661.04
436.269	670.53
436.644	659.91
437.02	653.13
437.395	643.87
437.77	662.17
438.145	682.06
438.52	666.92
438.895	676.86
439.271	668.73
439.646	666.47
440.021	676.41
440.395	713.7
440.77	692.91
441.145	702.17
441.52	713.92
441.895	712.79
442.27	720.7
442.645	693.13
443.019	720.48
443.394	720.93
443.769	742.17
444.143	734.71
444.518	747.82
444.892	736.07
445.267	750.76
445.641	745.56
446.016	741.04
446.39	769.06
446.764	745.11
447.139	768.38
447.513	770.19
447.887	770.42
448.262	768.61
448.636	780.13
449.01	783.75
449.384	792.56
449.758	798.67
450.132	798.44
450.506	817.42
450.88	802.51
451.254	799.34
451.628	793.24
452.002	813.58
452.376	824.88
452.75	825.33
453.123	841.6
453.497	843.86
453.871	848.61
454.244	862.62
454.618	898.55
454.992	895.61
455.365	875.5
455.739	903.07
456.112	898.78
456.486	902.62
456.859	930.41
457.232	955.05
457.606	953.92
457.979	934.03
458.352	972.67
458.725	970.64
459.099	990.75
459.472	991.43
459.845	988.49
460.218	991.65
460.591	1014.7
460.964	1027.13
461.337	1035.27
461.71	1065.1
462.083	1056.29
462.456	1076.62
462.829	1088.6
463.201	1087.7
463.574	1104.65
463.947	1110.3
464.32	1154.59
464.692	1150.97
465.065	1166.11
465.438	1176.06
465.81	1211.76
466.183	1224.19
466.555	1250.86
466.928	1263.96
467.3	1264.19
467.672	1275.49
468.045	1305.32
468.417	1322.72
468.789	1332.44
469.161	1368.14
469.534	1381.25
469.906	1468.48
470.278	1422.38
470.65	1426.9
471.022	1455.6
471.394	1500.12
471.766	1513.45
472.138	1562.71
472.51	1604.29
472.882	1617.63
473.253	1669.15
473.625	1689.04
473.997	1735.59
474.369	1763.16
474.74	1816.04
475.112	1846.32
475.484	1919.54
475.855	1950.27
476.227	1971.52
476.598	2037.95
476.97	2061.23
477.341	2134.9
477.713	2180.78
478.084	2268.68
478.455	2311.62
478.827	2355.01
479.198	2428.45
479.569	2507.77
479.94	2581.22
480.311	2641.55
480.682	2723.13
481.053	2815.79
481.424	2931.49
481.795	2969.91
482.166	3042.45
482.537	3143.69
482.908	3291.48
483.279	3325.38
483.65	3449.22
484.021	3539.61
484.391	3631.81
484.762	3731.24
485.133	3827.29
485.503	3930.79
485.874	4060.27
486.244	4132.14
486.615	4306.14
486.985	4376.88
487.356	4545.91
487.726	4608.06
488.097	4814.83
488.467	4868.16
488.837	5032.68
489.207	5163.52
489.578	5339.11
489.948	5451.88
490.318	5533
490.688	5667.69
491.058	5885.99
491.428	6025.87
491.798	6103.61
492.168	6319.2
492.538	6488.23
492.908	6609.36
493.278	6789.02
493.648	6870.82
494.017	7005.28
494.387	7141.1
494.757	7340.41
495.126	7532.5
495.496	7650.46
495.866	7722.1
496.235	7910.12
496.605	8103.11
496.974	8214.97
497.344	8397.56
497.713	8485.47
498.082	8649.31
498.452	8822.86
498.821	8891.33
499.19	9103.08
499.559	9245.45
499.928	9402.73
500.298	9529.28
500.667	9740.13
501.036	9803.4
501.405	9964.07
501.774	10035.48
502.143	10205.2
502.512	10305.53
502.88	10486.32
503.249	10600.44
503.618	10769.7
503.987	10847.21
504.356	11065.06
504.724	11236.81
505.093	11265.28
505.462	11434.32
505.83	11613.52
506.199	11686.29
506.567	11965.15
506.936	11992.27
507.304	12168.54
507.672	12260.74
508.041	12429.09
508.409	12570.33
508.777	12709.31
509.145	12790.67
509.514	12862.3
509.882	13171.22
510.25	13171.9
510.618	13343.42
510.986	13479.01
511.354	13607.37
511.722	13723.3
512.09	13888.49
512.458	13940.69
512.826	14156.96
513.193	14267.92
513.561	14403.05
513.929	14488.25
514.297	14712.88
514.664	14778.86
515.032	14880.78
515.4	15077.84
515.767	15166.88
516.135	15258.85
516.502	15286.65
516.869	15570.71
517.237	15692.06
517.604	15692.06
517.972	15926.18
518.339	16033.07
518.706	16160.52
519.073	16275.09
519.44	16328.2
519.808	16604.8
520.175	16558.03
520.542	16872.82
520.909	16851.58
521.276	16945.13
521.643	17272.58
522.009	17311
522.376	17468.51
522.743	17663.31
523.11	17799.35
523.477	18030.3
523.843	18070.53
524.21	18323.63
524.577	18418.32
524.943	18488.14
525.31	18741.24
525.676	18877.96
526.043	18926.1
526.409	19113.66
526.776	19327.9
527.142	19392.75
527.508	19482.69
527.874	19656.25
528.241	19657.6
528.607	19888.56
528.973	19994.77
529.339	19980.53
529.705	20258.04
530.071	20426.17
530.437	20467.98
530.803	20692.83
531.169	20778.71
531.535	20838.59
531.901	20854.41
532.267	20980.06
532.632	21180.05
532.998	21206.94
533.364	21427.95
533.73	21398.58
534.095	21581.17
534.461	21694.61
534.826	21859.35
535.192	21900.03
535.557	22051.44
535.923	22049.18
536.288	22043.53
536.653	22276.74
537.019	22265.9
537.384	22342.96
537.749	22459.56
538.114	22562.16
538.479	22596.51
538.845	22695.72
539.21	22706.56
539.575	22826.33
539.94	22938.65
540.305	23021.36
540.67	23039.89
541.034	23120.56
541.399	23211.41
541.764	23324.63
542.129	23434.23
542.494	23549.03
542.858	23546.09
543.223	23638.29
543.587	23824.5
543.952	23704.5
544.316	23815.01
544.681	23821.34
545.045	24033.76
545.41	24045.51
545.774	24156.7
546.138	24230.37
546.503	24328.67
546.867	24287.31
547.231	24521.88
547.595	24608.66
547.959	24570.7
548.324	24755.55
548.688	24720.75
549.052	24808.43
549.416	24822.44
549.779	24901.31
550.143	25004.81
550.507	25172.04
550.871	25163
551.235	25312.37
551.599	25519.82
551.962	25557.34
552.326	25581.52
552.689	25741.06
553.053	25701.97
553.417	25657.9
553.78	26091.79
554.143	25996.87
554.507	26186.02
554.87	26136.98
555.234	26550.53
555.597	26219.47
555.96	26472.34
556.323	26611.55
556.686	26531.55
557.05	26830.3
557.413	26859.68
557.776	26946.68
558.139	27078.2
558.502	27229.16
558.865	27240.68
559.228	27491.3
559.59	27585.31
559.953	27648.58
560.316	27894.9
560.679	27933.77
561.041	28024.39
561.404	28106.2
561.767	28379.18
562.129	28304.38
562.492	28594.09
562.854	28540.99
563.217	28605.17
563.579	28759.29
563.941	28952.73
564.304	28998.38
564.666	29161.76
565.028	29256.9
565.39	29407.86
565.753	29530.11
566.115	29568.08
566.477	29873.61
566.839	29832.48
567.201	30069.08
567.563	30101.62
567.925	30232.92
568.287	30350.2
568.648	30317.21
569.01	30631.1
569.372	30637.88
569.734	30699.35
570.095	30887.82
570.457	31014.37
570.819	31120.81
571.18	31043.29
571.542	31172.56
571.903	31410.97
572.265	31486.9
572.626	31554.47
572.987	31536.16
573.349	31665.42
573.71	31803.27
574.071	31911.07
574.432	32123.49
574.794	32328.91
575.155	32194.45
575.516	32201.68
575.877	32322.13
576.238	32342.47
576.599	32452.3
576.96	32571.16
577.32	32616.13
577.681	32714.21
578.042	32765.96
578.403	32836.02
578.763	32810.03
579.124	32935.9
579.485	32925.05
579.845	33139.74
580.206	33048.21
580.566	33169.11
580.927	33167.31
581.287	33293.4
581.648	33172.5
582.008	33277.36
582.368	33388.99
582.728	33411.82
583.089	33367.07
583.449	33425.83
583.809	33485.94
584.169	33564.81
584.529	33389.45
584.889	33715.99
585.249	33427.41
585.609	33278.26
585.969	33635.54
586.329	33575.2
586.688	33588.09
587.048	33538.82
587.408	33609.78
587.768	33604.58
588.127	33657.01
588.487	33537.92
588.846	33737.69
589.206	33704.92
589.565	33614.98
589.925	33816.55
590.284	33652.49
590.643	33737.46
591.003	33898.81
591.362	33993.72
591.721	34050.9
592.08	33822.43
592.44	33923.22
592.799	33884.58
593.158	33913.95
593.517	33882.77
593.876	34056.32
594.235	33953.73
594.593	33958.47
594.952	34169.77
595.311	34079.15
595.67	34020.84
596.029	34348.52
596.387	34288.18
596.746	34407.73
597.104	34247.5
597.463	34167.28
597.822	34348.97
598.18	34306.26
598.538	34281.85
598.897	34550.77
599.255	34234.4
599.613	34784.21
599.972	34471.68
600.33	34574.27
600.688	34423.32
601.046	34609.3
601.404	34833.02
601.762	34642.52
602.12	34900.59
602.478	34871.44
602.836	34999.12
603.194	34887.71
603.552	34889.75
603.91	34750.32
604.268	35026.92
604.625	34866.24
604.983	35187.82
605.341	35007.48
605.698	35173.58
606.056	35265.78
606.413	35230.3
606.771	35275.05
607.128	35507.58
607.485	35263.75
607.843	35253.13
608.2	35525.21
608.557	35784.41
608.914	35592.33
609.272	35649.73
609.629	35797.75
609.986	36057.85
610.343	35917.97
610.7	35889.49
611.057	36001.81
611.414	35900.57
611.771	36094.46
612.127	36295.81
612.484	36051.3
612.841	36409.25
613.198	36321.57
613.554	36237.51
613.911	36418.52
614.267	36453.1
614.624	36417.62
614.98	36474.79
615.337	36693.99
615.693	36719.08
616.05	36595.01
616.406	36885.63
616.762	36751.17
617.118	36794.1
617.475	36909.81
617.831	36902.8
618.187	36997.94
618.543	37051.95
618.899	37236.35
619.255	37067.99
619.611	37378.49
619.967	37285.84
620.323	37415.1
620.678	37345.95
621.034	37188.9
621.39	37314.09
621.746	37354.09
622.101	37746.17
622.457	37357.25
622.812	37490.13
623.168	37615.55
623.523	37640.41
623.879	37747.98
624.234	37571.26
624.589	37653.97
624.945	37744.13
625.3	37768.99
625.655	37786.62
626.01	37705.49
626.365	37798.37
626.72	37816.22
627.075	37726.28
627.43	37789.78
627.785	37805.6
628.14	37832.04
628.495	37988.42
628.85	37843.57
629.205	37764.47
629.559	37972.15
629.914	37943.68
630.269	37809.67
630.623	37759.73
630.978	37741.65
631.332	37879.27
631.687	37948.88
632.041	37780.52
632.396	37884.02
632.75	37705.27
633.104	37770.35
633.459	37659.17
633.813	37714.3
634.167	37563.12
634.521	37706.17
634.875	37605.16
635.229	37698.71
635.583	37583.23
635.937	37457.36
636.291	37481.09
636.645	37459.17
636.999	37302.11
637.352	37611.03
637.706	37233.41
638.06	37712.27
638.413	37366.52
638.767	37304.6
639.121	37305.05
639.474	37087.88
639.828	37163.13
640.181	37113.19
640.534	37325.84
640.888	37101.89
641.241	37089.24
641.594	37197.93
641.947	37216.24
642.301	37108.45
642.654	37138.05
643.007	37061.44
643.36	37061.44
643.713	37070.93
644.066	37168.33
644.419	36870.49
644.771	36633.2
645.124	36245.42
645.477	36273.44
645.83	36126.1
646.182	35946.44
646.535	35921.81
646.888	36002.94
647.24	35746.45
647.593	35916.61
647.945	35691.31
648.298	35673.23
648.65	35557.98
649.002	35451.09
649.355	35666.68
649.707	35741.7
650.059	35716.17
650.411	36208.81
650.763	36153.22
651.115	36594.11
651.467	36365.64
651.819	36478.18
652.171	36384.17
652.523	36425.75
652.875	36410.16
653.227	36220.33
653.578	36328.35
653.93	36285.64
654.282	36152.54
654.633	36084.07
654.985	36160.9
655.337	36169.49
655.688	36268.02
656.039	36330.61
656.391	35900.57
656.742	35994.58
657.094	36143.72
657.445	36169.94
657.796	36168.58
658.147	35992.77
658.498	36175.36
658.849	36048.36
659.2	36065.31
659.551	35880.45
659.902	36129.71
660.253	35968.14
660.604	36071.86
660.955	35740.57
661.306	36043.39
661.656	35957.51
662.007	36002.03
662.358	35958.42
662.708	35974.46
663.059	35802.04
663.409	35723.62
663.76	35968.81
664.11	35907.57
664.461	35880.45
664.811	35963.39
665.161	35903.51
665.511	35791.42
665.862	35867.35
666.212	35889.49
666.562	35898.53
666.912	35831.42
667.262	35726.11
667.612	35834.81
667.962	35800.46
668.312	35696.73
668.662	35894.01
669.011	35788.93
669.361	35715.49
669.711	35693.57
670.06	35597.98
670.41	35620.35
670.76	35578.77
671.109	35700.8
671.459	35661.48
671.808	35501.93
672.157	35743.96
672.507	35368.38
672.856	35441.14
673.205	35533.35
673.554	35535.38
673.904	35452.44
674.253	35595.72
674.602	35503.74
674.951	35009.74
675.3	34778.11
675.649	35435.04
675.998	35346.68
676.346	35293.8
676.695	35480.69
677.044	35270.53
677.393	35421.94
677.741	35235.73
678.09	35235.27
678.438	35234.14
678.787	35237.08
679.135	35329.96
679.484	35022.62
679.832	35133.58
680.181	34858.79
680.529	35062.62
680.877	34830.99
681.225	34851.56
681.573	35122.06
681.922	34907.83
682.27	34734.72
682.618	34694.27
682.966	34548.96
683.314	34799.35
683.661	34616.08
684.009	34428.74
684.357	34472.58
684.705	34318.24
685.053	34379.25
685.4	34334.73
685.748	34236.66
686.095	34184
686.443	33999.83
686.79	34103.55
687.138	34133.61
687.485	34138.58
687.832	33938.13
688.18	33945.82
688.527	33696.78
688.874	33687.97
689.221	33731.58
689.568	33616.56
689.915	33550.35
690.262	33575.2
690.609	33503.57
690.956	33376.57
691.303	33265.38
691.65	33270.35
691.997	33220.19
692.344	32996.91
692.69	33009.34
693.037	32926.86
693.383	32761.21
693.73	32880.76
694.077	32679.64
694.423	32657.71
694.769	32538.85
695.116	32547.21
695.462	32398.96
695.808	32325.07
696.155	32300.66
696.501	32149.71
696.847	32209.14
697.193	31866.78
697.539	32006.43
697.885	31752.2
698.231	31729.6
698.577	31724.41
698.923	31671.53
699.269	31582.71
699.614	31225.66
699.96	31265.89
700.306	31305.43
700.651	31321.03
700.997	31022.96
701.342	30966.46
701.688	30946.8
702.033	30959.91
702.379	30754.49
702.724	30818.89
703.069	30764.43
703.415	30391.33
703.76	30443.99
704.105	30460.26
704.45	30326.02
704.795	30192.92
705.14	30199.7
705.485	30162.64
705.83	29946.37
706.175	30035.18
706.52	29939.14
706.865	29828.18
707.209	29741.63
707.554	29728.98
707.899	29756.1
708.243	29585.03
708.588	29565.82
708.932	29243.34
709.277	29299.84
709.621	29319.05
709.966	29140.29
710.31	29369.44
710.654	29022.56
710.998	29050.58
711.342	29084.02
711.687	28983.91
712.031	28793.41
712.375	28809.23
712.719	28820.53
713.063	28715.67
713.407	28886.06
713.75	28679.29
714.094	28529.01
714.438	28481.1
714.782	28646.97
715.125	28456.92
715.469	28391.61
715.812	28135.35
716.156	28235.46
716.499	28161.56
716.843	28120.66
717.186	27900.1
717.53	28137.83
717.873	28143.26
718.216	27981
718.559	27834.79
718.902	27739.88
719.246	27773.32
719.589	27632.54
719.932	27591.86
720.275	27607
720.617	27508.25
720.96	27539.43
721.303	27460.56
721.646	27426.89
721.989	27239.78
722.331	27442.03
722.674	27335.82
723.016	27333.79
723.359	27320.68
723.701	27270.51
724.044	27089.27
724.386	26976.06
724.729	27048.6
725.071	26994.59
725.413	27007.92
725.755	26964.53
726.097	26735.61
726.439	26623.98
726.782	26753.69
727.124	26800.24
727.465	26624.43
727.807	26675.27
728.149	26536.52
728.491	26573.13
728.833	26540.59
729.175	26354.83
729.516	26362.06
729.858	26376.98
730.199	26481.15
730.541	26280.26
730.882	26213.14
731.224	26236.19
731.565	26182.63
731.906	26173.82
732.248	26118.9
732.589	26012.01
732.93	25983.54
733.271	25962.07
733.612	25883.43
733.953	25924.33
734.294	25956.42
734.635	25833.71
734.976	25866.25
735.317	25786.48
735.658	25710.1
735.999	25686.6
736.339	25605.02
736.68	25692.7
737.021	25586.04
737.361	25410.22
737.702	25574.51
738.042	25514.17
738.383	25461.52
738.723	25534.51
739.063	25353.27
739.404	25442.31
739.744	25259.94
740.084	25193.5
740.424	25364.57
740.764	25225.37
741.104	25353.95
741.444	25017.01
741.784	24989.22
742.124	25159.83
742.464	24991.93
742.804	24987.18
743.143	24932.72
743.483	24934.98
743.823	24827.41
744.162	24810.69
744.502	24855.43
744.841	24745.38
745.181	24825.15
745.52	24658.6
745.86	24676.91
746.199	24628.55
746.538	24522.56
746.877	24712.16
747.216	24680.07
747.556	24615.89
747.895	24472.39
748.234	24457.25
748.573	24327.31
748.911	24292.06
749.25	24264.26
749.589	24242.12
749.928	24232.17
750.267	24272.4
750.605	24171.16
750.944	24234.66
751.283	24084.83
751.621	24178.62
751.96	23885.74
752.298	23935.68
752.636	23903.82
752.975	23781.56
753.313	23694.79
753.651	23789.47
753.989	23676.48
754.327	23600.1
754.666	23497.96
755.004	23529.82
755.342	23501.8
755.679	23421.12
756.017	23375.7
756.355	23319.88
756.693	23218.64
757.031	23247.79
