Data from hue_300_FLMS001491_00060.txt Node
Date: Tue Feb 07 15:50:56 GMT 2017
User: dcchb
Spectrometer: FLMS00149
Trigger mode: 0
Integration Time (sec): 2.000000E-2
Scans to average: 10
Electric dark correction enabled: true
Nonlinearity correction enabled: false
Boxcar width: 0
XAxis mode: Wavelengths
Number of Pixels in Spectrum: 2048
>>>>>Begin Spectral Data<<<<<
341.393	-10.42
341.776	-10.42
342.16	-10.42
342.543	-66.92
342.927	-61.95
343.31	-62.4
343.693	-57.2
344.077	-63.76
344.46	-59.24
344.843	-46.13
345.226	-62.85
345.61	-31.21
345.993	-19.46
346.376	-9.07
346.759	27.77
347.142	19.41
347.525	45.39
347.908	55.79
348.291	90.82
348.674	79.52
349.057	92.62
349.44	117.93
349.823	130.14
350.206	163.58
350.588	197.25
350.971	200.87
351.354	215.33
351.737	233.19
352.119	234.09
352.502	260.98
352.884	269.12
353.267	283.81
353.65	267.76
354.032	295.78
354.414	293.52
354.797	292.62
355.179	304.6
355.562	313.86
355.944	312.73
356.326	333.3
356.709	314.77
357.091	333.97
357.473	327.65
357.855	311.6
358.238	332.84
358.62	345.5
359.002	314.99
359.384	319.96
359.766	323.13
360.148	330.81
360.53	335.33
360.912	326.97
361.294	329.91
361.676	339.17
362.057	329.23
362.439	320.64
362.821	326.74
363.203	308.89
363.584	297.82
363.966	314.77
364.348	295.56
364.729	329.91
365.111	309.79
365.493	318.38
365.874	307.76
366.256	313.41
366.637	312.73
367.019	314.09
367.4	308.66
367.781	304.6
368.163	327.65
368.544	301.21
368.925	306.18
369.306	309.12
369.688	311.15
370.069	316.8
370.45	326.97
370.831	308.21
371.212	312.28
371.593	292.17
371.974	314.99
372.355	324.93
372.736	310.92
373.117	297.14
373.498	294.43
373.879	305.05
374.26	313.86
374.641	298.49
375.021	296.01
375.402	321.55
375.783	301.88
376.163	322.9
376.544	313.86
376.925	322.22
377.305	344.37
377.686	339.17
378.066	314.77
378.447	342.56
378.827	320.87
379.208	314.54
379.588	336.46
379.968	331.04
380.349	333.75
380.729	342.34
381.109	337.59
381.489	332.62
381.87	331.71
382.25	322.9
382.63	350.47
383.01	302.11
383.39	331.04
383.77	320.64
384.15	344.37
384.53	312.28
384.91	327.42
385.29	356.35
385.67	365.16
386.049	350.92
386.429	354.31
386.809	336.46
387.189	341.66
387.568	358.38
387.948	346.18
388.328	337.14
388.707	346.18
389.087	341.88
389.466	337.59
389.846	342.11
390.225	370.13
390.605	349.79
390.984	345.27
391.363	361.54
391.743	373.97
392.122	352.73
392.501	363.35
392.881	387.31
393.26	366.29
393.639	375.56
394.018	351.83
394.397	397.48
394.776	364.71
395.155	372.84
395.534	368.78
395.913	378.04
396.292	382.33
396.671	394.76
397.05	378.49
397.429	406.74
397.808	388.44
398.186	383.01
398.565	398.15
398.944	396.12
399.323	400.19
399.701	417.81
400.08	391.83
400.458	407.64
400.837	403.35
401.215	406.29
401.594	401.54
401.972	406.51
402.351	437.93
402.729	392.05
403.107	419.17
403.486	435.67
403.864	425.72
404.242	432.95
404.62	416.91
404.999	449.23
405.377	427.76
405.755	443.12
406.133	423.24
406.511	436.8
406.889	453.97
407.267	460.75
407.645	449.9
408.023	448.32
408.401	470.02
408.779	475.44
409.156	482.44
409.534	501.43
409.912	478.15
410.29	524.48
410.667	486.96
411.045	514.08
411.422	524.03
411.8	526.29
412.178	552.73
412.555	539.17
412.933	540.97
413.31	548.43
413.687	580.3
414.065	559.28
414.442	585.27
414.819	586.85
415.197	611.71
415.574	627.98
415.951	601.31
416.328	610.13
416.705	630.92
417.082	639.95
417.46	648.99
417.837	678.37
418.214	660.97
418.591	678.6
418.967	667.3
419.344	693.74
419.721	672.72
420.098	676.79
420.475	704.59
420.852	713.63
421.228	726.73
421.605	727.64
421.982	733.29
422.358	760.63
422.735	771.02
423.111	766.05
423.488	785.71
423.864	802.21
424.241	790.23
424.617	799.5
424.994	794.53
425.37	800.85
425.746	816.45
426.123	835.43
426.499	851.93
426.875	860.51
427.251	879.04
427.627	868.65
428.003	903.22
428.379	895.09
428.756	921.76
429.132	921.98
429.507	943.22
429.883	907.74
430.259	956.78
430.635	957.46
431.011	957.01
431.387	975.77
431.763	990.68
432.138	996.33
432.514	1010.57
432.89	1007.85
433.265	1046.5
433.641	1055.31
434.016	1049.89
434.392	1066.16
434.767	1093.95
435.143	1073.39
435.518	1075.65
435.894	1115.2
436.269	1103.22
436.644	1142.54
437.02	1164.69
437.395	1194.06
437.77	1177.34
438.145	1166.72
438.52	1189.77
438.895	1181.86
439.271	1206.95
439.646	1207.4
440.021	1224.8
440.395	1257.11
440.77	1227.28
441.145	1236.78
441.52	1253.5
441.895	1252.59
442.27	1267.96
442.645	1264.12
443.019	1273.61
443.394	1270.22
443.769	1278.36
444.143	1298.24
444.518	1319.49
444.892	1284.23
445.267	1303.89
445.641	1312.71
446.016	1340.73
446.39	1331.46
446.764	1321.52
447.139	1319.49
447.513	1320.84
447.887	1364.68
448.262	1328.52
448.636	1353.38
449.01	1351.12
449.384	1392.93
449.758	1341.18
450.132	1379.6
450.506	1411.69
450.88	1387.51
451.254	1385.25
451.628	1417.11
452.002	1439.93
452.376	1409.65
452.75	1424.34
453.123	1412.14
453.497	1446.26
453.871	1443.78
454.244	1485.36
454.618	1473.15
454.992	1491.01
455.365	1480.38
455.739	1505.47
456.112	1492.36
456.486	1517.9
456.859	1548.18
457.232	1557.22
457.606	1570.55
457.979	1587.95
458.352	1585.24
458.725	1585.47
459.099	1600.83
459.472	1647.84
459.845	1625.92
460.218	1639.48
460.591	1625.47
460.964	1637.22
461.337	1659.14
461.71	1670.66
462.083	1691.9
462.456	1711.79
462.829	1696.65
463.201	1701.62
463.574	1719.93
463.947	1713.37
464.32	1762.41
464.692	1769.19
465.065	1775.74
465.438	1850.77
465.81	1816.42
466.183	1830.21
466.555	1877.66
466.928	1860.04
467.3	1841.28
467.672	1891.9
468.045	1885.57
468.417	1897.77
468.789	1905.91
469.161	1939.13
469.534	1935.29
469.906	1954.5
470.278	2026.36
470.65	1969.64
471.022	2049.64
471.394	2031.56
471.766	2060.71
472.138	2084.21
472.51	2085.34
472.882	2136.19
473.253	2114.49
473.625	2141.84
473.997	2186.13
474.369	2179.8
474.74	2191.1
475.112	2195.17
475.484	2253.02
475.855	2263.87
476.227	2292.34
476.598	2325.56
476.97	2325.56
477.341	2363.3
477.713	2429.96
478.084	2383.64
478.455	2429.06
478.827	2474.71
479.198	2512
479.569	2494.82
479.94	2521.04
480.311	2570.3
480.682	2603.07
481.053	2614.82
481.424	2664.53
481.795	2637.87
482.166	2713.57
482.537	2719.9
482.908	2749.05
483.279	2746.34
483.65	2826.79
484.021	2832.67
484.391	2873.79
484.762	2903.85
485.133	2880.35
485.503	2877.41
485.874	2942.49
486.244	2944.53
486.615	3017.75
486.985	3049.16
487.356	3088.93
487.726	3081.47
488.097	3071.98
488.467	3103.39
488.837	3163.73
489.207	3236.95
489.578	3256.84
489.948	3247.57
490.318	3308.36
490.688	3294.35
491.058	3309.04
491.428	3321.01
491.798	3353.56
492.168	3407.57
492.538	3398.98
492.908	3441.69
493.278	3461.58
493.648	3427.45
494.017	3482.82
494.387	3489.82
494.757	3524.85
495.126	3570.27
495.496	3567.34
495.866	3583.83
496.235	3593.55
496.605	3607.33
496.974	3600.1
497.344	3668.8
497.713	3658.18
498.082	3705.64
498.452	3712.19
498.821	3728.46
499.19	3750.16
499.559	3762.81
499.928	3727.56
500.298	3815.24
500.667	3805.07
501.036	3812.07
501.405	3832.19
501.774	3827.89
502.143	3834.67
502.512	3826.76
502.88	3843.03
503.249	3895.46
503.618	3887.33
503.987	3917.16
504.356	3929.81
504.724	3932.07
505.093	3916.48
505.462	3958.74
505.83	3928.46
506.199	4002.13
506.567	3982.47
506.936	4030.6
507.304	4084.84
507.672	4067.89
508.041	4064.27
508.409	4052.52
508.777	4054.55
509.145	4118.06
509.514	4093.42
509.882	4143.59
510.25	4080.09
510.618	4148.79
510.986	4146.3
511.354	4179.3
511.722	4162.8
512.09	4264.04
512.458	4193.08
512.826	4246.87
513.193	4226.3
513.561	4211.61
513.929	4241.89
514.297	4289.12
514.664	4267.43
515.032	4259.07
515.4	4302.01
515.767	4344.04
516.135	4327.99
516.502	4295.9
516.869	4316.69
517.237	4361.21
517.604	4357.82
517.972	4382.46
518.339	4416.8
518.706	4351.04
519.073	4372.51
519.44	4402.57
519.808	4391.95
520.175	4432.4
520.542	4447.31
520.909	4457.48
521.276	4440.98
521.643	4532.51
522.009	4480.08
522.376	4557.82
522.743	4499.74
523.11	4527.99
523.477	4591.04
523.843	4593.3
524.21	4626.29
524.577	4675.1
524.943	4711.71
525.31	4679.62
525.676	4671.26
526.043	4733.41
526.409	4753.52
526.776	4779.28
527.142	4770.24
527.508	4786.29
527.874	4846.4
528.241	4844.59
528.607	4871.93
528.973	4920.29
529.339	4909
529.705	4951.71
530.071	4956.9
530.437	4979.28
530.803	5019.05
531.169	5069.44
531.535	5004.13
531.901	5042.33
532.267	5048.88
532.632	5085.71
532.998	5119.61
533.364	5136.33
533.73	5152.38
534.095	5220.4
534.461	5149.21
534.826	5210
535.192	5246.39
535.557	5260.4
535.923	5323.22
536.288	5295.2
536.653	5386.04
537.019	5308.31
537.384	5330.45
537.749	5386.95
538.114	5399.83
538.479	5433.95
538.845	5460.85
539.21	5449.09
539.575	5478.02
539.94	5507.17
540.305	5535.19
540.67	5524.8
541.034	5562.99
541.399	5541.97
541.764	5620.61
542.129	5611.35
542.494	5611.12
542.858	5665.36
543.223	5697
543.587	5734.28
543.952	5742.19
544.316	5788.07
544.681	5751.01
545.045	5784
545.41	5814.28
545.774	5815.64
546.138	5893.6
546.503	5908.74
546.867	5856.54
547.231	5990.55
547.595	5923.43
547.959	5970.44
548.324	5964.56
548.688	5956.88
549.052	6045.91
549.416	6065.57
549.779	6051.56
550.143	6108.51
550.507	6110.32
550.871	6150.09
551.235	6099.25
551.599	6175.63
551.962	6201.62
552.326	6248.85
552.689	6182.18
553.053	6208.17
553.417	6234.16
553.78	6260.82
554.143	6273.25
554.507	6315.51
554.87	6308.51
555.234	6427.83
555.597	6323.87
555.96	6363.42
556.323	6428.73
556.686	6365.23
557.05	6453.81
557.413	6493.36
557.776	6505.11
558.139	6523.64
558.502	6478.67
558.865	6536.52
559.228	6514.15
559.59	6554.83
559.953	6581.72
560.316	6643.19
560.679	6623.07
561.041	6726.57
561.404	6669.63
561.767	6698.78
562.129	6711.89
562.492	6742.17
562.854	6742.39
563.217	6727.7
563.579	6739.23
563.941	6840.02
564.304	6839.79
564.666	6859.45
565.028	6848.38
565.39	6900.81
565.753	6980.58
566.115	7018.09
566.477	6983.29
566.839	7004.53
567.201	7038.2
567.563	7028.49
567.925	7073.46
568.287	7059.22
568.648	7086.57
569.01	7147.35
569.372	7177.64
569.734	7182.61
570.095	7233.68
570.457	7247.69
570.819	7359.78
571.18	7286.79
571.542	7410.85
571.903	7434.58
572.265	7494.24
572.626	7514.12
572.987	7528.36
573.349	7563.84
573.71	7648.36
574.071	7682.93
574.432	7790.5
574.794	7775.36
575.155	7844.74
575.516	7886.54
575.877	8020.1
576.238	8053.55
576.599	8029.59
576.96	8136.25
577.32	8234.56
577.681	8331.5
578.042	8373.31
578.403	8436.13
578.763	8563.59
579.124	8655.56
579.485	8755.22
579.845	8877.93
580.206	8975.33
580.566	9045.61
580.927	9152.27
581.287	9378.03
581.648	9494.19
582.008	9647.85
582.368	9739.38
582.728	9905.47
583.089	10022.99
583.449	10301.62
583.809	10398.34
584.169	10574.38
584.529	10805.11
584.889	11006.91
585.249	11159.9
585.609	11332.78
585.969	11576.62
586.329	11806.89
586.688	12076.49
587.048	12247.79
587.408	12502.92
587.768	12696.14
588.127	12951.5
588.487	13173.86
588.846	13513.06
589.206	13726.39
589.565	13915.09
589.925	14287.96
590.284	14521.62
590.643	14854.04
591.003	15016.3
591.362	15426.23
591.721	15659.22
592.08	15910.29
592.44	16198.19
592.799	16621
593.158	16862.35
593.517	17182.34
593.876	17465.73
594.235	17745.95
594.593	18031.14
594.952	18377.12
595.311	18663.66
595.67	19008.96
596.029	19352.91
596.387	19696.63
596.746	19943.85
597.104	20235.82
597.463	20452.54
597.822	20921.91
598.18	21111.28
598.538	21421.78
598.897	21829.91
599.255	21934.76
599.613	22567.06
599.972	22632.37
600.33	23016.99
600.688	23234.84
601.046	23647.26
601.404	24005.22
601.762	24203.4
602.12	24554.13
602.478	24748.93
602.836	25126.09
603.194	25131.97
603.552	25603.37
603.91	25726.98
604.268	26037.71
604.625	26267.76
604.983	26656.9
605.341	26733.28
605.698	27198.58
606.056	27391.12
606.413	27589.3
606.771	27939.8
607.128	28194.71
607.485	28230.42
607.843	28471.54
608.2	28851.64
608.557	29135.93
608.914	29291.4
609.272	29577.05
609.629	29778.85
609.986	30099.97
610.343	30159.63
610.7	30545.61
611.057	30671.26
611.414	30947.86
611.771	31062.66
612.127	31306.95
612.484	31495.87
612.841	31812.47
613.198	31901.28
613.554	32119.35
613.911	32287.03
614.267	32513.24
614.624	32607.25
614.98	32810.63
615.337	33072.55
615.693	33222.6
616.05	33298.53
616.406	33647.9
616.762	33709.59
617.118	33774.68
617.475	33835.47
617.831	34171.95
618.187	34295.79
618.543	34449.24
618.899	34698.49
619.255	34618.04
619.611	34841.32
619.967	35036.34
620.323	35259.61
620.678	35195.66
621.034	35288.31
621.39	35443.11
621.746	35479.94
622.101	35892.14
622.457	35744.57
622.812	35830.89
623.168	35955.18
623.523	36091.68
623.879	36276.98
624.234	36133.48
624.589	36460.48
624.945	36326.25
625.3	36606.24
625.655	36675.39
626.01	36718.33
626.365	36689.4
626.72	36827.7
627.075	36859.34
627.43	37054.82
627.785	36877.65
628.14	37209.84
628.495	37191.99
628.85	37092.78
629.205	37077.19
629.559	37365.54
629.914	37213.23
630.269	37327.13
630.623	37360.35
630.978	37208.48
631.332	37397.63
631.687	37448.7
632.041	37335.04
632.396	37646.67
632.75	37439.21
633.104	37544.07
633.459	37422.72
633.813	37532.09
634.167	37470.4
634.521	37617.74
634.875	37657.06
635.229	37563.73
635.583	37452.09
635.937	37530.74
636.291	37497.74
636.645	37587.01
636.999	37450.29
637.352	37586.1
637.706	37414.13
638.06	37696.83
638.413	37584.52
638.767	37334.58
639.121	37650.73
639.474	37344.53
639.828	37634.91
640.181	37632.2
640.534	37565.31
640.888	37595.37
641.241	37356.28
641.594	37423.62
641.947	37535.93
642.301	37536.61
642.654	37583.16
643.007	37397.41
643.36	37482.83
643.713	37326.45
644.066	37494.35
644.419	37288.93
644.771	37256.62
645.124	36824.31
645.477	36832
645.83	36568.95
646.182	36454.61
646.535	36355.4
646.888	36421.84
647.24	36286.7
647.593	36521.95
647.945	36413.7
648.298	36332.58
648.65	36226.36
649.002	36172.13
649.355	36341.16
649.707	36276.98
650.059	36614.38
650.411	36821.38
650.763	36948.6
651.115	37342.04
651.467	37083.06
651.819	37201.71
652.171	37198.32
652.523	37063.86
652.875	36975.72
653.227	36943.41
653.578	37123.52
653.93	37143.63
654.282	36966.68
654.633	36868.61
654.985	36914.26
655.337	36957.19
655.688	37054.14
656.039	37136.17
656.391	36726.92
656.742	36833.35
657.094	36805.56
657.445	37041.48
657.796	36883.07
658.147	37024.53
658.498	36957.42
658.849	37036.06
659.2	36885.56
659.551	36740.93
659.902	36848.95
660.253	36822.96
660.604	36871.54
660.955	36862.96
661.306	36928.04
661.656	36911.54
662.007	37040.35
662.358	36781.15
662.708	36753.81
663.059	36864.31
663.409	36609.18
663.76	36964.65
664.11	36787.25
664.461	36892.11
664.811	36835.61
665.161	36683.08
665.511	36686.24
665.862	36800.36
666.212	36938.89
666.562	36865.44
666.912	36690.98
667.262	36622.06
667.612	36691.21
667.962	36801.72
668.312	36653.7
668.662	36862.51
669.011	36643.98
669.361	36655.73
669.711	36700.48
670.06	36670.87
670.41	36549.29
670.76	36610.99
671.109	36721.27
671.459	36554.04
671.808	36534.6
672.157	36596.3
672.507	36372.35
672.856	36430.2
673.205	36557.65
673.554	36532.57
673.904	36495.96
674.253	36619.12
674.602	36520.37
674.951	35941.4
675.3	35832.25
675.649	36367.6
675.998	36357.21
676.346	36482.85
676.695	36396.53
677.044	36331.22
677.393	36288.74
677.741	36549.07
678.09	36342.97
678.438	36220.26
678.787	36319.02
679.135	36295.51
679.484	35982.98
679.832	36208.74
680.181	35968.07
680.529	36017.78
680.877	36001.29
681.225	35936.65
681.573	36148.63
681.922	35803.55
682.27	35767.39
682.618	35835.64
682.966	35771.01
683.314	35825.7
683.661	35667.96
684.009	35505.03
684.357	35609.2
684.705	35414.18
685.053	35573.73
685.4	35400.17
685.748	35272.04
686.095	35231.59
686.443	35137.8
686.79	35126.96
687.138	35139.61
687.485	35140.97
687.832	35002.44
688.18	34988.2
688.527	34824.14
688.874	34849.22
689.221	34756.12
689.568	34649
689.915	34679.74
690.262	34617.37
690.609	34459.4
690.956	34333.31
691.303	34257.38
691.65	34217.83
691.997	34230.26
692.344	34001.34
692.69	34030.49
693.037	34090.83
693.383	33745.53
693.73	33890.83
694.077	33832.75
694.423	33696.03
694.769	33578.75
695.116	33571.29
695.462	33569.71
695.808	33245.88
696.155	33390.96
696.501	33184.86
696.847	33131.76
697.193	32896.73
697.539	33018.09
697.885	32874.81
698.231	32800.92
698.577	32764.31
698.923	32564.54
699.269	32537.87
699.614	32300.82
699.96	32275.73
700.306	32300.59
700.651	32102.18
700.997	32122.74
701.342	31989.41
701.688	31927.04
702.033	31921.84
702.379	31842.75
702.724	31719.82
703.069	31909.64
703.415	31445.47
703.76	31424.91
704.105	31432.37
704.45	31432.37
704.795	31271.47
705.14	31056.1
705.485	31182.88
705.83	31028.08
706.175	31122.77
706.52	30907.18
706.865	30883
707.209	30804.13
707.554	30711.25
707.899	30875.32
708.243	30712.38
708.588	30570.92
708.932	30428.55
709.277	30358.5
709.621	30515.78
709.966	30285.28
710.31	30238.27
710.654	30059.07
710.998	30034.66
711.342	30148.33
711.687	29894.1
712.031	29841.22
712.375	29715.8
712.719	29629.48
713.063	29688.46
713.407	29793.09
713.75	29568.46
714.094	29523.04
714.438	29344.51
714.782	29564.62
715.125	29258.41
715.469	29457.05
715.812	29096.38
716.156	29066.33
716.499	29130.05
716.843	29147
717.186	28980.23
717.53	29129.83
717.873	29020.45
718.216	28910.4
718.559	28850.74
718.902	28629.5
719.246	28685.09
719.589	28750.18
719.932	28578.88
720.275	28555.61
720.617	28540.92
720.96	28414.37
721.303	28501.14
721.646	28373.69
721.989	28249.62
722.331	28371.2
722.674	28284.43
723.016	28270.19
723.359	28084.43
723.701	28317.65
724.044	28014.15
724.386	27973.7
724.729	28098.67
725.071	27921.5
725.413	27804.66
725.755	27868.62
726.097	27755.17
726.439	27673.59
726.782	27643.99
727.124	27789.52
727.465	27654.61
727.807	27564.44
728.149	27506.37
728.491	27452.13
728.833	27571.68
729.175	27386.6
729.516	27343.43
729.858	27388.63
730.199	27275.19
730.541	27392.25
730.882	27233.61
731.224	27319.48
731.565	27145.47
731.906	27119.94
732.248	27160.39
732.589	27072.48
732.93	26981.18
733.271	27013.27
733.612	26894.86
733.953	26962.65
734.294	26879.04
734.635	26919.72
734.976	26913.39
735.317	26705.03
735.658	26849.89
735.999	26811.24
736.339	26588.43
736.68	26695.99
737.021	26592.27
737.361	26456.9
737.702	26683.56
738.042	26479.5
738.383	26498.03
738.723	26598.37
739.063	26364.25
739.404	26450.8
739.744	26307.75
740.084	26297.13
740.424	26357.92
740.764	26336
741.104	26360.63
741.444	26160.41
741.784	26112.51
742.124	26134.65
742.464	26149.57
742.804	26055.11
743.143	26018.27
743.483	26038.84
743.823	25829.58
744.162	25894.88
744.502	25928.78
744.841	25821.44
745.181	25857.82
745.52	25785.96
745.86	25848.11
746.199	25762.91
746.538	25731.05
746.877	25824.83
747.216	25621.67
747.556	25601.11
747.895	25544.61
748.234	25541.9
748.573	25547.32
748.911	25489.7
749.25	25491.28
749.589	25452.18
749.928	25444.05
750.267	25491.05
750.605	25411.73
750.944	25340.55
751.283	25230.27
751.621	25269.59
751.96	25127.45
752.298	25134.45
752.636	25124.06
752.975	25070.27
753.313	25043.16
753.651	25136.26
753.989	24957.06
754.327	25032.99
754.666	24786.21
755.004	24841.35
755.342	24891.75
755.679	24780.34
756.017	24649.49
756.355	24682.71
756.693	24633.67
757.031	24685.42
757.368	24504.86
757.706	24550.29
758.044	24388.93
758.381	24508.03
758.719	24367.92
759.056	24482.49
759.394	24244.76
