Data from hue_50_FLMS001491_63.txt Node
Date: Mon Feb 06 15:10:45 GMT 2017
User: dcchb
Spectrometer: FLMS00149
Trigger mode: 0
Integration Time (sec): 2.000000E-2
Scans to average: 10
Electric dark correction enabled: true
Nonlinearity correction enabled: false
Boxcar width: 0
XAxis mode: Wavelengths
Number of Pixels in Spectrum: 2048
>>>>>Begin Spectral Data<<<<<
341.393	-11.3
341.776	-11.3
342.16	-11.3
342.543	-59.66
342.927	-87.46
343.31	-84.29
343.693	-62.6
344.077	-48.36
344.46	-57.63
344.843	-69.15
345.226	-40
345.61	-41.35
345.993	-29.38
346.376	-13.11
346.759	11.53
347.142	25.08
347.525	49.26
347.908	59.89
348.291	72.09
348.674	101.24
349.057	126.78
349.44	116.16
349.823	145.98
350.206	162.71
350.588	212.88
350.971	216.72
351.354	250.61
351.737	232.99
352.119	235.93
352.502	275.25
352.884	279.99
353.267	300.11
353.65	306.43
354.032	280.9
354.414	326.55
354.797	318.18
355.179	333.32
355.562	325.42
355.944	337.39
356.326	343.27
356.709	343.72
357.091	320.22
357.473	364.06
357.855	348.01
358.238	348.69
358.62	339.88
359.002	356.83
359.384	343.95
359.766	346.66
360.148	339.88
360.53	337.62
360.912	364.28
361.294	323.38
361.676	332.87
362.057	353.66
362.439	334.23
362.821	332.19
363.203	329.26
363.584	319.31
363.966	309.6
364.348	332.65
364.729	332.42
365.111	318.64
365.493	354.57
365.874	322.93
366.256	337.62
366.637	324.74
367.019	335.81
367.4	321.35
367.781	315.92
368.163	309.82
368.544	315.02
368.925	312.53
369.306	319.31
369.688	326.77
370.069	324.51
370.45	314.57
370.831	316.6
371.212	310.05
371.593	310.27
371.974	341.01
372.355	335.58
372.736	324.06
373.117	318.86
373.498	315.7
373.879	305.53
374.26	338.75
374.641	306.21
375.021	323.38
375.402	326.77
375.783	346.88
376.163	346.66
376.544	334.45
376.925	324.74
377.305	340.33
377.686	327
378.066	346.88
378.447	314.57
378.827	337.17
379.208	329.48
379.588	322.48
379.968	338.52
380.349	336.04
380.729	298.75
381.109	314.57
381.489	333.78
381.87	339.65
382.25	341.91
382.63	345.08
383.01	345.08
383.39	365.19
383.77	340.78
384.15	344.62
384.53	332.65
384.91	363.61
385.29	351.86
385.67	354.57
386.049	362.02
386.429	347.34
386.809	343.27
387.189	359.76
387.568	363.83
387.948	350.73
388.328	355.92
388.707	370.61
389.087	355.24
389.466	369.93
389.846	357.28
390.225	371.52
390.605	353.44
390.984	355.02
391.363	361.35
391.743	360.67
392.122	366.09
392.501	383.49
392.881	387.56
393.26	372.42
393.639	373.55
394.018	373.78
394.397	373.32
394.776	369.03
395.155	374
395.534	359.99
395.913	354.79
396.292	389.14
396.671	385.07
397.05	387.11
397.429	394.34
397.808	394.34
398.186	382.81
398.565	400.67
398.944	379.65
399.323	389.37
399.701	403.15
400.08	392.53
400.458	400.89
400.837	394.34
401.215	410.38
401.594	397.5
401.972	402.48
402.351	406.32
402.729	407.9
403.107	402.02
403.486	392.31
403.864	371.06
404.242	401.35
404.62	406.32
404.999	399.09
405.377	398.63
405.755	401.35
406.133	428.92
406.511	403.61
406.889	437.28
407.267	416.71
407.645	419.88
408.023	428.01
408.401	424.85
408.779	399.09
409.156	427.11
409.534	412.19
409.912	426.2
410.29	435.47
410.667	436.82
411.045	449.48
411.422	430.05
411.8	453.55
412.178	439.76
412.555	460.1
412.933	455.36
413.31	460.78
413.687	474.34
414.065	469.37
414.442	463.04
414.819	476.6
415.197	469.14
415.574	449.03
415.951	492.42
416.328	469.14
416.705	471.17
417.082	452.64
417.46	486.99
417.837	475.69
418.214	486.99
418.591	491.74
418.967	475.02
419.344	504.85
419.721	501.91
420.098	496.03
420.475	516.6
420.852	489.03
421.228	506.43
421.605	490.38
421.982	490.83
422.358	492.42
422.735	501.91
423.111	531.74
423.488	519.31
423.864	538.06
424.241	531.74
424.617	520.44
424.994	513.21
425.37	534.45
425.746	555.92
426.123	552.08
426.499	532.64
426.875	559.99
427.251	550.49
427.627	547.78
428.003	544.17
428.379	594.79
428.756	549.36
429.132	546.88
429.507	556.14
429.883	576.93
430.259	555.69
430.635	565.18
431.011	584.39
431.387	592.98
431.763	570.83
432.138	590.04
432.514	589.14
432.89	594.79
433.265	618.97
433.641	594.11
434.016	601.57
434.392	609.02
434.767	604.5
435.143	599.98
435.518	640.44
435.894	631.4
436.269	640.21
436.644	639.31
437.02	642.24
437.395	643.82
437.77	652.19
438.145	667.78
438.52	682.02
438.895	674.11
439.271	676.14
439.646	663.49
440.021	688.34
440.395	695.12
440.77	689.7
441.145	669.13
441.52	689.02
441.895	698.06
442.27	708.91
442.645	695.8
443.019	700.77
443.394	720.89
443.769	707.78
444.143	713.2
444.518	712.52
444.892	726.76
445.267	723.37
445.641	713.43
446.016	741.68
446.39	751.17
446.764	753.88
447.139	744.84
447.513	740.32
447.887	743.71
448.262	760.21
448.636	750.04
449.01	747.32
449.384	771.51
449.758	767.89
450.132	774.67
450.506	791.62
450.88	801.56
451.254	821
451.628	801.33
452.002	815.8
452.376	849.7
452.75	818.51
453.123	821.45
453.497	846.08
453.871	854.89
454.244	843.14
454.618	853.76
454.992	866.87
455.365	854.44
455.739	872.52
456.112	905.29
456.486	897.83
456.859	921.11
457.232	894.21
457.606	910.48
457.979	939.18
458.352	937.83
458.725	944.16
459.099	945.06
459.472	995.68
459.845	972.63
460.218	1006.08
460.591	975.79
460.964	1005.85
461.337	989.35
461.71	991.39
462.083	1027.32
462.456	1023.02
462.829	1069.12
463.201	1072.97
463.574	1071.84
463.947	1071.61
464.32	1130.14
464.692	1126.98
465.065	1141.21
465.438	1139.41
465.81	1178.95
466.183	1169.46
466.555	1183.25
466.928	1206.75
467.3	1184.83
467.672	1254.43
468.045	1265.28
468.417	1265.28
468.789	1272.96
469.161	1297.14
469.534	1323.58
469.906	1354.54
470.278	1395.67
470.65	1407.87
471.022	1446.06
471.394	1490.36
471.766	1492.16
472.138	1505.95
472.51	1566.06
472.882	1596.57
473.253	1622.78
473.625	1675.44
473.997	1720.86
474.369	1731.93
474.74	1757.92
475.112	1773.96
475.484	1854.19
475.855	1903.68
476.227	1927.18
476.598	2008.76
476.97	2018.25
477.341	2067.29
477.713	2146.61
478.084	2211.47
478.455	2265.48
478.827	2327.17
479.198	2408.98
479.569	2438.35
479.94	2554.96
480.311	2608.29
480.682	2703.66
481.053	2795.18
481.424	2854.16
481.795	2937.1
482.166	2994.95
482.537	3122.63
482.908	3178.22
483.279	3269.97
483.65	3400.59
484.021	3491.43
484.391	3609.62
484.762	3704.54
485.133	3745.44
485.503	3870.86
485.874	4037.18
486.244	4138.2
486.615	4237.18
486.985	4397.17
487.356	4537.96
487.726	4599.65
488.097	4758.07
488.467	4861.57
488.837	5023.82
489.207	5123.03
489.578	5306.75
489.948	5384.72
490.318	5532.28
490.688	5652.05
491.058	5814.54
491.428	5969.56
491.798	6101.31
492.168	6301.98
492.538	6379.95
492.908	6489.77
493.278	6682.99
493.648	6805.47
494.017	6982.19
494.387	7128.17
494.757	7282.07
495.126	7419.01
495.496	7528.39
495.866	7627.14
496.235	7872.79
496.605	8017.19
496.974	8036.85
497.344	8242.04
497.713	8400.91
498.082	8482.94
498.452	8696.27
498.821	8817.62
499.19	8879.54
499.559	9142.36
499.928	9132.64
500.298	9363.37
500.667	9570.14
501.036	9561.33
501.405	9726.98
501.774	9772.85
502.143	9982.56
502.512	10065.5
502.88	10243.8
503.249	10251.03
503.618	10427.3
503.987	10576.45
504.356	10729.89
504.724	10797.46
505.093	10973.72
505.462	11039.03
505.83	11157.45
506.199	11285.8
506.567	11481.96
506.936	11526.7
507.304	11666.59
507.672	11860.71
508.041	11935.73
508.409	12030.42
508.777	12225.22
509.145	12301.6
509.514	12382.95
509.882	12453.01
510.25	12534.13
510.618	12659.33
510.986	12845.09
511.354	12968.92
511.722	13138.19
512.09	13292.53
512.458	13283.27
512.826	13492.3
513.193	13514.9
513.561	13649.58
513.929	13764.61
514.297	13874.89
514.664	14040.53
515.032	14090.25
515.4	14211.15
515.767	14276.46
516.135	14395.78
516.502	14314.88
516.869	14692.95
517.237	14726.39
517.604	14749.22
517.972	14923.68
518.339	14997.12
518.706	15025.14
519.073	15186.95
519.44	15270.78
519.808	15505.13
520.175	15524.79
520.542	15748.29
520.909	15814.27
521.276	15875.06
521.643	16056.53
522.009	16132.91
522.376	16298.78
522.743	16364.54
523.11	16560.02
523.477	16654.7
523.843	16841.82
524.21	17039.78
524.577	17133.56
524.943	17241.13
525.31	17296.27
525.676	17463.27
526.043	17491.52
526.409	17657.61
526.776	17835.01
527.142	17841.34
527.508	18045.63
527.874	18227.09
528.241	18195.23
528.607	18325.85
528.973	18506.86
529.339	18534.43
529.705	18765.38
530.071	18809.67
530.437	19020.97
530.803	19077.46
531.169	19204.69
531.535	19181.42
531.901	19235.88
532.267	19412.82
532.632	19531.69
532.998	19530.33
533.364	19716.09
533.73	19755.41
534.095	19927.84
534.461	19975.97
534.826	20133.26
535.192	20218
535.557	20403.98
535.923	20265.68
536.288	20420.93
536.653	20515.84
537.019	20484.66
537.384	20563.08
537.749	20714.03
538.114	20793.35
538.479	20815.72
538.845	20911.09
539.21	20862.5
539.575	21100.24
539.94	21050.29
540.305	21410.96
540.67	21092.55
541.034	21321.47
541.399	21444.18
541.764	21487.57
542.129	21646.89
542.494	21707.68
542.858	21692.76
543.223	21793.55
543.587	21900.67
543.952	21895.24
544.316	22109.02
544.681	22006.65
545.045	22141.79
545.41	22303.14
545.774	22297.27
546.138	22410.03
546.503	22475.57
546.867	22488.22
547.231	22802.34
547.595	22730.7
547.959	22834.88
548.324	22756.92
548.688	22891.83
549.052	23046.85
549.416	23024.48
549.779	23069
550.143	23095.66
550.507	23320.74
550.871	23445.94
551.235	23479.61
551.599	23640.73
551.962	23700.85
552.326	23759.6
552.689	23792.37
553.053	23759.38
553.417	23900.84
553.78	24175.86
554.143	24020.61
554.507	24159.82
554.87	24271
555.234	24478.68
555.597	24367.27
555.96	24460.6
556.323	24622.63
556.686	24557.09
557.05	24903.98
557.413	24940.59
557.776	24914.83
558.139	25104.65
558.502	25244.99
558.865	25215.38
559.228	25388.71
559.59	25440.46
559.953	25582.38
560.316	25811.75
560.679	25823.5
561.041	25952.76
561.404	26042.25
561.767	26116.83
562.129	26094.46
562.492	26421.23
562.854	26323.83
563.217	26409.7
563.579	26514.33
563.941	26753.65
564.304	26888.33
564.666	26993.41
565.028	27016.92
565.39	27026.18
565.753	27351.6
566.115	27294.42
566.477	27558.6
566.839	27478.37
567.201	27674.75
567.563	27765.6
567.925	28066.38
568.287	28013.95
568.648	28016.44
569.01	28161.07
569.372	28357.9
569.734	28144.12
570.095	28423.66
570.457	28674.5
570.819	28643.54
571.18	28707.49
571.542	28935.51
571.903	29001.5
572.265	29129.4
572.626	29134.83
572.987	29329.85
573.349	29326.91
573.71	29443.29
574.071	29559.22
574.432	29658.2
574.794	29810.74
575.155	29887.58
575.516	29891.87
575.877	30026.56
576.238	30076.05
576.599	30267.45
576.96	30385.64
577.32	30389.03
577.681	30590.83
578.042	30765.52
578.403	30753.54
578.763	30862.24
579.124	31124.83
579.485	31114.21
579.845	31366.63
580.206	31327.54
580.566	31301.55
580.927	31505.61
581.287	31622.9
581.648	31716.23
582.008	31942.66
582.368	32068.54
582.728	32158.93
583.089	32249.1
583.449	32192.37
583.809	32383.33
584.169	32590.56
584.529	32482.54
584.889	32940.6
585.249	32846.14
585.609	32989.87
585.969	33169.75
586.329	33169.3
586.688	33365.9
587.048	33498.1
587.408	33545.56
587.768	33575.84
588.127	33769.96
588.487	33802.05
588.846	34168.59
589.206	33952.55
589.565	34057.86
589.925	34303.5
590.284	34345.09
590.643	34531.97
591.003	34846.77
591.362	34978.29
591.721	34931.96
592.08	35163.37
592.44	35301.9
592.799	35383.7
593.158	35395.68
593.517	35550.7
593.876	35751.15
594.235	35711.38
594.593	35799.51
594.952	36089.9
595.311	35989.11
595.67	36227.3
596.029	36331.7
596.387	36573.5
596.746	36680.17
597.104	36608.08
597.463	36575.99
597.822	36832.03
598.18	36905.24
598.538	36838.13
598.897	37183.43
599.255	37010.78
599.613	37639.91
599.972	37303.43
600.33	37622.29
600.688	37513.14
601.046	37772.79
601.404	37880.13
601.762	37929.62
602.12	38193.35
602.478	38198.77
602.836	38333
603.194	38229.5
603.552	38464.98
603.91	38221.59
604.268	38540.68
604.625	38555.6
604.983	38825.19
605.341	38728.47
605.698	38761.24
606.056	39115.81
606.413	38942.03
606.771	39255.47
607.128	39273.09
607.485	39184.28
607.843	39304.73
608.2	39551.28
608.557	39563.25
608.914	39510.37
609.272	39756.69
609.629	39798.28
609.986	40138.61
610.343	39887.09
610.7	40253.4
611.057	40278.94
611.414	40183.12
611.771	40233.97
612.127	40537.24
612.484	40596.45
612.841	40735.65
613.198	40491.59
613.554	40691.13
613.911	40832.15
614.267	40847.74
614.624	40906.04
614.98	41159.37
615.337	41159.37
615.693	41299.48
616.05	41301.96
616.406	41474.16
616.762	41394.39
617.118	41398.23
617.475	41415.18
617.831	41656.98
618.187	41612.92
618.543	41753.25
618.899	41946.02
619.255	41845.91
619.611	41981.04
619.967	42060.36
620.323	42139.46
620.678	42033.02
621.034	42038.44
621.39	42059.91
621.746	41985.79
622.101	42497.64
622.457	42127.71
622.812	42353.01
623.168	42499.22
623.523	42519.56
623.879	42644.3
624.234	42277.76
624.589	42569.05
624.945	42630.97
625.3	42781.25
625.655	42650.86
626.01	42739.89
626.365	42748.48
626.72	42666.9
627.075	42770.4
627.43	42720.46
627.785	42567.24
628.14	42764.98
628.495	42762.04
628.85	42755.03
629.205	42486.34
629.559	42956.16
629.914	42733.11
630.269	42701.02
630.623	42701.7
630.978	42645.21
631.332	42705.54
631.687	42948.02
632.041	42673.91
632.396	42869.83
632.75	42692.21
633.104	42662.16
633.459	42580.35
633.813	42681.59
634.167	42603.63
634.521	42686.34
634.875	42629.84
635.229	42653.57
635.583	42410.64
635.937	42549.16
636.291	42339
636.645	42555.27
636.999	42323.86
637.352	42528.6
637.706	42296.29
638.06	42484.08
638.413	42474.14
638.767	42252.45
639.121	42310.07
639.474	42069.18
639.828	42149.85
640.181	42147.59
640.534	42265.78
640.888	42205.67
641.241	41801.84
641.594	42034.6
641.947	42197.76
642.301	42021.95
642.654	42083.41
643.007	42004.77
643.36	41915.96
643.713	41766.13
644.066	42014.04
644.419	41708.96
644.771	41507.16
645.124	41077.34
645.477	41175.64
645.83	40924.57
646.182	40798.93
646.535	40724.58
646.888	40752.15
647.24	40429.9
647.593	40727.74
647.945	40620.4
648.298	40583.11
648.65	40450.46
649.002	40466.51
649.355	40468.09
649.707	40429.22
650.059	40608.42
650.411	41044.57
650.763	40995.76
651.115	41425.35
651.467	41344.68
651.819	41366.6
652.171	41370.44
652.523	41132.25
652.875	41131.12
653.227	41035.08
653.578	41320.72
653.93	41130.9
654.282	41203.66
654.633	40918.25
654.985	41070.56
655.337	41058.13
655.688	41060.62
656.039	41159.82
656.391	40729.32
656.742	40911.01
657.094	40833.73
657.445	41030.56
657.796	40836.21
658.147	40793.96
658.498	40663.34
658.849	40992.82
659.2	40805.48
659.551	40715.31
659.902	40774.07
660.253	40701.08
660.604	40839.83
660.955	40513.51
661.306	40782.43
661.656	40781.3
662.007	40605.71
662.358	40759.15
662.708	40781.3
663.059	40761.64
663.409	40491.82
663.76	40689.1
664.11	40755.09
664.461	40695.65
664.811	40719.83
665.161	40667.86
665.511	40573.85
665.862	40572.27
666.212	40728.42
666.562	40671.02
666.912	40628.99
667.262	40551.93
667.612	40647.74
667.962	40645.03
668.312	40560.74
668.662	40756.44
669.011	40517.58
669.361	40448.65
669.711	40463.79
670.06	40517.35
670.41	40391.48
670.76	40400.07
671.109	40427.86
671.459	40338.15
671.808	40237.59
672.157	40513.51
672.507	40087.31
672.856	40165.5
673.205	40276.46
673.554	40431.93
673.904	40266.74
674.253	40357.58
674.602	40314.87
674.951	39585.4
675.3	39527.55
675.649	40126.85
675.998	40072.17
676.346	40118.72
676.695	40241.88
677.044	39963.47
677.393	40027.87
677.741	39999.4
678.09	39983.58
678.438	39862.23
678.787	40063.81
679.135	39963.02
679.484	39705.17
679.832	39879.63
680.181	39658.84
680.529	39836.24
680.877	39605.74
681.225	39520.32
681.573	39819.74
681.922	39542.01
682.27	39548.56
682.618	39499.53
682.966	39449.36
683.314	39213.21
683.661	39242.58
684.009	39004.85
684.357	39065.19
684.705	38958.98
685.053	39154
685.4	39027.22
685.748	38714.01
686.095	38897.06
686.443	38635.37
686.79	38686.44
687.138	38758.3
687.485	38664.29
687.832	38580.91
688.18	38552.88
688.527	38231.99
688.874	38376.39
689.221	38378.2
689.568	38161.93
689.915	38085.78
690.262	38107.47
690.609	38076.06
690.956	38017.76
691.303	37743.19
691.65	37680.37
691.997	37575.06
692.344	37487.38
692.69	37321.28
693.037	37554.49
693.383	37044.68
693.73	37336.42
694.077	37106.59
694.423	36949.31
694.769	36729.2
695.116	36780.73
695.462	36683.78
695.808	36664.35
696.155	36654.4
696.501	36347.97
696.847	36419.83
697.193	36047.64
697.539	36217.58
697.885	35973.97
698.231	36034.08
698.577	35982.33
698.923	35968.09
699.269	35648.78
699.614	35623.47
699.96	35563.13
700.306	35584.6
700.651	35365.85
700.997	35355.45
701.342	35304.83
701.688	35201.56
702.033	35068.68
702.379	35192.75
702.724	35062.81
703.069	35014.22
703.415	34554.12
703.76	34678.41
704.105	34635.7
704.45	34597.73
704.795	34382.82
705.14	34223.28
705.485	34157.75
705.83	34096.5
706.175	34075.94
706.52	33979.45
706.865	33915.04
707.209	33861.03
707.554	33759.79
707.899	33795.95
708.243	33651.77
708.588	33562.06
708.932	33304.66
709.277	33309.41
709.621	33352.8
709.966	33174.04
710.31	33317.77
710.654	32965.01
710.998	32958
711.342	33030.54
711.687	32919.81
712.031	32805.47
712.375	32641.63
712.719	32694.28
713.063	32780.61
713.407	32708.74
713.75	32602.76
714.094	32524.79
714.438	32288.87
714.782	32425.36
715.125	32214.52
715.469	32255.88
715.812	32066.28
716.156	31979.27
716.499	31988.09
716.843	32071.02
717.186	31851.14
717.53	32063.11
717.873	31992.38
718.216	31830.8
718.559	31754.42
718.902	31481.21
719.246	31642.33
719.589	31521.43
719.932	31451.83
720.275	31364.83
720.617	31235.11
720.96	31299.97
721.303	31261.55
721.646	31300.19
721.989	30916.48
722.331	31123.7
722.674	31052.29
723.016	31142.91
723.359	31020.2
723.701	30942.01
724.044	30725.52
724.386	30635.58
724.729	30709.7
725.071	30634.45
725.413	30645.3
725.755	30552.64
726.097	30410.73
726.439	30346.55
726.782	30336.15
727.124	30467.45
727.465	30245.31
727.807	30267.45
728.149	30133.9
728.491	30218.19
728.833	30118.98
729.175	30045.54
729.516	29967.12
729.858	29868.82
730.199	29934.13
730.541	29885.99
730.882	29861.14
731.224	30081.69
731.565	29663.85
731.906	29703.4
732.248	29655.04
732.589	29586.57
732.93	29450.07
733.271	29389.06
733.612	29485.55
733.953	29477.87
734.294	29354.93
734.635	29213.24
734.976	29474.25
735.317	29242.85
735.658	29201.27
735.999	29173.7
736.339	29126.92
736.68	29269.74
737.021	29121.95
737.361	28989.97
737.702	29136.86
738.042	28990.42
738.383	28818
738.723	28986.81
739.063	28911.78
739.404	28861.84
739.744	28803.08
740.084	28604.67
740.424	28720.6
740.764	28619.36
741.104	28635.63
741.444	28523.09
741.784	28390.21
742.124	28421.85
742.464	28495.75
742.804	28350.22
743.143	28312.93
743.483	28350.67
743.823	28190.45
744.162	28137.57
744.502	28289.43
744.841	28139.6
745.181	28230.44
745.52	28061.41
745.86	28054.4
746.199	28003.56
746.538	28021.64
746.877	28070.45
747.216	27893.96
747.556	27795.43
747.895	27843.34
748.234	27808.53
748.573	27834.3
748.911	27698.93
749.25	27627.97
749.589	27576.9
749.928	27659.39
750.267	27592.95
750.605	27430.47
750.944	27449
751.283	27324.93
751.621	27557.02
751.96	27269.79
752.298	27274.31
752.636	27164.03
752.975	27145.5
753.313	26974.66
753.651	27077.48
753.989	26870.03
754.327	26874.77
754.666	26792.97
755.004	26910.03
755.342	26746.42
755.679	26725.85
756.017	26562.69
756.355	26645.63
756.693	26564.73
757.031	26558.85
