Data from hue_20_FLMS001491_28.txt Node
Date: Mon Feb 06 15:33:50 GMT 2017
User: dcchb
Spectrometer: FLMS00149
Trigger mode: 0
Integration Time (sec): 2.000000E-2
Scans to average: 10
Electric dark correction enabled: true
Nonlinearity correction enabled: false
Boxcar width: 0
XAxis mode: Wavelengths
Number of Pixels in Spectrum: 2048
>>>>>Begin Spectral Data<<<<<
341.393	1.31
341.776	1.31
342.16	1.31
342.543	-44.33
342.927	-84.56
343.31	-64
343.693	-66.26
344.077	-69.87
344.46	-61.51
344.843	-57.44
345.226	-36.2
345.61	-31.23
345.993	-19.25
346.376	-14.28
346.759	-13.15
347.142	21.88
347.525	58.26
347.908	70.01
348.291	91.93
348.674	73.63
349.057	117.47
349.44	105.72
349.823	159.95
350.206	156.11
350.588	190.24
350.971	233.85
351.354	212.83
351.737	242.44
352.119	251.7
352.502	283.34
352.884	272.04
353.267	278.82
353.65	296
354.032	326.95
354.414	319.05
354.797	308.2
355.179	311.59
355.562	322.44
355.944	320.85
356.326	322.89
356.709	350.91
357.091	318.82
357.473	349.55
357.855	315.88
358.238	339.16
358.62	343.9
359.002	338.25
359.384	368.31
359.766	345.26
360.148	328.08
360.53	324.02
360.912	334.19
361.294	317.24
361.676	329.67
362.057	340.06
362.439	320.85
362.821	353.17
363.203	337.8
363.584	321.98
363.966	338.93
364.348	312.49
364.729	316.11
365.111	309.33
365.493	339.84
365.874	313.85
366.256	324.02
366.637	303
367.019	307.29
367.4	318.59
367.781	329.44
368.163	332.38
368.544	302.77
368.925	288.54
369.306	317.69
369.688	299.38
370.069	292.38
370.45	313.85
370.831	321.98
371.212	315.2
371.593	321.53
371.974	321.76
372.355	320.4
372.736	363.11
373.117	322.44
373.498	305.03
373.879	318.14
374.26	320.18
374.641	298.71
375.021	291.48
375.402	311.36
375.783	336.45
376.163	312.72
376.544	350.68
376.925	330.57
377.305	330.8
377.686	327.63
378.066	336.67
378.447	329.89
378.827	318.59
379.208	324.24
379.588	321.76
379.968	313.4
380.349	326.28
380.729	339.38
381.109	352.26
381.489	325.82
381.87	345.03
382.25	318.59
382.63	322.44
383.01	334.64
383.39	346.39
383.77	327.18
384.15	331.7
384.53	349.1
384.91	363.11
385.29	366.28
385.67	344.13
386.049	365.82
386.429	355.2
386.809	338.25
387.189	352.72
387.568	347.52
387.948	346.84
388.328	350.23
388.707	345.26
389.087	352.26
389.466	359.5
389.846	352.72
390.225	342.1
390.605	366.05
390.984	368.76
391.363	357.24
391.743	348.88
392.122	360.63
392.501	373.73
392.881	372.6
393.26	370.57
393.639	374.19
394.018	375.77
394.397	357.24
394.776	364.24
395.155	379.83
395.534	377.57
395.913	375.31
396.292	386.16
396.671	360.63
397.05	398.37
397.429	382.09
397.808	379.61
398.186	394.98
398.565	375.54
398.944	402.66
399.323	395.43
399.701	383.22
400.08	403.34
400.458	385.26
400.837	380.96
401.215	399.5
401.594	384.35
401.972	378.03
402.351	392.94
402.729	408.08
403.107	377.12
403.486	411.02
403.864	417.8
404.242	409.89
404.62	425.48
404.999	432.49
405.377	416.44
405.755	409.21
406.133	410.12
406.511	403.56
406.889	398.59
407.267	432.26
407.645	425.94
408.023	423.68
408.401	437.46
408.779	434.3
409.156	427.74
409.534	430.23
409.912	426.84
410.29	437.01
410.667	441.53
411.045	465.93
411.422	455.76
411.8	447.63
412.178	456.89
412.555	438.82
412.933	440.4
413.31	462.32
413.687	448.76
414.065	454.41
414.442	455.99
414.819	464.58
415.197	443.79
415.574	486.95
415.951	467.29
416.328	451.92
416.705	479.49
417.082	479.04
417.46	499.15
417.837	467.06
418.214	510.68
418.591	475.88
418.967	494.18
419.344	490.34
419.721	507.06
420.098	481.75
420.475	488.31
420.852	504.8
421.228	513.62
421.605	532.15
421.982	522.66
422.358	511.36
422.735	513.16
423.111	523.11
423.488	507.97
423.864	548.64
424.241	531.24
424.617	544.8
424.994	528.76
425.37	509.55
425.746	528.76
426.123	539.15
426.499	531.24
426.875	525.14
427.251	544.8
427.627	566.04
428.003	573.73
428.379	566.72
428.756	561.3
429.132	553.84
429.507	589.32
429.883	563.78
430.259	578.02
430.635	582.32
431.011	591.81
431.387	622.54
431.763	577.12
432.138	604.24
432.514	614.4
432.89	619.15
433.265	608.53
433.641	630.68
434.016	601.98
434.392	631.58
434.767	620.73
435.143	629.77
435.518	656.66
435.894	641.07
436.269	663.44
436.644	667.06
437.02	676.1
437.395	665.93
437.77	644.69
438.145	700.05
438.52	652.6
438.895	682.88
439.271	661.41
439.646	693.72
440.021	681.07
440.395	678.81
440.77	710.22
441.145	718.81
441.52	724.91
441.895	702.09
442.27	722.42
442.645	725.14
443.019	716.55
443.394	721.29
443.769	740.28
444.143	743.21
444.518	748.41
444.892	717.9
445.267	737.57
445.641	760.62
446.016	760.16
446.39	755.42
446.764	766.04
447.139	761.07
447.513	752.03
447.887	782.08
448.262	798.35
448.636	771.01
449.01	797.68
449.384	796.32
449.758	772.14
450.132	762.65
450.506	795.19
450.88	795.87
451.254	792.93
451.628	804.91
452.002	829.77
452.376	821.86
452.75	826.38
453.123	826.15
453.497	847.84
453.871	814.63
454.244	868.64
454.618	865.92
454.992	860.27
455.365	875.19
455.739	899.37
456.112	904.34
456.486	879.48
456.859	916.32
457.232	921.52
457.606	935.07
457.979	932.36
458.352	931.91
458.725	940.05
459.099	970.78
459.472	968.75
459.845	986.15
460.218	997.67
460.591	995.86
460.964	1014.62
461.337	1040.61
461.71	1018.24
462.083	1042.87
462.456	1040.61
462.829	1049.65
463.201	1059.59
463.574	1054.85
463.947	1086.71
464.32	1079.7
464.692	1117.67
465.065	1113.6
465.438	1136.88
465.81	1149.53
466.183	1178.68
466.555	1155.41
466.928	1177.55
467.3	1181.17
467.672	1209.42
468.045	1225.46
468.417	1217.1
468.789	1273.82
469.161	1234.5
469.534	1281.96
469.906	1298.91
470.278	1309.3
470.65	1314.5
471.022	1342.75
471.394	1379.13
471.766	1402.86
472.138	1414.38
472.51	1418.68
472.882	1455.96
473.253	1450.77
473.625	1515.85
473.997	1509.07
474.369	1533.7
474.74	1536.41
475.112	1558.56
475.484	1611.21
475.855	1627.94
476.227	1660.7
476.598	1674.94
476.97	1741.83
477.341	1753.36
477.713	1749.52
478.084	1816.41
478.455	1863.41
478.827	1888.95
479.198	1944.99
479.569	1939.34
479.94	1995.84
480.311	1990.87
480.682	2066.8
481.053	2092.56
481.424	2149.05
481.795	2193.57
482.166	2233.57
482.537	2254.36
482.908	2332.55
483.279	2347.47
483.65	2385.88
484.021	2410.74
484.391	2437.63
484.762	2548.82
485.133	2531.19
485.503	2581.81
485.874	2632.43
486.244	2678.53
486.615	2718.08
486.985	2747
487.356	2817.96
487.726	2894.12
488.097	2923.27
488.467	2902.93
488.837	2993.55
489.207	3060.89
489.578	3103.38
489.948	3142.93
490.318	3205.98
490.688	3200.55
491.058	3245.52
491.428	3305.41
491.798	3326.65
492.168	3406.65
492.538	3464.27
492.908	3451.17
493.278	3537.94
493.648	3539.98
494.017	3600.09
494.387	3678.73
494.757	3700.65
495.126	3740.88
495.496	3744.04
495.866	3775.23
496.235	3777.26
496.605	3845.51
496.974	3896.58
497.344	3894.54
497.713	3955.11
498.082	3975.9
498.452	4025.39
498.821	4034.88
499.19	4082.34
499.559	4093.64
499.928	4110.36
500.298	4155.78
500.667	4214.99
501.036	4199.17
501.405	4265.61
501.774	4280.52
502.143	4349.67
502.512	4322.56
502.88	4306.29
503.249	4396.68
503.618	4349.67
503.987	4414.08
504.356	4433.29
504.724	4441.87
505.093	4503.34
505.462	4534.08
505.83	4513.74
506.199	4558.48
506.567	4567.97
506.936	4585.6
507.304	4617.69
507.672	4665.37
508.041	4679.38
508.409	4697.69
508.777	4727.97
509.145	4768.19
509.514	4742.21
509.882	4770.23
510.25	4800.96
510.618	4816.78
510.986	4847.97
511.354	4872.82
511.722	4879.6
512.09	4951.69
512.458	4929.32
512.826	4984.01
513.193	4932.71
513.561	4984.46
513.929	5016.1
514.297	5075.3
514.664	5053.16
515.032	5055.42
515.4	5092.03
515.767	5128.86
516.135	5162.31
516.502	5118.69
516.869	5141.07
517.237	5196.66
517.604	5172.25
517.972	5179.48
518.339	5238.69
518.706	5244.79
519.073	5250.67
519.44	5273.27
519.808	5294.06
520.175	5322.76
520.542	5361.4
520.909	5360.49
521.276	5389.87
521.643	5397.56
522.009	5376.77
522.376	5447.5
522.743	5468.97
523.11	5492.92
523.477	5530.43
523.843	5546.48
524.21	5629.64
524.577	5672.8
524.943	5619.92
525.31	5649.75
525.676	5654.5
526.043	5723.42
526.409	5781.27
526.776	5820.37
527.142	5802.74
527.508	5837.54
527.874	5840.93
528.241	5894.94
528.607	5871.22
528.973	5985.11
529.339	5943.3
529.705	6046.13
530.071	6020.36
530.437	6132.23
530.803	6147.82
531.169	6125.22
531.535	6111.44
531.901	6124.09
532.267	6177.42
532.632	6207.93
532.998	6224.43
533.364	6248.38
533.73	6299.45
534.095	6357.98
534.461	6358.43
534.826	6380.58
535.192	6336.51
535.557	6447.25
535.923	6481.14
536.288	6489.05
536.653	6492.89
537.019	6503.06
537.384	6492.67
537.749	6560.46
538.114	6577.19
538.479	6587.13
538.845	6653.57
539.21	6619.22
539.575	6705.09
539.94	6725.2
540.305	6697.18
540.67	6785.77
541.034	6763.85
541.399	6817.18
541.764	6821.93
542.129	6825.54
542.494	6905.99
542.858	6990.06
543.223	6968.36
543.587	6996.84
543.952	6934.92
544.316	7039.32
544.681	7044.97
545.045	7022.15
545.41	7148.47
545.774	7150.05
546.138	7168.81
546.503	7220.78
546.867	7203.61
547.231	7293.55
547.595	7271.86
547.959	7321.8
548.324	7313.21
548.688	7319.54
549.052	7352.53
549.416	7458.74
549.779	7374.45
550.143	7433.43
550.507	7497.16
550.871	7528.57
551.235	7489.25
551.599	7574.67
551.962	7586.88
552.326	7618.51
552.689	7666.65
553.053	7632.07
553.417	7639.98
553.78	7723.14
554.143	7707.33
554.507	7777.61
554.87	7837.94
555.234	7804.27
555.597	7766.31
555.96	7847.89
556.323	7880.88
556.686	7864.61
557.05	7963.36
557.413	7857.15
557.776	8005.62
558.139	8013.53
558.502	8067.77
558.865	8029.35
559.228	8083.81
559.59	8127.65
559.953	8131.95
560.316	8158.16
560.679	8152.51
561.041	8295.11
561.404	8296.69
561.767	8296.91
562.129	8286.75
562.492	8388.44
562.854	8375.56
563.217	8367.2
563.579	8369.68
563.941	8441.09
564.304	8430.47
564.666	8520.41
565.028	8492.39
565.39	8556.57
565.753	8610.58
566.115	8650.8
566.477	8668.88
566.839	8710.24
567.201	8758.15
567.563	8723.34
567.925	8763.34
568.287	8799.73
568.648	8850.57
569.01	8859.61
569.372	8922.21
569.734	8933.51
570.095	8951.59
570.457	9014.64
570.819	9060.74
571.18	9026.39
571.542	9101.64
571.903	9109.55
572.265	9246.95
572.626	9268.87
572.987	9306.38
573.349	9341.41
573.71	9404.91
574.071	9480.39
574.432	9511.57
574.794	9640.38
575.155	9681.06
575.516	9713.15
575.877	9789.08
576.238	9801.06
576.599	9888.96
576.96	9979.13
577.32	10055.51
577.681	10181.38
578.042	10206.24
578.403	10393.36
578.763	10443.98
579.124	10490.98
579.485	10651.88
579.845	10804.42
580.206	10939.56
580.566	11056.62
580.927	11121.47
581.287	11326.44
581.648	11494.12
582.008	11635.58
582.368	11711.74
582.728	11957.38
583.089	12024.73
583.449	12231.73
583.809	12427.43
584.169	12741.32
584.529	12883.01
584.889	13222.21
585.249	13289.33
585.609	13466.04
585.969	13787.62
586.329	14015.41
586.688	14289.53
587.048	14564.77
587.408	14781.72
587.768	15012.9
588.127	15294.47
588.487	15600.45
588.846	15976.94
589.206	16151.62
589.565	16471.61
589.925	16874.09
590.284	17062.56
590.643	17358.37
591.003	17800.85
591.362	18075.87
591.721	18433.6
592.08	18780.48
592.44	19106.57
592.799	19523.06
593.158	19796.95
593.517	20140.22
593.876	20509.47
594.235	20793.08
594.593	21166.18
594.952	21665.38
595.311	21932.04
595.67	22313.04
596.029	22783.54
596.387	23014.04
596.746	23574.7
597.104	23753.91
597.463	24220.79
597.822	24603.38
598.18	24923.14
598.538	25245.62
598.897	25719.96
599.255	25913.17
599.613	26651.23
599.972	26707.96
600.33	27215.97
600.688	27376.86
601.046	27759.91
601.404	28454.12
601.762	28618.87
602.12	29044.39
602.478	29409.13
602.836	29663.36
603.194	29855.22
603.552	30306.96
603.91	30533.62
604.268	30936.32
604.625	31244.79
604.983	31710.99
605.341	31817.65
605.698	32348.71
606.056	32637.52
606.413	32951.86
606.771	33271.4
607.128	33609.47
607.485	33801.33
607.843	33964.94
608.2	34514.76
608.557	34851.92
608.914	35003.33
609.272	35304.79
609.629	35662.97
609.986	36009.63
610.343	36097.77
610.7	36641.48
611.057	36768.48
611.414	36987.91
611.771	37250.96
612.127	37585.64
612.484	37785.86
612.841	38011.39
613.198	38171.38
613.554	38253.87
613.911	38736.79
614.267	38908.77
614.624	39075.09
614.98	39323.22
615.337	39742.19
615.693	39767.5
616.05	39912.81
616.406	40342.4
616.762	40299.46
617.118	40495.84
617.475	40706.23
617.831	40945.77
618.187	41141.93
618.543	41239.78
618.899	41706.66
619.255	41768.35
619.611	41791.4
619.967	42258.51
620.323	42364.95
620.678	42230.26
621.034	42240.43
621.39	42449.46
621.746	42572.62
622.101	43119.73
622.457	42959.05
622.812	43173.06
623.168	43323.79
623.523	43415.54
623.879	43483.11
624.234	43429.55
624.589	43680.84
624.945	43847.17
625.3	43996.77
625.655	43878.35
626.01	44008.29
626.365	44146.59
626.72	44044
627.075	44148.18
627.43	44310.66
627.785	44309.08
628.14	44429.3
628.495	44646.24
628.85	44557.2
629.205	44541.84
629.559	44764.88
629.914	44693.47
630.269	44748.61
630.623	44788.84
630.978	44791.55
631.332	44905.22
631.687	45076.51
632.041	44953.13
632.396	45024.54
632.75	44908.16
633.104	45016.4
633.459	44845.11
633.813	45051.88
634.167	44985.89
634.521	45055.04
634.875	45135.49
635.229	45065.21
635.583	44989.51
635.937	44981.15
636.291	45107.47
636.645	44940.02
636.999	44994.71
637.352	45158.09
637.706	44916.29
638.06	45028.38
638.413	44987.02
638.767	45041.71
639.121	45055.5
639.474	44701.16
639.828	44950.64
640.181	44986.57
640.534	44986.8
640.888	44765.11
641.241	44643.53
641.594	44929.17
641.947	45000.36
642.301	44845.33
642.654	45043.52
643.007	44963.75
643.36	44844.2
643.713	44812.79
644.066	44948.83
644.419	44611.21
644.771	44425.68
645.124	44155.41
645.477	44116.76
645.83	43907.05
646.182	43809.88
646.535	43634.52
646.888	43935.3
647.24	43619.15
647.593	43780.5
647.945	43769.65
648.298	43673.61
648.65	43517.01
649.002	43404.24
649.355	43587.51
649.707	43452.37
650.059	43579.38
650.411	44137.33
650.763	44109.31
651.115	44601.27
651.467	44441.73
651.819	44489.86
652.171	44329.19
652.523	44384.78
652.875	44402.86
653.227	44147.72
653.578	44431.78
653.93	44410.54
654.282	44196.08
654.633	44099.59
654.985	43916.32
655.337	44419.35
655.688	44079.7
656.039	44362.18
656.391	43927.16
656.742	44154.73
657.094	44208.51
657.445	44227.27
657.796	44124
658.147	44072.02
658.498	43996.54
658.849	44180.26
659.2	44066.14
659.551	44002.19
659.902	44167.16
660.253	43999.03
660.604	44073.38
660.955	43884
661.306	44018.01
661.656	43894.62
662.007	44010.33
662.358	43874.74
662.708	43996.09
663.059	43860.73
663.409	43689.88
663.76	44058.46
664.11	43969.65
664.461	43957.9
664.811	43938.01
665.161	43980.95
665.511	43795.64
665.862	44021.62
666.212	44085.58
666.562	43981.63
666.912	44081.28
667.262	43788.64
667.612	43849.88
667.962	43879.03
668.312	43792.7
668.662	44058.91
669.011	43924
669.361	43944.56
669.711	43753.38
670.06	43830.44
670.41	43738.92
670.76	43501.86
671.109	43881.52
671.459	43723.78
671.808	43728.75
672.157	43742.31
672.507	43477.23
672.856	43476.55
673.205	43562.88
673.554	43690.79
673.904	43594.29
674.253	43711.35
674.602	43709.32
674.951	43052.16
675.3	42898.26
675.649	43502.09
675.998	43344.58
676.346	43554.07
676.695	43640.39
677.044	43242.89
677.393	43353.17
677.741	43391.59
678.09	43368.99
678.438	43152.27
678.787	43268.65
679.135	43337.12
679.484	43059.39
679.832	43256.45
680.181	43060.97
680.529	43152.04
680.877	43039.5
681.225	42846.29
681.573	43066.85
681.922	42846.29
682.27	42838.38
682.618	42896.46
682.966	42705.95
683.314	42745.95
683.661	42550.03
684.009	42409.92
684.357	42293.31
684.705	42264.38
685.053	42445.4
685.4	42372.63
685.748	42239.52
686.095	42116.36
686.443	42009.47
686.79	41998.85
687.138	42047.21
687.485	42006.76
687.832	41776.71
688.18	41961.11
688.527	41599.54
688.874	41624.85
689.221	41499.43
689.568	41463.27
689.915	41390.06
690.262	41465.76
690.609	41319.55
690.956	41071.42
691.303	41034.81
691.65	40993.91
691.997	41078.2
692.344	40755.27
692.69	40647.93
693.037	40670.07
693.383	40346.69
693.73	40513.47
694.077	40213.14
694.423	40320.25
694.769	40001.84
695.116	40067.83
695.462	39917.1
695.808	39855.18
696.155	39781.74
696.501	39611.35
696.847	39641.85
697.193	39288.87
697.539	39452.03
697.885	39170.91
698.231	39245.71
698.577	39108.76
698.923	38899.73
699.269	38864.47
699.614	38643.69
699.96	38634.42
700.306	38608.21
700.651	38414.99
700.997	38360.76
701.342	38288.22
701.688	38207.54
702.033	38077.15
702.379	38031.73
702.724	38070.37
703.069	38094.55
703.415	37575.47
703.76	37664.28
704.105	37775.24
704.45	37579.31
704.795	37292.08
705.14	37269.49
705.485	37257.06
705.83	37097.74
706.175	37104.52
706.52	37027.91
706.865	36845.99
707.209	36823.62
707.554	36876.05
707.899	36889.16
708.243	36589.96
708.588	36697.75
708.932	36375.72
709.277	36293.92
709.621	36338.44
709.966	36062.74
710.31	36153.13
710.654	36041.95
710.998	35916.3
711.342	35919.01
711.687	35886.47
712.031	35640.15
712.375	35614.84
712.719	35629.98
713.063	35523.32
713.407	35615.07
713.75	35439.7
714.094	35357.45
714.438	35205.13
714.782	35273.15
715.125	35025.25
715.469	35163.78
715.812	35071.35
716.156	34814.86
716.499	34895.54
716.843	34944.35
717.186	34644.7
717.53	34793.62
717.873	34856.89
718.216	34636.11
718.559	34624.81
718.902	34321.09
719.246	34437.7
719.589	34208.55
719.932	34128.1
720.275	34300.52
720.617	34053.3
720.96	34148.66
721.303	34097.37
721.646	34089.23
721.989	33884.94
722.331	33957.03
722.674	33738.51
723.016	33979.63
723.359	33585.97
723.701	33823.25
724.044	33548.45
724.386	33485.4
724.729	33524.95
725.071	33455.35
725.413	33468
725.755	33498.06
726.097	33295.81
726.439	33154.79
726.782	33141.46
727.124	33150.5
727.465	32993.21
727.807	32958.64
728.149	32947.34
728.491	32875.93
728.833	32819.43
729.175	32741.24
729.516	32698.76
729.858	32624.64
730.199	32750.51
730.541	32648.14
730.882	32521.81
731.224	32598.87
731.565	32391.2
731.906	32502.61
732.248	32471.65
732.589	32345.55
732.93	32177.64
733.271	32229.17
733.612	32200.47
733.953	32244.76
734.294	32079.34
734.635	32103.07
734.976	32117.98
735.317	31955.73
735.658	32025.33
735.999	32032.56
736.339	31815.39
736.68	32010.19
737.021	31796.86
737.361	31728.16
737.702	31815.17
738.042	31754.83
738.383	31705.34
738.723	31751.89
739.063	31589.18
739.404	31626.7
739.744	31562.97
740.084	31248.18
740.424	31458.34
740.764	31281.4
741.104	31352.58
741.444	31248.85
741.784	31020.16
742.124	31202.3
742.464	31040.5
742.804	30984.45
743.143	30962.08
743.483	30954.4
743.823	30798.7
744.162	30946.94
744.502	30796.89
744.841	30657.91
745.181	30917.11
745.52	30751.92
745.86	30796.89
746.199	30612.71
746.538	30648.19
746.877	30644.8
747.216	30636.67
747.556	30533.84
747.895	30533.84
748.234	30392.15
748.573	30308.54
748.911	30372.94
749.25	30224.02
749.589	30118.04
749.928	30100.18
750.267	30151.26
750.605	30184.47
750.944	30061.09
751.283	29898.61
751.621	30109.9
751.96	29869
752.298	29892.96
752.636	29904.48
752.975	29706.75
753.313	29471.73
753.651	29775.45
753.989	29616.35
754.327	29550.37
754.666	29483.7
755.004	29560.99
755.342	29599.18
755.679	29433.53
756.017	29250.71
756.355	29319.64
756.693	29212.52
757.031	29202.35
757.368	29039.65
757.706	29101.34
758.044	28905.64
758.381	28967.33
758.719	28912.87
759.056	28938.18
759.394	28766.43
759.731	28500.45
760.068	28600.79
760.405	28469.94
