Data from hue_36_FLMS001491_00023.txt Node
Date: Tue Feb 07 17:29:35 GMT 2017
User: dcchb
Spectrometer: FLMS00149
Trigger mode: 0
Integration Time (sec): 2.000000E-2
Scans to average: 10
Electric dark correction enabled: true
Nonlinearity correction enabled: false
Boxcar width: 0
XAxis mode: Wavelengths
Number of Pixels in Spectrum: 2048
>>>>>Begin Spectral Data<<<<<
341.393	-24
341.776	-24
342.16	-24
342.543	-61.28
342.927	-63.09
343.31	-59.25
343.693	-54.05
344.077	-69.42
344.46	-49.76
344.843	-65.13
345.226	-48.85
345.61	-29.42
345.993	-25.35
346.376	-7.95
346.759	6.74
347.142	18.49
347.525	36.79
347.908	49.67
348.291	101.2
348.674	88.32
349.057	107.98
349.44	114.3
349.823	140.97
350.206	157.69
350.588	185.26
350.971	192.27
351.354	226.84
351.737	228.2
352.119	240.86
352.502	263.45
352.884	282.89
353.267	276.79
353.65	279.5
354.032	292.83
354.414	291.93
354.797	336.9
355.179	338.03
355.562	305.94
355.944	328.99
356.326	337.58
356.709	327.18
357.091	344.36
357.473	338.48
357.855	332.6
358.238	345.49
358.62	349.78
359.002	372.83
359.384	345.94
359.766	325.82
360.148	333.51
360.53	329.21
360.912	341.19
361.294	345.71
361.676	339.61
362.057	325.15
362.439	326.73
362.821	334.19
363.203	315.43
363.584	324.92
363.966	312.72
364.348	313.85
364.729	312.72
365.111	305.03
365.493	297.35
365.874	310.46
366.256	333.06
366.637	304.81
367.019	325.37
367.4	306.39
367.781	304.58
368.163	294.19
368.544	308.2
368.925	318.59
369.306	315.88
369.688	303.68
370.069	310.01
370.45	271.81
370.831	314.07
371.212	317.24
371.593	300.74
371.974	330.8
372.355	313.85
372.736	308.42
373.117	297.8
373.498	292.38
373.879	318.82
374.26	317.69
374.641	303.68
375.021	309.33
375.402	328.54
375.783	323.11
376.163	305.26
376.544	333.96
376.925	327.18
377.305	309.1
377.686	294.19
378.066	333.96
378.447	337.12
378.827	328.31
379.208	307.29
379.588	333.96
379.968	333.06
380.349	322.66
380.729	317.01
381.109	333.96
381.489	332.15
381.87	306.16
382.25	325.37
382.63	324.47
383.01	340.29
383.39	345.71
383.77	346.16
384.15	333.96
384.53	323.11
384.91	344.81
385.29	345.71
385.67	355.88
386.049	338.03
386.429	355.2
386.809	347.52
387.189	353.17
387.568	344.81
387.948	352.49
388.328	339.16
388.707	349.33
389.087	341.87
389.466	377.8
389.846	371.02
390.225	367.86
390.605	358.37
390.984	345.71
391.363	358.59
391.743	359.27
392.122	361.98
392.501	365.6
392.881	363.34
393.26	362.43
393.639	370.57
394.018	364.92
394.397	358.37
394.776	375.54
395.155	380.74
395.534	367.63
395.913	359.72
396.292	373.73
396.671	377.8
397.05	361.08
397.429	374.86
397.808	369.44
398.186	375.09
398.565	377.12
398.944	375.99
399.323	398.14
399.701	363.11
400.08	380.96
400.458	395.43
400.837	378.48
401.215	406.73
401.594	408.99
401.972	423
402.351	391.13
402.729	405.82
403.107	413.96
403.486	375.99
403.864	400.17
404.242	369.21
404.62	393.85
404.999	387.97
405.377	414.41
405.755	434.52
406.133	410.57
406.511	392.26
406.889	441.98
407.267	412.38
407.645	424.35
408.023	432.49
408.401	427.52
408.779	439.27
409.156	438.82
409.534	431.13
409.912	429.78
410.29	409.66
410.667	437.69
411.045	417.12
411.422	435.2
411.8	454.41
412.178	457.57
412.555	460.96
412.933	432.26
413.31	445.14
413.687	454.18
414.065	448.31
414.442	458.25
414.819	441.98
415.197	481.07
415.574	468.65
415.951	490.34
416.328	474.07
416.705	472.49
417.082	454.63
417.46	493.05
417.837	475.88
418.214	486.27
418.591	492.37
418.967	486.5
419.344	485.82
419.721	505.93
420.098	484.92
420.475	494.63
420.852	511.13
421.228	548.64
421.605	499.61
421.982	528.31
422.358	527.18
422.735	517.91
423.111	527.4
423.488	516.78
423.864	520.62
424.241	545.48
424.617	527.63
424.994	525.37
425.37	540.51
425.746	552.71
426.123	573.73
426.499	518.81
426.875	553.39
427.251	574.63
427.627	558.59
428.003	555.88
428.379	562.88
428.756	584.12
429.132	590.45
429.507	591.58
429.883	573.5
430.259	607.4
430.635	603.56
431.011	597.68
431.387	587.51
431.763	606.95
432.138	619.15
432.514	631.81
432.89	617.79
433.265	637.45
433.641	638.13
434.016	635.65
434.392	645.36
434.767	637.23
435.143	646.95
435.518	659.83
435.894	684.23
436.269	664.57
436.644	668.87
437.02	693.05
437.395	669.09
437.77	671.35
438.145	693.5
438.52	665.02
438.895	698.47
439.271	714.29
439.646	716.32
440.021	721.07
440.395	706.61
440.77	702.76
441.145	748.86
441.52	717.45
441.895	735.31
442.27	757.23
442.645	734.18
443.019	730.33
443.394	728.98
443.769	736.66
444.143	764.68
444.518	750.22
444.892	749.77
445.267	759.03
445.641	771.01
446.016	789.77
446.39	776.43
446.764	764.23
447.139	786.38
447.513	785.93
447.887	782.08
448.262	799.94
448.636	785.47
449.01	804.46
449.384	816.89
449.758	794.96
450.132	819.82
450.506	831.35
450.88	832.93
451.254	833.83
451.628	835.42
452.002	826.38
452.376	864.57
452.75	867.73
453.123	883.55
453.497	885.13
453.871	894.85
454.244	881.06
454.618	900.95
454.992	898.47
455.365	900.05
455.739	931.46
456.112	929.42
456.486	947.28
456.859	965.81
457.232	955.19
457.606	949.31
457.979	968.97
458.352	969.42
458.725	1019.59
459.099	994.73
459.472	1045.35
459.845	1045.35
460.218	1051.91
460.591	1018.24
460.964	1051.46
461.337	1082.64
461.71	1075.86
462.083	1100.49
462.456	1108.4
462.829	1094.62
463.201	1125.8
463.574	1132.13
463.947	1161.73
464.32	1216.87
464.692	1174.39
465.065	1181.4
465.438	1203.99
465.81	1207.84
466.183	1210.32
466.555	1251.22
466.928	1268.4
467.3	1262.75
467.672	1295.29
468.045	1297.55
468.417	1339.81
468.789	1338.68
469.161	1351.56
469.534	1389.3
469.906	1406.7
470.278	1443.76
470.65	1458.9
471.022	1472.69
471.394	1514.49
471.766	1546.81
472.138	1554.49
472.51	1567.6
472.882	1619.12
473.253	1626.36
473.625	1667.03
473.997	1674.49
474.369	1709.74
474.74	1760.59
475.112	1797.42
475.484	1833.58
475.855	1862.73
476.227	1891.21
476.598	1985.22
476.97	2031.99
477.341	2046.23
477.713	2113.12
478.084	2125.78
478.455	2197.87
478.827	2197.87
479.198	2281.93
479.569	2340.46
479.94	2371.65
480.311	2469.5
480.682	2503.17
481.053	2637.18
481.424	2650.74
481.795	2704.52
482.166	2762.6
482.537	2864.29
482.908	2962.59
483.279	2980.22
483.65	3038.07
484.021	3177.28
484.391	3189.7
484.762	3276.93
485.133	3391.28
485.503	3465.63
485.874	3536.14
486.244	3627.21
486.615	3760.08
486.985	3807.99
487.356	3929.12
487.726	3997.37
488.097	4080.08
488.467	4106.06
488.837	4257.02
489.207	4374.76
489.578	4444.59
489.948	4506.73
490.318	4672.15
490.688	4723.68
491.058	4869.89
491.428	4924.35
491.798	5058.58
492.168	5126.15
492.538	5244.79
492.908	5283.21
493.278	5468.51
493.648	5486.14
494.017	5623.99
494.387	5692.92
494.757	5805.23
495.126	5892.46
495.496	5987.14
495.866	6077.99
496.235	6131.77
496.605	6258.1
496.974	6348.94
497.344	6397.98
497.713	6456.29
498.082	6594.81
498.452	6719.33
498.821	6776.95
499.19	6811.3
499.559	6951.64
499.928	6977.85
500.298	7061.47
500.667	7185.76
501.036	7197.06
501.405	7331.97
501.774	7352.53
502.143	7399.54
502.512	7478.86
502.88	7531.96
503.249	7636.37
503.618	7762.92
503.987	7789.36
504.356	7889.69
504.724	7924.04
505.093	8015.34
505.462	8076.58
505.83	8107.99
506.199	8290.81
506.567	8325.61
506.936	8412.17
507.304	8524.48
507.672	8506.85
508.041	8602.9
508.409	8655.78
508.777	8755.89
509.145	8852.15
509.514	8865.94
509.882	8920.4
510.25	8990.91
510.618	9007.18
510.986	9104.35
511.354	9170.79
511.722	9284.91
512.09	9357.23
512.458	9285.82
512.826	9505.92
513.193	9487.17
513.561	9551.57
513.929	9659.36
514.297	9721.06
514.664	9715.86
515.032	9815.74
515.4	9963.54
515.767	9898.45
516.135	10056.19
516.502	9912.24
516.869	10097.77
517.237	10112.01
517.604	10133.93
517.972	10217.54
518.339	10347.26
518.706	10325.79
519.073	10415.95
519.44	10433.58
519.808	10601.49
520.175	10599.23
520.542	10713.12
520.909	10794.7
521.276	10826.11
521.643	10912.67
522.009	10957.18
522.376	11043.06
522.743	11076.5
523.11	11201.47
523.477	11326.44
523.843	11289.15
524.21	11356.95
524.577	11506.32
524.943	11497.51
525.31	11572.76
525.676	11675.81
526.043	11722.59
526.409	11757.61
526.776	11896.37
527.142	11926.42
527.508	12009.59
527.874	12091.84
528.241	12182.91
528.607	12193.76
528.973	12371.84
529.339	12342.23
529.705	12549.91
530.071	12575.22
530.437	12630.13
530.803	12691.38
531.169	12789.45
531.535	12758.94
531.901	12906.96
532.267	12848.43
532.632	12949.22
532.998	13065.83
533.364	13092.27
533.73	13145.83
534.095	13224.02
534.461	13259.72
534.826	13343.79
535.192	13317.57
535.557	13488.64
535.923	13507.17
536.288	13589.88
536.653	13644.12
537.019	13616.55
537.384	13665.81
537.749	13719.82
538.114	13716.21
538.479	13802.53
538.845	13875.75
539.21	13976.09
539.575	14014.96
539.94	13958.46
540.305	14176.99
540.67	14096.31
541.034	14181.05
541.399	14259.7
541.764	14274.38
542.129	14294.27
542.494	14391.22
542.858	14480.03
543.223	14490.42
543.587	14571.1
543.952	14608.61
544.316	14642.96
544.681	14736.29
545.045	14765.67
545.41	14804.54
545.774	14904.2
546.138	14942.16
546.503	15023.97
546.867	15033.69
547.231	15102.39
547.595	15146.23
547.959	15231.2
548.324	15161.82
548.688	15233.91
549.052	15387.35
549.416	15463.51
549.779	15424.18
550.143	15389.61
550.507	15527.68
550.871	15614.01
551.235	15581.47
551.599	15721.58
551.962	15725.87
552.326	15783.72
552.689	15841.12
553.053	15840.22
553.417	15907.11
553.78	16133.54
554.143	16042.25
554.507	16146.65
554.87	16234.78
555.234	16283.6
555.597	16160.66
555.96	16381
556.323	16425.51
556.686	16434.33
557.05	16575.12
557.413	16613.53
557.776	16603.81
558.139	16719.52
558.502	16694.21
558.865	16825.73
559.228	16970.13
559.59	17058.49
559.953	16971.49
560.316	17183.01
560.679	17159.05
561.041	17275.44
561.404	17327.41
561.767	17412.38
562.129	17393.85
562.492	17514.53
562.854	17544.36
563.217	17510.46
563.579	17520.85
563.941	17710
564.304	17759.49
564.666	17898.02
565.028	17888.98
565.39	18010.78
565.753	18008.07
566.115	17996.09
566.477	18071.12
566.839	18285.58
567.201	18368.51
567.563	18419.81
567.925	18413.26
568.287	18499.81
568.648	18591.33
569.01	18719.24
569.372	18740.03
569.734	18806.02
570.095	18902.96
570.457	18946.35
570.819	18981.61
571.18	19083.3
571.542	19157.42
571.903	19254.82
572.265	19309.28
572.626	19341.14
572.987	19547.47
573.349	19506.34
573.71	19615.94
574.071	19703.85
574.432	19784.07
574.794	20002.6
575.155	20023.39
575.516	20053.89
575.877	20246.88
576.238	20254.11
576.599	20375.24
576.96	20554.45
577.32	20576.82
577.681	20751.5
578.042	20824.04
578.403	21068.1
578.763	21041.44
579.124	21273.97
579.485	21393.75
579.845	21580.63
580.206	21596.68
580.566	21689.56
580.927	21831.02
581.287	22142.2
581.648	22112.37
582.008	22425.58
582.368	22370.67
582.728	22705.58
583.089	22762.3
583.449	23002.29
583.809	23153.02
584.169	23327.48
584.529	23448.83
584.889	23807.47
585.249	23859.22
585.609	24019.89
585.969	24348.47
586.329	24454
586.688	24596.6
587.048	24751.17
587.408	25025.51
587.768	25272.51
588.127	25435.67
588.487	25571.94
588.846	25921.99
589.206	25980.74
589.565	26273.39
589.925	26589.31
590.284	26801.29
590.643	26858.23
591.003	27264.33
591.362	27442.63
591.721	27710.87
592.08	27824.08
592.44	28246.45
592.799	28421.36
593.158	28501.58
593.517	28697.73
593.876	28882.36
594.235	29092.98
594.593	29238.51
594.952	29771.38
595.311	29665.84
595.67	30046.4
596.029	30285.94
596.387	30523.45
596.746	30758.92
597.104	30820.39
597.463	30947.39
597.822	31479.13
598.18	31393.26
598.538	31586.47
598.897	32026.91
599.255	31905.11
599.613	32553
599.972	32538.54
600.33	32785.76
600.688	32803.16
601.046	33170.61
601.404	33392.3
601.762	33472.98
602.12	33749.8
602.478	33929.69
602.836	34125.16
603.194	34166.52
603.552	34422.78
603.91	34414.65
604.268	34722.89
604.625	34784.81
604.983	34984.12
605.341	34928.76
605.698	35225.02
606.056	35371.46
606.413	35507.72
606.771	35739.58
607.128	36014.15
607.485	35793.14
607.843	35983.19
608.2	36325.56
608.557	36365.78
608.914	36561.48
609.272	36712.21
609.629	36955.82
609.986	37196.95
610.343	37097.29
610.7	37540.21
611.057	37592.64
611.414	37470.61
611.771	37630.83
612.127	37934.78
612.484	38018.84
612.841	38203.7
613.198	38118.5
613.554	38260.65
613.911	38475.78
614.267	38626.29
614.624	38507.65
614.98	38824.7
615.337	38955.09
615.693	39023.11
616.05	39043.45
616.406	39284.8
616.762	39320.28
617.118	39425.59
617.475	39509.2
617.831	39697.44
618.187	39692.47
618.543	39810.44
618.899	40040.26
619.255	40168.84
619.611	39947.16
619.967	40348.28
620.323	40451.32
620.678	40277.99
621.034	40415.84
621.39	40361.38
621.746	40383.53
622.101	40907.13
622.457	40504.43
622.812	40697.19
623.168	40918.43
623.523	40858.77
623.879	41121.59
624.234	40933.8
624.589	41129.05
624.945	41160.68
625.3	41109.16
625.655	41228.03
626.01	41210.4
626.365	41399.32
626.72	41314.35
627.075	41333.11
627.43	41366.78
627.785	41286.78
628.14	41480.9
628.495	41402.71
628.85	41459.43
629.205	41358.87
629.559	41560.22
629.914	41369.27
630.269	41546.66
630.623	41467.79
630.978	41288.82
631.332	41612.42
631.687	41495.82
632.041	41611.52
632.396	41832.08
632.75	41546.66
633.104	41595.7
633.459	41364.75
633.813	41409.49
634.167	41455.14
634.521	41521.58
634.875	41490.62
635.229	41585.76
635.583	41380.11
635.937	41443.39
636.291	41299.89
636.645	41395.93
636.999	41400.9
637.352	41425.54
637.706	41288.14
638.06	41473.9
638.413	41373.56
638.767	41187.12
639.121	41303.96
639.474	41230.96
639.828	41150.51
640.181	41183.06
640.534	41196.84
640.888	41219.66
641.241	40905.55
641.594	41106.9
641.947	41233.68
642.301	40957.07
642.654	41120.01
643.007	41156.84
643.36	41282.04
643.713	40868.71
644.066	41184.19
644.419	40971.54
644.771	40670.98
645.124	40332
645.477	40251.33
645.83	40023.54
646.182	39954.16
646.535	39825.58
646.888	39964.56
647.24	39680.04
647.593	39935.63
647.945	39832.36
648.298	39728.86
648.65	39585.36
649.002	39499.94
649.355	39814.96
649.707	39731.79
650.059	39830.32
650.411	40367.26
650.763	40303.53
651.115	40664.65
651.467	40501.49
651.819	40566.8
652.171	40449.97
652.523	40451.55
652.875	40337.2
653.227	40259.92
653.578	40518.44
653.93	40477.99
654.282	40324.32
654.633	40121.61
654.985	40278.45
655.337	40203.87
655.688	40293.36
656.039	40431.89
656.391	40141.73
656.742	40150.99
657.094	40039.81
657.445	40334.26
657.796	40240.26
658.147	40166.13
658.498	40174.27
658.849	40182.86
659.2	40171.56
659.551	40032.58
659.902	40206.81
660.253	40053.37
660.604	40136.3
660.955	39880.72
661.306	40122.29
661.656	39971.56
662.007	40100.82
662.358	39999.81
662.708	39989.64
663.059	40025.35
663.409	39870.55
663.76	40198
664.11	40028.06
664.461	40073.48
664.811	40132.46
665.161	40013.37
665.511	39905.58
665.862	39908.29
666.212	40078
666.562	40045.91
666.912	39962.3
667.262	39860.38
667.612	39870.1
667.962	39788.97
668.312	39854.5
668.662	40087.27
669.011	39927.27
669.361	39954.39
669.711	39955.52
670.06	39871.9
670.41	39664.45
670.76	39741.74
671.109	39719.14
671.459	39701.51
671.808	39631.91
672.157	39855.63
672.507	39515.3
672.856	39567.5
673.205	39589.65
673.554	39735.41
673.904	39630.1
674.253	39828.29
674.602	39543.55
674.951	39155.76
675.3	38886.17
675.649	39449.09
675.998	39483.67
676.346	39527.28
676.695	39630.1
677.044	39203.45
677.393	39568.41
677.741	39477.11
678.09	39456.77
678.438	39372.03
678.787	39494.06
679.135	39500.39
679.484	39120.74
679.832	39325.93
680.181	39048.42
680.529	39275.08
680.877	39134.97
681.225	39109.44
681.573	39188.31
681.922	39066.05
682.27	38945.15
682.618	38859.27
682.966	38733.18
683.314	38901.08
683.661	38656.34
684.009	38568.21
684.357	38598.49
684.705	38400.3
685.053	38523.69
685.4	38574.54
685.748	38316.46
686.095	38282.57
686.443	38099.07
686.79	38040.77
687.138	38137.26
687.485	38113.76
687.832	38013.87
688.18	38145.62
688.527	37725.75
688.874	37917.15
689.221	37735.01
689.568	37687.78
689.915	37620.44
690.262	37572.3
690.609	37434.23
690.956	37483.04
691.303	37312.87
691.65	37169.6
691.997	37128.25
692.344	37075.37
692.69	37034.24
693.037	37043.96
693.383	36680.8
693.73	36848.93
694.077	36663.4
694.423	36691.42
694.769	36408.27
695.116	36465.21
695.462	36310.19
695.808	36257.31
696.155	36250.98
696.501	36058.22
696.847	36199.01
697.193	35769.41
697.539	35967.15
697.885	35714.72
698.231	35656.42
698.577	35517.22
698.923	35567.38
699.269	35468.63
699.614	35346.82
699.96	35175.3
700.306	35184.34
700.651	34969.21
700.997	34942.32
701.342	34936.89
701.688	34743.45
702.033	34566.96
702.379	34672.04
702.724	34637.46
703.069	34567.41
703.415	34144.14
703.76	34387.3
704.105	34139.4
704.45	34136.91
704.795	33983.02
705.14	33924.72
705.485	33835.23
705.83	33640.66
706.175	33765.62
706.52	33581.45
706.865	33604.27
707.209	33683.59
707.554	33413.99
707.899	33412.86
708.243	33234.11
708.588	33116.15
708.932	33010.84
709.277	33066.43
709.621	32965.64
709.966	32831.18
710.31	32995.02
710.654	32605.2
710.998	32684.75
711.342	32737.85
711.687	32608.37
712.031	32518.88
712.375	32286.34
712.719	32419.44
713.063	32223.07
713.407	32364.08
713.75	32085.44
714.094	32159.79
714.438	32111.43
714.782	32013.81
715.125	31983.52
715.469	31841.61
715.812	31723.19
716.156	31673.7
716.499	31719.12
716.843	31673.7
717.186	31512.8
717.53	31805
717.873	31700.37
718.216	31568.62
718.559	31351
718.902	31172.92
719.246	31311.22
719.589	31221.74
719.932	31056.77
720.275	31102.87
720.617	30980.61
720.96	30993.94
721.303	31031.46
721.646	31030.55
721.989	30707.4
722.331	30892.48
722.674	30795.53
723.016	30722.77
723.359	30668.98
723.701	30742.43
724.044	30477.8
724.386	30358.26
724.729	30444.81
725.071	30392.83
725.413	30438.03
725.755	30279.61
726.097	30256.56
726.439	30017.7
726.782	30280.52
727.124	30249.11
727.465	29921.43
727.807	30099.05
728.149	29909
728.491	29924.59
728.833	29960.3
729.175	29856.12
729.516	29708.56
729.858	29726.41
730.199	29709.91
730.541	29722.11
730.882	29589.01
731.224	29620.65
731.565	29459.97
731.906	29570.03
732.248	29539.29
732.589	29419.75
732.93	29257.27
733.271	29287.55
733.612	29311.05
733.953	29418.85
734.294	29161.22
734.635	29014.56
734.976	29172.07
735.317	29032.64
735.658	29079.19
735.999	29031.51
736.339	28880.55
736.68	28984.05
737.021	28924.85
737.361	28778.64
737.702	28873.1
738.042	28843.04
738.383	28724.63
738.723	28812.08
739.063	28594.01
739.404	28626.55
739.744	28599.43
740.084	28539.77
740.424	28558.3
740.764	28413.67
741.104	28532.31
741.444	28353.79
741.784	28383.62
742.124	28263.17
742.464	28226.11
742.804	28141.82
743.143	28185.88
743.483	28163.28
743.823	27957.41
744.162	27980.92
744.502	27975.72
744.841	27915.83
745.181	27943.4
745.52	27777.31
745.86	27851.65
746.199	27710.87
746.538	27731.66
746.877	27756.06
747.216	27786.12
747.556	27753.8
747.895	27733.47
748.234	27524.66
748.573	27543.41
748.911	27416.41
749.25	27495.96
749.589	27324.66
749.928	27369.86
750.267	27361.95
750.605	27329.86
750.944	27254.38
751.283	27145.91
751.621	27222.07
751.96	27086.7
752.298	27061.39
752.636	26949.76
752.975	26909.53
753.313	26766.26
753.651	26954.96
753.989	26857.1
754.327	26712.7
754.666	26619.6
755.004	26605.81
755.342	26686.71
755.679	26524.23
756.017	26365.59
756.355	26542.76
756.693	26434.74
757.031	26401.98
757.368	26240.17
