Data from hue_22_FLMS001491_00018.txt Node
Date: Tue Feb 07 17:09:41 GMT 2017
User: dcchb
Spectrometer: FLMS00149
Trigger mode: 0
Integration Time (sec): 2.000000E-2
Scans to average: 10
Electric dark correction enabled: true
Nonlinearity correction enabled: false
Boxcar width: 0
XAxis mode: Wavelengths
Number of Pixels in Spectrum: 2048
>>>>>Begin Spectral Data<<<<<
341.393	0.51
341.776	0.51
342.16	0.51
342.543	-68.87
342.927	-59.38
343.31	-67.96
343.693	-52.15
344.077	-67.96
344.46	-63.9
344.843	-71.13
345.226	-42.88
345.61	-30
345.993	-19.15
346.376	-11.92
346.759	4.58
347.142	31.92
347.525	50.68
347.908	59.04
348.291	76.44
348.674	98.58
349.057	105.82
349.44	146.95
349.823	149.88
350.206	166.61
350.588	210.67
350.971	217.23
351.354	242.08
351.737	238.24
352.119	265.81
352.502	269.43
352.884	280.28
353.267	295.64
353.65	292.7
354.032	305.13
354.414	326.83
354.797	323.89
355.179	327.96
355.562	328.64
355.944	330.22
356.326	329.31
356.709	334.28
357.091	349.43
357.473	332.48
357.855	334.51
358.238	351.91
358.62	341.06
359.002	354.85
359.384	350.78
359.766	363.44
360.148	354.4
360.53	336.09
360.912	342.42
361.294	350.33
361.676	329.09
362.057	342.42
362.439	325.02
362.821	314.62
363.203	339.93
363.584	340.61
363.966	327.73
364.348	334.96
364.729	331.35
365.111	315.3
365.493	330.67
365.874	327.73
366.256	330.67
366.637	325.7
367.019	318.69
367.4	300.61
367.781	323.44
368.163	324.79
368.544	332.25
368.925	307.17
369.306	346.49
369.688	336.77
370.069	326.6
370.45	311.01
370.831	333.16
371.212	319.6
371.593	299.03
371.974	301.29
372.355	316.88
372.736	318.69
373.117	340.16
373.498	332.48
373.879	328.41
374.26	320.5
374.641	309.65
375.021	311.01
375.402	333.16
375.783	337.45
376.163	348.97
376.544	354.17
376.925	340.84
377.305	357.11
377.686	343.1
378.066	324.57
378.447	347.62
378.827	337
379.208	327.73
379.588	335.64
379.968	350.56
380.349	344.68
380.729	330.44
381.109	349.65
381.489	340.84
381.87	358.24
382.25	357.79
382.63	349.65
383.01	350.1
383.39	355.53
383.77	328.18
384.15	354.62
384.53	345.81
384.91	358.24
385.29	369.99
385.67	353.04
386.049	353.72
386.429	369.76
386.809	362.53
387.189	382.65
387.568	378.35
387.948	353.72
388.328	377.9
388.707	360.05
389.087	396.66
389.466	401.85
389.846	362.76
390.225	370.89
390.605	402.76
390.984	370.89
391.363	366.6
391.743	384.68
392.122	379.48
392.501	396.88
392.881	384.91
393.26	396.2
393.639	408.18
394.018	409.54
394.397	380.16
394.776	421.97
395.155	403.66
395.534	407.28
395.913	389.65
396.292	397.56
396.671	409.31
397.05	379.03
397.429	402.76
397.808	419.03
398.186	406.83
398.565	424
398.944	418.58
399.323	405.02
399.701	427.84
400.08	404.11
400.458	403.21
400.837	400.95
401.215	423.32
401.594	413.15
401.972	414.96
402.351	425.58
402.729	423.32
403.107	415.64
403.486	420.84
403.864	419.93
404.242	425.13
404.62	429.2
404.999	450.44
405.377	441.85
405.755	453.15
406.133	442.76
406.511	455.41
406.889	452.47
407.267	450.67
407.645	464.68
408.023	465.35
408.401	464.68
408.779	461.97
409.156	460.84
409.534	449.54
409.912	442.53
410.29	464.68
410.667	479.14
411.045	478.91
411.422	495.18
411.8	470.33
412.178	491.12
412.555	485.02
412.933	485.69
413.31	505.58
413.687	509.42
414.065	500.38
414.442	497.22
414.819	503.09
415.197	492.02
415.574	515.07
415.951	532.7
416.328	510.55
416.705	526.6
417.082	505.81
417.46	539.25
417.837	552.58
418.214	549.65
418.591	523.21
418.967	531.79
419.344	516.43
419.721	540.38
420.098	546.26
420.475	554.17
420.852	543.09
421.228	568.63
421.605	565.47
421.982	562.75
422.358	572.47
422.735	561.62
423.111	554.62
423.488	595.52
423.864	586.48
424.241	588.29
424.617	593.94
424.994	581.06
425.37	589.65
425.746	602.3
426.123	600.04
426.499	575.41
426.875	606.37
427.251	605.69
427.627	623.09
428.003	617.44
428.379	619.7
428.756	623.99
429.132	685.69
429.507	654.73
429.883	658.57
430.259	663.32
430.635	654.28
431.011	675.97
431.387	687.5
431.763	687.04
432.138	680.72
432.514	699.47
432.89	669.19
433.265	701.51
433.641	726.82
434.016	721.17
434.392	715.52
434.767	737.89
435.143	722.75
435.518	733.37
435.894	741.96
436.269	742.41
436.644	749.42
437.02	754.39
437.395	767.04
437.77	771.79
438.145	772.69
438.52	779.02
438.895	807.27
439.271	799.36
439.646	793.93
440.021	792.58
440.395	809.75
440.77	829.19
441.145	815.63
441.52	832.58
441.895	826.48
442.27	843.88
442.645	844.33
443.019	846.36
443.394	847.27
443.769	833.71
444.143	848.4
444.518	852.24
444.892	865.34
445.267	837.77
445.641	865.34
446.016	869.41
446.39	883.42
446.764	900.15
447.139	887.94
447.513	900.82
447.887	912.57
448.262	913.25
448.636	910.77
449.01	936.08
449.384	929.75
449.758	925.91
450.132	940.14
450.506	942.63
450.88	925.23
451.254	959.58
451.628	983.76
452.002	975.62
452.376	1004.1
452.75	996.64
453.123	988.96
453.497	1000.03
453.871	997.54
454.244	1032.8
454.618	1010.65
454.992	1050.42
455.365	1045
455.739	1062.4
456.112	1070.54
456.486	1082.51
456.859	1084.77
457.232	1097.43
457.606	1082.74
457.979	1140.14
458.352	1137.65
458.725	1130.2
459.099	1146.02
459.472	1187.37
459.845	1148.95
460.218	1194.38
460.591	1218.33
460.964	1217.43
461.337	1230.53
461.71	1225.79
462.083	1240.25
462.456	1231.21
462.829	1254.94
463.201	1290.87
463.574	1271.89
463.947	1306.91
464.32	1348.95
464.692	1339.23
465.065	1351.21
465.438	1365.67
465.81	1370.19
466.183	1409.96
466.555	1451.77
466.928	1445.44
467.3	1440.92
467.672	1464.42
468.045	1497.64
468.417	1489.28
468.789	1491.77
469.161	1512.56
469.534	1567.02
469.906	1579
470.278	1586.68
470.65	1630.97
471.022	1669.84
471.394	1661.93
471.766	1715.72
472.138	1673.23
472.51	1732.67
472.882	1781.25
473.253	1768.6
473.625	1838.65
473.997	1843.4
474.369	1859.89
474.74	1858.76
475.112	1933.79
475.484	1964.98
475.855	1978.76
476.227	1990.74
476.598	2065.99
476.97	2088.36
477.341	2117.97
477.713	2176.27
478.084	2165.42
478.455	2220.56
478.827	2275.02
479.198	2306.89
479.569	2344.63
479.94	2412.87
480.311	2416.94
480.682	2485.64
481.053	2573.55
481.424	2591.17
481.795	2605.86
482.166	2623.94
482.537	2670.72
482.908	2769.93
483.279	2777.38
483.65	2837.27
484.021	2910.04
484.391	2940.54
484.762	2984.16
485.133	3033.88
485.503	3050.6
485.874	3163.82
486.244	3151.39
486.615	3211.72
486.985	3294.21
487.356	3336.47
487.726	3362.91
488.097	3460.76
488.467	3483.58
488.837	3555.67
489.207	3591.15
489.578	3647.19
489.948	3732.84
490.318	3732.16
490.688	3761.31
491.058	3848.54
491.428	3856.45
491.798	3879.5
492.168	4012.15
492.538	4001.76
492.908	4070.46
493.278	4138.7
493.648	4199.04
494.017	4193.17
494.387	4266.16
494.757	4298.93
495.126	4354.52
495.496	4381.64
495.866	4428.19
496.235	4493.72
496.605	4451.69
496.974	4542.99
497.344	4552.03
497.713	4620.05
498.082	4619.6
498.452	4609.65
498.821	4720.61
499.19	4702.76
499.559	4748.86
499.928	4819.59
500.298	4877.67
500.667	4894.17
501.036	4928.51
501.405	4979.36
501.774	4958.8
502.143	5026.14
502.512	5040.38
502.88	5110.88
503.249	5106.36
503.618	5134.16
503.987	5134.38
504.356	5166.93
504.724	5198.11
505.093	5234.72
505.462	5239.24
505.83	5286.92
506.199	5335.74
506.567	5359.24
506.936	5387.71
507.304	5436.75
507.672	5440.37
508.041	5461.61
508.409	5518.1
508.777	5551.77
509.145	5550.19
509.514	5596.75
509.882	5641.94
510.25	5601.72
510.618	5695.27
510.986	5692.79
511.354	5810.75
511.722	5823.86
512.09	5831.32
512.458	5829.96
512.826	5843.74
513.193	5882.39
513.561	5909.51
513.929	5934.14
514.297	5982.95
514.664	6018.2
515.032	6047.81
515.4	6038.99
515.767	6097.75
516.135	6074.25
516.502	6077.64
516.869	6205.32
517.237	6226.33
517.604	6190.63
517.972	6220.68
518.339	6299.1
518.706	6282.83
519.073	6299.78
519.44	6328.25
519.808	6401.02
520.175	6355.37
520.542	6410.96
520.909	6512.43
521.276	6511.52
521.643	6526.89
522.009	6553.56
522.376	6570.51
522.743	6576.38
523.11	6662.71
523.477	6703.61
523.843	6771.86
524.21	6869.71
524.577	6915.35
524.943	6841.01
525.31	6952.87
525.676	6932.3
526.043	6987.9
526.409	6992.42
526.776	7096.82
527.142	7111.28
527.508	7178.4
527.874	7184.27
528.241	7230.15
528.607	7250.04
528.973	7361.9
529.339	7329.81
529.705	7423.82
530.071	7441.22
530.437	7496.13
530.803	7527.77
531.169	7535
531.535	7589.69
531.901	7549.46
532.267	7597.14
532.632	7642.12
532.998	7712.85
533.364	7740.42
533.73	7798.04
534.095	7812.73
534.461	7842.79
534.826	7858.83
535.192	7947.87
535.557	8001.88
535.923	7943.12
536.288	7999.39
536.653	8047.98
537.019	8036
537.384	8076.91
537.749	8133.85
538.114	8111.71
538.479	8210.01
538.845	8197.81
539.21	8208.43
539.575	8277.35
539.94	8324.36
540.305	8409.1
540.67	8340.63
541.034	8357.58
541.399	8437.8
541.764	8508.76
542.129	8504.24
542.494	8513.5
542.858	8575.88
543.223	8592.37
543.587	8611.81
543.952	8577.68
544.316	8718.47
544.681	8732.93
545.045	8746.27
545.41	8780.62
545.774	8831.01
546.138	8846.6
546.503	8885.02
546.867	8854.74
547.231	8955.3
547.595	8943.1
547.959	9053.38
548.324	8987.39
548.688	9048.41
549.052	9088.86
549.416	9070.33
549.779	9135.18
550.143	9163.88
550.507	9226.25
550.871	9145.8
551.235	9286.59
551.599	9414.72
551.962	9339.47
552.326	9392.8
552.689	9418.57
553.053	9411.33
553.417	9370.43
553.78	9565.45
554.143	9489.98
554.507	9592.57
554.87	9568.39
555.234	9673.25
555.597	9682.74
555.96	9695.85
556.323	9757.54
556.686	9755.28
557.05	9793.92
557.413	9890.19
557.776	9871.89
558.139	9939.68
558.502	9983.97
558.865	9937.2
559.228	10003.18
559.59	10004.77
559.953	10030.3
560.316	10181.48
560.679	10081.83
561.041	10206.34
561.404	10247.24
561.767	10286.79
562.129	10332.89
562.492	10438.43
562.854	10368.82
563.217	10402.72
563.579	10382.83
563.941	10465.32
564.304	10547.8
564.666	10554.13
565.028	10551.19
565.39	10611.98
565.753	10668.25
566.115	10728.59
566.477	10776.5
566.839	10808.13
567.201	10813.11
567.563	10828.25
567.925	10958.41
568.287	10895.82
568.648	11002.93
569.01	11051.74
569.372	11159.76
569.734	11067.56
570.095	11206.09
570.457	11260.33
570.819	11254.68
571.18	11247.9
571.542	11373.32
571.903	11325.63
572.265	11398.63
572.626	11519.3
572.987	11501.22
573.349	11558.17
573.71	11572.41
574.071	11675.91
574.432	11739.41
574.794	11823.7
575.155	11896.24
575.516	11877.48
575.877	12000.42
576.238	12103.24
576.599	12115.67
576.96	12186.18
577.32	12301.65
577.681	12338.26
578.042	12456
578.403	12518.82
578.763	12560.18
579.124	12736.22
579.485	12790.23
579.845	12963.78
580.206	13018.25
580.566	13222.31
580.927	13276.77
581.287	13421.62
581.648	13449.87
582.008	13746.81
582.368	13790.43
582.728	13925.11
583.089	14055.96
583.449	14202.39
583.809	14453.46
584.169	14525.78
584.529	14714.7
584.889	14988.14
585.249	15089.83
585.609	15257.28
585.969	15563.49
586.329	15649.14
586.688	15903.82
587.048	16186.3
587.408	16350.14
587.768	16602.11
588.127	16904.02
588.487	17006.16
588.846	17387.85
589.206	17489.54
589.565	17786.93
589.925	18124.78
590.284	18336.75
590.643	18698.1
591.003	18883.18
591.362	19250.4
591.721	19486.1
592.08	19814
592.44	20113.2
592.799	20335.34
593.158	20634.54
593.517	20898.72
593.876	21341.87
594.235	21545.93
594.593	21876.32
594.952	22303.2
595.311	22432.91
595.67	22889.4
596.029	23335.94
596.387	23566.67
596.746	24010.5
597.104	24062.47
597.463	24515.8
597.822	24916.69
598.18	25031.49
598.538	25436.68
598.897	25830.79
599.255	25933.61
599.613	26703.31
599.972	26774.27
600.33	27030.31
600.688	27359.79
601.046	27792.55
601.404	28063.5
601.762	28402.47
602.12	28856.92
602.478	29178.5
602.836	29435.21
603.194	29661.42
603.552	29978.25
603.91	30089.66
604.268	30508.41
604.625	30790.89
604.983	31199.46
605.341	31327.59
605.698	31858.65
606.056	32188.59
606.413	32286.44
606.771	32830.15
607.128	32899.53
607.485	32989.7
607.843	33303.36
608.2	33676.69
608.557	34146.28
608.914	34178.59
609.272	34648.19
609.629	34835.3
609.986	35212.69
610.343	35259.69
610.7	35709.4
611.057	35781.26
611.414	35986.23
611.771	36369.72
612.127	36741.69
612.484	36839.77
612.841	37094.9
613.198	37169.47
613.554	37395.01
613.911	37784.15
614.267	37905.27
614.624	38150.69
614.98	38324.02
615.337	38609.21
615.693	38705.48
616.05	38850.79
616.406	39336.88
616.762	39292.81
617.118	39517.44
617.475	39691.44
617.831	39907.26
618.187	39919.91
618.543	40083.52
618.899	40554.47
619.255	40568.71
619.611	40637.18
619.967	40905.2
620.323	41182.48
620.678	41033.78
621.034	41025.19
621.39	41382.7
621.746	41305.19
622.101	41922.12
622.457	41555.12
622.812	41897.94
623.168	41983.36
623.523	42133.41
623.879	42312.39
624.234	42166.63
624.589	42456.12
624.945	42447.75
625.3	42837.12
625.655	42667.18
626.01	42876.9
626.365	42889.1
626.72	42932.71
627.075	42998.02
627.43	43008.19
627.785	43187.17
628.14	43306.94
628.495	43390.33
628.85	43316.21
629.205	43138.36
629.559	43511.45
629.914	43414.73
630.269	43559.82
630.623	43552.13
630.978	43466.26
631.332	43628.06
631.687	43792.8
632.041	43526.37
632.396	43794.16
632.75	43708.06
633.104	43783.99
633.459	43549.65
633.813	43769.98
634.167	43830.77
634.521	43819.24
634.875	43847.94
635.229	43873.48
635.583	43699.25
635.937	43805.68
636.291	43787.15
636.645	43904.21
636.999	43831.22
637.352	43915.29
637.706	43692.02
638.06	43843.2
638.413	43870.99
638.767	43680.26
639.121	43913.03
639.474	43710.77
639.828	43697.44
640.181	43750.09
640.534	43855.85
640.888	43767.49
641.241	43497.67
641.594	43639.14
641.947	43906.92
642.301	43689.08
642.654	43872.12
643.007	43722.97
643.36	43800.71
643.713	43691.79
644.066	43846.14
644.419	43563.43
644.771	43413.38
645.124	43029.66
645.477	42913.05
645.83	42651.82
646.182	42572.5
646.535	42604.59
646.888	42610.69
647.24	42457.47
647.593	42804.35
647.945	42753.06
648.298	42432.84
648.65	42344.25
649.002	42437.58
649.355	42578.6
649.707	42397.81
650.059	42673.96
650.411	43155.31
650.763	43113.95
651.115	43550.55
651.467	43459.7
651.819	43405.69
652.171	43185.36
652.523	43370.67
652.875	43287.73
653.227	43110.79
653.578	43443.89
653.93	43289.99
654.282	43028.3
654.633	43031.24
654.985	43182.88
655.337	43158.7
655.688	43155.53
656.039	43212.25
656.391	42939.94
656.742	42994.18
657.094	43051.35
657.445	43181.52
657.796	43007.74
658.147	42954.86
658.498	42982.66
658.849	43123.67
659.2	43047.74
659.551	42979.49
659.902	43060.62
660.253	43049.77
660.604	43098.58
660.955	42823.79
661.306	43088.19
661.656	43015.87
662.007	42998.93
662.358	43058.36
662.708	42992.37
663.059	42948.31
663.409	42874.86
663.76	42841.42
664.11	43056.1
664.461	42994.63
664.811	43024.46
665.161	42966.84
665.511	42878.93
665.862	42975.42
666.212	42972.49
666.562	42994.86
666.912	42766.62
667.262	42965.25
667.612	42964.58
667.962	42913.5
668.312	42862.43
668.662	42995.54
669.011	42891.13
669.361	42829.21
669.711	42760.29
670.06	42736.11
670.41	42757.8
670.76	42593.74
671.109	42892.04
671.459	42744.24
671.808	42696.56
672.157	42861.75
672.507	42617.69
672.856	42572.72
673.205	42605.94
673.554	42765.71
673.904	42434.42
674.253	42596.68
674.602	42635.32
674.951	42044.15
675.3	41756.7
675.649	42489.33
675.998	42342.67
676.346	42544.7
676.695	42625.15
677.044	42283.92
677.393	42455.21
677.741	42572.04
678.09	42416.12
678.438	42378.38
678.787	42365.5
679.135	42455.89
679.484	42088.67
679.832	42347.42
680.181	42078.95
680.529	42121.89
680.877	41980.87
681.225	41972.06
681.573	42275.1
681.922	41943.13
682.27	41741.11
682.618	41803.48
682.966	41741.11
683.314	41838.5
683.661	41667.89
684.009	41617.72
684.357	41486.2
684.705	41428.12
685.053	41524.39
685.4	41377.27
685.748	41241.23
686.095	41165.53
686.443	41110.84
686.79	41095.02
687.138	41055.7
687.485	40983.39
687.832	40976.15
688.18	40987.23
688.527	40795.37
688.874	40781.58
689.221	40761.02
689.568	40624.75
689.915	40468.6
690.262	40538.43
690.609	40420.69
690.956	40248.72
691.303	40313.57
691.65	39987.71
691.997	40014.15
692.344	39814.83
692.69	39881.27
693.037	39725.11
693.383	39462.75
693.73	39579.58
694.077	39384.11
694.423	39256.2
694.769	39302.07
695.116	39200.38
695.462	39156.09
695.808	38891.01
696.155	39023.21
696.501	38787.06
696.847	38856.66
697.193	38551.13
697.539	38644.24
697.885	38426.39
698.231	38382.1
698.577	38433.62
698.923	38391.59
699.269	38155.44
699.614	37931.26
699.96	37872.28
700.306	37852.39
700.651	37792.28
700.997	37576.47
701.342	37637.71
701.688	37488.11
702.033	37486.08
702.379	37298.06
702.724	37198.85
703.069	37213.77
703.415	36792.99
703.76	37020.1
704.105	36910.05
704.45	36809.94
704.795	36721.12
705.14	36613.78
705.485	36574.91
705.83	36404.07
706.175	36556.84
706.52	36347.58
706.865	36334.69
707.209	36256.05
707.554	35924.99
707.899	36167.92
708.243	36030.97
708.588	35842.5
708.932	35628.95
709.277	35612.23
709.621	35586.92
709.966	35394.61
710.31	35563.42
710.654	35149.64
710.998	35354.83
711.342	35255.4
711.687	35210.88
712.031	34941.74
712.375	34892.02
712.719	34965.69
713.063	34822.64
713.407	35018.57
713.75	34735.87
714.094	34641.41
714.438	34593.72
714.782	34645.7
715.125	34376.1
715.469	34494.97
715.812	34270.34
716.156	34228.99
716.499	34217.69
716.843	34206.84
717.186	34068.09
717.53	34188.31
717.873	34264.47
718.216	34153.96
718.559	33975.21
718.902	33707.42
719.246	33904.02
719.589	33699.06
719.932	33582.9
720.275	33613.86
720.617	33567.31
720.96	33614.09
721.303	33496.8
721.646	33447.31
721.989	33327.54
722.331	33463.81
722.674	33149.47
723.016	33172.29
723.359	32940.43
723.701	33255
724.044	32936.37
724.386	32779.99
724.729	32917.61
725.071	32933.43
725.413	32771.4
725.755	32738.18
726.097	32585.19
726.439	32490.73
726.782	32465.64
727.124	32606.2
727.465	32445.98
727.807	32485.98
728.149	32346.55
728.491	32171.41
728.833	32347.68
729.175	32204.18
729.516	32262.71
729.858	32223.84
730.199	32213.9
730.541	32069.95
730.882	31944.53
731.224	32125.09
731.565	31848.71
731.906	31867.69
732.248	31919.9
732.589	31727.36
732.93	31700.47
733.271	31574.37
733.612	31706.12
733.953	31681.94
734.294	31555.38
734.635	31539.79
734.976	31578.89
735.317	31307.26
735.658	31377.08
735.999	31339.57
736.339	31350.64
736.68	31392.68
737.021	31243.98
737.361	31011.67
737.702	31293.02
738.042	31086.02
738.383	31070.43
738.723	31000.6
739.063	30965.34
739.404	31177.54
739.744	30865.69
740.084	30776.87
740.424	30815.07
740.764	30781.39
741.104	30782.07
741.444	30735.07
741.784	30497.33
742.124	30622.98
742.464	30646.48
742.804	30612.58
743.143	30488.75
743.483	30443.78
743.823	30420.5
744.162	30339.82
744.502	30431.12
744.841	30265.93
745.181	30301.41
745.52	30180.73
745.86	30184.12
746.199	30189.55
746.538	30213.95
746.877	30242.88
747.216	30148.64
747.556	30050.34
747.895	30122.2
748.234	29842.21
748.573	29849.89
748.911	29854.64
749.25	29762.66
749.589	29713.63
749.928	29703.23
750.267	29774.19
750.605	29580.3
750.944	29588.66
751.283	29481.77
751.621	29528.55
751.96	29482.67
752.298	29370.13
752.636	29450.58
752.975	29244.49
753.313	29179.4
753.651	29364.48
753.989	28965.4
754.327	29099.4
754.666	28928.79
755.004	28962.01
755.342	28825.51
755.679	28849.47
756.017	28682.01
756.355	28729.7
756.693	28642.02
757.031	28662.13
757.368	28515.92
757.706	28555.46
758.044	28370.84
758.381	28432.98
758.719	28257.84
759.056	28286.54
759.394	28117.96
