Data from hue_250_FLMS001491_00063.txt Node
Date: Tue Feb 07 16:01:18 GMT 2017
User: dcchb
Spectrometer: FLMS00149
Trigger mode: 0
Integration Time (sec): 2.000000E-2
Scans to average: 10
Electric dark correction enabled: true
Nonlinearity correction enabled: false
Boxcar width: 0
XAxis mode: Wavelengths
Number of Pixels in Spectrum: 2048
>>>>>Begin Spectral Data<<<<<
341.393	-11.26
341.776	-11.26
342.16	-11.26
342.543	-36.34
342.927	-78.83
343.31	-72.05
343.693	-46.74
344.077	-69.11
344.46	-33.18
344.843	-48.32
345.226	-46.96
345.61	-20.3
345.993	-3.8
346.376	-14.19
346.759	-9
347.142	26.71
347.525	34.84
347.908	43.88
348.291	71.45
348.674	82.3
349.057	104.45
349.44	119.14
349.823	121.4
350.206	172.24
350.588	174.73
350.971	193.71
351.354	228.96
351.737	214.05
352.119	236.42
352.502	268.28
352.884	270.77
353.267	289.53
353.65	293.82
354.032	289.53
354.414	306.25
354.797	301.28
355.179	297.44
355.562	318
355.944	331.11
356.326	304.22
356.709	325.46
357.091	325.91
357.473	314.16
357.855	323.42
358.238	349.19
358.62	326.81
359.002	329.07
359.384	318.68
359.766	341.5
360.148	354.38
360.53	354.61
360.912	339.47
361.294	342.86
361.676	324.33
362.057	336.53
362.439	322.97
362.821	313.71
363.203	323.88
363.584	329.75
363.966	316.42
364.348	311.45
364.729	301.5
365.111	330.2
365.493	313.93
365.874	308.73
366.256	313.03
366.637	279.13
367.019	306.93
367.4	312.58
367.781	321.62
368.163	303.99
368.544	314.16
368.925	306.7
369.306	319.81
369.688	299.92
370.069	317.32
370.45	303.54
370.831	286.59
371.212	305.8
371.593	317.32
371.974	318.23
372.355	320.03
372.736	324.78
373.117	308.96
373.498	331.56
373.879	329.75
374.26	327.27
374.641	316.42
375.021	315.06
375.402	295.63
375.783	317.32
376.163	338.56
376.544	316.64
376.925	336.53
377.305	317.32
377.686	350.77
378.066	332.46
378.447	332.46
378.827	334.5
379.208	319.36
379.588	313.03
379.968	317.1
380.349	338.56
380.729	347.83
381.109	336.08
381.489	342.41
381.87	332.46
382.25	348.96
382.63	357.77
383.01	327.94
383.39	346.93
383.77	321.39
384.15	320.94
384.53	341.73
384.91	335.17
385.29	338.79
385.67	337.66
386.049	355.97
386.429	351.67
386.809	358.68
387.189	359.81
387.568	355.29
387.948	339.02
388.328	346.47
388.707	360.48
389.087	376.53
389.466	382.41
389.846	355.97
390.225	374.72
390.605	360.03
390.984	355.29
391.363	389.18
391.743	379.47
392.122	373.59
392.501	377.21
392.881	382.63
393.26	389.41
393.639	374.5
394.018	395.96
394.397	404.55
394.776	386.7
395.155	392.12
395.534	388.05
395.913	391.44
396.292	409.75
396.671	393.48
397.05	412.01
397.429	414.04
397.808	402.52
398.186	422.63
398.565	408.62
398.944	418.34
399.323	413.36
399.701	409.98
400.08	426.7
400.458	413.82
400.837	427.38
401.215	448.84
401.594	439.35
401.972	430.31
402.351	458.11
402.729	472.57
403.107	446.13
403.486	467.6
403.864	454.95
404.242	452.69
404.62	443.87
404.999	465.11
405.377	451.78
405.755	477.54
406.133	461.5
406.511	473.48
406.889	487.71
407.267	505.79
407.645	482.06
408.023	496.75
408.401	478.45
408.779	474.15
409.156	510.09
409.534	508.05
409.912	507.37
410.29	528.62
410.667	519.58
411.045	533.14
411.422	517.54
411.8	526.13
412.178	548.73
412.555	562.97
412.933	586.47
413.31	599.57
413.687	586.69
414.065	601.38
414.442	612.46
414.819	615.17
415.197	623.98
415.574	616.07
415.951	609.29
416.328	642.74
416.705	639.8
417.082	623.08
417.46	661.04
417.837	671.44
418.214	661.04
418.591	653.13
418.967	648.39
419.344	696.97
419.721	697.2
420.098	707.59
420.475	732
420.852	718.44
421.228	738.33
421.605	728.38
421.982	749.18
422.358	754.82
422.735	785.78
423.111	779.23
423.488	792.34
423.864	784.65
424.241	809.51
424.617	814.71
424.994	828.72
425.37	840.47
425.746	828.27
426.123	852.9
426.499	842.05
426.875	847.25
427.251	889.51
427.627	898.32
428.003	923.63
428.379	933.35
428.756	925.89
429.132	935.61
429.507	968.6
429.883	979
430.259	950.53
430.635	984.65
431.011	968.15
431.387	1007.25
431.763	1005.67
432.138	1019.9
432.514	1040.47
432.89	1059.22
433.265	1095.38
433.641	1107.13
434.016	1120.46
434.392	1120.24
434.767	1144.65
435.143	1172.89
435.518	1182.84
435.894	1185.32
436.269	1186
436.644	1217.19
437.02	1233.91
437.395	1240.01
437.77	1268.71
438.145	1277.97
438.52	1306.22
438.895	1329.95
439.271	1336.5
439.646	1366.56
440.021	1368.37
440.395	1381.93
440.77	1393.23
441.145	1388.25
441.52	1418.76
441.895	1400.91
442.27	1428.93
442.645	1426.45
443.019	1463.96
443.394	1488.82
443.769	1481.36
444.143	1470.74
444.518	1511.42
444.892	1512.77
445.267	1564.52
445.641	1545.54
446.016	1526.33
446.39	1570.85
446.764	1580.79
447.139	1543.73
447.513	1597.06
447.887	1596.16
448.262	1579.21
448.636	1602.94
449.01	1617.63
449.384	1674.57
449.758	1649.04
450.132	1674.57
450.506	1681.35
450.88	1703.05
451.254	1705.08
451.628	1720
452.002	1743.95
452.376	1765.42
452.75	1752.76
453.123	1776.04
453.497	1812.65
453.871	1804.97
454.244	1868.92
454.618	1838.64
454.992	1849.03
455.365	1904.85
455.739	1905.53
456.112	1929.03
456.486	1960.89
456.859	1950.73
457.232	2012.42
457.606	1988.69
457.979	2034.34
458.352	2093.09
458.725	2091.29
459.099	2104.62
459.472	2133.09
459.845	2129.48
460.218	2169.25
460.591	2183.71
460.964	2221.68
461.337	2253.54
461.71	2276.82
462.083	2322.02
462.456	2303.94
462.829	2304.84
463.201	2346.87
463.574	2357.27
463.947	2381.9
464.32	2420.32
464.692	2411.73
465.065	2488.11
465.438	2516.81
465.81	2556.13
466.183	2563.59
466.555	2595
466.928	2629.13
467.3	2650.59
467.672	2646.53
468.045	2709.8
468.417	2699.18
468.789	2716.81
469.161	2747.99
469.534	2847.65
469.906	2869.12
470.278	2909.34
470.65	2946.63
471.022	2985.73
471.394	3048.1
471.766	3034.99
472.138	3063.69
472.51	3136.46
472.882	3139.62
473.253	3213.97
473.625	3276.11
473.997	3347.52
474.369	3313.85
474.74	3333.74
475.112	3377.35
475.484	3445.15
475.855	3525.83
476.227	3521.08
476.598	3598.37
476.97	3634.52
477.341	3704.58
477.713	3780.06
478.084	3806.95
478.455	3887.4
478.827	3905.02
479.198	4010.33
479.569	4029.77
479.94	4110.89
480.311	4125.81
480.682	4224.34
481.053	4300.27
481.424	4345.46
481.795	4393.6
482.166	4378.23
482.537	4476.76
482.908	4591.79
483.279	4578
483.65	4670.88
484.021	4767.37
484.391	4861.84
484.762	4836.07
485.133	4877.43
485.503	4967.6
485.874	5026.35
486.244	5086.69
486.615	5175.27
486.985	5197.87
487.356	5317.42
487.726	5312.45
488.097	5412.56
488.467	5455.04
488.837	5538.65
489.207	5557.86
489.578	5624.75
489.948	5699.1
490.318	5733.9
490.688	5808.48
491.058	5850.96
491.428	5919.43
491.798	5941.36
492.168	6108.13
492.538	6095.25
492.908	6129.82
493.278	6241.01
493.648	6227.68
494.017	6283.72
494.387	6366.88
494.757	6386.99
495.126	6427.22
495.496	6426.77
495.866	6511.74
496.235	6586.08
496.605	6632.86
496.974	6657.72
497.344	6667.66
497.713	6753.54
498.082	6820.65
498.452	6797.83
498.821	6896.81
499.19	6874.89
499.559	6975
499.928	6920.54
500.298	7000.54
500.667	7078.73
501.036	6998.73
501.405	7083.25
501.774	7089.12
502.143	7102
502.512	7160.76
502.88	7257.93
503.249	7244.37
503.618	7290.92
503.987	7260.42
504.356	7273.75
504.724	7386.51
505.093	7444.82
505.462	7409.79
505.83	7466.06
506.199	7534.08
506.567	7522.1
506.936	7550.13
507.304	7606.62
507.672	7673.06
508.041	7666.06
508.409	7746.28
508.777	7757.8
509.145	7797.8
509.514	7768.43
509.882	7837.12
510.25	7813.85
510.618	7818.82
510.986	7826.96
511.354	7961.87
511.722	8006.61
512.09	8081.41
512.458	8046.84
512.826	8046.61
513.193	8133.16
513.561	8161.18
513.929	8151.69
514.297	8173.16
514.664	8264.46
515.032	8294.06
515.4	8342.65
515.767	8247.06
516.135	8288.41
516.502	8296.32
516.869	8342.2
517.237	8451.12
517.604	8446.83
517.972	8439.82
518.339	8545.58
518.706	8504.45
519.073	8513.04
519.44	8520.27
519.808	8571.34
520.175	8564.34
520.542	8635.3
520.909	8675.29
521.276	8669.87
521.643	8806.59
522.009	8757.55
522.376	8835.29
522.743	8801.39
523.11	8891.11
523.477	8921.39
523.843	8975.85
524.21	9032.35
524.577	9082.52
524.943	9103.31
525.31	9100.37
525.676	9169.97
526.043	9171.33
526.409	9168.61
526.776	9209.97
527.142	9199.35
527.508	9231.44
527.874	9339.91
528.241	9325.22
528.607	9393.92
528.973	9414.48
529.339	9415.16
529.705	9443.41
530.071	9480.02
530.437	9444.31
530.803	9524.54
531.169	9536.74
531.535	9486.12
531.901	9466.01
532.267	9600.02
532.632	9629.39
532.998	9679.34
533.364	9692.67
533.73	9736.06
534.095	9796.62
534.461	9755.27
534.826	9730.18
535.192	9737.19
535.557	9740.35
535.923	9735.15
536.288	9733.8
536.653	9756.4
537.019	9804.98
537.384	9717.75
537.749	9768.6
538.114	9766.57
538.479	9773.12
538.845	9768.15
539.21	9784.42
539.575	9799.78
539.94	9807.92
540.305	9897.18
540.67	9828.94
541.034	9840.69
541.399	9847.92
541.764	9907.13
542.129	9913.23
542.494	9874.36
542.858	9908.93
543.223	9891.53
543.587	9951.42
543.952	9912.1
544.316	9913.68
544.681	9919.1
545.045	9967.01
545.41	9934.02
545.774	10018.76
546.138	9900.8
546.503	9977.41
546.867	9899.9
547.231	10028.48
547.595	9936.96
547.959	10015.6
548.324	9981.93
548.688	9983.73
549.052	9969.27
549.416	9960.91
549.779	9985.32
550.143	10028.48
550.507	10042.49
550.871	10004.3
551.235	10010.63
551.599	10054.69
551.962	10033.68
552.326	10028.71
552.689	10064.64
553.053	9979.67
553.417	10038.2
553.78	10153.67
554.143	10053.79
554.507	10086.1
554.87	10134.92
555.234	10184.86
555.597	10108.48
555.96	10198.19
556.323	10232.99
556.686	10139.66
557.05	10231.86
557.413	10184.41
557.776	10254.91
558.139	10270.05
558.502	10240.45
558.865	10277.29
559.228	10380.11
559.59	10275.93
559.953	10419.2
560.316	10435.93
560.679	10425.08
561.041	10498.07
561.404	10529.03
561.767	10584.62
562.129	10495.13
562.492	10604.06
562.854	10578.97
563.217	10590.05
563.579	10611.51
563.941	10681.8
564.304	10743.04
564.666	10720.21
565.028	10734.45
565.39	10791.4
565.753	10881.56
566.115	10906.2
566.477	10933.54
566.839	10893.09
567.201	11006.08
567.563	10978.96
567.925	11055.57
568.287	11040.88
568.648	11027.55
569.01	11069.36
569.372	11140.09
569.734	11084.5
570.095	11217.6
570.457	11240.42
570.819	11236.13
571.18	11228.67
571.542	11285.85
571.903	11263.25
572.265	11351.83
572.626	11340.54
572.987	11430.02
573.349	11309.12
573.71	11417.6
574.071	11520.19
574.432	11422.79
574.794	11588.21
575.155	11575.33
575.516	11515.45
575.877	11661.43
576.238	11650.36
576.599	11633.41
576.96	11717.93
577.32	11764.48
577.681	11756.57
578.042	11856.45
578.403	11858.26
578.763	11784.82
579.124	11893.29
579.485	11871.14
579.845	11877.7
580.206	11889.67
580.566	11969.9
580.927	11904.36
581.287	11938.03
581.648	11993.17
582.008	12060.52
582.368	12033.4
582.728	12041.08
583.089	12034.98
583.449	12077.92
583.809	12128.99
584.169	12119.95
584.529	12105.49
584.889	12205.37
585.249	12120.63
585.609	12116.11
585.969	12190.68
586.329	12173.96
586.688	12180.74
587.048	12204.69
587.408	12239.04
587.768	12202.43
588.127	12223
588.487	12215.54
588.846	12335.54
589.206	12221.19
589.565	12263.45
589.925	12372.37
590.284	12333.28
590.643	12303.45
591.003	12345.71
591.362	12412.6
591.721	12424.35
592.08	12386.61
592.44	12507.28
592.799	12522.2
593.158	12375.54
593.517	12417.12
593.876	12403.56
594.235	12488.75
594.593	12422.31
594.952	12500.05
595.311	12445.36
595.67	12515.42
596.029	12538.7
596.387	12547.96
596.746	12526.49
597.104	12454.4
597.463	12509.09
597.822	12531.46
598.18	12531.24
598.538	12509.77
598.897	12644.68
599.255	12625.02
599.613	12631.35
599.972	12505.25
600.33	12606.94
600.688	12521.97
601.046	12607.39
601.404	12664.34
601.762	12708.63
602.12	12647.17
602.478	12741.63
602.836	12741.63
603.194	12717
603.552	12713.83
603.91	12552.25
604.268	12745.47
604.625	12741.63
604.983	12747.5
605.341	12709.76
605.698	12785.24
606.056	12806.49
606.413	12723.1
606.771	12793.15
607.128	12785.92
607.485	12820.04
607.843	12730.33
608.2	12808.29
608.557	12877.9
608.914	12811
609.272	12872.92
609.629	12943.43
609.986	12943.88
610.343	12830.44
610.7	12954.28
611.057	13003.32
611.414	12984.79
611.771	12992.24
612.127	13036.08
612.484	13033.6
612.841	13102.07
613.198	13007.61
613.554	12981.17
613.911	13060.26
614.267	13005.12
614.624	12958.57
614.98	13089.19
615.337	13142.97
615.693	13079.02
616.05	13111.34
616.406	13135.06
616.762	13081.96
617.118	13187.94
617.475	13119.7
617.831	13135.52
618.187	13139.58
618.543	13097.55
618.899	13140.26
619.255	13224.33
619.611	13174.84
619.967	13279.02
620.323	13166.25
620.678	13146.82
621.034	13149.08
621.39	13236.76
621.746	13148.4
622.101	13290.31
622.457	13199.7
622.812	13277.89
623.168	13359.24
623.523	13213.48
623.879	13348.84
624.234	13185.46
624.589	13258.68
624.945	13193.59
625.3	13235.4
625.655	13278.11
626.01	13280.15
626.365	13211.9
626.72	13167.38
627.075	13231.56
627.43	13198.79
627.785	13169.41
628.14	13194.5
628.495	13210.99
628.85	13231.56
629.205	13165.8
629.559	13249.64
629.914	13075.18
630.269	13112.01
630.623	13152.92
630.978	13027.27
631.332	13132.13
631.687	13084.9
632.041	13075.18
632.396	13047.83
632.75	13020.04
633.104	13019.59
633.459	12964.67
633.813	12969.42
634.167	13026.59
634.521	12987.27
634.875	12994.28
635.229	12984.56
635.583	12853.26
635.937	12916.31
636.291	12831.8
636.645	12870.44
636.999	12864.11
637.352	12921.51
637.706	12791.57
638.06	12867.05
638.413	12889.19
638.767	12856.65
639.121	12805.81
639.474	12746.15
639.828	12762.19
640.181	12742.08
640.534	12689.2
640.888	12635.19
641.241	12681.74
641.594	12655.53
641.947	12746.6
642.301	12641.52
642.654	12696.21
643.007	12642.42
643.36	12646.72
643.713	12621.41
644.066	12684.45
644.419	12655.08
644.771	12541.86
645.124	12408.08
645.477	12406.27
645.83	12313.16
646.182	12315.88
646.535	12204.92
646.888	12246.27
647.24	12073.62
647.593	12135.32
647.945	12193.17
648.298	12035.43
648.65	12102.77
649.002	12012.61
649.355	12136.45
649.707	12071.36
650.059	12188.65
650.411	12265.93
650.763	12352.49
651.115	12466.38
651.467	12388.64
651.819	12364.01
652.171	12380.06
652.523	12368.08
652.875	12385.03
653.227	12325.82
653.578	12395.2
653.93	12352.26
654.282	12257.12
654.633	12244.69
654.985	12363.11
655.337	12337.8
655.688	12367.85
656.039	12370.11
656.391	12261.41
656.742	12269.32
657.094	12252.6
657.445	12438.81
657.796	12297.8
658.147	12227.29
658.498	12192.26
658.849	12296.44
659.2	12292.37
659.551	12216.9
659.902	12297.57
660.253	12238.59
660.604	12302.32
660.955	12151.59
661.306	12333.28
661.656	12219.61
662.007	12246.05
662.358	12215.77
662.708	12279.04
663.059	12273.39
663.409	12189.33
663.76	12275.65
664.11	12292.6
664.461	12292.15
664.811	12246.05
665.161	12297.35
665.511	12262.77
665.862	12302.09
666.212	12250.34
666.562	12293.5
666.912	12176.45
667.262	12184.81
667.612	12219.61
667.962	12275.43
668.312	12211.7
668.662	12298.48
669.011	12281.53
669.361	12259.16
669.711	12254.18
670.06	12175.54
670.41	12221.42
670.76	12130.57
671.109	12176.22
671.459	12164.47
671.808	12148.2
672.157	12186.61
672.507	12121.98
672.856	12144.13
673.205	12077.01
673.554	12088.31
673.904	12173.28
674.253	12134.86
674.602	11980.74
674.951	11968.99
675.3	11871.59
675.649	12026.39
675.998	12107.07
676.346	12068.65
676.695	12102.55
677.044	12011.93
677.393	12047.64
677.741	12029.78
678.09	12071.36
678.438	11881.99
678.787	11961.08
679.135	11941.88
679.484	11860.52
679.832	11950.91
680.181	11824.36
680.529	11926.51
680.877	11847.19
681.225	11805.61
681.573	11817.36
681.922	11795.89
682.27	11748.43
682.618	11841.99
682.966	11693.07
683.314	11804.48
683.661	11732.39
684.009	11619.17
684.357	11633.86
684.705	11555.22
685.053	11613.97
685.4	11581.21
685.748	11516.35
686.095	11522.23
686.443	11457.37
686.79	11343.7
687.138	11470.7
687.485	11503.24
687.832	11437.03
688.18	11440.65
688.527	11327.88
688.874	11272.74
689.221	11302.57
689.568	11259.63
689.915	11199.52
690.262	11196.81
690.609	11162.46
690.956	11157.72
691.303	11031.84
691.65	11005.18
691.997	11090.6
692.344	11012.18
692.69	10902.13
693.037	10997.49
693.383	10866.65
693.73	10891.06
694.077	10863.03
694.423	10790.72
694.769	10814.22
695.116	10777.84
695.462	10760.21
695.808	10673.89
696.155	10715.69
696.501	10613.77
696.847	10624.62
697.193	10485.64
697.539	10593.21
697.885	10505.98
698.231	10460.33
698.577	10426.66
698.923	10402.48
699.269	10383.95
699.614	10317.74
699.96	10296.04
700.306	10261.02
700.651	10195.93
700.997	10179.21
701.342	10185.76
701.688	10176.27
702.033	10207.23
702.379	10128.59
702.724	10045.65
703.069	10075.48
703.415	9927.69
703.76	9992.77
704.105	9970.4
704.45	9903.96
704.795	9882.27
705.14	9860.8
705.485	9816.06
705.83	9727.24
706.175	9710.3
706.52	9695.61
706.865	9635.95
707.209	9680.24
707.554	9643.86
707.899	9656.74
708.243	9555.27
708.588	9505.56
708.932	9444.54
709.277	9454.48
709.621	9419.91
709.966	9460.36
710.31	9445.67
710.654	9443.18
710.998	9374.94
711.342	9413.13
711.687	9355.5
712.031	9359.57
712.375	9276.86
712.719	9337.88
713.063	9287.26
713.407	9363.86
713.75	9233.7
714.094	9214.49
714.438	9219.69
714.782	9210.42
715.125	9208.16
715.469	9216.52
715.812	9195.96
716.156	9094.94
716.499	9117.32
716.843	9137.43
717.186	9040.48
717.53	9123.87
717.873	9119.58
718.216	9025.12
718.559	9016.75
718.902	9016.3
719.246	8955.74
719.589	9019.47
719.932	8910.77
720.275	8947.15
720.617	8873.03
720.96	8817.21
721.303	8839.36
721.646	8816.53
721.989	8779.02
722.331	8842.97
722.674	8756.87
723.016	8904.22
723.359	8841.39
723.701	8820.38
724.044	8754.84
724.386	8789.19
724.729	8805.46
725.071	8727.72
725.413	8742.19
725.755	8784.44
726.097	8715.29
726.439	8692.02
726.782	8667.61
727.124	8726.59
727.465	8617.44
727.807	8724.78
728.149	8673.71
728.491	8608.63
728.833	8657.67
729.175	8651.57
729.516	8605.24
729.858	8609.08
730.199	8643.43
730.541	8554.85
730.882	8602.08
731.224	8645.01
731.565	8551.91
731.906	8590.32
732.248	8628.06
732.589	8511.91
732.93	8542.64
733.271	8507.62
733.612	8594.39
733.953	8553.04
734.294	8513.49
734.635	8554.39
734.976	8562.53
735.317	8527.05
735.658	8547.61
735.999	8564.56
736.339	8589.42
736.68	8598.23
737.021	8579.03
737.361	8490.89
737.702	8574.28
738.042	8503.1
738.383	8541.06
738.723	8578.57
739.063	8492.25
739.404	8548.97
739.744	8547.39
740.084	8532.47
740.424	8493.6
740.764	8471.01
741.104	8511.23
741.444	8480.27
741.784	8475.75
742.124	8522.53
742.464	8551.23
742.804	8511.46
743.143	8496.99
743.483	8529.31
743.823	8508.29
744.162	8566.14
744.502	8537.67
744.841	8539.48
745.181	8691.34
745.52	8588.74
745.86	8640.72
746.199	8708.29
746.538	8690.44
746.877	8715.52
747.216	8768.17
747.556	8748.29
747.895	8831.22
748.234	8761.39
748.573	8832.35
748.911	8829.41
749.25	8891.33
749.589	8924.55
749.928	8986.02
750.267	9014.49
750.605	9073.02
750.944	9063.08
751.283	9147.82
751.621	9205.22
751.96	9233.47
752.298	9266.69
752.636	9343.53
752.975	9447.93
753.313	9455.61
753.651	9467.59
753.989	9550.07
754.327	9672.78
754.666	9685.44
755.004	9817.64
755.342	9903.06
755.679	9904.41
756.017	9970.85
756.355	10077.07
756.693	10165.42
757.031	10255.59
757.368	10259.43
757.706	10394.12
758.044	10480.9
758.381	10572.19
758.719	10685.86
759.056	10793.66
759.394	10822.81
759.731	10883.37
760.068	10981.45
760.405	11088.79
760.743	11233.65
