Data from hue_22_FLMS001491_00005.txt Node
Date: Tue Feb 07 17:09:24 GMT 2017
User: dcchb
Spectrometer: FLMS00149
Trigger mode: 0
Integration Time (sec): 2.000000E-2
Scans to average: 10
Electric dark correction enabled: true
Nonlinearity correction enabled: false
Boxcar width: 0
XAxis mode: Wavelengths
Number of Pixels in Spectrum: 2048
>>>>>Begin Spectral Data<<<<<
341.393	-22.41
341.776	-22.41
342.16	-22.41
342.543	-71.45
342.927	-61.28
343.31	-64.9
343.693	-67.39
344.077	-57.22
344.46	-69.87
344.843	-62.64
345.226	-47.95
345.61	-61.74
345.993	-19.48
346.376	16.68
346.759	18.94
347.142	32.5
347.525	38.15
347.908	57.81
348.291	86.06
348.674	104.59
349.057	96.45
349.44	121.08
349.823	129.9
350.206	158.37
350.588	202.66
350.971	208.54
351.354	218.71
351.737	220.97
352.119	252.61
352.502	256.67
352.884	237.24
353.267	252.38
353.65	282.21
354.032	276.11
354.414	303.45
354.797	316.33
355.179	314.3
355.562	300.97
355.944	338.25
356.326	324.47
356.709	338.25
357.091	315.43
357.473	321.98
357.855	317.01
358.238	346.62
358.62	347.07
359.002	349.55
359.384	337.12
359.766	331.93
360.148	350
360.53	335.54
360.912	332.15
361.294	316.33
361.676	330.12
362.057	325.6
362.439	325.82
362.821	316.79
363.203	335.09
363.584	333.73
363.966	337.35
364.348	311.14
364.729	321.98
365.111	310.23
365.493	305.26
365.874	315.2
366.256	314.07
366.637	316.79
367.019	318.37
367.4	316.33
367.781	300.06
368.163	318.37
368.544	304.13
368.925	322.44
369.306	312.04
369.688	322.44
370.069	319.05
370.45	330.57
370.831	307.75
371.212	306.16
371.593	318.14
371.974	327.86
372.355	303
372.736	314.98
373.117	300.06
373.498	313.62
373.879	305.49
374.26	291.48
374.641	296.67
375.021	292.15
375.402	335.32
375.783	315.88
376.163	336.67
376.544	308.2
376.925	338.48
377.305	328.31
377.686	315.88
378.066	328.76
378.447	340.97
378.827	322.21
379.208	322.44
379.588	313.85
379.968	321.53
380.349	334.19
380.729	335.77
381.109	324.92
381.489	304.81
381.87	327.41
382.25	327.18
382.63	365.15
383.01	335.99
383.39	340.97
383.77	346.62
384.15	348.65
384.53	354.52
384.91	352.04
385.29	359.27
385.67	326.5
386.049	333.51
386.429	338.71
386.809	338.93
387.189	333.06
387.568	351.13
387.948	339.38
388.328	349.55
388.707	345.26
389.087	366.73
389.466	348.2
389.846	360.17
390.225	374.86
390.605	358.37
390.984	345.03
391.363	351.59
391.743	361.3
392.122	366.95
392.501	355.2
392.881	356.11
393.26	366.95
393.639	341.42
394.018	365.6
394.397	379.61
394.776	362.21
395.155	379.83
395.534	395.43
395.913	377.57
396.292	360.17
396.671	378.48
397.05	390
397.429	363.56
397.808	386.39
398.186	352.04
398.565	378.7
398.944	380.74
399.323	372.6
399.701	386.16
400.08	390.23
400.458	393.39
400.837	387.74
401.215	393.39
401.594	395.43
401.972	376.22
402.351	409.89
402.729	411.7
403.107	413.96
403.486	390.23
403.864	419.83
404.242	395.43
404.62	405.6
404.999	430
405.377	406.95
405.755	414.18
406.133	441.3
406.511	408.08
406.889	407.4
407.267	416.9
407.645	449.44
408.023	440.85
408.401	451.02
408.779	432.04
409.156	429.55
409.534	407.63
409.912	425.48
410.29	440.4
410.667	438.59
411.045	444.69
411.422	456.67
411.8	453.51
412.178	452.38
412.555	469.1
412.933	456.89
413.31	444.92
413.687	464.35
414.065	458.25
414.442	462.32
414.819	472.49
415.197	455.99
415.574	473.62
415.951	472.49
416.328	484.01
416.705	474.75
417.082	477.01
417.46	470
417.837	474.97
418.214	477.91
418.591	491.24
418.967	474.3
419.344	493.28
419.721	488.08
420.098	488.98
420.475	523.79
420.852	500.51
421.228	499.61
421.605	505.03
421.982	514.52
422.358	521.53
422.735	507.74
423.111	519.72
423.488	536.89
423.864	533.28
424.241	537.8
424.617	540.06
424.994	534.41
425.37	539.15
425.746	558.59
426.123	562.88
426.499	569.43
426.875	537.34
427.251	567.4
427.627	548.19
428.003	567.63
428.379	573.28
428.756	564.24
429.132	560.62
429.507	589.55
429.883	583.67
430.259	582.54
430.635	594.52
431.011	589.32
431.387	605.37
431.763	605.59
432.138	599.04
432.514	610.56
432.89	623.67
433.265	617.12
433.641	613.73
434.016	628.19
434.392	633.61
434.767	666.61
435.143	644.46
435.518	650.79
435.894	662.99
436.269	665.25
436.644	664.8
437.02	674.52
437.395	672.71
437.77	671.58
438.145	677.45
438.52	702.54
438.895	683.33
439.271	680.39
439.646	692.14
440.021	692.59
440.395	735.98
440.77	712.03
441.145	721.75
441.52	720.84
441.895	725.36
442.27	737.57
442.645	732.82
443.019	745.25
443.394	737.57
443.769	763.33
444.143	750.67
444.518	742.09
444.892	765.59
445.267	743.67
445.641	753.61
446.016	752.03
446.39	764.46
446.764	766.49
447.139	777.79
447.513	774.4
447.887	761.97
448.262	795.19
448.636	778.24
449.01	786.83
449.384	789.77
449.758	809.2
450.132	793.84
450.506	815.3
450.88	825.92
451.254	822.53
451.628	843.33
452.002	834.51
452.376	829.77
452.75	853.27
453.123	848.75
453.497	854.4
453.871	862.53
454.244	867.73
454.618	879.48
454.992	889.2
455.365	890.78
455.739	913.83
456.112	908.41
456.486	905.02
456.859	919.03
457.232	935.98
457.606	905.24
457.979	952.47
458.352	953.83
458.725	982.3
459.099	986.6
459.472	982.3
459.845	970.33
460.218	1014.62
460.591	1025.92
460.964	1028.18
461.337	1050.55
461.71	1041.96
462.083	1073.6
462.456	1076.99
462.829	1092.58
463.201	1105.92
463.574	1067.5
463.947	1114.96
464.32	1142.75
464.692	1115.18
465.065	1145.92
465.438	1150.66
465.81	1168.97
466.183	1179.14
466.555	1198.34
466.928	1176.65
467.3	1211.45
467.672	1219.36
468.045	1239.02
468.417	1242.41
468.789	1258
469.161	1254.16
469.534	1259.36
469.906	1328.51
470.278	1327.15
470.65	1351.11
471.022	1380.71
471.394	1418.45
471.766	1385.23
472.138	1399.47
472.51	1459.58
472.882	1471.78
473.253	1481.27
473.625	1497.55
473.997	1530.31
474.369	1539.58
474.74	1568.96
475.112	1563.76
475.484	1610.99
475.855	1595.62
476.227	1634.26
476.598	1702.29
476.97	1702.29
477.341	1755.62
477.713	1766.46
478.084	1795.62
478.455	1809.4
478.827	1836.75
479.198	1880.81
479.569	1921.72
479.94	1975.27
480.311	2015.05
480.682	2026.57
481.053	2059.34
481.424	2083.07
481.795	2137.75
482.166	2159.67
482.537	2212.78
482.908	2244.42
483.279	2259.33
483.65	2318.09
484.021	2333.91
484.391	2398.09
484.762	2402.15
485.133	2453.68
485.503	2471.98
485.874	2558.08
486.244	2552.43
486.615	2625.43
486.985	2674.01
487.356	2704.75
487.726	2711.07
488.097	2772.09
488.467	2805.76
488.837	2915.14
489.207	2880.79
489.578	2969.6
489.948	3011.86
490.318	3079.65
490.688	3048.01
491.058	3075.13
491.428	3185.64
491.798	3222.92
492.168	3288.91
492.538	3307.44
492.908	3300.21
493.278	3384.73
493.648	3391.28
494.017	3412.3
494.387	3486.65
494.757	3505.18
495.126	3568.45
495.496	3520.32
495.866	3573.42
496.235	3641.9
496.605	3661.56
496.974	3727.09
497.344	3768.22
497.713	3780.42
498.082	3808.67
498.452	3849.8
498.821	3864.04
499.19	3873.75
499.559	3912.85
499.928	3972.73
500.298	3980.87
500.667	4013.19
501.036	4014.77
501.405	4048.66
501.774	4044.82
502.143	4102.9
502.512	4111.26
502.88	4166.18
503.249	4200.75
503.618	4226.51
503.987	4214.99
504.356	4263.12
504.724	4292.95
505.093	4322.1
505.462	4297.47
505.83	4365.49
506.199	4355.32
506.567	4469.22
506.936	4421.08
507.304	4477.13
507.672	4499.5
508.041	4468.77
508.409	4585.6
508.777	4546.28
509.145	4597.8
509.514	4604.13
509.882	4626.73
510.25	4665.15
510.618	4679.38
510.986	4668.99
511.354	4787.85
511.722	4807.51
512.09	4807.06
512.458	4779.04
512.826	4849.1
513.193	4864.91
513.561	4867.17
513.929	4894.07
514.297	4942.88
514.664	4909.66
515.032	4952.6
515.4	4988.53
515.767	5056.55
516.135	5037.34
516.502	4962.09
516.869	5120.5
517.237	5097.45
517.604	5099.48
517.972	5100.39
518.339	5167.28
518.706	5163.89
519.073	5183.78
519.44	5175.19
519.808	5247.5
520.175	5238.01
520.542	5313.49
520.909	5291.57
521.276	5277.11
521.643	5349.87
522.009	5358.23
522.376	5396.65
522.743	5431.23
523.11	5428.29
523.477	5528.85
523.843	5516.2
524.21	5567.95
524.577	5639.81
524.943	5630.32
525.31	5646.36
525.676	5721.39
526.043	5786.7
526.409	5745.57
526.776	5851.78
527.142	5861.27
527.508	5814.27
527.874	5888.62
528.241	5925.23
528.607	5950.54
528.973	6043.41
529.339	5939.46
529.705	6075.5
530.071	6067.37
530.437	6068.72
530.803	6150.76
531.169	6195.95
531.535	6170.87
531.901	6224.43
532.267	6200.02
532.632	6222.84
532.998	6276.63
533.364	6320.92
533.73	6336.74
534.095	6363.18
534.461	6390.07
534.826	6486.79
535.192	6430.97
535.557	6512.78
535.923	6526.57
536.288	6527.92
536.653	6577.64
537.019	6595.26
537.384	6613.8
537.749	6597.07
538.114	6688.6
538.479	6652.44
538.845	6670.29
539.21	6639.56
539.575	6784.41
539.94	6738.76
540.305	6786.22
540.67	6819.67
541.034	6884.07
541.399	6817.18
541.764	6894.69
542.129	6878.19
542.494	6962.94
542.858	6961.13
543.223	7000.45
543.587	7031.41
543.952	7104.4
544.316	7118.19
544.681	7121.35
545.045	7148.7
545.41	7141.46
545.774	7177.17
546.138	7235.25
546.503	7238.41
546.867	7235.93
547.231	7358.18
547.595	7338.52
547.959	7371.74
548.324	7338.75
548.688	7392.76
549.052	7404.73
549.416	7366.77
549.779	7470.04
550.143	7498.52
550.507	7521.34
550.871	7541
551.235	7573.32
551.599	7602.7
551.962	7650.83
552.326	7668.23
552.689	7698.29
553.053	7682.47
553.417	7727.44
553.78	7755.46
554.143	7732.86
554.507	7811.5
554.87	7771.5
555.234	7884.5
555.597	7870.71
555.96	7843.59
556.323	7898.51
556.686	7991.61
557.05	8006.07
557.413	8029.58
557.776	8058.95
558.139	8135.11
558.502	8057.15
558.865	8149.8
559.228	8219.18
559.59	8166.97
559.953	8183.7
560.316	8267.31
560.679	8302.79
561.041	8357.25
561.404	8353.64
561.767	8364.71
562.129	8385.5
562.492	8522.22
562.854	8460.07
563.217	8475.44
563.579	8505.04
563.941	8537.81
564.304	8603.12
564.666	8624.59
565.028	8662.55
565.39	8697.58
565.753	8684.93
566.115	8732.61
566.477	8759.95
566.839	8784.81
567.201	8943.9
567.563	8858.03
567.925	8982.77
568.287	8976.22
568.648	8976.22
569.01	8959.72
569.372	9140.96
569.734	9056.89
570.095	9169.66
570.457	9195.65
570.819	9196.55
571.18	9228.64
571.542	9286.04
571.903	9329.88
572.265	9312.48
572.626	9335.98
572.987	9465.47
573.349	9486.71
573.71	9503.21
574.071	9550.44
574.432	9670.21
574.794	9789.08
575.155	9745.92
575.516	9865.46
575.877	9883.54
576.238	9915.4
576.599	9963.76
576.96	9978.9
577.32	10107.04
577.681	10202.4
578.042	10292.34
578.403	10335.96
578.763	10387.48
579.124	10488.95
579.485	10550.64
579.845	10681.26
580.206	10776.4
580.566	10898.43
580.927	10914.47
581.287	11118.54
581.648	11147.24
582.008	11371.41
582.368	11481.24
582.728	11622.48
583.089	11787.44
583.449	11881.68
583.809	12052.97
584.169	12172.74
584.529	12401.67
584.889	12612.51
585.249	12642.79
585.609	12855.21
585.969	13080.52
586.329	13333.17
586.688	13535.65
587.048	13713.04
587.408	13868.07
587.768	14089.08
588.127	14351.22
588.487	14550.76
588.846	14784.2
589.206	14984.87
589.565	15254.92
589.925	15577.4
590.284	15896.71
590.643	16007.9
591.003	16353.65
591.362	16636.36
591.721	16913.64
592.08	17114.31
592.44	17439.73
592.799	17776.67
593.158	17976.89
593.517	18303.43
593.876	18716.53
594.235	18903.64
594.593	19291.43
594.952	19472.21
595.311	19785.43
595.67	20099.54
596.029	20670.15
596.387	20913.53
596.746	21216.57
597.104	21424.93
597.463	21764.36
597.822	22211.8
598.18	22339.03
598.538	22681.4
598.897	23142.63
599.255	23271.89
599.613	23906.67
599.972	23974.02
600.33	24399.09
600.688	24594.79
601.046	24978.06
601.404	25439.74
601.762	25603.58
602.12	25947.98
602.478	26445.82
602.836	26567.39
603.194	26681.29
603.552	27193.37
603.91	27354.49
604.268	27805.78
604.625	28074.93
604.983	28277.63
605.341	28568.92
605.698	28918.97
606.056	29208.46
606.413	29472.63
606.771	29782.9
607.128	30123.91
607.485	30078.26
607.843	30405.71
608.2	30865.13
608.557	31157.33
608.914	31350.32
609.272	31642.29
609.629	31873.02
609.986	32292.89
610.343	32367.92
610.7	32941.69
611.057	32913.67
611.414	33132.65
611.771	33349.36
612.127	33774.89
612.484	33804.49
612.841	34171.49
613.198	34253.29
613.554	34525.38
613.911	34958.36
614.267	34934.41
614.624	35032.48
614.98	35207.39
615.337	35694.84
615.693	35839.47
616.05	35915.85
616.406	36246.91
616.762	36361.94
617.118	36436.74
617.475	36570.52
617.831	36780.69
618.187	37064.52
618.543	37230.39
618.899	37548.12
619.255	37598.52
619.611	37590.83
619.967	37907.89
620.323	38076.47
620.678	38126.86
621.034	38146.98
621.39	38222.68
621.746	38299.97
622.101	38884.36
622.457	38559.4
622.812	38838.71
623.168	39019.72
623.523	39082.55
623.879	39381.75
624.234	39167.52
624.589	39413.61
624.945	39410.22
625.3	39661.29
625.655	39527.73
626.01	39637.33
626.365	39810.44
626.72	39768.4
627.075	39883.88
627.43	39998.23
627.785	39942.41
628.14	40165
628.495	40228.05
628.85	40256.53
629.205	40335.39
629.559	40449.97
629.914	40421.72
630.269	40433.7
630.623	40519.12
630.978	40580.36
631.332	40653.13
631.687	40833.46
632.041	40501.49
632.396	40821.26
632.75	40698.55
633.104	40860.58
633.459	40753.01
633.813	40653.13
634.167	40642.96
634.521	40734.93
634.875	40792.33
635.229	40888.15
635.583	40649.28
635.937	40866.68
636.291	40786
636.645	40793.91
636.999	40717.08
637.352	40902.84
637.706	40723.63
638.06	40818.55
638.413	40749.17
638.767	40793.46
639.121	40828.49
639.474	40607.03
639.828	40657.65
640.181	40783.07
640.534	40802.73
640.888	40631.43
641.241	40600.02
641.594	40683.41
641.947	40849.28
642.301	40534.49
642.654	40788.94
643.007	40652.67
643.36	40738.55
643.713	40662.17
644.066	40811.09
644.419	40525.9
644.771	40283.64
645.124	39958.91
645.477	39865.35
645.83	39759.59
646.182	39822.64
646.535	39571.57
646.888	39682.53
647.24	39344.23
647.593	39662.87
647.945	39584.68
648.298	39442.99
648.65	39398.7
649.002	39257.23
649.355	39401.41
649.707	39360.28
650.059	39585.81
650.411	40020.83
650.763	40126.81
651.115	40326.35
651.467	40348.05
651.819	40273.47
652.171	40246.36
652.523	40233.25
652.875	40207.94
653.227	40000.49
653.578	40367.48
653.93	40227.37
654.282	40115.96
654.633	40042.97
654.985	40114.38
655.337	40203.19
655.688	40220.59
656.039	40140.15
656.391	40014.95
656.742	40080.49
657.094	39993.48
657.445	40146.25
657.796	40087.49
658.147	39980.6
658.498	39907.61
658.849	39977.89
659.2	40018.79
659.551	39945.8
659.902	40016.08
660.253	40057.66
660.604	40115.96
660.955	39847.05
661.306	39978.12
661.656	39935.18
662.007	39947.61
662.358	39898.12
662.708	39990.77
663.059	39930.66
663.409	39745.81
663.76	40017.44
664.11	40019.92
664.461	40002.97
664.811	39959.81
665.161	39986.48
665.511	39670.1
665.862	39825.13
666.212	39917.55
666.562	40005.91
666.912	39819.7
667.262	39897.89
667.612	39807.95
667.962	39861.51
668.312	39728.4
668.662	39947.38
669.011	39848.4
669.361	39776.54
669.711	39581.97
670.06	39689.31
670.41	39718.24
670.76	39659.71
671.109	39955.07
671.459	39710.1
671.808	39692.7
672.157	39753.04
672.507	39637.11
672.856	39560.05
673.205	39520.95
673.554	39689.76
673.904	39610.89
674.253	39809.98
674.602	39588.97
674.951	39084.81
675.3	38983.34
675.649	39504.23
675.998	39353.05
676.346	39427.4
676.695	39494.06
677.044	39256.55
677.393	39317.57
677.741	39340.39
678.09	39199.38
678.438	39074.64
678.787	39249.1
679.135	39202.99
679.484	39024.47
679.832	39128.42
680.181	39030.57
680.529	39135.88
680.877	39015.65
681.225	38964.58
681.573	39225.82
681.922	38929.33
682.27	38745.15
682.618	38780.86
682.966	38798.03
683.314	38920.29
683.661	38747.19
684.009	38530.7
684.357	38520.75
684.705	38476.91
685.053	38470.81
685.4	38415.67
685.748	38212.06
686.095	38146.07
686.443	38035.12
686.79	37996.25
687.138	38000.77
687.485	38084.38
687.832	37974.78
688.18	37992.86
688.527	37746.08
688.874	37736.82
689.221	37706.54
689.568	37565.98
689.915	37587.44
690.262	37543.6
690.609	37375.47
690.956	37331.18
691.303	37306.32
691.65	37110.62
691.997	37194.91
692.344	37003.73
692.69	36848.93
693.037	36905.88
693.383	36467.25
693.73	36757.64
694.077	36532.33
694.423	36625.66
694.769	36443.97
695.116	36343.41
695.462	36342.28
695.808	36194.03
696.155	36205.33
696.501	36029.52
696.847	35972.12
697.193	35688.74
697.539	35890.31
697.885	35724.44
698.231	35575.75
698.577	35554.28
698.923	35428.63
699.269	35188.18
699.614	35036.1
699.96	35120.16
700.306	35030
700.651	34878.36
700.997	34841.53
701.342	34625.94
701.688	34609.44
702.033	34547.52
702.379	34522.44
702.724	34474.08
703.069	34550.01
703.415	34078.16
703.76	34080.64
704.105	34190.25
704.45	34032.51
704.795	33907.77
705.14	33909.12
705.485	33747.77
705.83	33669.13
706.175	33842.46
706.52	33658.51
706.865	33590.26
707.209	33567.21
707.554	33281.12
707.899	33488.34
708.243	33244.28
708.588	33153.66
708.932	32935.14
709.277	33022.37
709.621	32903.27
709.966	32854.69
710.31	32774.46
710.654	32627.57
710.998	32541.93
711.342	32508.26
711.687	32529.27
712.031	32370.63
712.375	32404.3
712.719	32452.89
713.063	32424.42
713.407	32408.6
713.75	32192.33
714.094	32230.75
714.438	31987.14
714.782	32072.79
715.125	31820.59
715.469	31858.78
715.812	31733.59
716.156	31743.3
716.499	31639.8
716.843	31627.6
717.186	31411.11
717.53	31608.17
717.873	31625.57
718.216	31622.63
718.559	31314.39
718.902	31197.33
719.246	31309.19
719.589	31012.48
719.932	31124.56
720.275	31024.68
720.617	31046.82
720.96	30816.55
721.303	30894.29
721.646	30876.21
721.989	30738.81
722.331	30827.4
722.674	30699.04
723.016	30726.83
723.359	30619.04
723.701	30636.44
724.044	30430.57
724.386	30392.6
724.729	30494.07
725.071	30285.26
725.413	30290.01
725.755	30306.05
726.097	30253.17
726.439	29955.1
726.782	30112.84
727.124	30171.82
727.465	30054.76
727.807	30036.91
728.149	29914.65
728.491	29813.19
728.833	29915.33
729.175	29743.58
729.516	29765.5
729.858	29647.99
730.199	29716.24
730.541	29626.52
730.882	29644.38
731.224	29548.33
731.565	29422.23
731.906	29527.32
732.248	29492.97
732.589	29326.87
732.93	29290.03
733.271	29263.37
733.612	29261.56
733.953	29306.31
734.294	29066.09
734.635	29028.35
734.976	29247.32
735.317	28970.95
735.658	28991.29
735.999	29063.83
736.339	28949.7
736.68	29006.88
737.021	28867.22
737.361	28798.52
737.702	28890.72
738.042	28833.32
738.383	28724.63
738.723	28726.21
739.063	28651.86
739.404	28728.24
739.744	28610.05
740.084	28507.23
740.424	28584.52
740.764	28523.95
741.104	28559.43
741.444	28389.72
741.784	28295.94
742.124	28290.74
742.464	28154.47
742.804	28188.37
743.143	28201.7
743.483	28127.13
743.823	28150.18
744.162	28020.24
744.502	28034.02
744.841	27976.85
745.181	28063.85
745.52	27796.29
745.86	27950.64
746.199	27884.87
746.538	27907.7
746.877	27928.71
747.216	27870.41
747.556	27776.85
747.895	27911.99
748.234	27655.05
748.573	27742.73
748.911	27688.72
749.25	27553.36
749.589	27585
749.928	27571.89
750.267	27609.63
750.605	27361.95
750.944	27457.09
751.283	27358.11
751.621	27357.2
751.96	27131.9
752.298	27235.17
752.636	27218
752.975	26998.57
753.313	26928.06
753.651	27096.65
753.989	27013.26
754.327	26739.37
754.666	26657.34
755.004	26740.27
755.342	26706.6
755.679	26731.23
756.017	26552.25
756.355	26731.01
756.693	26526.72
757.031	26484.23
757.368	26396.78
757.706	26348.42
758.044	26365.59
758.381	26465.7
758.719	26102.1
759.056	26219.16
759.394	26166.73
759.731	25939.16
760.068	25960.86
760.405	25810.35
760.743	25766.74
