Data from hue_36_FLMS001491_00031.txt Node
Date: Tue Feb 07 17:29:42 GMT 2017
User: dcchb
Spectrometer: FLMS00149
Trigger mode: 0
Integration Time (sec): 2.000000E-2
Scans to average: 10
Electric dark correction enabled: true
Nonlinearity correction enabled: false
Boxcar width: 0
XAxis mode: Wavelengths
Number of Pixels in Spectrum: 2048
>>>>>Begin Spectral Data<<<<<
341.393	-10.73
341.776	-10.73
342.16	-10.73
342.543	-59.32
342.927	-68.81
343.31	-57.29
343.693	-72.65
344.077	-64.97
344.46	-85.99
344.843	-47.34
345.226	-38.08
345.61	-14.8
345.993	-27.23
346.376	-4.86
346.759	-6.67
347.142	18.64
347.525	47.34
347.908	71.52
348.291	91.41
348.674	91.18
349.057	99.77
349.44	124.18
349.823	146.32
350.206	161.46
350.588	175.7
350.971	213.67
351.354	228.58
351.737	257.73
352.119	246.66
352.502	257.96
352.884	281.46
353.267	284.85
353.65	287.34
354.032	297.73
354.414	306.32
354.797	317.17
355.179	325.08
355.562	323.95
355.944	335.25
356.326	334.12
356.709	337.73
357.091	358.52
357.473	333.89
357.855	337.51
358.238	329.6
358.62	334.34
359.002	326.43
359.384	344.96
359.766	339.31
360.148	344.74
360.53	332.76
360.912	331.4
361.294	310.39
361.676	320.78
362.057	334.57
362.439	319.65
362.821	304.06
363.203	331.86
363.584	330.73
363.966	306.09
364.348	323.72
364.729	317.84
365.111	311.29
365.493	347.45
365.874	315.81
366.256	301.8
366.637	315.58
367.019	321.01
367.4	310.39
367.781	324.17
368.163	306.09
368.544	317.62
368.925	297.96
369.306	314.46
369.688	321.91
370.069	298.64
370.45	300.67
370.831	302.25
371.212	302.48
371.593	304.74
371.974	298.64
372.355	322.59
372.736	314.68
373.117	325.3
373.498	301.35
373.879	304.96
374.26	295.92
374.641	322.36
375.021	323.49
375.402	307.68
375.783	296.15
376.163	330.05
376.544	332.31
376.925	304.74
377.305	342.25
377.686	326.66
378.066	336.6
378.447	323.49
378.827	311.74
379.208	310.84
379.588	327.11
379.968	337.73
380.349	337.73
380.729	333.44
381.109	349.48
381.489	307.9
381.87	316.04
382.25	330.27
382.63	325.98
383.01	339.77
383.39	339.54
383.77	346.32
384.15	328.24
384.53	327.56
384.91	348.35
385.29	349.03
385.67	357.17
386.049	359.2
386.429	362.36
386.809	346.54
387.189	349.48
387.568	344.51
387.948	335.02
388.328	354.23
388.707	350.61
389.087	353.55
389.466	370.72
389.846	346.77
390.225	358.3
390.605	364.17
390.984	359.43
391.363	355.58
391.743	355.13
392.122	367.56
392.501	370.5
392.881	391.74
393.26	333.89
393.639	372.53
394.018	367.33
394.397	368.92
394.776	365.98
395.155	365.53
395.534	350.61
395.913	360.56
396.292	378.63
396.671	372.76
397.05	377.28
397.429	376.15
397.808	373.66
398.186	370.05
398.565	372.31
398.944	384.96
399.323	381.57
399.701	391.06
400.08	377.96
400.458	396.03
400.837	384.28
401.215	396.94
401.594	372.31
401.972	394.9
402.351	386.54
402.729	387.22
403.107	392.19
403.486	396.94
403.864	374.57
404.242	395.58
404.62	411.85
404.999	413.21
405.377	399.65
405.755	402.59
406.133	390.61
406.511	394.23
406.889	413.89
407.267	413.21
407.645	421.12
408.023	419.76
408.401	420.67
408.779	419.99
409.156	423.15
409.534	428.58
409.912	407.56
410.29	411.63
410.667	435.81
411.045	426.32
411.422	424.96
411.8	444.4
412.178	440.78
412.555	446.43
412.933	455.24
413.31	422.02
413.687	436.71
414.065	448.24
414.442	469.71
414.819	450.72
415.197	458.86
415.574	459.31
415.951	478.07
416.328	478.74
416.705	466.77
417.082	484.85
417.46	484.39
417.837	470.38
418.214	495.69
418.591	471.74
418.967	469.71
419.344	468.12
419.721	478.97
420.098	488.69
420.475	486.43
420.852	488.46
421.228	496.82
421.605	492.53
421.982	506.09
422.358	517.84
422.735	508.35
423.111	487.33
423.488	522.36
423.864	511.74
424.241	499.31
424.617	516.71
424.994	525.07
425.37	516.26
425.746	550.38
426.123	527.56
426.499	526.2
426.875	561.45
427.251	510.16
427.627	544.73
428.003	566.88
428.379	556.93
428.756	560.32
429.132	565.52
429.507	565.97
429.883	578.4
430.259	577.72
430.635	600.55
431.011	589.48
431.387	586.54
431.763	602.58
432.138	599.65
432.514	592.87
432.89	595.13
433.265	591.06
433.641	590.15
434.016	628.57
434.392	636.25
434.767	607.55
435.143	630.38
435.518	619.53
435.894	634.22
436.269	637.84
436.644	649.81
437.02	647.1
437.395	644.62
437.77	677.16
438.145	638.74
438.52	669.02
438.895	666.54
439.271	663.37
439.646	705.41
440.021	692.3
440.395	667.89
440.77	687.55
441.145	690.49
441.52	704.28
441.895	704.28
442.27	698.4
442.645	709.7
443.019	699.53
443.394	707.44
443.769	709.7
444.143	706.08
444.518	742.47
444.892	738.62
445.267	737.49
445.641	729.59
446.016	724.84
446.39	746.08
446.764	750.38
447.139	738.85
447.513	737.49
447.887	736.59
448.262	752.64
448.636	752.64
449.01	779.98
449.384	782.01
449.758	781.34
450.132	763.93
450.506	791.28
450.88	786.53
451.254	798.06
451.628	780.66
452.002	802.35
452.376	788.11
452.75	810.71
453.123	840.77
453.497	836.02
453.871	824.27
454.244	838.74
454.618	852.52
454.992	855.23
455.365	843.03
455.739	875.12
456.112	874.44
456.486	873.54
456.859	902.46
457.232	888.68
457.606	913.99
457.979	936.81
458.352	928.68
458.725	943.14
459.099	949.47
459.472	967.55
459.845	968.9
460.218	964.61
460.591	988.11
460.964	975.68
461.337	1001.22
461.71	1017.04
462.083	1047.77
462.456	1029.92
462.829	1029.46
463.201	1046.19
463.574	1081.44
463.947	1064.94
464.32	1090.48
464.692	1123.93
465.065	1104.94
465.438	1134.32
465.81	1183.58
466.183	1170.25
466.555	1180.87
466.928	1189.01
467.3	1187.43
467.672	1205.05
468.045	1252.96
468.417	1260.42
468.789	1252.28
469.161	1264.71
469.534	1277.82
469.906	1344.71
470.278	1349.91
470.65	1346.74
471.022	1391.94
471.394	1417.7
471.766	1435.56
472.138	1464.71
472.51	1463.58
472.882	1517.36
473.253	1561.88
473.625	1568.89
473.997	1618.6
474.369	1605.27
474.74	1668.77
475.112	1712.16
475.484	1769.56
475.855	1774.76
476.227	1788.77
476.598	1871.48
476.97	1913.06
477.341	1950.34
477.713	1983.11
478.084	1992.6
478.455	2100.62
478.827	2128.19
479.198	2199.15
479.569	2222.43
479.94	2292.26
480.311	2306.94
480.682	2420.61
481.053	2485.92
481.424	2555.53
481.795	2598.01
482.166	2699.7
482.537	2736.31
482.908	2799.59
483.279	2871.9
483.65	2957.1
484.021	3031.67
484.391	3106.7
484.762	3181.72
485.133	3213.59
485.503	3287.03
485.874	3386.69
486.244	3462.62
486.615	3566.35
486.985	3655.16
487.356	3750.07
487.726	3843.4
488.097	3916.39
488.467	4039.55
488.837	4148.03
489.207	4228.93
489.578	4316.84
489.948	4430.05
490.318	4546.89
490.688	4559.09
491.058	4697.84
491.428	4790.5
491.798	4872.53
492.168	5005.41
492.538	5112.52
492.908	5192.74
493.278	5291.5
493.648	5321.1
494.017	5463.25
494.387	5576.01
494.757	5684.94
495.126	5758.15
495.496	5736.91
495.866	5924.03
496.235	5969.22
496.605	6105.04
496.974	6170.35
497.344	6269.55
497.713	6352.71
498.082	6435.2
498.452	6562.43
498.821	6617.79
499.19	6686.72
499.559	6804.45
499.928	6854.85
500.298	6980.49
500.667	7018.91
501.036	7076.76
501.405	7185.46
501.774	7286.02
502.143	7248.06
502.512	7360.15
502.88	7482.4
503.249	7493.02
503.618	7665.45
503.987	7647.37
504.356	7760.81
504.724	7831.09
505.093	7916.29
505.462	7941.37
505.83	8043.29
506.199	8089.84
506.567	8271.99
506.936	8296.17
507.304	8409.16
507.672	8422.26
508.041	8398.31
508.409	8562.15
508.777	8616.61
509.145	8694.57
509.514	8749.94
509.882	8781.8
510.25	8845.08
510.618	8917.62
510.986	8948.35
511.354	9081
511.722	9159.87
512.09	9186.76
512.458	9220.89
512.826	9320.77
513.193	9337.72
513.561	9456.81
513.929	9514.21
514.297	9536.13
514.664	9579.75
515.032	9707.65
515.4	9743.81
515.767	9831.49
516.135	9929.34
516.502	9836.01
516.869	9999.85
517.237	10074.65
517.604	10038.04
517.972	10202.1
518.339	10199.17
518.706	10253.85
519.073	10295.66
519.44	10379.95
519.808	10503.34
520.175	10443.91
520.542	10577.69
520.909	10606.84
521.276	10649.78
521.643	10752.37
522.009	10846.38
522.376	10943.55
522.743	10981.97
523.11	11052.48
523.477	11137.22
523.843	11219.25
524.21	11342.87
524.577	11340.83
524.943	11476.65
525.31	11509.19
525.676	11559.13
526.043	11694.49
526.409	11737.43
526.776	11780.37
527.142	11875.96
527.508	11899.91
527.874	11993.02
528.241	12067.59
528.607	12099
528.973	12143.97
529.339	12183.52
529.705	12294.25
530.071	12409.73
530.437	12464.42
530.803	12572.44
531.169	12618.09
531.535	12598.88
531.901	12685.88
532.267	12784.64
532.632	12749.38
532.998	12927
533.364	12948.93
533.73	12979.66
534.095	13117.51
534.461	13118.86
534.826	13098.75
535.192	13221.69
535.557	13337.84
535.923	13395.69
536.288	13423.49
536.653	13494.22
537.019	13458.74
537.384	13531.73
537.749	13562.69
538.114	13677.04
538.479	13586.42
538.845	13780.77
539.21	13693.31
539.575	13846.75
539.94	13811.73
540.305	13921.78
540.67	13889.47
541.034	14032.06
541.399	14046.07
541.764	14077.26
542.129	14215.11
542.494	14259.17
542.858	14278.83
543.223	14337.59
543.587	14406.29
543.952	14389.34
544.316	14470.02
544.681	14442.22
545.045	14552.27
545.41	14593.4
545.774	14772.38
546.138	14738.71
546.503	14778.93
546.867	14830.23
547.231	14940.74
547.595	14939.83
547.959	14977.57
548.324	15041.3
548.688	15113.61
549.052	15118.13
549.416	15206.04
549.779	15183.67
550.143	15145.93
550.507	15398.35
550.871	15470.44
551.235	15442.87
551.599	15580.95
551.962	15503.21
552.326	15494.39
552.689	15734.16
553.053	15679.47
553.417	15639.93
553.78	15925.8
554.143	15833.59
554.507	15871.56
554.87	16037.66
555.234	16176.86
555.597	15986.13
555.96	16163.76
556.323	16179.35
556.686	16216.86
557.05	16333.69
557.413	16319.91
557.776	16424.54
558.139	16474.03
558.502	16576.63
558.865	16590.64
559.228	16637.42
559.59	16756.28
559.953	16663.4
560.316	16931.19
560.679	17049.16
561.041	17154.01
561.404	17132.77
561.767	17205.99
562.129	17163.5
562.492	17283.5
562.854	17275.36
563.217	17312.88
563.579	17438.07
563.941	17529.14
564.304	17569.59
564.666	17680.78
565.028	17790.38
565.39	17735.24
565.753	17817.72
566.115	18007.1
566.477	17950.38
566.839	18011.62
567.201	18138.17
567.563	18161.67
567.925	18294.32
568.287	18244.15
568.648	18347.65
569.01	18389.01
569.372	18621.09
569.734	18560.53
570.095	18741.77
570.457	18670.58
570.819	18751.48
571.18	18851.37
571.542	19035.54
571.903	18986.96
572.265	19104.24
572.626	19249.32
572.987	19271.02
573.349	19367.97
573.71	19440.96
574.071	19516.66
574.432	19595.08
574.794	19804.79
575.155	19824.68
575.516	19760.27
575.877	19977.21
576.238	20073.94
576.599	20216.76
576.96	20206.81
577.32	20326.36
577.681	20466.92
578.042	20572.45
578.403	20659.23
578.763	20863.07
579.124	20903.74
579.485	21111.65
579.845	21343.73
580.206	21387.8
580.566	21480.23
580.927	21693.78
581.287	21857.39
581.648	21912.31
582.008	22185.97
582.368	22248.79
582.728	22546.86
583.089	22590.03
583.449	22679.97
583.809	23003.58
584.169	23137.81
584.529	23246.06
584.889	23528.99
585.249	23616.89
585.609	23855.98
585.969	24019.37
586.329	24129.42
586.688	24435.4
587.048	24680.59
587.408	24700.03
587.768	24897.31
588.127	25084.65
588.487	25372.78
588.846	25713.56
589.206	25605.32
589.565	26027
589.925	26181.57
590.284	26430.6
590.643	26775.45
591.003	26982
591.362	27235.1
591.721	27415.66
592.08	27589.9
592.44	27812.04
592.799	28057.45
593.158	28172.93
593.517	28414.96
593.876	28666.93
594.235	28799.36
594.593	29163.19
594.952	29350.75
595.311	29401.15
595.67	29665.77
596.029	30046.78
596.387	30334
596.746	30480.67
597.104	30543.49
597.463	30714.11
597.822	31068
598.18	30993.2
598.538	31247.65
598.897	31621.88
599.255	31614.2
599.613	32254.86
599.972	32229.32
600.33	32410.33
600.688	32501.41
601.046	32728.29
601.404	32997.21
601.762	33061.16
602.12	33326.24
602.478	33502.73
602.836	33741.15
603.194	33707.02
603.552	33775.5
603.91	33952.67
604.268	34135.26
604.625	34259.55
604.983	34539.77
605.341	34494.12
605.698	34843.26
606.056	34959.19
606.413	35254.1
606.771	35295.23
607.128	35497.03
607.485	35316.92
607.843	35656.58
608.2	35838.04
608.557	36015.66
608.914	36070.13
609.272	36392.15
609.629	36485.26
609.986	36615.65
610.343	36685.48
610.7	37166.37
611.057	37048.86
611.414	37148.74
611.771	37235.29
612.127	37639.58
612.484	37599.12
612.841	37918.21
613.198	37686.81
613.554	37829.4
613.911	38161.37
614.267	38120.01
614.624	38202.05
614.98	38296.96
615.337	38671.64
615.693	38662.37
616.05	38642.94
616.406	38988.47
616.762	38877.28
617.118	38987.11
617.475	39013.78
617.831	39230.27
618.187	39302.13
618.543	39260.1
618.899	39591.16
619.255	39497.38
619.611	39635.91
619.967	39772.17
620.323	39851.95
620.678	39886.97
621.034	39865.05
621.39	39903.92
621.746	39837.26
622.101	40384.36
622.457	40045.39
622.812	40235.89
623.168	40174.2
623.523	40354.53
623.879	40535.77
624.234	40400.41
624.589	40606.73
624.945	40546.17
625.3	40642.66
625.655	40704.13
626.01	40775.54
626.365	40854.63
626.72	40814.18
627.075	40746.16
627.43	40970.11
627.785	40803.79
628.14	41018.47
628.495	40963.33
628.85	41013.95
629.205	40818.02
629.559	41113.16
629.914	40933.73
630.269	40953.16
630.623	40978.47
630.978	40941.41
631.332	41097.79
631.687	41241.74
632.041	40839.94
632.396	41051.24
632.75	40918.81
633.104	40906.16
633.459	40930.79
633.813	41006.72
634.167	40969.88
634.521	40833.62
634.875	41018.24
635.229	40939.83
635.583	40755.65
635.937	40952.48
636.291	40874.07
636.645	40902.54
636.999	40908.19
637.352	40986.38
637.706	40797.91
638.06	40920.17
638.413	40766.05
638.767	40717.23
639.121	40896.21
639.474	40607.18
639.828	40622.1
640.181	40743
640.534	40704.81
640.888	40519.05
641.241	40522.66
641.594	40592.72
641.947	40795.88
642.301	40535.09
642.654	40668.65
643.007	40647.41
643.36	40646.05
643.713	40504.13
644.066	40607.18
644.419	40408.54
644.771	40271.14
645.124	39805.85
645.477	39797.71
645.83	39570.37
646.182	39510.71
646.535	39289.7
646.888	39488.34
647.24	39149.14
647.593	39576.25
647.945	39260.1
648.298	39251.51
648.65	39147.56
649.002	39150.95
649.355	39232.53
649.707	39307.33
650.059	39469.13
650.411	39832.74
650.763	39810.37
651.115	40162.45
651.467	40069.57
651.819	40228.21
652.171	40008.78
652.523	39957.71
652.875	39915
653.227	39815.34
653.578	40072.05
653.93	39953.86
654.282	39802.46
654.633	39749.8
654.985	39698.5
655.337	39780.76
655.688	39827.77
656.039	40059.85
656.391	39586.64
656.742	39682.46
657.094	39748.22
657.445	39917.03
657.796	39787.99
658.147	39717.94
658.498	39787.09
658.849	39831.83
659.2	39794.77
659.551	39641.33
659.902	39760.42
660.253	39726.3
660.604	39751.84
660.955	39547.1
661.306	39679.97
661.656	39533.99
662.007	39663.02
662.358	39555.68
662.708	39728.33
663.059	39580.99
663.409	39429.36
663.76	39682.01
664.11	39574.89
664.461	39656.7
664.811	39618.28
665.161	39638.39
665.511	39555.91
665.862	39661.89
666.212	39528.79
666.562	39626.64
666.912	39507.77
667.262	39495.8
667.612	39534.44
667.962	39608.79
668.312	39509.81
668.662	39690.82
669.011	39564.95
669.361	39511.84
669.711	39417.16
670.06	39427.78
670.41	39315.24
670.76	39311.85
671.109	39507.1
671.459	39389.13
671.808	39277.5
672.157	39402.47
672.507	39268.23
672.856	39154.56
673.205	39293.54
673.554	39437.49
673.904	39146.43
674.253	39491.73
674.602	39404.73
674.951	38927
675.3	38702.37
675.649	39165.86
675.998	39244.28
676.346	39146.2
676.695	39423.71
677.044	39014.91
677.393	39071.85
677.741	39141.91
678.09	38958.18
678.438	39030.95
678.787	38978.3
679.135	39052.87
679.484	38819.88
679.832	38909.15
680.181	38771.75
680.529	38823.95
680.877	38682.03
681.225	38724.29
681.573	38886.32
681.922	38575.6
682.27	38553
682.618	38567.46
682.966	38424.64
683.314	38523.62
683.661	38386.9
684.009	38103.97
684.357	38090.18
684.705	38050.86
685.053	38221.25
685.4	38091.99
685.748	37885.44
686.095	37941.94
686.443	37861.26
686.79	37757.99
687.138	37884.77
687.485	37762.74
687.832	37684.55
688.18	37658.33
688.527	37325.91
688.874	37553.48
689.221	37362.29
689.568	37372.92
689.915	37257.44
690.262	37228.29
690.609	37100.15
690.956	36938.8
691.303	36931.8
691.65	36830.56
691.997	36723.22
692.344	36539.94
692.69	36551.24
693.037	36644.57
693.383	36226.05
693.73	36454.75
694.077	36127.3
694.423	36099.5
694.769	36092.5
695.116	35948.09
695.462	36045.94
695.808	35862.22
696.155	35836.23
696.501	35584.71
696.847	35730.7
697.193	35374.55
697.539	35469.01
697.885	35250.03
698.231	35287.55
698.577	35244.84
698.923	35215.46
699.269	34972.07
699.614	34833.55
699.96	34733.21
700.306	34748.13
700.651	34593.1
700.997	34578.41
701.342	34340.23
701.688	34369.15
702.033	34322.37
702.379	34303.62
702.724	34242.6
703.069	34262.04
703.415	33951.99
703.76	33888.26
704.105	33957.41
704.45	33972.1
704.795	33774.37
705.14	33610.08
705.485	33524.43
705.83	33444.88
706.175	33552.23
706.52	33392
706.865	33229.97
707.209	33285.11
707.554	33142.74
707.899	33143.87
708.243	32966.03
708.588	33000.15
708.932	32697.33
709.277	32756.09
709.621	32753.83
709.966	32560.16
710.31	32566.04
710.654	32354.29
710.998	32505.92
711.342	32317.91
711.687	32385.25
712.031	32128.76
712.375	32124.47
712.719	32153.17
713.063	32051.02
713.407	32236.1
713.75	31873.17
714.094	31929.22
714.438	31731.93
714.782	31760.18
715.125	31524.93
715.469	31660.98
715.812	31548.66
716.156	31348.22
716.499	31337.14
716.843	31431.38
717.186	31155.45
717.53	31333.75
717.873	31371.72
718.216	31158.62
718.559	31027.09
718.902	30847.66
719.246	31066.64
719.589	30793.65
719.932	30722.02
720.275	30771.51
720.617	30671.85
720.96	30685.86
721.303	30525.64
721.646	30677.95
721.989	30276.15
722.331	30546.65
722.674	30419.88
723.016	30442.7
723.359	30392.08
723.701	30373.55
724.044	30142.82
724.386	30044.75
724.729	30246.78
725.071	30155.93
725.413	30100.56
725.755	29987.12
726.097	29877.97
726.439	29754.58
726.782	29898.76
727.124	30020.79
727.465	29762.49
727.807	29653.12
728.149	29682.72
728.491	29677.98
728.833	29754.81
729.175	29640.69
729.516	29468.94
729.858	29384.43
730.199	29480.92
730.541	29396.18
730.882	29391.88
731.224	29471.65
731.565	29313.01
731.906	29300.81
732.248	29160.25
732.589	29056.52
732.93	29072.57
733.271	29137.2
733.612	29006.81
733.953	29023.3
734.294	28911.22
734.635	28933.14
734.976	28838
735.317	28820.37
735.658	28770.43
735.999	28769.53
736.339	28615.86
736.68	28832.35
737.021	28604.78
737.361	28478.69
737.702	28718.68
738.042	28564.33
738.383	28494.05
738.723	28397.78
739.063	28428.74
739.404	28487.27
739.744	28354.62
740.084	28265.36
740.424	28271.91
740.764	28133.16
741.104	28329.76
741.444	28172.03
741.784	28049.54
742.124	28042.77
742.464	28149.43
742.804	27980.85
743.143	27916.22
743.483	27906.05
743.823	27702.21
744.162	27686.16
744.502	27889.32
744.841	27693.17
745.181	27858.14
745.52	27635.77
745.86	27709.67
746.199	27747.18
746.538	27579.05
746.877	27634.19
747.216	27666.05
747.556	27521.88
747.895	27517.81
748.234	27414.99
748.573	27332.5
748.911	27248.21
749.25	27401.43
749.589	27099.51
749.928	27107.65
750.267	27185.39
750.605	26990.14
750.944	27130.47
751.283	26913.08
751.621	27049.8
751.96	26895.68
752.298	26869.46
752.636	26883.25
752.975	26773.65
753.313	26744.49
753.651	26776.58
753.989	26650.94
754.327	26568.91
754.666	26412.3
755.004	26514.9
755.342	26542.01
755.679	26435.8
756.017	26291.4
756.355	26379.76
756.693	26218.63
757.031	26168.24
757.368	26016.15
