Data from hue_200_FLMS001491_00017.txt Node
Date: Tue Feb 07 16:42:53 GMT 2017
User: dcchb
Spectrometer: FLMS00149
Trigger mode: 0
Integration Time (sec): 2.000000E-2
Scans to average: 10
Electric dark correction enabled: true
Nonlinearity correction enabled: false
Boxcar width: 0
XAxis mode: Wavelengths
Number of Pixels in Spectrum: 2048
>>>>>Begin Spectral Data<<<<<
341.393	-6.33
341.776	-6.33
342.16	-6.33
342.543	-60.34
342.927	-58.3
343.31	-57.4
343.693	-63.05
344.077	-40.9
344.46	-28.93
344.843	-40.9
345.226	-51.75
345.61	-29.38
345.993	-41.13
346.376	-1.81
346.759	-6.1
347.142	37.06
347.525	25.31
347.908	58.3
348.291	52.65
348.674	100.11
349.057	87.91
349.44	121.8
349.823	134.23
350.206	141.01
350.588	188.47
350.971	201.8
351.354	233.67
351.737	245.64
352.119	251.29
352.502	257.39
352.884	274.34
353.267	270.73
353.65	291.97
354.032	289.71
354.414	312.08
354.797	303.49
355.179	337.39
355.562	306.88
355.944	315.47
356.326	319.31
356.709	329.71
357.091	336.49
357.473	342.36
357.855	333.1
358.238	331.97
358.62	347.79
359.002	321.57
359.384	333.32
359.766	314.57
360.148	330.16
360.53	327.9
360.912	314.34
361.294	325.19
361.676	321.8
362.057	316.15
362.439	314.57
362.821	313.89
363.203	329.71
363.584	313.44
363.966	308.92
364.348	323.38
364.729	319.09
365.111	321.57
365.493	320.22
365.874	312.76
366.256	330.61
366.637	290.61
367.019	301.46
367.4	309.82
367.781	317.73
368.163	297.17
368.544	302.36
368.925	296.04
369.306	311.63
369.688	295.13
370.069	315.25
370.45	296.94
370.831	317.51
371.212	312.99
371.593	302.82
371.974	312.99
372.355	309.14
372.736	314.12
373.117	312.53
373.498	326.32
373.879	331.29
374.26	317.73
374.641	313.66
375.021	317.51
375.402	324.06
375.783	308.69
376.163	324.96
376.544	342.36
376.925	325.64
377.305	310.95
377.686	329.03
378.066	302.36
378.447	332.87
378.827	321.57
379.208	315.25
379.588	325.42
379.968	321.8
380.349	335.36
380.729	312.53
381.109	332.19
381.489	350.73
381.87	318.64
382.25	327.68
382.63	340.56
383.01	339.88
383.39	344.17
383.77	331.29
384.15	331.74
384.53	340.56
384.91	343.27
385.29	336.94
385.67	349.37
386.049	355.47
386.429	343.27
386.809	360.44
387.189	355.02
387.568	340.1
387.948	345.53
388.328	374
388.707	347.79
389.087	364.51
389.466	352.53
389.846	358.86
390.225	339.65
390.605	362.93
390.984	352.76
391.363	363.38
391.743	360.44
392.122	369.03
392.501	360.22
392.881	361.57
393.26	356.83
393.639	393.44
394.018	382.14
394.397	381.01
394.776	362.48
395.155	386.2
395.534	399.54
395.913	398.18
396.292	399.99
396.671	392.76
397.05	378.3
397.429	382.81
397.808	412.87
398.186	394.79
398.565	388.69
398.944	391.85
399.323	397.5
399.701	390.72
400.08	416.49
400.458	421.68
400.837	405.41
401.215	416.03
401.594	413.55
401.972	417.84
402.351	424.62
402.729	435.47
403.107	430.95
403.486	427.11
403.864	457.84
404.242	452.42
404.62	439.54
404.999	446.54
405.377	442.02
405.755	468.69
406.133	434.56
406.511	473.89
406.889	459.65
407.267	454.9
407.645	473.66
408.023	484.73
408.401	486.99
408.779	506.88
409.156	501.91
409.534	487.67
409.912	530.16
410.29	552.08
410.667	538.74
411.045	538.97
411.422	550.49
411.8	541.68
412.178	585.52
412.555	561.57
412.933	590.49
413.31	589.82
413.687	602.47
414.065	620.77
414.442	600.89
414.819	611.74
415.197	626.88
415.574	640.44
415.951	645.63
416.328	652.86
416.705	672.07
417.082	674.11
417.46	686.08
417.837	682.24
418.214	698.51
418.591	690.15
418.967	701.9
419.344	719.76
419.721	727.89
420.098	748.68
420.475	783.71
420.852	788.45
421.228	809.02
421.605	811.96
421.982	836.81
422.358	849.24
422.735	871.62
423.111	852.63
423.488	877.49
423.864	882.46
424.241	921.11
424.617	927.21
424.994	941.9
425.37	959.97
425.746	989.13
426.123	967.43
426.499	995.23
426.875	1020.99
427.251	1025.28
427.627	1034.1
428.003	1041.1
428.379	1048.79
428.756	1079.97
429.132	1105.51
429.507	1117.03
429.883	1119.29
430.259	1139.41
430.635	1171.49
431.011	1157.03
431.387	1206.3
431.763	1213.75
432.138	1207.65
432.514	1246.75
432.89	1250.14
433.265	1314.09
433.641	1303.02
434.016	1338.27
434.392	1339.85
434.767	1377.14
435.143	1393.18
435.518	1435.44
435.894	1451.71
436.269	1490.81
436.644	1522.22
437.02	1537.36
437.395	1539.17
437.77	1597.7
438.145	1609.9
438.52	1654.19
438.895	1667.53
439.271	1638.6
439.646	1716.11
440.021	1743.46
440.395	1750.91
440.77	1746.62
441.145	1811.7
441.52	1837.92
441.895	1837.47
442.27	1874.75
442.645	1885.6
443.019	1916.33
443.394	1931.02
443.769	1926.5
444.143	1940.29
444.518	2008.99
444.892	1999.5
445.267	2018.25
445.641	2048.31
446.016	2052.38
446.39	2091.47
446.764	2073.39
447.139	2123.56
447.513	2117.23
447.887	2132.83
448.262	2149.1
448.636	2181.86
449.01	2196.78
449.384	2229.55
449.758	2218.02
450.132	2271.58
450.506	2305.7
450.88	2310.67
451.254	2294.85
451.628	2344.12
452.002	2379.37
452.376	2350.22
452.75	2407.39
453.123	2435.42
453.497	2455.75
453.871	2494.4
454.244	2504.79
454.618	2538.24
454.992	2580.5
455.365	2596.77
455.739	2631.8
456.112	2666.82
456.486	2675.41
456.859	2713.6
457.232	2745.46
457.606	2769.64
457.979	2785.01
458.352	2825.91
458.725	2880.15
459.099	2851
459.472	2941.17
459.845	3005.57
460.218	2993.82
460.591	3028.85
460.964	3057.55
461.337	3141.16
461.71	3144.1
462.083	3186.13
462.456	3212.8
462.829	3217.32
463.201	3293.25
463.574	3300.03
463.947	3321.04
464.32	3391.55
464.692	3404.66
465.065	3434.49
465.438	3510.87
465.81	3573.92
466.183	3597.65
466.555	3650.53
466.928	3703.63
467.3	3684.42
467.672	3745.44
468.045	3853.68
468.417	3816.4
468.789	3881.93
469.161	3933.46
469.534	3979.56
469.906	4061.81
470.278	4062.04
470.65	4124.86
471.022	4205.54
471.394	4301.81
471.766	4309.49
472.138	4335.03
472.51	4444.4
472.882	4499.09
473.253	4573.89
473.625	4596.49
473.997	4696.6
474.369	4712.19
474.74	4732.08
475.112	4804.85
475.484	4947.67
475.855	4960.77
476.227	5038.96
476.598	5209.35
476.97	5208.9
477.341	5295
477.713	5371.16
478.084	5366.64
478.455	5558.95
478.827	5541.32
479.198	5749
479.569	5741.54
479.94	5863.57
480.311	5887.08
480.682	6028.09
481.053	6159.16
481.424	6278.93
481.795	6349.89
482.166	6388.98
482.537	6427.85
482.908	6653.84
483.279	6635.98
483.65	6747.85
484.021	6830.55
484.391	6923.66
484.762	6986.48
485.133	7007.27
485.503	7101.96
485.874	7209.75
486.244	7285.23
486.615	7409.52
486.985	7534.49
487.356	7639.57
487.726	7699.68
488.097	7869.17
488.467	7861.26
488.837	8029.17
489.207	8054.48
489.578	8148.49
489.948	8216.28
490.318	8335.37
490.688	8326.33
491.058	8468.7
491.428	8581.24
491.798	8620.79
492.168	8773.1
492.538	8815.81
492.908	8908.24
493.278	8838.64
493.648	8912.53
494.017	9095.35
494.387	9119.76
494.757	9257.84
495.126	9259.19
495.496	9279.3
495.866	9302.35
496.235	9388
496.605	9381.22
496.974	9573.08
497.344	9527.43
497.713	9607.21
498.082	9658.5
498.452	9718.39
498.821	9727.88
499.19	9770.36
499.559	9802.68
499.928	9887.88
500.298	9881.55
500.667	9962.22
501.036	9961.32
501.405	10015.56
501.774	10000.64
502.143	10071.6
502.512	10104.14
502.88	10172.39
503.249	10186.62
503.618	10272.72
503.987	10223.23
504.356	10276.79
504.724	10266.17
505.093	10274.53
505.462	10361.54
505.83	10373.96
506.199	10506.84
506.567	10481.31
506.936	10480.18
507.304	10605.6
507.672	10545.94
508.041	10599.95
508.409	10684.92
508.777	10759.04
509.145	10696.44
509.514	10723.11
509.882	10752.71
510.25	10790.68
510.618	10840.39
510.986	10791.13
511.354	10847.85
511.722	10895.53
512.09	10963.1
512.458	10966.72
512.826	10916.55
513.193	10961.29
513.561	10957.23
513.929	11054.4
514.297	11122.42
514.664	11042.42
515.032	11076.77
515.4	11096.88
515.767	11181.63
516.135	11186.6
516.502	11053.95
516.869	11246.03
517.237	11255.07
517.604	11161.97
517.972	11283.32
518.339	11263.21
518.706	11214.85
519.073	11243.55
519.44	11236.54
519.808	11260.72
520.175	11310.21
520.542	11326.71
520.909	11317.89
521.276	11360.15
521.643	11336.2
522.009	11399.02
522.376	11450.32
522.743	11415.97
523.11	11431.79
523.477	11500.94
523.843	11478.12
524.21	11447.38
524.577	11573.93
524.943	11622.52
525.31	11553.37
525.676	11555.4
526.043	11651.45
526.409	11658.9
526.776	11741.61
527.142	11625.91
527.508	11584.78
527.874	11609.41
528.241	11529.87
528.607	11665.46
528.973	11635.17
529.339	11584.1
529.705	11570.32
530.071	11659.58
530.437	11674.95
530.803	11592.24
531.169	11607.15
531.535	11490.77
531.901	11450.32
532.267	11510.88
532.632	11438.57
532.998	11458
533.364	11467.04
533.73	11424.33
534.095	11449.19
534.461	11382.07
534.826	11400.38
535.192	11365.35
535.557	11430.21
535.923	11342.3
536.288	11268.18
536.653	11288.06
537.019	11222.76
537.384	11203.32
537.749	11156.99
538.114	11105.24
538.479	11109.31
538.845	11104.57
539.21	11010.78
539.575	11017.79
539.94	10970.56
540.305	10971.46
540.67	10870.9
541.034	10892.82
541.399	10778.02
541.764	10745.71
542.129	10827.51
542.494	10735.99
542.858	10649.66
543.223	10597.01
543.587	10599.72
543.952	10537.8
544.316	10519.95
544.681	10531.02
545.045	10416.22
545.41	10434.75
545.774	10417.35
546.138	10330.58
546.503	10335.55
546.867	10246.96
547.231	10377.13
547.595	10193.86
547.959	10217.36
548.324	10157.47
548.688	10031.37
549.052	10030.47
549.416	9966.74
549.779	9909.34
550.143	9883.36
550.507	9946.41
550.871	9844.49
551.235	9768.78
551.599	9806.07
551.962	9745.05
552.326	9748.22
552.689	9644.94
553.053	9664.83
553.417	9629.8
553.78	9696.69
554.143	9595.91
554.507	9600.88
554.87	9500.32
555.234	9569.01
555.597	9469.81
555.96	9487.89
556.323	9418.51
556.686	9448.11
557.05	9414.22
557.413	9410.83
557.776	9335.35
558.139	9352.3
558.502	9293.77
558.865	9248.34
559.228	9327.89
559.59	9301.68
559.953	9258.51
560.316	9311.62
560.679	9237.95
561.041	9285.86
561.404	9317.72
561.767	9260.55
562.129	9193.66
562.492	9253.09
562.854	9202.7
563.217	9177.84
563.579	9222.81
563.941	9184.62
564.304	9250.83
564.666	9162.24
565.028	9173.09
565.39	9150.95
565.753	9188.23
566.115	9158.18
566.477	9219.19
566.839	9202.24
567.201	9153.21
567.563	9227.55
567.925	9181.91
568.287	9239.98
568.648	9205.63
569.01	9211.74
569.372	9204.5
569.734	9214.22
570.095	9208.8
570.457	9240.89
570.819	9174.9
571.18	9171.74
571.542	9248.12
571.903	9192.98
572.265	9232.07
572.626	9272.52
572.987	9171.51
573.349	9213.77
573.71	9268.68
574.071	9256.71
574.432	9266.2
574.794	9236.37
575.155	9257.16
575.516	9205.41
575.877	9231.4
576.238	9260.32
576.599	9298.06
576.96	9277.95
577.32	9228.46
577.681	9263.49
578.042	9249.25
578.403	9256.93
578.763	9274.33
579.124	9276.59
579.485	9295.57
579.845	9236.37
580.206	9286.31
580.566	9281.11
580.927	9265.52
581.287	9281.79
581.648	9222.13
582.008	9312.07
582.368	9320.88
582.728	9255.58
583.089	9301.9
583.449	9221.68
583.809	9296.48
584.169	9246.31
584.529	9213.77
584.889	9217.38
585.249	9221.23
585.609	9199.98
585.969	9227.1
586.329	9219.19
586.688	9202.47
587.048	9210.38
587.408	9148.46
587.768	9106.2
588.127	9110.04
588.487	9141
588.846	9190.94
589.206	9082.7
589.565	9136.26
589.925	9117.95
590.284	9088.35
590.643	9146.88
591.003	9129.93
591.362	9151.17
591.721	9041.34
592.08	9103.49
592.44	9119.53
592.799	9124.28
593.158	9082.93
593.517	9025.98
593.876	9095.58
594.235	9018.75
594.593	9025.07
594.952	9048.35
595.311	9027.33
595.67	9011.29
596.029	9043.83
596.387	9087.44
596.746	9096.03
597.104	9077.5
597.463	8993.44
597.822	9109.14
598.18	9065.75
598.538	9016.03
598.897	9085.18
599.255	8943.49
599.613	9063.49
599.972	9001.57
600.33	9038.41
600.688	8954.57
601.046	9028.69
601.404	9085.86
601.762	9044.96
602.12	9044.28
602.478	9009.03
602.836	9071.17
603.194	8994.57
603.552	8991.18
603.91	8960.67
604.268	8981.91
604.625	8977.62
604.983	8982.59
605.341	8957.96
605.698	8997.73
606.056	9040.21
606.413	8992.76
606.771	8984.62
607.128	9013.32
607.485	9029.37
607.843	8989.59
608.2	9036.15
608.557	9065.07
608.914	9056.49
609.272	9045.19
609.629	9028.01
609.986	9123.15
610.343	9004.06
610.7	9061.46
611.057	9084.05
611.414	9064.85
611.771	9072.08
612.127	9114.34
612.484	9075.02
612.841	9178.29
613.198	9006.77
613.554	9077.5
613.911	9116.82
614.267	9042.02
614.624	9075.02
614.98	9070.27
615.337	9114.34
615.693	9071.85
616.05	9140.78
616.406	9183.94
616.762	9147.78
617.118	9112.98
617.475	9157.73
617.831	9133.55
618.187	9146.43
618.543	9156.37
618.899	9225.75
619.255	9227.55
619.611	9159.31
619.967	9243.15
620.323	9268.23
620.678	9226.88
621.034	9136.93
621.39	9186.43
621.746	9146.88
622.101	9236.37
622.457	9137.16
622.812	9154.11
623.168	9186.65
623.523	9149.59
623.879	9172.64
624.234	9164.96
624.589	9224.62
624.945	9174.22
625.3	9146.88
625.655	9134.9
626.01	9153.66
626.365	9202.92
626.72	9182.58
627.075	9105.07
627.43	9097.39
627.785	9159.76
628.14	9169.02
628.495	9177.84
628.85	9123.83
629.205	9084.05
629.559	9161.34
629.914	9112.98
630.269	9077.73
630.623	9077.28
630.978	9057.84
631.332	9051.29
631.687	9163.6
632.041	9038.86
632.396	8994.57
632.75	8978.52
633.104	9080.89
633.459	8963.61
633.813	8954.57
634.167	8979.65
634.521	8985.3
634.875	9007.9
635.229	8989.82
635.583	8967.22
635.937	8854.68
636.291	8934
636.645	8895.36
636.999	8904.62
637.352	8894.91
637.706	8815.59
638.06	8874.79
638.413	8837.28
638.767	8928.58
639.121	8813.55
639.474	8752.76
639.828	8727
640.181	8837.96
640.534	8805.42
640.888	8716.15
641.241	8797.73
641.594	8802.48
641.947	8743.72
642.301	8726.1
642.654	8769.03
643.007	8752.09
643.36	8729.71
643.713	8719.32
644.066	8739.43
644.419	8722.93
644.771	8641.35
645.124	8579.44
645.477	8517.06
645.83	8446.33
646.182	8460.57
646.535	8444.52
646.888	8440.23
647.24	8467.12
647.593	8442.26
647.945	8416.5
648.298	8458.76
648.65	8378.54
649.002	8348.71
649.355	8430.29
649.707	8473.45
650.059	8478.2
650.411	8529.49
650.763	8609.72
651.115	8640.68
651.467	8602.26
651.819	8610.85
652.171	8620.79
652.523	8590.28
652.875	8612.2
653.227	8594.8
653.578	8618.76
653.93	8601.36
654.282	8625.54
654.633	8584.41
654.985	8597.06
655.337	8618.53
655.688	8656.72
656.039	8655.82
656.391	8510.96
656.742	8584.63
657.094	8595.03
657.445	8685.87
657.796	8640
658.147	8617.4
658.498	8613.33
658.849	8612.43
659.2	8641.58
659.551	8584.86
659.902	8643.84
660.253	8631.86
660.604	8692.2
660.955	8679.32
661.306	8637.51
661.656	8670.51
662.007	8654.24
662.358	8693.1
662.708	8648.13
663.059	8673.9
663.409	8676.38
663.76	8703.5
664.11	8697.17
664.461	8751.63
664.811	8637.29
665.161	8726.55
665.511	8631.86
665.862	8735.82
666.212	8730.84
666.562	8721.13
666.912	8707.79
667.262	8677.29
667.612	8686.1
667.962	8731.75
668.312	8698.3
668.662	8759.77
669.011	8691.97
669.361	8665.08
669.711	8704.63
670.06	8652.88
670.41	8708.7
670.76	8678.87
671.109	8664.63
671.459	8613.78
671.808	8660.34
672.157	8714.57
672.507	8568.59
672.856	8623.5
673.205	8651.52
673.554	8679.55
673.904	8594.8
674.253	8669.83
674.602	8642.48
674.951	8507.57
675.3	8414.47
675.649	8618.08
675.998	8591.64
676.346	8586.89
676.695	8557.06
677.044	8517.97
677.393	8509.61
677.741	8542.83
678.09	8527.01
678.438	8491.53
678.787	8541.7
679.135	8586.89
679.484	8411.08
679.832	8435.71
680.181	8313
680.529	8461.02
680.877	8397.29
681.225	8388.25
681.573	8415.37
681.922	8343.51
682.27	8374.02
682.618	8288.14
682.966	8325.66
683.314	8378.08
683.661	8227.58
684.009	8309.16
684.357	8242.5
684.705	8247.92
685.053	8209.95
685.4	8242.72
685.748	8190.97
686.095	8149.84
686.443	8175.38
686.79	8141.03
687.138	8180.58
687.485	8160.46
687.832	8065.78
688.18	8132.44
688.527	8062.16
688.874	8013.12
689.221	8014.25
689.568	7995.72
689.915	7939.9
690.262	7892.45
690.609	7933.12
690.956	7909.85
691.303	7853.8
691.65	7854.03
691.997	7827.59
692.344	7803.18
692.69	7788.95
693.037	7732.9
693.383	7673.92
693.73	7719.12
694.077	7647.71
694.423	7605
694.769	7618.33
695.116	7574.49
695.462	7543.08
695.808	7525.9
696.155	7513.7
696.501	7473.48
696.847	7402.52
697.193	7367.49
697.539	7405.46
697.885	7292.24
698.231	7306.7
698.577	7329.3
698.923	7282.75
699.269	7250.88
699.614	7196.19
699.96	7194.84
700.306	7173.6
700.651	7138.57
700.997	7136.54
701.342	7075.29
701.688	7018.8
702.033	6991.23
702.379	7019.02
702.724	7029.42
703.069	7045.24
703.415	6954.62
703.76	6918.91
704.105	6882.98
704.45	6904.23
704.795	6840.72
705.14	6797.34
705.485	6789.88
705.83	6740.39
706.175	6758.47
706.52	6773.16
706.865	6718.69
707.209	6716.89
707.554	6646.38
707.899	6713.5
708.243	6629.2
708.588	6641.63
708.932	6597.57
709.277	6602.76
709.621	6645.02
709.966	6525.7
710.31	6559.6
710.654	6513.5
710.998	6495.87
711.342	6480.51
711.687	6453.62
712.031	6425.37
712.375	6378.59
712.719	6402.77
713.063	6389.44
713.407	6423.79
713.75	6380.85
714.094	6351.02
714.438	6293.17
714.782	6357.8
715.125	6323.68
715.469	6302.89
715.812	6299.95
716.156	6262.21
716.499	6307.86
716.843	6240.51
717.186	6221.08
717.53	6271.93
717.873	6277.58
718.216	6213.17
718.559	6180.18
718.902	6135.43
719.246	6161.42
719.589	6208.2
719.932	6117.58
720.275	6178.14
720.617	6155.09
720.96	6138.6
721.303	6134.75
721.646	6127.75
721.989	6120.97
722.331	6103.34
722.674	6124.81
723.016	6131.14
723.359	6109.22
723.701	6086.62
724.044	6068.54
724.386	6083.23
724.729	6055.89
725.071	6119.39
725.413	6115.55
725.755	6042.55
726.097	6031.03
726.439	5991.93
726.782	6036.23
727.124	6060.41
727.465	6055.21
727.807	6053.17
728.149	6099.5
728.491	6046.62
728.833	6056.79
729.175	6056.11
729.516	6059.95
729.858	6003.68
730.199	6032.16
730.541	6000.07
730.882	6019.28
731.224	6050.24
731.565	6042.55
731.906	6019.5
732.248	5984.93
732.589	6012.72
732.93	5999.16
733.271	5985.15
733.612	5987.41
733.953	6005.49
734.294	6013.4
734.635	5987.19
734.976	6021.54
735.317	6037.13
735.658	6010.92
735.999	6046.39
736.339	6024.7
736.68	6045.04
737.021	6072.83
737.361	6021.76
737.702	6017.92
738.042	6038.94
738.383	6094.53
738.723	6108.77
739.063	6101.99
739.404	6092.27
739.744	6071.93
740.084	6088.43
740.424	6121.87
740.764	6104.92
741.104	6159.84
741.444	6120.97
741.784	6118.94
742.124	6141.99
742.464	6221.08
742.804	6249.55
743.143	6248.2
743.483	6210.01
743.823	6259.04
744.162	6284.35
744.502	6330.46
744.841	6331.81
745.181	6339.72
745.52	6383.11
745.86	6373.17
746.199	6523.22
746.538	6495.87
746.877	6545.36
747.216	6545.14
747.556	6625.81
747.895	6692.93
748.234	6740.61
748.573	6756.88
748.911	6812.02
749.25	6851.8
749.589	6864.68
749.928	7028.74
750.267	7048.85
750.605	7141.96
750.944	7177.44
751.283	7168.17
751.621	7404.1
751.96	7410.2
752.298	7576.75
752.636	7593.25
752.975	7711.21
753.313	7732.9
753.651	7916.63
753.989	7966.57
754.327	8087.02
754.666	8138.77
755.004	8278.43
755.342	8463.73
755.679	8618.3
756.017	8669.15
756.355	8789.15
756.693	8980.55
757.031	9155.24
757.368	9271.39
757.706	9433.88
758.044	9492.41
758.381	9667.99
758.719	9818.05
759.056	10011.49
759.394	10131.71
759.731	10247.87
760.068	10500.74
760.405	10583.22
760.743	10717.23
761.08	10921.52
761.417	11035.64
761.754	11236.99
762.091	11379.81
762.428	11626.36
762.765	11769.86
763.102	11912.46
763.438	12085.33
763.775	12187.25
764.112	12442.84
764.449	12648.93
764.785	12797.86
765.122	12917.17
765.458	12982.26
765.795	13258.18
766.131	13400.78
766.467	13498.63
