Data from hue_280_FLMS001491_00065.txt Node
Date: Tue Feb 07 15:55:36 GMT 2017
User: dcchb
Spectrometer: FLMS00149
Trigger mode: 0
Integration Time (sec): 2.000000E-2
Scans to average: 10
Electric dark correction enabled: true
Nonlinearity correction enabled: false
Boxcar width: 0
XAxis mode: Wavelengths
Number of Pixels in Spectrum: 2048
>>>>>Begin Spectral Data<<<<<
341.393	-21.72
341.776	-21.72
342.16	-21.72
342.543	-79.57
342.927	-81.16
343.31	-62.85
343.693	-77.99
344.077	-63.08
344.46	-61.95
344.843	-60.37
345.226	-48.84
345.61	-38.9
345.993	-17.43
346.376	-5.68
346.759	22.12
347.142	51.95
347.525	50.82
347.908	54.89
348.291	75.22
348.674	75
349.057	107.09
349.44	103.25
349.823	132.85
350.206	151.38
350.588	191.61
350.971	200.87
351.354	219.18
351.737	208.55
352.119	250.81
352.502	247.87
352.884	271.38
353.267	279.51
353.65	284.71
354.032	281.32
354.414	284.03
354.797	290.59
355.179	300.75
355.562	308.66
355.944	300.75
356.326	324.48
356.709	304.14
357.091	326.29
357.473	337.14
357.855	340.53
358.238	336.01
358.62	314.77
359.002	328.1
359.384	347.99
359.766	322.9
360.148	338.95
360.53	326.29
360.912	322.22
361.294	302.11
361.676	325.39
362.057	331.26
362.439	318.38
362.821	311.6
363.203	317.03
363.584	330.58
363.966	331.71
364.348	311.38
364.729	313.64
365.111	312.96
365.493	296.46
365.874	306.18
366.256	298.27
366.637	304.14
367.019	305.95
367.4	290.59
367.781	319.51
368.163	285.39
368.544	295.78
368.925	312.51
369.306	308.66
369.688	286.97
370.069	304.37
370.45	297.14
370.831	304.37
371.212	314.54
371.593	306.4
371.974	297.14
372.355	304.14
372.736	289.23
373.117	308.66
373.498	315.44
373.879	310.25
374.26	303.69
374.641	290.59
375.021	299.85
375.402	310.92
375.783	300.3
376.163	302.56
376.544	308.66
376.925	303.69
377.305	290.13
377.686	297.37
378.066	309.12
378.447	299.85
378.827	331.71
379.208	307.76
379.588	340.3
379.968	327.65
380.349	321.55
380.729	311.6
381.109	326.06
381.489	313.64
381.87	340.98
382.25	319.06
382.63	324.71
383.01	329.68
383.39	362.22
383.77	340.98
384.15	326.29
384.53	341.43
384.91	334.2
385.29	343.47
385.67	329.45
386.049	357.7
386.429	344.14
386.809	322.68
387.189	351.37
387.568	337.36
387.948	336.23
388.328	338.72
388.707	350.7
389.087	346.18
389.466	329.45
389.846	352.5
390.225	356.8
390.605	360.19
390.984	365.61
391.363	373.97
391.743	360.19
392.122	346.86
392.501	375.1
392.881	385.72
393.26	361.77
393.639	369.91
394.018	362.9
394.397	384.82
394.776	371.49
395.155	358.61
395.534	358.15
395.913	378.94
396.292	375.78
396.671	390.24
397.05	373.75
397.429	381.66
397.808	380.53
398.186	403.35
398.565	386.85
398.944	379.4
399.323	379.4
399.701	382.56
400.08	407.42
400.458	390.92
400.837	394.09
401.215	402.67
401.594	388.89
401.972	401.32
402.351	407.19
402.729	407.42
403.107	412.16
403.486	421.66
403.864	435.89
404.242	425.27
404.62	439.96
404.999	423.24
405.377	429.34
405.755	421.43
406.133	440.19
406.511	432.95
406.889	441.99
407.267	435.21
407.645	428.21
408.023	446.06
408.401	456.23
408.779	483.57
409.156	457.36
409.534	479.96
409.912	479.06
410.29	490.58
410.667	497.36
411.045	513.63
411.422	510.01
411.8	501.43
412.178	541.2
412.555	520.86
412.933	536.91
413.31	557.92
413.687	550.69
414.065	549.79
414.442	550.01
414.819	572.84
415.197	574.42
415.574	593.63
415.951	558.6
416.328	580.52
416.705	573.06
417.082	606.51
417.46	619.39
417.837	616.45
418.214	619.84
418.591	622.33
418.967	632.72
419.344	648.99
419.721	633.4
420.098	670.01
420.475	654.64
420.852	662.33
421.228	669.33
421.605	694.42
421.982	707.52
422.358	705.04
422.735	710.01
423.111	729.67
423.488	686.06
423.864	731.7
424.241	721.31
424.617	751.14
424.994	754.3
425.37	779.39
425.746	776.22
426.123	792.49
426.499	793.17
426.875	776.45
427.251	836.33
427.627	832.94
428.003	828.42
428.379	863.68
428.756	846.96
429.132	854.86
429.507	855.09
429.883	876.11
430.259	895.54
430.635	896.9
431.011	901.19
431.387	907.29
431.763	943.9
432.138	943
432.514	942.77
432.89	960.17
433.265	977.8
433.641	996.1
434.016	988.87
434.392	1029.1
434.767	1023.67
435.143	1011.92
435.518	1018.48
435.894	1049.21
436.269	1062.32
436.644	1090.11
437.02	1088.98
437.395	1128.53
437.77	1123.78
438.145	1148.42
438.52	1149.55
438.895	1163.78
439.271	1185.48
439.646	1181.18
440.021	1170.79
440.395	1203.56
440.77	1212.6
441.145	1229.09
441.52	1234.06
441.895	1229.09
442.27	1275.42
442.645	1221.63
443.019	1240.84
443.394	1267.06
443.769	1293.5
444.143	1281.29
444.518	1285.36
444.892	1289.43
445.267	1261.18
445.641	1319.26
446.016	1331.01
446.39	1319.71
446.764	1355.87
447.139	1340.5
447.513	1333.5
447.887	1370.56
448.262	1361.74
448.636	1343.44
449.01	1382.99
449.384	1413.04
449.758	1392.03
450.132	1406.94
450.506	1400.16
450.88	1427.28
451.254	1393.61
451.628	1415.08
452.002	1449.65
452.376	1460.27
452.75	1466.15
453.123	1481.29
453.497	1492.81
453.871	1484.45
454.244	1519.25
454.618	1533.49
454.992	1516.99
455.365	1515.19
455.739	1561.96
456.112	1616.2
456.486	1608.29
456.859	1622.3
457.232	1615.75
457.606	1627.95
457.979	1619.36
458.352	1657.56
458.725	1664.56
459.099	1674.28
459.472	1717.44
459.845	1692.36
460.218	1729.19
460.591	1709.31
460.964	1748.4
461.337	1760.6
461.71	1767.38
462.083	1812.81
462.456	1844.22
462.829	1820.26
463.201	1843.31
463.574	1817.1
463.947	1832.92
464.32	1904.1
464.692	1911.11
465.065	1936.64
465.438	1927.38
465.81	1958.79
466.183	1970.09
466.555	1990.88
466.928	2018.22
467.3	1985.91
467.672	2032.91
468.045	2064.55
468.417	2055.06
468.789	2094.61
469.161	2097.77
469.534	2127.37
469.906	2155.4
470.278	2161.72
470.65	2173.7
471.022	2226.13
471.394	2243.08
471.766	2271.32
472.138	2240.59
472.51	2300.93
472.882	2335.5
473.253	2339.35
473.625	2342.96
473.997	2399.91
474.369	2408.72
474.74	2437.87
475.112	2451.43
475.484	2514.48
475.855	2516.74
476.227	2541.83
476.598	2627.93
476.97	2609.17
477.341	2654.37
477.713	2716.06
478.084	2675.61
478.455	2763.74
478.827	2786.34
479.198	2847.35
479.569	2843.96
479.94	2868.82
480.311	2931.65
480.682	2943.4
481.053	2984.53
481.424	3018.2
481.795	3062.72
482.166	3090.06
482.537	3099.1
482.908	3147.23
483.279	3175.26
483.65	3188.36
484.021	3241.92
484.391	3300
484.762	3287.79
485.133	3321.01
485.503	3373.22
485.874	3400.33
486.244	3423.84
486.615	3469.03
486.985	3495.93
487.356	3561.23
487.726	3556.04
488.097	3659.08
488.467	3651.85
488.837	3656.15
489.207	3760.1
489.578	3782.92
489.948	3824.28
490.318	3840.32
490.688	3837.84
491.058	3874.9
491.428	3877.84
491.798	3956.03
492.168	4042.8
492.538	4001.45
492.908	4041.67
493.278	4074.67
493.648	4124.38
494.017	4168.22
494.387	4156.25
494.757	4169.13
495.126	4167.09
495.496	4205.28
495.866	4215.91
496.235	4248.67
496.605	4296.36
496.974	4308.56
497.344	4346.07
497.713	4376.58
498.082	4366.64
498.452	4419.29
498.821	4403.02
499.19	4452.51
499.559	4494.09
499.928	4479.4
500.298	4509.23
500.667	4540.87
501.036	4504.26
501.405	4579.29
501.774	4553.75
502.143	4582.68
502.512	4582
502.88	4620.64
503.249	4601.88
503.618	4679.17
503.987	4638.04
504.356	4696.8
504.724	4663.8
505.093	4696.57
505.462	4683.69
505.83	4730.69
506.199	4772.28
506.567	4785.16
506.936	4812.95
507.304	4812.27
507.672	4839.17
508.041	4860.18
508.409	4904.25
508.777	4896.57
509.145	4887.75
509.514	4944.25
509.882	4884.82
510.25	4900.63
510.618	4937.02
510.986	4983.57
511.354	5012.27
511.722	5028.31
512.09	5036.22
512.458	4992.61
512.826	5022.89
513.193	5062.44
513.561	5059.95
513.929	5082.1
514.297	5080.06
514.664	5144.7
515.032	5152.15
515.4	5189.44
515.767	5173.62
516.135	5164.58
516.502	5145.6
516.869	5165.71
517.237	5184.69
517.604	5196.22
517.972	5171.59
518.339	5243.22
518.706	5290
519.073	5254.07
519.44	5312.15
519.808	5329.32
520.175	5278.03
520.542	5306.95
520.909	5298.59
521.276	5383.56
521.643	5362.32
522.009	5362.32
522.376	5419.26
522.743	5454.29
523.11	5476.66
523.477	5491.13
523.843	5558.92
524.21	5553.27
524.577	5543.1
524.943	5570.9
525.31	5575.42
525.676	5617.68
526.043	5649.77
526.409	5622.42
526.776	5702.42
527.142	5709.2
527.508	5728.63
527.874	5711.23
528.241	5765.92
528.607	5798.24
528.973	5811.57
529.339	5781.97
529.705	5889.08
530.071	5901.51
530.437	5870.33
530.803	5886.82
531.169	5889.31
531.535	5864
531.901	5912.58
532.267	5917.1
532.632	5923.66
532.998	5968.63
533.364	5961.17
533.73	6009.08
534.095	6066.25
534.461	6065.12
534.826	6043.2
535.192	6051.79
535.557	6115.74
535.923	6120.49
536.288	6096.53
536.653	6140.15
537.019	6081.85
537.384	6134.95
537.749	6134.73
538.114	6113.48
538.479	6172.46
538.845	6179.02
539.21	6211.11
539.575	6185.35
539.94	6270.77
540.305	6237.1
540.67	6252.69
541.034	6246.81
541.399	6320.71
541.764	6281.61
542.129	6334.95
542.494	6313.7
542.858	6333.82
543.223	6351.22
543.587	6367.04
543.952	6340.37
544.316	6369.75
544.681	6373.36
545.045	6395.74
545.41	6412.68
545.774	6379.69
546.138	6421.27
546.503	6466.92
546.867	6392.35
547.231	6470.99
547.595	6458.56
547.959	6527.03
548.324	6475.73
548.688	6491.78
549.052	6525.68
549.416	6526.13
549.779	6515.28
550.143	6522.51
550.507	6554.38
550.871	6549.86
551.235	6542.4
551.599	6590.31
551.962	6586.92
552.326	6593.47
552.689	6632.34
553.053	6608.16
553.417	6605.22
553.78	6716.41
554.143	6667.82
554.507	6681.15
554.87	6713.24
555.234	6737.65
555.597	6735.61
555.96	6730.42
556.323	6764.09
556.686	6778.1
557.05	6795.5
557.413	6819.23
557.776	6788.72
558.139	6837.53
558.502	6848.61
558.865	6816.97
559.228	6917.98
559.59	6918.66
559.953	6857.42
560.316	6950.52
560.679	6975.38
561.041	7003.4
561.404	7002.05
561.767	7097.86
562.129	7031.88
562.492	7095.15
562.854	7075.72
563.217	7019.45
563.579	7116.62
563.941	7123.17
564.304	7140.12
564.666	7204.08
565.028	7228.03
565.39	7189.16
565.753	7183.51
566.115	7259.67
566.477	7260.12
566.839	7344.86
567.201	7414.24
567.563	7364.52
567.925	7419.89
568.287	7329.72
568.648	7458.31
569.01	7451.75
569.372	7468.93
569.734	7480.23
570.095	7489.27
570.457	7533.11
570.819	7601.81
571.18	7584.86
571.542	7626.89
571.903	7693.55
572.265	7720.67
572.626	7701.92
572.987	7770.84
573.349	7732.2
573.71	7778.3
574.071	7794.8
574.432	7915.92
574.794	7959.76
575.155	7865.75
575.516	7907.79
575.877	7993.21
576.238	7994.11
576.599	8093.77
576.96	8031.85
577.32	8051.96
577.681	8117.27
578.042	8175.8
578.403	8271.17
578.763	8233.2
579.124	8261
579.485	8319.3
579.845	8366.08
580.206	8350.49
580.566	8394.1
580.927	8525.17
581.287	8553.42
581.648	8516.13
582.008	8626.41
582.368	8633.87
582.728	8681.78
583.089	8724.94
583.449	8731.72
583.809	8832.96
584.169	8899.4
584.529	8875.22
584.889	8976.01
585.249	9088.77
585.609	9021.43
585.969	9146.85
586.329	9160.63
586.688	9273.85
587.048	9218.26
587.408	9317.24
587.768	9372.15
588.127	9441.31
588.487	9514.75
588.846	9619.83
589.206	9563.79
589.565	9693.05
589.925	9789.32
590.284	9795.65
590.643	9875.42
591.003	9975.53
591.362	10025.47
591.721	10083.77
592.08	10159.93
592.44	10224.34
592.799	10274.5
593.158	10372.35
593.517	10385.24
593.876	10489.41
594.235	10512.46
594.593	10561.95
594.952	10671.56
595.311	10740.48
595.67	10757.65
596.029	10834.94
596.387	10881.72
596.746	10917.42
597.104	10968.95
597.463	11028.38
597.822	11101.83
598.18	11128.49
598.538	11178.43
598.897	11292.1
599.255	11210.07
599.613	11441.25
599.972	11521.7
600.33	11574.58
600.688	11485.09
601.046	11531.65
601.404	11675.82
601.762	11690.06
602.12	11869.72
602.478	11784.29
602.836	11835.82
603.194	11809.83
603.552	11852.54
603.91	11981.58
604.268	11974.8
604.625	11969.83
604.983	12034.46
605.341	12069.71
605.698	12139.54
606.056	12174.79
606.413	12182.02
606.771	12266.99
607.128	12322.36
607.485	12268.12
607.843	12357.39
608.2	12452.07
608.557	12410.27
608.914	12445.52
609.272	12530.49
609.629	12578.17
609.986	12669.7
610.343	12673.31
610.7	12739.07
611.057	12638.74
611.414	12662.46
611.771	12641.45
612.127	12843.7
612.484	12882.8
612.841	12885.28
613.198	12893.42
613.554	12845.28
613.911	12957.82
614.267	12980.87
614.624	12993.75
614.98	12954.66
615.337	13039.63
615.693	13044.83
616.05	13048.89
616.406	13142.68
616.762	13100.42
617.118	13081.66
617.475	13094.77
617.831	13228.78
618.187	13208.89
618.543	13174.99
618.899	13344.71
619.255	13206.18
619.611	13265.84
619.967	13339.73
620.323	13449.56
620.678	13288.66
621.034	13279.85
621.39	13326.4
621.746	13397.13
622.101	13579.28
622.457	13365.5
622.812	13455.66
623.168	13481.43
623.523	13520.75
623.879	13573.4
624.234	13481.88
624.589	13534.76
624.945	13499.28
625.3	13633.29
625.655	13526.17
626.01	13636.22
626.365	13606.39
626.72	13647.97
627.075	13542.89
627.43	13599.84
627.785	13576.34
628.14	13576.56
628.495	13636.22
628.85	13490.24
629.205	13545.38
629.559	13599.39
629.914	13504.25
630.269	13533.63
630.623	13570.24
630.978	13450.01
631.332	13516
631.687	13554.87
632.041	13452.95
632.396	13507.19
632.75	13474.65
633.104	13398.72
633.459	13398.72
633.813	13393.74
634.167	13423.8
634.521	13420.64
634.875	13440.07
635.229	13432.39
635.583	13365.5
635.937	13428.77
636.291	13350.13
636.645	13367.76
636.999	13317.81
637.352	13359.17
637.706	13316.91
638.06	13331.82
638.413	13365.95
638.767	13306.97
639.121	13343.12
639.474	13263.13
639.828	13213.18
640.181	13337.02
640.534	13222.67
640.888	13205.73
641.241	13180.87
641.594	13254.09
641.947	13233.97
642.301	13242.56
642.654	13262.45
643.007	13205.73
643.36	13191.72
643.713	13168.67
644.066	13225.61
644.419	13149.68
644.771	13073.07
645.124	12939.07
645.477	12914.89
645.83	12864.49
646.182	12805.28
646.535	12810.71
646.888	12838.28
647.24	12802.35
647.593	12833.08
647.945	12819.52
648.298	12756.7
648.65	12711.5
649.002	12740.43
649.355	12811.39
649.707	12723.7
650.059	12854.32
650.411	13028.78
650.763	12937.48
651.115	13115.56
651.467	13064.04
651.819	13124.37
652.171	13065.62
652.523	13031.95
652.875	13093.19
653.227	12993.08
653.578	13067.65
653.93	13041.66
654.282	12993.53
654.633	13034.43
654.985	13064.94
655.337	12998.95
655.688	13069.91
656.039	13099.97
656.391	13043.92
656.742	13020.42
657.094	13089.57
657.445	13068.33
657.796	13099.97
658.147	13107.2
658.498	13137.93
658.849	13197.59
659.2	13203.01
659.551	13151.26
659.902	13123.24
660.253	13098.16
660.604	13196.23
660.955	13102
661.306	13142.45
661.656	13116.69
662.007	13212.51
662.358	13186.07
662.708	13144.94
663.059	13181.77
663.409	13034.66
663.76	13179.74
664.11	13128.21
664.461	13156.24
664.811	13141.55
665.161	13220.64
665.511	13142.45
665.862	13139.74
666.212	13134.77
666.562	13222.9
666.912	13191.26
667.262	13202.79
667.612	13130.02
667.962	13155.56
668.312	13201.88
668.662	13284.37
669.011	13162.79
669.361	13211.15
669.711	13183.81
670.06	13059.97
670.41	13160.76
670.76	13058.84
671.109	13184.94
671.459	13166.86
671.808	13079.85
672.157	13169.57
672.507	13077.59
672.856	13061.32
673.205	13122.79
673.554	13135.22
673.904	13031.27
674.253	13076.01
674.602	13068.78
674.951	12819.07
675.3	12828.56
675.649	13056.13
675.998	13016.8
676.346	13043.24
676.695	13121.66
677.044	12943.36
677.393	13021.1
677.741	12983.59
678.09	12967.77
678.438	12903.14
678.787	12946.52
679.135	12935.68
679.484	12858.84
679.832	12799.41
680.181	12809.13
680.529	12868.56
680.877	12824.04
681.225	12806.41
681.573	12900.88
681.922	12706.08
682.27	12674.67
682.618	12751.73
682.966	12650.94
683.314	12694.1
683.661	12697.04
684.009	12596.93
684.357	12572.52
684.705	12645.97
685.053	12587.89
685.4	12538.85
685.748	12530.04
686.095	12429.7
686.443	12490.26
686.79	12410.72
687.138	12426.09
687.485	12366.65
687.832	12319.42
688.18	12347.22
688.527	12268.58
688.874	12249.82
689.221	12306.99
689.568	12156.26
689.915	12176.37
690.262	12164.4
690.609	12118.75
690.956	11992.65
691.303	12066.32
691.65	11985.19
691.997	11851.19
692.344	11872.43
692.69	11846.21
693.037	11875.82
693.383	11766.44
693.73	11774.8
694.077	11766.89
694.423	11681.7
694.769	11725.09
695.116	11607.8
695.462	11613.9
695.808	11516.96
696.155	11561.93
696.501	11462.95
696.847	11477.41
697.193	11406.68
697.539	11371.88
697.885	11289.17
698.231	11252.33
698.577	11303.18
698.923	11273.12
699.269	11202.39
699.614	11101.37
699.96	11095.5
700.306	10986.35
700.651	11003.07
700.997	10973.69
701.342	10911.1
701.688	10912.91
702.033	10861.61
702.379	10812.12
702.724	10792.23
703.069	10775.51
703.415	10645.57
703.76	10673.14
704.105	10652.12
704.45	10599.92
704.795	10472.01
705.14	10460.26
705.485	10444.44
705.83	10417.78
706.175	10486.25
706.52	10388.85
706.865	10278.57
707.209	10350.43
707.554	10278.35
707.899	10262.07
708.243	10197.67
708.588	10195.86
708.932	10156.09
709.277	10097.79
709.621	10112.93
709.966	10118.8
710.31	10027.05
710.654	9988.86
710.998	10065.24
711.342	9989.31
711.687	10031.12
712.031	9904.12
712.375	9951.12
712.719	9941.86
713.063	9891.92
713.407	9976.88
713.75	9858.24
714.094	9916.32
714.438	9788.41
714.782	9805.36
715.125	9754.29
715.469	9745.25
715.812	9660.96
716.156	9716.78
716.499	9738.02
716.843	9746.38
717.186	9677.91
717.53	9738.02
717.873	9747.06
718.216	9660.28
718.559	9607.4
718.902	9573.51
719.246	9602.88
719.589	9587.06
719.932	9534.64
720.275	9534.64
720.617	9557.91
720.96	9549.33
721.303	9571.02
721.646	9550.23
721.989	9425.03
722.331	9469.78
722.674	9412.61
723.016	9470.46
723.359	9370.57
723.701	9498.25
724.044	9411.48
724.386	9388.43
724.729	9483.34
725.071	9447.63
725.413	9390.01
725.755	9358.6
726.097	9351.36
726.439	9290.35
726.782	9350.01
727.124	9435.43
727.465	9343.23
727.807	9360.86
728.149	9231.37
728.491	9281.54
728.833	9277.02
729.175	9331.48
729.516	9274.98
729.858	9297.58
730.199	9284.25
730.541	9296.45
730.882	9263.91
731.224	9296.45
731.565	9234.98
731.906	9271.59
732.248	9308.88
732.589	9250.12
732.93	9218.26
733.271	9206.74
733.612	9257.36
733.953	9287.41
734.294	9216.68
734.635	9141.2
734.976	9238.37
735.317	9173.74
735.658	9267.07
735.999	9236.34
736.339	9248.99
736.68	9256.23
737.021	9245.83
737.361	9229.56
737.702	9304.59
738.042	9305.04
738.383	9300.52
738.723	9342.32
739.063	9305.26
739.404	9373.51
739.744	9327.64
740.084	9325.38
740.424	9385.26
740.764	9354.98
741.104	9388.43
741.444	9345.49
741.784	9327.41
742.124	9380.74
742.464	9366.51
742.804	9407.86
743.143	9423.9
743.483	9473.62
743.823	9431.14
744.162	9416.45
744.502	9508.65
744.841	9506.84
745.181	9632.03
745.52	9571.92
745.86	9654.63
746.199	9689.66
746.538	9735.31
746.877	9807.62
747.216	9844.23
747.556	9864.12
747.895	9858.47
748.234	9971.69
748.573	10039.93
748.911	10066.37
749.25	10103.43
749.589	10113.38
749.928	10230.21
750.267	10264.33
750.605	10382.98
750.944	10406.25
751.283	10425.91
751.621	10562.41
751.96	10622.07
752.298	10726.02
752.636	10837.88
752.975	10853.7
753.313	10991.1
753.651	11119.23
753.989	11187.47
754.327	11290.52
754.666	11373.01
755.004	11500.01
755.342	11710.85
755.679	11771.64
756.017	11895.48
756.355	12069.48
756.693	12112.65
757.031	12196.26
757.368	12333.66
757.706	12381.34
758.044	12637.83
758.381	12655.91
758.719	12813.65
759.056	13039.4
759.394	13138.61
759.731	13174.99
760.068	13309.45
760.405	13400.3
760.743	13545.38
761.08	13781.76
761.417	13710.35
761.754	14015.42
762.091	14120.73
