Data from hue_290_FLMS001491_00030.txt Node
Date: Tue Feb 07 15:52:32 GMT 2017
User: dcchb
Spectrometer: FLMS00149
Trigger mode: 0
Integration Time (sec): 2.000000E-2
Scans to average: 10
Electric dark correction enabled: true
Nonlinearity correction enabled: false
Boxcar width: 0
XAxis mode: Wavelengths
Number of Pixels in Spectrum: 2048
>>>>>Begin Spectral Data<<<<<
341.393	-11.02
341.776	-11.02
342.16	-11.02
342.543	-62.77
342.927	-59.83
343.31	-77
343.693	-82.2
344.077	-54.86
344.46	-55.31
344.843	-54.41
345.226	-51.92
345.61	-27.06
345.993	-22.32
346.376	-6.05
346.759	4.12
347.142	27.4
347.525	38.7
347.908	66.5
348.291	87.06
348.674	106.72
349.057	100.62
349.44	101.3
349.823	141.97
350.206	138.13
350.588	192.82
350.971	200.28
351.354	193.95
351.737	237.56
352.119	227.17
352.502	252.48
352.884	266.94
353.267	273.5
353.65	287.05
354.032	284.79
354.414	287.73
354.797	288.41
355.179	311.23
355.562	307.62
355.944	313.04
356.326	326.15
356.709	297.22
357.091	311.01
357.473	334.96
357.855	346.26
358.238	310.33
358.62	324.34
359.002	328.18
359.384	293.16
359.766	309.65
360.148	316.21
360.53	311.46
360.912	321.86
361.294	328.86
361.676	285.7
362.057	323.21
362.439	322.76
362.821	323.66
363.203	309.88
363.584	323.21
363.966	329.77
364.348	305.13
364.729	332.03
365.111	307.62
365.493	309.65
365.874	316.43
366.256	307.39
366.637	319.6
367.019	314.62
367.4	313.49
367.781	311.23
368.163	309.65
368.544	326.83
368.925	302.87
369.306	286.83
369.688	312.14
370.069	308.07
370.45	311.69
370.831	290.22
371.212	316.21
371.593	291.57
371.974	308.97
372.355	304.23
372.736	310.56
373.117	304.68
373.498	304.46
373.879	323.89
374.26	304.23
374.641	318.24
375.021	302.65
375.402	314.85
375.783	315.08
376.163	307.39
376.544	324.79
376.925	324.12
377.305	325.02
377.686	304.68
378.066	331.8
378.447	316.43
378.827	332.03
379.208	315.53
379.588	319.82
379.968	331.8
380.349	343.55
380.729	339.93
381.109	340.16
381.489	337.67
381.87	330.9
382.25	321.4
382.63	324.34
383.01	320.5
383.39	329.31
383.77	353.49
384.15	343.78
384.53	356.21
384.91	347.84
385.29	324.34
385.67	341.52
386.049	340.84
386.429	346.49
386.809	343.32
387.189	345.81
387.568	351.46
387.948	362.98
388.328	351.23
388.707	348.75
389.087	348.97
389.466	389.2
389.846	367.28
390.225	371.35
390.605	379.71
390.984	381.06
391.363	365.47
391.743	351.23
392.122	380.16
392.501	368.86
392.881	381.97
393.26	369.31
393.639	382.65
394.018	370.22
394.397	386.04
394.776	385.36
395.155	387.16
395.534	391.23
395.913	384
396.292	375.19
396.671	383.1
397.05	403.89
397.429	397.56
397.808	382.19
398.186	392.14
398.565	412.25
398.944	361.4
399.323	409.09
399.701	401.63
400.08	401.18
400.458	407.05
400.837	415.41
401.215	407.96
401.594	407.96
401.972	416.32
402.351	424.68
402.729	418.8
403.107	420.61
403.486	442.08
403.864	461.51
404.242	429.65
404.62	454.73
404.999	456.77
405.377	435.07
405.755	452.47
406.133	466.71
406.511	446.37
406.889	469.2
407.267	458.12
407.645	462.42
408.023	491.34
408.401	478.46
408.779	475.52
409.156	482.76
409.534	506.94
409.912	502.87
410.29	489.31
410.667	539.03
411.045	535.86
411.422	541.51
411.8	534.73
412.178	528.4
412.555	540.38
412.933	540.83
413.31	569.53
413.687	567.05
414.065	572.02
414.442	578.35
414.819	591
415.197	598.68
415.574	600.94
415.951	633.71
416.328	601.85
416.705	612.7
417.082	616.76
417.46	664.22
417.837	660.6
418.214	659.02
418.591	676.65
418.967	668.29
419.344	673.26
419.721	687.5
420.098	702.41
420.475	708.74
420.852	696.54
421.228	704.67
421.605	739.7
421.982	752.35
422.358	764.56
422.735	766.14
423.111	779.47
423.488	766.82
423.864	782.18
424.241	794.16
424.617	807.94
424.994	825.57
425.37	824.89
425.746	859.02
426.123	840.03
426.499	834.38
426.875	864.67
427.251	854.5
427.627	882.75
428.003	885.68
428.379	905.34
428.756	913.03
429.132	903.31
429.507	924.1
429.883	940.14
430.259	962.74
430.635	962.29
431.011	954.16
431.387	955.29
431.763	1009.52
432.138	1004.78
432.514	1014.72
432.89	1009.52
433.265	1069.63
433.641	1054.27
434.016	1068.73
434.392	1084.55
434.767	1099.01
435.143	1128.61
435.518	1122.96
435.894	1126.58
436.269	1158.44
436.644	1191.44
437.02	1176.75
437.395	1182.17
437.77	1181.04
438.145	1238.67
438.52	1212.68
438.895	1219.91
439.271	1260.36
439.646	1269.18
440.021	1278.67
440.395	1282.06
440.77	1296.29
441.145	1296.97
441.52	1307.14
441.895	1278.21
442.27	1327.25
442.645	1310.53
443.019	1318.21
443.394	1343.3
443.769	1331.32
444.143	1384.65
444.518	1390.53
444.892	1358.66
445.267	1367.48
445.641	1399.79
446.016	1362.96
446.39	1384.2
446.764	1421.04
447.139	1396.86
447.513	1419.45
447.887	1431.21
448.262	1422.17
448.636	1421.71
449.01	1455.61
449.384	1465.78
449.758	1468.04
450.132	1471.88
450.506	1501.71
450.88	1469.4
451.254	1482.05
451.628	1501.49
452.002	1503.07
452.376	1534.71
452.75	1540.81
453.123	1524.99
453.497	1542.39
453.871	1586.91
454.244	1581.94
454.618	1640.47
454.992	1597.53
455.365	1613.35
455.739	1642.27
456.112	1634.36
456.486	1644.53
456.859	1672.55
457.232	1665.78
457.606	1663.29
457.979	1666.45
458.352	1719.11
458.725	1749.16
459.099	1737.64
459.472	1785.77
459.845	1811.99
460.218	1819.22
460.591	1833.23
460.964	1805.88
461.337	1856.28
461.71	1861.93
462.083	1870.52
462.456	1868.71
462.829	1910.74
463.201	1887.46
463.574	1911.87
463.947	1937.41
464.32	1941.25
464.692	1965.88
465.065	1960
465.438	1979.21
465.81	2044.75
466.183	2067.8
466.555	2074.8
466.928	2053.56
467.3	2073.67
467.672	2096.72
468.045	2159.32
468.417	2161.81
468.789	2155.71
469.161	2198.87
469.534	2205.42
469.906	2219.21
470.278	2251.97
470.65	2245.87
471.022	2291.3
471.394	2340.79
471.766	2355.7
472.138	2327.45
472.51	2393.89
472.882	2414
473.253	2419.65
473.625	2479.31
473.997	2499.88
474.369	2523.38
474.74	2525.64
475.112	2566.32
475.484	2585.53
475.855	2606.09
476.227	2627.56
476.598	2714.79
476.97	2662.59
477.341	2741.23
477.713	2735.8
478.084	2754.79
478.455	2841.56
478.827	2847.89
479.198	2934.67
479.569	2938.74
479.94	2990.03
480.311	3032.97
480.682	3042.24
481.053	3110.71
481.424	3124.72
481.795	3149.58
482.166	3206.98
482.537	3204.04
482.908	3309.8
483.279	3267.09
483.65	3365.84
484.021	3384.15
484.391	3375.79
484.762	3420.31
485.133	3456.01
485.503	3455.33
485.874	3543.47
486.244	3551.38
486.615	3624.14
486.985	3663.91
487.356	3698.26
487.726	3701.43
488.097	3741.43
488.467	3783.91
488.837	3838.37
489.207	3867.3
489.578	3906.17
489.948	3913.17
490.318	4020.97
490.688	4000.4
491.058	4009.44
491.428	4044.47
491.798	4094.19
492.168	4108.88
492.538	4187.52
492.908	4173.51
493.278	4229.78
493.648	4197.69
494.017	4291.47
494.387	4282.2
494.757	4310.45
495.126	4342.99
495.496	4361.3
495.866	4415.99
496.235	4394.97
496.605	4436.55
496.974	4495.98
497.344	4512.93
497.713	4493.05
498.082	4505.25
498.452	4565.13
498.821	4617.34
499.19	4615.75
499.559	4661.4
499.928	4689.2
500.298	4722.87
500.667	4695.53
501.036	4692.81
501.405	4736.66
501.774	4737.11
502.143	4806.03
502.512	4774.85
502.88	4849.65
503.249	4834.96
503.618	4855.3
503.987	4864.56
504.356	4849.87
504.724	4914.28
505.093	4965.58
505.462	4930.77
505.83	4950.21
506.199	5000.6
506.567	4997.89
506.936	5033.37
507.304	4989.76
507.672	5081.28
508.041	5081.73
508.409	5085.35
508.777	5119.92
509.145	5175.29
509.514	5170.99
509.882	5173.48
510.25	5203.08
510.618	5208.51
510.986	5211.9
511.354	5228.17
511.722	5268.84
512.09	5258
512.458	5270.2
512.826	5367.6
513.193	5370.31
513.561	5369.18
513.929	5357.2
514.297	5390.65
514.664	5384.77
515.032	5393.59
515.4	5448.27
515.767	5502.74
516.135	5425.68
516.502	5447.6
516.869	5515.39
517.237	5542.28
517.604	5516.75
517.972	5489.18
518.339	5561.49
518.706	5545.45
519.073	5610.08
519.44	5618.44
519.808	5602.17
520.175	5635.39
520.542	5723.97
520.909	5692.11
521.276	5681.72
521.643	5754.71
522.009	5768.27
522.376	5784.54
522.743	5840.35
523.11	5880.13
523.477	5962.84
523.843	5892.56
524.21	5979.79
524.577	6039.22
524.943	6008.71
525.31	6084.64
525.676	6096.39
526.043	6118.54
526.409	6047.36
526.776	6158.09
527.142	6197.41
527.508	6175.49
527.874	6213.23
528.241	6248.25
528.607	6211.42
528.973	6262.72
529.339	6296.39
529.705	6317.86
530.071	6374.13
530.437	6394.01
530.803	6424.75
531.169	6428.36
531.535	6389.49
531.901	6434.69
532.267	6458.19
532.632	6477.85
532.998	6476.95
533.364	6543.84
533.73	6569.38
534.095	6608.92
534.461	6634.91
534.826	6634.01
535.192	6661.12
535.557	6686.43
535.923	6697.51
536.288	6752.42
536.653	6730.28
537.019	6770.5
537.384	6738.86
537.749	6798.52
538.114	6743.38
538.479	6809.14
538.845	6825.19
539.21	6868.35
539.575	6855.7
539.94	6859.76
540.305	6943.83
540.67	6970.27
541.034	6960.78
541.399	7035.35
541.764	7005.07
542.129	6987.67
542.494	7005.07
542.858	7042.81
543.223	7037.61
543.587	7148.12
543.952	7105.41
544.316	7148.12
544.681	7136.37
545.045	7154.67
545.41	7111.96
545.774	7187.89
546.138	7182.01
546.503	7283.48
546.867	7205.97
547.231	7300.66
547.595	7318.51
547.959	7330.49
548.324	7309.47
548.688	7369.35
549.052	7382.46
549.416	7365.29
549.779	7402.57
550.143	7374.33
550.507	7511.95
550.871	7464.72
551.235	7475.11
551.599	7574.09
551.962	7501.78
552.326	7564.6
552.689	7531.84
553.053	7478.96
553.417	7500.65
553.78	7639.4
554.143	7569.12
554.507	7641.89
554.87	7700.87
555.234	7732.28
555.597	7609.8
555.96	7666.3
556.323	7648.67
556.686	7780.64
557.05	7788.1
557.413	7762.56
557.776	7796.46
558.139	7782.68
558.502	7731.83
558.865	7820.42
559.228	7911.03
559.59	7897.7
559.953	7888.44
560.316	7944.93
560.679	7976.34
561.041	8049.56
561.404	8061.31
561.767	8081.43
562.129	8032.84
562.492	8170.69
562.854	8121.2
563.217	8146.96
563.579	8132.05
563.941	8260.63
564.304	8225.15
564.666	8209.78
565.028	8276
565.39	8275.77
565.753	8285.26
566.115	8318.26
566.477	8407.75
566.839	8452.04
567.201	8442.09
567.563	8421.3
567.925	8528.19
568.287	8494.52
568.648	8551.02
569.01	8604.12
569.372	8604.12
569.734	8612.71
570.095	8662.2
570.457	8651.35
570.819	8759.83
571.18	8744.69
571.542	8845.02
571.903	8849.99
572.265	8844.34
572.626	8866.49
572.987	8878.24
573.349	8916.66
573.71	8956.43
574.071	9011.34
574.432	9127.73
574.794	9161.62
575.155	9115.07
575.516	9139.03
575.877	9220.15
576.238	9285.01
576.599	9348.74
576.96	9389.41
577.32	9418.57
577.681	9463.76
578.042	9541.95
578.403	9604.32
578.763	9651.33
579.124	9675.73
579.485	9825.33
579.845	9855.62
580.206	9841.61
580.566	9889.51
580.927	10026.01
581.287	10117.53
581.648	10116.17
582.008	10274.59
582.368	10357.98
582.728	10515.71
583.089	10514.13
583.449	10589.38
583.809	10724.29
584.169	10701.47
584.529	10823.95
584.889	11038.41
585.249	11018.07
585.609	11162.7
585.969	11354.33
586.329	11359.98
586.688	11529.92
587.048	11568.34
587.408	11706.64
587.768	11806.53
588.127	11971.04
588.487	12091.72
588.846	12262.56
589.206	12336.91
589.565	12466.17
589.925	12641.31
590.284	12717.24
590.643	12861.87
591.003	13017.34
591.362	13178.24
591.721	13253.95
592.08	13380.5
592.44	13522.64
592.799	13668.62
593.158	13789.52
593.517	13919.69
593.876	14095.28
594.235	14187.71
594.593	14348.15
594.952	14504.08
595.311	14592.44
595.67	14802.15
596.029	14999.66
596.387	15082.82
596.746	15223.84
597.104	15228.58
597.463	15450.5
597.822	15635.58
598.18	15636.71
598.538	15817.49
598.897	16069.46
599.255	16005.29
599.613	16318.72
599.972	16389.23
600.33	16493.86
600.688	16575.89
601.046	16761.88
601.404	16928.42
601.762	16988.76
602.12	17093.62
602.478	17301.52
602.836	17356.89
603.194	17396.21
603.552	17447.73
603.91	17507.84
604.268	17716.43
604.625	17735.86
604.983	17894.73
605.341	17877.55
605.698	18055.4
606.056	18249.29
606.413	18215.4
606.771	18467.59
607.128	18516.63
607.485	18424.2
607.843	18570.42
608.2	18695.38
608.557	18750.07
608.914	18883.18
609.272	19076.62
609.629	19141.7
609.986	19194.35
610.343	19184.18
610.7	19357.29
611.057	19366.33
611.414	19508.24
611.771	19598.86
612.127	19703.95
612.484	19802.47
612.841	19853.32
613.198	19838.18
613.554	19837.95
613.911	20051.96
614.267	20144.61
614.624	20044.5
614.98	20173.99
615.337	20293.53
615.693	20350.71
616.05	20305.51
616.406	20479.29
616.762	20510.48
617.118	20547.31
617.475	20593.41
617.831	20721.77
618.187	20807.42
618.543	20795.67
618.899	20868.66
619.255	20980.52
619.611	20954.99
619.967	20988.21
620.323	21134.64
620.678	21056.9
621.034	21057.81
621.39	21057.58
621.746	21185.49
622.101	21359.72
622.457	21230.01
622.812	21266.16
623.168	21428.65
623.523	21373.51
623.879	21535.08
624.234	21319.95
624.589	21379.83
624.945	21528.3
625.3	21531.24
625.655	21538.93
626.01	21477.01
626.365	21616.21
626.72	21619.15
627.075	21574.86
627.43	21597.23
627.785	21521.3
628.14	21672.48
628.495	21691.69
628.85	21689.2
629.205	21559.26
629.559	21643.78
629.914	21527.4
630.269	21674.06
630.623	21538.47
630.978	21543.44
631.332	21624.8
631.687	21733.5
632.041	21537.12
632.396	21633.61
632.75	21527.85
633.104	21573.27
633.459	21511.13
633.813	21560.62
634.167	21517.46
634.521	21512.71
634.875	21660.5
635.229	21543.22
635.583	21595.87
635.937	21551.81
636.291	21572.14
636.645	21558.36
636.999	21536.21
637.352	21602.88
637.706	21363.79
638.06	21486.27
638.413	21495.76
638.767	21340.06
639.121	21442.43
639.474	21306.16
639.828	21403.11
640.181	21382.09
640.534	21453.28
640.888	21244.47
641.241	21310.46
641.594	21269.1
641.947	21293.96
642.301	21270.46
642.654	21362.88
643.007	21332.15
643.36	21308.2
643.713	21246.05
644.066	21326.73
644.419	21108.88
644.771	21032.27
645.124	20967.41
645.477	20843.35
645.83	20784.14
646.182	20651.49
646.535	20616.46
646.888	20615.33
647.24	20568.56
647.593	20692.39
647.945	20563.58
648.298	20632.73
648.65	20476.58
649.002	20456.92
649.355	20593.87
649.707	20593.41
650.059	20743.01
650.411	20964.48
650.763	21043.12
651.115	21222.1
651.467	21167.86
651.819	21110.69
652.171	21074.98
652.523	21040.18
652.875	21035.21
653.227	20971.26
653.578	21154.98
653.93	21099.39
654.282	21063.68
654.633	20999.28
654.985	21129.9
655.337	21035.21
655.688	21079.28
656.039	21200.63
656.391	21019.16
656.742	21073.63
657.094	21119.28
657.445	21237.46
657.796	21080.41
658.147	21015.78
658.498	21067.75
658.849	21160.4
659.2	21106.17
659.551	21020.97
659.902	20980.75
660.253	21119.05
660.604	21016.68
660.955	20892.16
661.306	21148.65
661.656	21047.41
662.007	21110.01
662.358	21094.19
662.708	21157.92
663.059	21140.07
663.409	20943.46
663.76	21230.23
664.11	21179.61
664.461	21251.02
664.811	21188.43
665.161	21074.53
665.511	21093.06
665.862	21158.6
666.212	21144.81
666.562	21103.46
666.912	21192.95
667.262	21030.46
667.612	21219.84
667.962	21147.52
668.312	21082.89
668.662	21289.67
669.011	21228.88
669.361	21057.36
669.711	21080.41
670.06	21128.54
670.41	21034.53
670.76	21065.72
671.109	21024.14
671.459	21079.5
671.808	21050.8
672.157	21073.85
672.507	20970.35
672.856	20954.99
673.205	20982.56
673.554	20983.69
673.904	20976.23
674.253	21152.27
674.602	20998.6
674.951	20698.04
675.3	20655.33
675.649	20903.46
675.998	20893.74
676.346	20921.54
676.695	20918.15
677.044	20790.92
677.393	20847.19
677.741	20859.4
678.09	20771.04
678.438	20765.16
678.787	20820.98
679.135	20827.98
679.484	20649.68
679.832	20723.35
680.181	20538.73
680.529	20719.74
680.877	20679.51
681.225	20594.77
681.573	20705.73
681.922	20497.6
682.27	20384.83
682.618	20384.61
682.966	20437.03
683.314	20432.51
683.661	20378.5
684.009	20285.4
684.357	20238.17
684.705	20205.63
685.053	20293.31
685.4	20138.96
685.748	20028.23
686.095	20070.04
686.443	20034.56
686.79	19977.61
687.138	19983.71
687.485	19977.61
687.832	19762.02
688.18	19882.7
688.527	19798.63
688.874	19827.11
689.221	19689.71
689.568	19654.23
689.915	19679.99
690.262	19583.72
690.609	19537.85
690.956	19556.15
691.303	19436.38
691.65	19443.61
691.997	19402.26
692.344	19258.76
692.69	19174.69
693.037	19155.71
693.383	19044.08
693.73	19081.36
694.077	18963.85
694.423	18966.56
694.769	18873.91
695.116	18759.56
695.462	18661.49
695.808	18670.75
696.155	18715.27
696.501	18640.24
696.847	18562.51
697.193	18433.92
697.539	18414.04
697.885	18343.53
698.231	18192.12
698.577	18250.2
698.923	18162.97
699.269	18081.39
699.614	17918.23
699.96	17932.47
700.306	17988.51
700.651	17790.32
700.997	17847.04
701.342	17706.26
701.688	17718.91
702.033	17671
702.379	17673.94
702.724	17509.43
703.069	17620.61
703.415	17388.53
703.76	17504.45
704.105	17342.65
704.45	17350.56
704.795	17304.91
705.14	17208.19
705.485	17178.81
705.83	17019.95
706.175	17132.71
706.52	16932.49
706.865	16918.71
707.209	16939.72
707.554	16783.57
707.899	16895.43
708.243	16747.41
708.588	16671.93
708.932	16618.38
709.277	16637.59
709.621	16674.42
709.966	16444.37
710.31	16395.11
710.654	16324.15
710.998	16395.56
711.342	16377.7
711.687	16369.12
712.031	16213.64
712.375	16210.25
712.719	16229.23
713.063	16136.36
713.407	16156.47
713.75	16072.18
714.094	16117.37
714.438	16036.92
714.782	16087.54
715.125	16011.84
715.469	15864.95
715.812	15904.72
716.156	15895.46
716.499	15832.18
716.843	15852.07
717.186	15818.85
717.53	15798.29
717.873	15795.8
718.216	15827.21
718.559	15615.69
718.902	15645.75
719.246	15688.23
719.589	15556.71
719.932	15568.01
720.275	15589.25
720.617	15581.79
720.96	15541.57
721.303	15535.02
721.646	15550.61
721.989	15390.39
722.331	15511.74
722.674	15446.88
723.016	15431.06
723.359	15464.51
723.701	15463.6
724.044	15370.95
724.386	15231.75
724.729	15320.33
725.071	15299.32
725.413	15281.46
725.755	15249.83
726.097	15198.53
726.439	15170.51
726.782	15116.5
727.124	15217.74
727.465	15176.38
727.807	15123.05
728.149	15126.89
728.491	15107.46
728.833	15137.96
729.175	15048.47
729.516	14980.45
729.858	15042.37
730.199	15063.16
730.541	15025.42
730.882	15078.98
731.224	15100
731.565	15014.12
731.906	15087.8
732.248	15061.13
732.589	14942.94
732.93	15003.73
733.271	14892.55
733.612	15042.6
733.953	15008.93
734.294	14920.12
734.635	15003.05
734.976	14995.14
735.317	14900.46
735.658	14921.47
735.999	14967.8
736.339	14836.5
736.68	14922.6
737.021	14868.59
737.361	14863.85
737.702	14981.81
738.042	14937.97
738.383	14874.47
738.723	14938.87
739.063	14937.74
739.404	15014.35
739.744	14920.12
740.084	14904.07
740.424	14891.19
740.764	14916.5
741.104	15027.46
741.444	14971.87
741.784	14961.25
742.124	15020.68
742.464	14942.04
742.804	14980
743.143	15043.28
743.483	15022.94
743.823	14975.93
744.162	15060
744.502	15043.73
744.841	15036.95
745.181	15126.66
745.52	15110.62
745.86	15105.65
746.199	15147
746.538	15187.45
746.877	15305.87
747.216	15298.19
747.556	15358.3
747.895	15381.8
748.234	15419.99
748.573	15504.06
748.911	15567.1
749.25	15598.52
749.589	15700.66
749.928	15677.16
750.267	15915.57
750.605	15840.77
750.944	15849.36
751.283	15962.8
751.621	16110.14
751.96	16093.42
752.298	16234.88
752.636	16318.27
752.975	16302.23
753.313	16399.85
753.651	16603.24
753.989	16653.4
754.327	16659.28
754.666	16729.56
755.004	16893.4
755.342	17032.6
755.679	17124.13
756.017	17082.09
756.355	17339.04
756.693	17335.42
757.031	17541.52
757.368	17529.54
757.706	17693.15
758.044	17724.56
758.381	17936.99
758.719	17941.73
759.056	18092.91
759.394	18160.71
