Data from hue_34_FLMS001491_00035.txt Node
Date: Tue Feb 07 17:25:32 GMT 2017
User: dcchb
Spectrometer: FLMS00149
Trigger mode: 0
Integration Time (sec): 2.000000E-2
Scans to average: 10
Electric dark correction enabled: true
Nonlinearity correction enabled: false
Boxcar width: 0
XAxis mode: Wavelengths
Number of Pixels in Spectrum: 2048
>>>>>Begin Spectral Data<<<<<
341.393	-20.73
341.776	-20.73
342.16	-20.73
342.543	-61.18
342.927	-86.49
343.31	-74.07
343.693	-69.55
344.077	-67.96
344.46	-83.78
344.843	-40.39
345.226	-39.49
345.61	-35.65
345.993	-32.03
346.376	15.65
346.759	6.38
347.142	56.55
347.525	45.71
347.908	43.22
348.291	69.89
348.674	94.07
349.057	111.47
349.44	131.8
349.823	141.75
350.206	152.82
350.588	185.14
350.971	202.09
351.354	220.39
351.737	244.12
352.119	247.73
352.502	279.6
352.884	287.51
353.267	284.34
353.65	288.18
354.032	280.73
354.414	320.95
354.797	306.26
355.179	324.34
355.562	312.59
355.944	331.35
356.326	341.74
356.709	330.44
357.091	354.17
357.473	356.88
357.855	333.83
358.238	358.47
358.62	337.67
359.002	347.84
359.384	343.55
359.766	327.73
360.148	311.46
360.53	327.96
360.912	337.45
361.294	327.96
361.676	346.49
362.057	340.16
362.439	331.12
362.821	313.49
363.203	326.15
363.584	331.35
363.966	325.02
364.348	332.7
364.729	311.46
365.111	313.27
365.493	329.99
365.874	328.64
366.256	302.87
366.637	298.81
367.019	298.81
367.4	322.08
367.781	306.26
368.163	307.62
368.544	313.27
368.925	314.62
369.306	329.09
369.688	321.86
370.069	318.47
370.45	304.46
370.831	313.95
371.212	303.1
371.593	294.51
371.974	322.76
372.355	317.79
372.736	325.02
373.117	319.37
373.498	322.08
373.879	307.62
374.26	320.27
374.641	319.82
375.021	319.37
375.402	332.48
375.783	318.24
376.163	348.52
376.544	334.96
376.925	345.36
377.305	334.96
377.686	319.14
378.066	314.85
378.447	333.61
378.827	314.17
379.208	311.91
379.588	334.74
379.968	372.25
380.349	332.7
380.729	338.58
381.109	332.25
381.489	341.74
381.87	336.77
382.25	337.22
382.63	325.7
383.01	346.94
383.39	346.94
383.77	341.06
384.15	357.11
384.53	334.06
384.91	339.93
385.29	332.03
385.67	341.97
386.049	357.34
386.429	346.26
386.809	368.63
387.189	337
387.568	358.92
387.948	350.78
388.328	352.14
388.707	345.13
389.087	363.89
389.466	379.26
389.846	365.47
390.225	382.65
390.605	358.24
390.984	362.08
391.363	346.71
391.743	365.7
392.122	397.11
392.501	359.82
392.881	367.5
393.26	373.38
393.639	378.8
394.018	372.48
394.397	348.52
394.776	374.74
395.155	375.41
395.534	373.61
395.913	376.32
396.292	369.31
396.671	375.64
397.05	386.94
397.429	383.1
397.808	377.22
398.186	377.22
398.565	356.21
398.944	377.45
399.323	381.52
399.701	388.75
400.08	383.78
400.458	387.84
400.837	370.89
401.215	417.9
401.594	393.27
401.972	382.65
402.351	389.42
402.729	407.5
403.107	401.63
403.486	404.11
403.864	381.06
404.242	400.05
404.62	411.35
404.999	401.85
405.377	403.66
405.755	418.58
406.133	390.55
406.511	413.6
406.889	411.35
407.267	419.93
407.645	434.4
408.023	435.98
408.401	425.58
408.779	431.46
409.156	445.24
409.534	445.69
409.912	420.16
410.29	431.01
410.667	459.93
411.045	440.72
411.422	438.69
411.8	453.38
412.178	452.47
412.555	465.13
412.933	440.5
413.31	475.75
413.687	466.71
414.065	464.9
414.442	459.93
414.819	468.52
415.197	468.52
415.574	476.2
415.951	463.1
416.328	486.82
416.705	496.77
417.082	481.85
417.46	478.69
417.837	522.98
418.214	477.56
418.591	487.73
418.967	503.09
419.344	494.51
419.721	487.5
420.098	508.97
420.475	510.1
420.852	522.08
421.228	503.09
421.605	521.17
421.982	512.13
422.358	525.92
422.735	533.15
423.111	509.65
423.488	524.56
423.864	529.53
424.241	532.25
424.617	564.11
424.994	537.9
425.37	541.51
425.746	562.98
426.123	542.64
426.499	550.55
426.875	548.06
427.251	556.2
427.627	565.92
428.003	565.92
428.379	571.11
428.756	565.47
429.132	583.09
429.507	580.61
429.883	581.74
430.259	599.59
430.635	596.65
431.011	617.89
431.387	622.86
431.763	599.14
432.138	611.34
432.514	624.45
432.89	635.52
433.265	611.11
433.641	636.88
434.016	631
434.392	637.78
434.767	649.3
435.143	650.66
435.518	655.18
435.894	656.54
436.269	664.45
436.644	689.08
437.02	676.87
437.395	699.93
437.77	667.38
438.145	675.97
438.52	699.25
438.895	695.63
439.271	700.83
439.646	717.33
440.021	701.96
440.395	710.09
440.77	728.17
441.145	721.85
441.52	734.05
441.895	723.2
442.27	736.53
442.645	728.85
443.019	734.05
443.394	743.54
443.769	758.45
444.143	771.34
444.518	768.4
444.892	755.97
445.267	753.26
445.641	789.64
446.016	756.87
446.39	775.4
446.764	772.92
447.139	766.59
447.513	771.79
447.887	768.62
448.262	826.02
448.636	790.09
449.01	810.2
449.384	798.91
449.758	811.11
450.132	822.41
450.506	823.54
450.88	843.88
451.254	826.48
451.628	847.04
452.002	825.8
452.376	860.15
452.75	842.29
453.123	873.25
453.497	878
453.871	862.18
454.244	892.46
454.618	878.45
454.992	895.63
455.365	877.77
455.739	892.01
456.112	917.55
456.486	895.85
456.859	941.05
457.232	953.48
457.606	953.03
457.979	946.02
458.352	995.51
458.725	993.48
459.099	999.35
459.472	996.41
459.845	1009.97
460.218	1022.18
460.591	1038.67
460.964	1025.11
461.337	1037.09
461.71	1067.15
462.083	1092.23
462.456	1085.68
462.829	1092.23
463.201	1116.19
463.574	1097.88
463.947	1142.85
464.32	1163.87
464.692	1162.29
465.065	1175.17
465.438	1197.31
465.81	1214.94
466.183	1225.11
466.555	1233.7
466.928	1252
467.3	1249.06
467.672	1284.32
468.045	1253.36
468.417	1300.81
468.789	1282.28
469.161	1342.39
469.534	1348.95
469.906	1367.48
470.278	1403.86
470.65	1407.03
471.022	1443.18
471.394	1437.53
471.766	1480.47
472.138	1507.14
472.51	1531.32
472.882	1527.25
473.253	1558.89
473.625	1617.42
473.997	1641.14
474.369	1675.04
474.74	1673.68
475.112	1736.73
475.484	1761.59
475.855	1801.37
476.227	1786.9
476.598	1864.41
476.97	1899.67
477.341	1926.56
477.713	1983.73
478.084	2000.91
478.455	2073.9
478.827	2106.22
479.198	2187.57
479.569	2203.39
479.94	2276.15
480.311	2305.98
480.682	2388.69
481.053	2404.06
481.424	2508.47
481.795	2523.38
482.166	2575.58
482.537	2630.27
482.908	2713.66
483.279	2755.24
483.65	2827.55
484.021	2893.09
484.391	2998.62
484.762	3015.57
485.133	3105.51
485.503	3138.73
485.874	3208.33
486.244	3270.25
486.615	3369.69
486.985	3437.48
487.356	3496.24
487.726	3570.58
488.097	3644.03
488.467	3710.92
488.837	3856.45
489.207	3903.46
489.578	3982.1
489.948	4048.09
490.318	4134.64
490.688	4200.62
491.058	4310.68
491.428	4330.34
491.798	4450.56
492.168	4538.92
492.538	4604.23
492.908	4712.47
493.278	4787.95
493.648	4848.52
494.017	4945.46
494.387	5039.02
494.757	5081.73
495.126	5146.81
495.496	5174.38
495.866	5267.71
496.235	5360.14
496.605	5377.77
496.974	5462.96
497.344	5534.15
497.713	5575.28
498.082	5669.74
498.452	5750.41
498.821	5805.55
499.19	5854.14
499.559	5884.42
499.928	5970.75
500.298	6006.9
500.667	6126.68
501.036	6074.02
501.405	6222.04
501.774	6241.25
502.143	6321.7
502.512	6372.77
502.88	6437.63
503.249	6452.77
503.618	6498.87
503.987	6582.03
504.356	6603.5
504.724	6661.8
505.093	6706.09
505.462	6756.71
505.83	6814.57
506.199	6896.6
506.567	6927.33
506.936	6976.14
507.304	7047.33
507.672	7082.36
508.041	7137.04
508.409	7177.95
508.777	7272.86
509.145	7315.57
509.514	7332.52
509.882	7426.3
510.25	7403.93
510.618	7459.75
510.986	7488.67
511.354	7605.96
511.722	7652.96
512.09	7733.19
512.458	7737.25
512.826	7784.26
513.193	7757.14
513.561	7818.83
513.929	7921.88
514.297	7912.62
514.664	8004.82
515.032	8080.75
515.4	8106.51
515.767	8143.35
516.135	8206.62
516.502	8163.68
516.869	8291.36
517.237	8319.16
517.604	8306.5
517.972	8363.68
518.339	8425.6
518.706	8428.31
519.073	8437.12
519.44	8485.94
519.808	8558.02
520.175	8608.87
520.542	8721.18
520.909	8760.96
521.276	8712.37
521.643	8813.84
522.009	8897
522.376	8884.12
522.743	8941.29
523.11	9014.96
523.477	9069.42
523.843	9109.87
524.21	9232.36
524.577	9297.89
524.943	9276.65
525.31	9344.67
525.676	9341.05
526.043	9495.63
526.409	9544.66
526.776	9611.1
527.142	9619.24
527.508	9672.12
527.874	9746.01
528.241	9753.7
528.607	9855.62
528.973	9896.52
529.339	9906.01
529.705	9987.36
530.071	10071.43
530.437	10128.83
530.803	10084.09
531.169	10248.15
531.535	10211.54
531.901	10244.08
532.267	10266.23
532.632	10364.98
532.998	10409.05
533.364	10510.97
533.73	10543.51
534.095	10546.67
534.461	10566.11
534.826	10680.91
535.192	10638.42
535.557	10779.66
535.923	10761.36
536.288	10832.77
536.653	10816.27
537.019	10872.31
537.384	10878.19
537.749	10893.78
538.114	11011.07
538.479	11008.35
538.845	11105.08
539.21	11046.77
539.575	11174.68
539.94	11145.75
540.305	11320.21
540.67	11330.83
541.034	11352.3
541.399	11440.21
541.764	11384.39
542.129	11500.32
542.494	11529.92
542.858	11562.46
543.223	11591.39
543.587	11646.3
543.952	11620.77
544.316	11728.34
544.681	11717.94
545.045	11841.1
545.41	11915.68
545.774	11997.93
546.138	11910.48
546.503	12059.63
546.867	11978.5
547.231	12132.84
547.595	12197.02
547.959	12154.09
548.324	12239.06
548.688	12227.08
549.052	12213.75
549.416	12272.73
549.779	12334.2
550.143	12392.95
550.507	12525.38
550.871	12507.07
551.235	12404.25
551.599	12608.09
551.962	12622.78
552.326	12753.39
552.689	12681.3
553.053	12703.9
553.417	12827.29
553.78	12980.51
554.143	12800.62
554.507	12914.52
554.87	12966.27
555.234	13070.22
555.597	12966.27
555.96	13052.37
556.323	13124.01
556.686	13110.22
557.05	13162.87
557.413	13227.28
557.776	13195.42
558.139	13389.53
558.502	13302.98
558.865	13411.68
559.228	13544.79
559.59	13546.14
559.953	13533.94
560.316	13702.75
560.679	13689.87
561.041	13781.39
561.404	13835.17
561.767	13923.08
562.129	13852.57
562.492	13997.2
562.854	13875.4
563.217	14021.83
563.579	14091.44
563.941	14217.08
564.304	14054.15
564.666	14355.39
565.028	14338.66
565.39	14348.61
565.753	14303.86
566.115	14416.85
566.477	14500.47
566.839	14522.16
567.201	14550.63
567.563	14631.76
567.925	14737.3
568.287	14726.45
568.648	14705.88
569.01	14795.15
569.372	14955.37
569.734	14888.03
570.095	15028.81
570.457	15058.19
570.819	15106.55
571.18	15126.89
571.542	15227.68
571.903	15285.76
572.265	15408.46
572.626	15398.75
572.987	15502.25
573.349	15579.76
573.71	15675.8
574.071	15694.79
574.432	15838.51
574.794	15936.13
575.155	15994.44
575.516	16041.67
575.877	16176.58
576.238	16306.29
576.599	16367.76
576.96	16457.25
577.32	16632.39
577.681	16638.94
578.042	16820.63
578.403	16885.94
578.763	16931.59
579.124	17200.73
579.485	17315.99
579.845	17552.14
580.206	17667.61
580.566	17792.58
580.927	17911.22
581.287	18086.13
581.648	18102.41
582.008	18444.09
582.368	18549.17
582.728	18670.98
583.089	18844.98
583.449	19032.32
583.809	19183.51
584.169	19463.27
584.529	19588.69
584.889	19925.18
585.249	19991.4
585.609	20171.96
585.969	20500.53
586.329	20596.8
586.688	20987.08
587.048	21131.03
587.408	21354.98
587.768	21694.18
588.127	21770.11
588.487	21958.8
588.846	22440.6
589.206	22421.39
589.565	22699.12
589.925	23050.07
590.284	23216.17
590.643	23530.96
591.003	23764.63
591.362	24100.89
591.721	24266.76
592.08	24650.03
592.44	24926.18
592.799	25068.1
593.158	25358.03
593.517	25813.62
593.876	25907.4
594.235	26063.55
594.593	26328.4
594.952	26672.12
595.311	26891.55
595.67	27176.29
596.029	27619.44
596.387	27818.31
596.746	28081.58
597.104	28277.96
597.463	28392.3
597.822	28802.01
598.18	28926.75
598.538	29261.66
598.897	29597.24
599.255	29517.92
599.613	30154.07
599.972	30202.43
600.33	30552.7
600.688	30595.18
601.046	30971.9
601.404	31268.39
601.762	31279.01
602.12	31741.82
602.478	32019.33
602.836	32125.09
603.194	32244.41
603.552	32464.06
603.91	32587
604.268	32911.28
604.625	32924.61
604.983	33275.34
605.341	33314.66
605.698	33675.78
606.056	33943.12
606.413	34019.5
606.771	34211.13
607.128	34504.23
607.485	34595.31
607.843	34741.06
608.2	35032.81
608.557	35241.84
608.914	35355.51
609.272	35651.1
609.629	35712.34
609.986	35944.87
610.343	35935.38
610.7	36378.99
611.057	36348.25
611.414	36605.87
611.771	36684.97
612.127	36868.69
612.484	36960.21
612.841	37227.78
613.198	37181.45
613.554	37409.92
613.911	37820.98
614.267	37846.74
614.624	37886.52
614.98	37965.61
615.337	38286.28
615.693	38363.34
616.05	38406.73
616.406	38671.13
616.762	38645.37
617.118	38592.26
617.475	38868.86
617.831	39066.83
618.187	39154.51
618.543	39280.61
618.899	39460.26
619.255	39555.63
619.611	39549.98
619.967	39751.33
620.323	39805.34
620.678	39807.15
621.034	39936.41
621.39	39874.49
621.746	39976.41
622.101	40520.8
622.457	40182.95
622.812	40326.91
623.168	40353.35
623.523	40521.7
623.879	40613.45
624.234	40348.37
624.589	40581.81
624.945	40746.56
625.3	40840.56
625.655	40866.33
626.01	40861.13
626.365	40976.38
626.72	41110.84
627.075	40958.08
627.43	40905.42
627.785	41088.47
628.14	41135.25
628.495	41200.1
628.85	41190.39
629.205	41202.36
629.559	41459.31
629.914	41156.26
630.269	41218.86
630.623	41306.09
630.978	41268.12
631.332	41354
631.687	41570.26
632.041	41426.09
632.396	41436.93
632.75	41415.92
633.104	41338.86
633.459	41418.63
633.813	41353.55
634.167	41357.61
634.521	41240.78
634.875	41478.29
635.229	41348.35
635.583	41304.28
635.937	41417.5
636.291	41081.69
636.645	41424.5
636.999	41326.88
637.352	41358.52
637.706	41105.87
638.06	41386.54
638.413	41318.52
638.767	41156.49
639.121	41238.52
639.474	40997.85
639.828	41053.89
640.181	41169.6
640.534	41187.67
640.888	41038.75
641.241	40863.16
641.594	40922.14
641.947	41004.18
642.301	40934.12
642.654	41126.88
643.007	41029.94
643.36	41078.3
643.713	40920.11
644.066	41030.62
644.419	40825.42
644.771	40739.78
645.124	40274.7
645.477	40303.4
645.83	39982.51
646.182	39783.42
646.535	39774.6
646.888	39891.89
647.24	39625.68
647.593	40015.95
647.945	39765.79
648.298	39741.16
648.65	39598.56
649.002	39530.99
649.355	39825.9
649.707	39784.77
650.059	39870.42
650.411	40328.71
650.763	40316.06
651.115	40666.78
651.467	40434.7
651.819	40556.28
652.171	40533.23
652.523	40318.32
652.875	40441.03
653.227	40255.5
653.578	40488.94
653.93	40471.53
654.282	40287.13
654.633	40132.33
654.985	40274.03
655.337	40298.43
655.688	40335.04
656.039	40356.06
656.391	40045.11
656.742	40193.8
657.094	40209.62
657.445	40338.2
657.796	40330.52
658.147	40147.25
658.498	40043.3
658.849	40398.77
659.2	40244.87
659.551	40027.93
659.902	40154.48
660.253	40138.66
660.604	40222.5
660.955	39975.95
661.306	40214.14
661.656	40092.11
662.007	40124.88
662.358	39985.67
662.708	40132.11
663.059	40062.51
663.409	39776.64
663.76	39975.95
664.11	40010.76
664.461	40089.85
664.811	40124.88
665.161	39989.97
665.511	39917.65
665.862	40099.12
666.212	40037.42
666.562	40081.94
666.912	40116.29
667.262	39928.27
667.612	39885.56
667.962	40147.02
668.312	39814.6
668.662	40180.47
669.011	39973.92
669.361	39930.31
669.711	40041.49
670.06	39962.85
670.41	39746.36
670.76	39750.65
671.109	39961.94
671.459	39757.66
671.808	39769.86
672.157	39839.23
672.507	39702.06
672.856	39725.79
673.205	39746.58
673.554	39743.42
673.904	39596.08
674.253	39812.79
674.602	39690.99
674.951	39114.96
675.3	38955.87
675.649	39625.46
675.998	39578.22
676.346	39611.22
676.695	39691.44
677.044	39563.99
677.393	39480.6
677.741	39585.46
678.09	39526.47
678.438	39343.65
678.787	39434.27
679.135	39392.69
679.484	39161.51
679.832	39421.39
680.181	39067.28
680.529	39269.53
680.877	38928.52
681.225	38915.64
681.573	39283.77
681.922	39121.74
682.27	38935.76
682.618	39042.19
682.966	38845.36
683.314	38978.24
683.661	38788.42
684.009	38592.26
684.357	38648.31
684.705	38465.94
685.053	38571.02
685.4	38506.61
685.748	38293.96
686.095	38321.99
686.443	38174.42
686.79	38241.54
687.138	38410.57
687.485	38212.39
687.832	38080.19
688.18	38103.24
688.527	37942.56
688.874	37937.14
689.221	37716.13
689.568	37746.41
689.915	37738.73
690.262	37681.33
690.609	37607.2
690.956	37366.53
691.303	37281.34
691.65	37197.5
691.997	37182.13
692.344	36890.39
692.69	36868.47
693.037	36979.42
693.383	36767.45
693.73	36925.41
694.077	36592.31
694.423	36592.31
694.769	36449.95
695.116	36427.35
695.462	36411.98
695.808	36123.63
696.155	36204.98
696.501	36106.23
696.847	36143.74
697.193	35772.9
697.539	35892.67
697.885	35650.42
698.231	35490.87
698.577	35640.7
698.923	35545.11
699.269	35357.77
699.614	35175.4
699.96	35232.35
700.306	35179.92
700.651	34939.7
700.997	34937.67
701.342	34949.87
701.688	34812.25
702.033	34717.79
702.379	34633.95
702.724	34659.71
703.069	34562.99
703.415	34263.34
703.76	34337.91
704.105	34361.19
704.45	34203
704.795	33885.49
705.14	33950.35
705.485	33938.6
705.83	33734.54
706.175	33739.28
706.52	33622.9
706.865	33630.81
707.209	33445.96
707.554	33406.41
707.899	33492.06
708.243	33279.18
708.588	33242.8
708.932	33069.24
709.277	33050.71
709.621	33212.29
709.966	32804.84
710.31	32907.67
710.654	32627
710.998	32717.16
711.342	32671.06
711.687	32700.21
712.031	32477.85
712.375	32419.77
712.719	32512.87
713.063	32365.53
713.407	32472.65
713.75	32286.89
714.094	32139.78
714.438	32021.81
714.782	32191.98
715.125	32111.53
715.469	31928.48
715.812	31812.78
716.156	31749.5
716.499	31715.83
716.843	31724.87
717.186	31588.83
717.53	31737.75
717.873	31665.21
718.216	31583.18
718.559	31463.41
718.902	31247.14
719.246	31384.77
719.589	31220.93
719.932	31025.46
720.275	31106.13
720.617	31112.91
720.96	30924.22
721.303	31029.07
721.646	30838.57
721.989	30763.09
722.331	30812.58
722.674	30801.96
723.016	30777.1
723.359	30688.74
723.701	30655.3
724.044	30421.86
724.386	30445.81
724.729	30609.87
725.071	30384.79
725.413	30517.45
725.755	30246.49
726.097	30216.89
726.439	30055.99
726.782	30038.81
727.124	30246.04
727.465	30116.33
727.807	30088.3
728.149	30017.12
728.491	29924.92
728.833	30017.8
729.175	29877.46
729.516	29715.89
729.858	29708.43
730.199	29857.58
730.541	29767.18
730.882	29699.84
731.224	29717.24
731.565	29490.13
731.906	29521.54
732.248	29536.46
732.589	29368.1
732.93	29434.31
733.271	29277.7
733.612	29244.49
733.953	29364.03
734.294	29279.29
734.635	29163.58
734.976	29297.82
735.317	29058.28
735.658	28976.47
735.999	29092.62
736.339	28959.97
736.68	29038.16
737.021	28806.53
737.361	28906.87
737.702	28888.56
738.042	28831.39
738.383	28809.92
738.723	28752.29
739.063	28661.22
739.404	28680.43
739.744	28548.23
740.084	28603.82
740.424	28549.59
740.764	28650.15
741.104	28560.21
741.444	28402.02
741.784	28418.29
742.124	28403.6
742.464	28296.26
742.804	28316.83
743.143	28243.16
743.483	28154.57
743.823	28149.37
744.162	28119.09
744.502	28134.23
744.841	28024.63
745.181	28135.14
745.52	28008.59
745.86	28121.8
746.199	28022.82
746.538	27947.34
746.877	28077.06
747.216	27850.62
747.556	27903.28
747.895	27816.73
748.234	27738.54
748.573	27603.85
748.911	27504.42
749.25	27533.12
749.589	27372.44
749.928	27487.92
750.267	27518.88
750.605	27462.16
750.944	27362.95
751.283	27298.32
751.621	27261.26
751.96	27002.06
752.298	27123.64
752.636	27218.32
752.975	26940.59
753.313	26835.74
753.651	27015.84
753.989	26882.51
754.327	26845.23
754.666	26723.2
755.004	26831.89
755.342	26757.55
755.679	26633.71
756.017	26492.92
756.355	26655.85
756.693	26540.83
757.031	26515.29
757.368	26359.14
757.706	26273.72
758.044	26250.67
