Data from hue_24_FLMS001491_00023.txt Node
Date: Tue Feb 07 17:12:01 GMT 2017
User: dcchb
Spectrometer: FLMS00149
Trigger mode: 0
Integration Time (sec): 2.000000E-2
Scans to average: 10
Electric dark correction enabled: true
Nonlinearity correction enabled: false
Boxcar width: 0
XAxis mode: Wavelengths
Number of Pixels in Spectrum: 2048
>>>>>Begin Spectral Data<<<<<
341.393	-19.49
341.776	-19.49
342.16	-19.49
342.543	-68.53
342.927	-85.93
343.31	-56.55
343.693	-71.47
344.077	-68.98
344.46	-59.04
344.843	-52.94
345.226	-62.43
345.61	-50.68
345.993	-17.68
346.376	-1.64
346.759	27.97
347.142	19.6
347.525	43.33
347.908	55.31
348.291	77.68
348.674	114.06
349.057	103.44
349.44	146.83
349.823	153.84
350.206	162.65
350.588	206.94
350.971	208.53
351.354	220.5
351.737	224.12
352.119	238.36
352.502	280.84
352.884	269.54
353.267	284.68
353.65	313.83
354.032	302.53
354.414	333.49
354.797	308.41
355.179	327.17
355.562	327.39
355.944	338.24
356.326	331.91
356.709	344.57
357.091	335.08
357.473	330.1
357.855	363.78
358.238	356.09
358.62	347.96
359.002	350.67
359.384	348.86
359.766	344.79
360.148	329.43
360.53	346.6
360.912	351.35
361.294	345.02
361.676	335.53
362.057	346.6
362.439	342.08
362.821	333.04
363.203	342.99
363.584	307.05
363.966	346.38
364.348	328.52
364.729	347.73
365.111	336.21
365.493	357.9
365.874	298.24
366.256	320.61
366.637	304.79
367.019	317
367.4	338.01
367.781	320.39
368.163	321.29
368.544	337.11
368.925	308.64
369.306	321.97
369.688	308.41
370.069	339.14
370.45	314.74
370.831	325.58
371.212	309.31
371.593	299.14
371.974	317.9
372.355	311.57
372.736	335.3
373.117	320.84
373.498	319.26
373.879	337.56
374.26	328.3
374.641	326.49
375.021	312.93
375.402	332.36
375.783	326.94
376.163	345.47
376.544	338.24
376.925	331.23
377.305	339.82
377.686	328.75
378.066	343.66
378.447	327.39
378.827	329.43
379.208	344.34
379.588	344.79
379.968	328.75
380.349	338.92
380.729	321.29
381.109	336.66
381.489	347.28
381.87	350.22
382.25	338.92
382.63	355.87
383.01	346.15
383.39	327.39
383.77	340.27
384.15	356.09
384.53	342.99
384.91	369.65
385.29	363.1
385.67	375.3
386.049	358.35
386.429	364.45
386.809	365.36
387.189	371.69
387.568	360.84
387.948	379.82
388.328	363.55
388.707	375.53
389.087	357
389.466	381.18
389.846	374.85
390.225	371.46
390.605	355.64
390.984	366.94
391.363	370.56
391.743	366.26
392.122	371.23
392.501	358.35
392.881	390.22
393.26	372.82
393.639	364.45
394.018	374.85
394.397	389.54
394.776	359.71
395.155	385.02
395.534	385.7
395.913	398.13
396.292	418.46
396.671	399.03
397.05	385.24
397.429	402.87
397.808	413.94
398.186	382.08
398.565	396.77
398.944	402.87
399.323	411.46
399.701	402.19
400.08	388.41
400.458	396.09
400.837	410.78
401.215	396.32
401.594	403.77
401.972	406.49
402.351	373.27
402.729	399.93
403.107	420.05
403.486	403.77
403.864	428.18
404.242	428.86
404.62	429.31
404.999	417.79
405.377	426.82
405.755	438.58
406.133	433.83
406.511	442.87
406.889	415.07
407.267	457.11
407.645	460.04
408.023	441.51
408.401	455.98
408.779	454.62
409.156	451.01
409.534	462.08
409.912	441.97
410.29	462.08
410.667	468.63
411.045	479.25
411.422	481.74
411.8	458.91
412.178	479.25
412.555	461.17
412.933	471.57
413.31	490.33
413.687	490.1
414.065	508.63
414.442	501.4
414.819	495.98
415.197	494.39
415.574	509.99
415.951	485.35
416.328	481.06
416.705	512.25
417.082	527.84
417.46	506.6
417.837	517.22
418.214	508.86
418.591	516.77
418.967	512.25
419.344	522.64
419.721	524.9
420.098	517.22
420.475	526.48
420.852	516.31
421.228	565.35
421.605	556.09
421.982	553.15
422.358	554.96
422.735	543.88
423.111	563.54
423.488	561.06
423.864	563.54
424.241	583.21
424.617	572.36
424.994	563.09
425.37	562.19
425.746	584.56
426.123	564.45
426.499	599.25
426.875	571.45
427.251	606.93
427.627	596.76
428.003	587.95
428.379	595.18
428.756	593.15
429.132	637.21
429.507	620.27
429.883	630.66
430.259	636.08
430.635	622.3
431.011	634.96
431.387	668.4
431.763	668.63
432.138	656.42
432.514	638.8
432.89	658.46
433.265	687.84
433.641	687.16
434.016	680.15
434.392	696.42
434.767	712.24
435.143	694.61
435.518	713.6
435.894	723.31
436.269	715.63
436.644	722.18
437.02	713.6
437.395	710.89
437.77	707.04
438.145	737.55
438.52	736.87
438.895	745.01
439.271	757.21
439.646	762.64
440.021	759.47
440.395	743.2
440.77	769.41
441.145	786.59
441.52	808.28
441.895	794.95
442.27	798.57
442.645	797.66
443.019	799.24
443.394	822.97
443.769	838.34
444.143	809.64
444.518	805.12
444.892	836.53
445.267	832.24
445.641	819.13
446.016	831.79
446.39	837.44
446.764	834.95
447.139	842.41
447.513	874.72
447.887	861.84
448.262	861.39
448.636	868.62
449.01	885.8
449.384	884.44
449.758	888.06
450.132	880.6
450.506	890.09
450.88	909.07
451.254	877.89
451.628	907.49
452.002	894.38
452.376	934.61
452.75	942.07
453.123	956.75
453.497	954.04
453.871	941.84
454.244	998.11
454.618	985
454.992	974.38
455.365	999.47
455.739	1006.24
456.112	1035.17
456.486	1034.49
456.859	1041.95
457.232	1034.94
457.606	1064.32
457.979	1046.7
458.352	1062.29
458.725	1071.78
459.099	1098.9
459.472	1120.37
459.845	1105.23
460.218	1120.14
460.591	1129.18
460.964	1135.51
461.337	1164.66
461.71	1171.89
462.083	1208.27
462.456	1214.15
462.829	1204.21
463.201	1240.59
463.574	1235.17
463.947	1251.89
464.32	1257.54
464.692	1275.16
465.065	1264.54
465.438	1296.41
465.81	1309.74
466.183	1335.73
466.555	1348.83
466.928	1361.49
467.3	1358.33
467.672	1385.44
468.045	1424.99
468.417	1433.58
468.789	1418.44
469.161	1467.02
469.534	1478.55
469.906	1522.84
470.278	1540.24
470.65	1540.02
471.022	1559.45
471.394	1579.34
471.766	1602.84
472.138	1610.97
472.51	1651.2
472.882	1683.74
473.253	1716.06
473.625	1705.21
473.997	1782.72
474.369	1776.39
474.74	1766.22
475.112	1832.44
475.484	1828.6
475.855	1871.98
476.227	1913.34
476.598	1965.77
476.97	2002.6
477.341	2033.79
477.713	2075.6
478.084	2107.46
478.455	2134.12
478.827	2147.68
479.198	2203.28
479.569	2245.53
479.94	2311.75
480.311	2311.75
480.682	2365.53
481.053	2424.74
481.424	2458.41
481.795	2499.09
482.166	2537.28
482.537	2588.12
482.908	2667.9
483.279	2673.77
483.65	2728.23
484.021	2795.35
484.391	2856.37
484.762	2863.37
485.133	2920.54
485.503	2952.86
485.874	3024.95
486.244	3050.71
486.615	3111.73
486.985	3155.34
487.356	3262.68
487.726	3293.19
488.097	3369.35
488.467	3353.08
488.837	3442.79
489.207	3481.89
489.578	3526.86
489.948	3597.36
490.318	3656.8
490.688	3645.95
491.058	3749.22
491.428	3769.79
491.798	3866.06
492.168	3924.36
492.538	3962.78
492.908	3974.08
493.278	4045.94
493.648	4069.22
494.017	4108.54
494.387	4133.62
494.757	4200.29
495.126	4269.44
495.496	4248.42
495.866	4299.27
496.235	4374.74
496.605	4379.94
496.974	4423.33
497.344	4472.59
497.713	4526.15
498.082	4584.23
498.452	4605.47
498.821	4614.29
499.19	4632.14
499.559	4694.51
499.928	4703.55
500.298	4755.3
500.667	4828.74
501.036	4796.2
501.405	4819.7
501.774	4865.13
502.143	4904
502.512	5026.7
502.88	4950.32
503.249	4984.67
503.618	5043.88
503.987	5074.16
504.356	5130.66
504.724	5133.37
505.093	5121.84
505.462	5152.12
505.83	5205.46
506.199	5249.52
506.567	5271.67
506.936	5251.33
507.304	5322.29
507.672	5392.8
508.041	5400.71
508.409	5459.91
508.777	5473.7
509.145	5565.45
509.514	5509.18
509.882	5533.58
510.25	5500.59
510.618	5580.81
510.986	5571.55
511.354	5631.21
511.722	5682.05
512.09	5757.08
512.458	5710.08
512.826	5743.07
513.193	5745.1
513.561	5808.38
513.929	5840.02
514.297	5898.32
514.664	5945.32
515.032	5923.18
515.4	5954.14
515.767	5996.62
516.135	6024.87
516.502	5968.83
516.869	6087.92
517.237	6086.34
517.604	6110.97
517.972	6129.73
518.339	6134.7
518.706	6136.51
519.073	6178.76
519.44	6203.17
519.808	6228.48
520.175	6278.87
520.542	6300.57
520.909	6358.65
521.276	6397.29
521.643	6404.52
522.009	6402.71
522.376	6469.38
522.743	6522.71
523.11	6563.84
523.477	6654.01
523.843	6596.15
524.21	6743.72
524.577	6702.82
524.943	6728.81
525.31	6789.37
525.676	6905.3
526.043	6830.72
526.409	6891.06
526.776	6943.72
527.142	6993.88
527.508	7024.17
527.874	7110.49
528.241	7132.19
528.607	7091.96
528.973	7161.34
529.339	7181.68
529.705	7289.24
530.071	7349.13
530.437	7317.94
530.803	7446.3
531.169	7455.34
531.535	7382.12
531.901	7424.16
532.267	7446.08
532.632	7525.17
532.998	7565.62
533.364	7561.33
533.73	7617.82
534.095	7673.64
534.461	7705.5
534.826	7786.41
535.192	7738.5
535.557	7818.72
535.923	7906.63
536.288	7802.68
536.653	7960.41
537.019	7917.7
537.384	7869.79
537.749	7974.65
538.114	7999.06
538.479	8017.13
538.845	8048.32
539.21	8135.32
539.575	8085.61
539.94	8101.88
540.305	8211.93
540.67	8185.72
541.034	8267.3
541.399	8362.21
541.764	8296.22
542.129	8329.22
542.494	8375.77
542.858	8448.53
543.223	8442.43
543.587	8495.31
543.952	8493.28
544.316	8486.5
544.681	8491.7
545.045	8569.89
545.41	8712.26
545.774	8751.58
546.138	8691.69
546.503	8643.33
546.867	8695.76
547.231	8770.11
547.595	8833.84
547.959	8861.86
548.324	8888.07
548.688	8898.47
549.052	8869.77
549.416	8968.97
549.779	8973.49
550.143	8988.63
550.507	9074.51
550.871	9158.57
551.235	9087.39
551.599	9146.14
551.962	9151.34
552.326	9183.2
552.689	9208.74
553.053	9227.05
553.417	9270.43
553.78	9381.84
554.143	9378
554.507	9317.44
554.87	9416.42
555.234	9542.97
555.597	9454.38
555.96	9461.16
556.323	9558.56
556.686	9512.46
557.05	9622.06
557.413	9564.89
557.776	9619.58
558.139	9710.42
558.502	9761.27
558.865	9703.87
559.228	9783.87
559.59	9834.94
559.953	9873.13
560.316	9927.37
560.679	9969.62
561.041	9979.12
561.404	9975.73
561.767	10019.57
562.129	10071.09
562.492	10148.83
562.854	10145.44
563.217	10173.24
563.579	10231.09
563.941	10221.14
564.304	10271.54
564.666	10333.46
565.028	10360.35
565.39	10442.61
565.753	10416.84
566.115	10506.56
566.477	10521.47
566.839	10633.11
567.201	10657.52
567.563	10735.93
567.925	10730.28
568.287	10695.48
568.648	10718.76
569.01	10895.7
569.372	10859.77
569.734	10817.06
570.095	10929.6
570.457	10952.88
570.819	11018.18
571.18	11088.01
571.542	11127.33
571.903	11170.95
572.265	11172.76
572.626	11273.55
572.987	11277.39
573.349	11328.23
573.71	11403.26
574.071	11532.97
574.432	11519.41
574.794	11595.34
575.155	11623.59
575.516	11618.4
575.877	11787.66
576.238	11792.63
576.599	11877.6
576.96	11929.57
577.32	12048.21
577.681	12141.32
578.042	12237.81
578.403	12255.44
578.763	12428.09
579.124	12501.54
579.485	12663.57
579.845	12761.64
580.206	12834.18
580.566	12879.83
580.927	13079.15
581.287	13250.22
581.648	13294.96
582.008	13471.45
582.368	13559.81
582.728	13748.28
583.089	13889.07
583.449	14042.51
583.809	14156.18
584.169	14430.3
584.529	14530.86
584.889	14757.07
585.249	14891.98
585.609	15075.48
585.969	15317.05
586.329	15414
586.688	15713.2
587.048	15827.55
587.408	16075.9
587.768	16306.41
588.127	16523.35
588.487	16772.16
588.846	17156.33
589.206	17180.28
589.565	17579.82
589.925	17890.09
590.284	17986.82
590.643	18406.69
591.003	18648.04
591.362	18943.17
591.721	19259.32
592.08	19484.85
592.44	19762.81
592.799	20082.81
593.158	20293.87
593.517	20594.2
593.876	20876.68
594.235	21150.57
594.593	21543.78
594.952	21897.45
595.311	22114.84
595.67	22413.14
596.029	22852.9
596.387	23167.92
596.746	23455.82
597.104	23585.99
597.463	24031.85
597.822	24428.45
598.18	24628.67
598.538	24922.9
598.897	25367.86
599.255	25352.95
599.613	26153.61
599.972	26197.45
600.33	26548.62
600.688	26776.19
601.046	27200.13
601.404	27492.33
601.762	27733.23
602.12	28175.25
602.478	28457.5
602.836	28751.05
603.194	28739.3
603.552	29259.51
603.91	29483.01
604.268	29837.8
604.625	29991.02
604.983	30368.41
605.341	30466.71
605.698	30839.81
606.056	31198.22
606.413	31329.52
606.771	31804.08
607.128	31955.94
607.485	32159.1
607.843	32257.4
608.2	32748.23
608.557	33104.38
608.914	33158.62
609.272	33700.3
609.629	33874.99
609.986	34099.16
610.343	34076.11
610.7	34673.83
611.057	34710.9
611.414	35058.68
611.771	35154.5
612.127	35488.95
612.484	35656.18
612.841	35959.68
613.198	36031.76
613.554	36223.17
613.911	36587.46
614.267	36778.19
614.624	36847.56
614.98	37155.8
615.337	37274.22
615.693	37607.99
616.05	37504.49
616.406	37862.22
616.762	37777.48
617.118	37932.73
617.475	38069.45
617.831	38450.46
618.187	38590.79
618.543	38756.21
618.899	39014.74
619.255	39144.68
619.611	39174.73
619.967	39495.18
620.323	39625.57
620.678	39593.25
621.034	39609.75
621.39	39750.08
621.746	39771.1
622.101	40354.81
622.457	40090.87
622.812	40277.08
623.168	40380.12
623.523	40491.76
623.879	40790.51
624.234	40610.85
624.589	40927.68
624.945	41035.93
625.3	41053.55
625.655	41149.6
626.01	41251.74
626.365	41377.61
626.72	41373.54
627.075	41423.26
627.43	41476.82
627.785	41360.21
628.14	41717.72
628.495	41735.34
628.85	41691.73
629.205	41611.73
629.559	41848.56
629.914	41864.83
630.269	41818.05
630.623	41758.62
630.978	41879.52
631.332	42033.19
631.687	42157.03
632.041	41957.03
632.396	42192.51
632.75	41962.23
633.104	42184.37
633.459	42011.04
633.813	42075.9
634.167	42078.84
634.521	42112.51
634.875	42200.19
635.229	42122.9
635.583	42044.26
635.937	42123.36
636.291	42071.15
636.645	42174.43
636.999	42128.33
637.352	42253.52
637.706	42005.17
638.06	42339.4
638.413	42188.66
638.767	42123.36
639.121	42127.65
639.474	41902.34
639.828	41915.9
640.181	41972.85
640.534	42077.48
640.888	42062.57
641.241	41878.39
641.594	41926.75
641.947	42089.46
642.301	41981.44
642.654	41919.75
643.007	41980.53
643.36	42007.43
643.713	41884.94
644.066	42206.07
644.419	41813.99
644.771	41627.32
645.124	41324.28
645.477	41270.04
645.83	41014.91
646.182	40981.24
646.535	40904.4
646.888	40948.7
647.24	40721.81
647.593	41023.5
647.945	40843.39
648.298	40790.96
648.65	40748.02
649.002	40614.02
649.355	40849.72
649.707	40687.01
650.059	40879.77
650.411	41289.93
650.763	41338.07
651.115	41788.45
651.467	41616.02
651.819	41529.7
652.171	41537.83
652.523	41341.23
652.875	41490.83
653.227	41426.88
653.578	41565.4
653.93	41565.4
654.282	41199.76
654.633	41208.58
654.985	41272.53
655.337	41375.35
655.688	41387.33
656.039	41554.56
656.391	41119.54
656.742	41242.93
657.094	41208.35
657.445	41326.31
657.796	41334.9
658.147	41207
658.498	41279.08
658.849	41381.23
659.2	41387.56
659.551	41305.98
659.902	41313.89
660.253	41324.96
660.604	41281.12
660.955	41167
661.306	41274.34
661.656	41302.36
662.007	41177.84
662.358	41147.56
662.708	41405.86
663.059	41310.27
663.409	40980.79
663.76	41236.83
664.11	41240.89
664.461	41299.87
664.811	41310.95
665.161	41245.19
665.511	41090.16
665.862	41249.03
666.212	41289.93
666.562	41212.19
666.912	41118.18
667.262	41171.52
667.612	41139.65
667.962	41251.06
668.312	41174.91
668.662	41248.12
669.011	41009.49
669.361	41090.84
669.711	41133.78
670.06	41045.87
670.41	41069.6
670.76	41023.5
671.109	41101.24
671.459	40873.45
671.808	40949.15
672.157	40999.54
672.507	40803.39
672.856	40789.61
673.205	40898.76
673.554	40996.83
673.904	40850.39
674.253	40941.69
674.602	40856.5
674.951	40363.18
675.3	40173.12
675.649	40805.2
675.998	40749.83
676.346	40761.36
676.695	40782.83
677.044	40541.25
677.393	40666.9
677.741	40729.04
678.09	40680
678.438	40534.47
678.787	40676.61
679.135	40603.17
679.484	40365.66
679.832	40542.15
680.181	40254.7
680.529	40484.75
680.877	40274.59
681.225	40214.03
681.573	40471.87
681.922	40129.96
682.27	40099.91
682.618	40187.36
682.966	40068.27
683.314	40112.11
683.661	40011.32
684.009	39783.53
684.357	39622.63
684.705	39618.11
685.053	39833.47
685.4	39781.04
685.748	39353.49
686.095	39509.41
686.443	39331.79
686.79	39292.02
687.138	39460.83
687.485	39418.79
687.832	39185.35
688.18	39267.84
688.527	39001.4
688.874	39048.41
689.221	39020.16
689.568	38859.49
689.915	38731.81
690.262	38940.16
690.609	38593.05
690.956	38576.56
691.303	38569.55
691.65	38326.17
691.997	38370.46
692.344	38116.46
692.69	38071.03
693.037	37904.71
693.383	37725.73
693.73	37956.46
694.077	37737.26
694.423	37748.56
694.769	37613.19
695.116	37425.63
695.462	37362.12
695.808	37267.21
696.155	37518.28
696.501	37123.04
696.847	37224.73
697.193	36878.07
697.539	37033.32
697.885	36748.36
698.231	36706.55
698.577	36775.25
698.923	36616.38
699.269	36576.38
699.614	36312.66
699.96	36274.47
700.306	36134.36
700.651	36086.45
700.997	36017.75
701.342	36056.17
701.688	35936.85
702.033	35741.15
702.379	35768.27
702.724	35721.26
703.069	35720.13
703.415	35275.17
703.76	35334.16
704.105	35379.35
704.45	35316.98
704.795	35046.93
705.14	34931.68
705.485	34799.93
705.83	34754.51
706.175	34892.13
706.52	34898.91
706.865	34726.71
707.209	34582.76
707.554	34448.53
707.899	34515.19
708.243	34366.72
708.588	34406.72
708.932	33962.89
709.277	34106.17
709.621	34064.58
709.966	33790.24
710.31	33928.09
710.654	33836.12
710.998	33705.72
711.342	33771.94
711.687	33603.13
712.031	33510.25
712.375	33440.65
712.719	33415.79
713.063	33471.15
713.407	33486.52
713.75	33261.22
714.094	33229.35
714.438	33065.97
714.782	33145.96
715.125	33057.38
715.469	33048.11
715.812	32773.32
716.156	32788.91
716.499	32642.7
716.843	32765.41
717.186	32423.95
717.53	32691.06
717.873	32675.69
718.216	32700.33
718.559	32383.27
718.902	32256.5
719.246	32213.11
719.589	32195.03
719.932	32030.29
720.275	32157.06
720.617	31924.3
720.96	31962.72
721.303	32089.5
721.646	32014.92
721.989	31689.28
722.331	31929.5
722.674	31810.86
723.016	31779.67
723.359	31674.36
723.701	31662.39
724.044	31530.41
724.386	31375.62
724.729	31550.07
725.071	31382.62
725.413	31405.9
725.755	31253.59
726.097	31153.02
726.439	31109.41
726.782	31070.76
727.124	31220.14
727.465	31043.87
727.807	30923.88
728.149	30925.23
728.491	30789.42
728.833	30870.32
729.175	30730.21
729.516	30740.83
729.858	30769.76
730.199	30693.15
730.541	30757.55
730.882	30622.19
731.224	30647.95
731.565	30427.39
731.906	30442.98
732.248	30434.17
732.589	30365.7
732.93	30204.8
733.271	30286.15
733.612	30377.9
733.953	30212.48
734.294	30160.73
734.635	30093.39
734.976	30195.31
735.317	29995.54
735.658	30025.14
735.999	29995.99
736.339	29883.68
736.68	29975.43
737.021	29816.33
737.361	29661.76
737.702	29813.4
738.042	29858.14
738.383	29832.15
738.723	29783.57
739.063	29521.65
739.404	29725.94
739.744	29654.76
740.084	29458.38
740.424	29445.04
740.764	29366.63
741.104	29478.94
741.444	29407.08
741.784	29275.33
742.124	29308.33
742.464	29303.13
742.804	29315.1
743.143	29120.53
743.483	29224.94
743.823	29103.59
744.162	28965.96
744.502	29041.21
744.841	28828.11
745.181	29143.36
745.52	28956.7
745.86	28930.71
746.199	28927.09
746.538	28899.75
746.877	28924.83
747.216	28800.54
747.556	28719.64
747.895	28701.34
748.234	28620.89
748.573	28590.15
748.911	28665.86
749.25	28585.86
749.589	28409.82
749.928	28473.32
750.267	28469.25
750.605	28361.46
750.944	28351.74
751.283	28250.5
751.621	28265.41
751.96	28081.69
752.298	28177.06
752.636	28128.24
752.975	28066.55
753.313	27905.2
753.651	28059.54
753.989	27876.72
754.327	27794.47
754.666	27811.19
755.004	27693.45
755.342	27798.31
755.679	27630.18
756.017	27500.92
756.355	27634.7
756.693	27477.41
757.031	27526.45
757.368	27403.52
757.706	27413.91
758.044	27301.37
758.381	27292.33
758.719	27107.93
759.056	27200.36
759.394	26992.45
