Data from hue_210_FLMS001491_00092.txt Node
Date: Tue Feb 07 16:42:00 GMT 2017
User: dcchb
Spectrometer: FLMS00149
Trigger mode: 0
Integration Time (sec): 2.000000E-2
Scans to average: 10
Electric dark correction enabled: true
Nonlinearity correction enabled: false
Boxcar width: 0
XAxis mode: Wavelengths
Number of Pixels in Spectrum: 2048
>>>>>Begin Spectral Data<<<<<
341.393	-18.86
341.776	-18.86
342.16	-18.86
342.543	-63.83
342.927	-64.5
343.31	-80.1
343.693	-65.41
344.077	-66.31
344.46	-56.14
344.843	-49.59
345.226	-47.33
345.61	-41.45
345.993	-21.34
346.376	7.36
346.759	20.47
347.142	21.82
347.525	38.32
347.908	62.72
348.291	72.67
348.674	97.3
349.057	107.02
349.44	118.54
349.823	157.64
350.206	161.25
350.588	182.27
350.971	190.63
351.354	215.49
351.737	247.58
352.119	250.29
352.502	271.76
352.884	283.51
353.267	272.66
353.65	298.88
354.032	300.46
354.414	298.2
354.797	318.76
355.179	306.56
355.562	331.19
355.944	300.01
356.326	328.93
356.709	341.14
357.091	343.39
357.473	359.89
357.855	324.41
358.238	329.38
358.62	335.49
359.002	326.45
359.384	347.69
359.766	334.13
360.148	319.89
360.53	326.45
360.912	325.32
361.294	332.55
361.676	339.33
362.057	304.3
362.439	331.64
362.821	323.96
363.203	325.99
363.584	334.81
363.966	334.58
364.348	308.14
364.729	314.47
365.111	313.79
365.493	319.67
365.874	314.47
366.256	292.1
366.637	292.55
367.019	316.95
367.4	322.6
367.781	307.69
368.163	326.9
368.544	302.27
368.925	302.94
369.306	315.83
369.688	311.98
370.069	329.84
370.45	314.02
370.831	334.13
371.212	305.66
371.593	318.76
371.974	319.21
372.355	310.85
372.736	332.55
373.117	310.18
373.498	311.98
373.879	313.11
374.26	307.92
374.641	328.71
375.021	327.8
375.402	318.99
375.783	306.79
376.163	323.51
376.544	333.68
376.925	329.61
377.305	319.89
377.686	324.41
378.066	324.41
378.447	329.84
378.827	319.67
379.208	316.95
379.588	333
379.968	323.96
380.349	306.56
380.729	335.26
381.109	346.11
381.489	308.37
381.87	342.94
382.25	307.46
382.63	313.34
383.01	326.9
383.39	337.97
383.77	343.39
384.15	338.42
384.53	335.71
384.91	351.53
385.29	388.59
385.67	372.09
386.049	358.76
386.429	336.62
386.809	345.88
387.189	362.83
387.568	378.2
387.948	349.04
388.328	344.3
388.707	340.46
389.087	368.48
389.466	366.22
389.846	353.56
390.225	362.6
390.605	358.31
390.984	352.21
391.363	363.73
391.743	364.64
392.122	384.52
392.501	370.51
392.881	386.11
393.26	381.59
393.639	378.87
394.018	393.56
394.397	381.13
394.776	388.82
395.155	401.47
395.534	379.33
395.913	385.2
396.292	403.28
396.671	391.98
397.05	388.59
397.429	420
397.808	388.14
398.186	412.32
398.565	395.14
398.944	390.4
399.323	405.54
399.701	404.41
400.08	403.73
400.458	415.26
400.837	412.32
401.215	450.96
401.594	417.52
401.972	429.72
402.351	439.66
402.729	438.08
403.107	440.79
403.486	434.24
403.864	444.86
404.242	438.08
404.62	435.37
404.999	461.58
405.377	437.4
405.755	473.34
406.133	487.12
406.511	451.87
406.889	478.31
407.267	460.68
407.645	493.67
408.023	476.72
408.401	490.74
408.779	506.1
409.156	505.65
409.534	524.63
409.912	522.15
410.29	520.11
410.667	540.68
411.045	553.11
411.422	549.94
411.8	554.69
412.178	553.78
412.555	577.74
412.933	574.8
413.31	590.39
413.687	614.57
414.065	595.37
414.442	615.48
414.819	658.64
415.197	637.85
415.574	638.53
415.951	659.32
416.328	665.19
416.705	668.81
417.082	676.04
417.46	705.19
417.837	689.37
418.214	692.31
418.591	700.67
418.967	695.02
419.344	726.21
419.721	723.27
420.098	742.25
420.475	760.11
420.852	769.6
421.228	777.28
421.605	788.81
421.982	803.95
422.358	839.2
422.735	839.65
423.111	835.59
423.488	848.47
423.864	856.6
424.241	916.04
424.617	878.97
424.994	900.44
425.37	932.53
425.746	911.06
426.123	967.11
426.499	945.19
426.875	970.05
427.251	988.8
427.627	1011.17
428.003	1007.11
428.379	1037.61
428.756	1044.17
429.132	1048.01
429.507	1092.75
429.883	1085.52
430.259	1079.87
430.635	1144.96
431.011	1109.02
431.387	1142.24
431.763	1159.19
432.138	1187.21
432.514	1204.16
432.89	1226.99
433.265	1243.03
433.641	1281.22
434.016	1271.51
434.392	1277.16
434.767	1313.99
435.143	1338.17
435.518	1369.58
435.894	1400.77
436.269	1412.97
436.644	1432.86
437.02	1459.98
437.395	1480.99
437.77	1478.96
438.145	1500.88
438.52	1534.78
438.895	1570.93
439.271	1602.8
439.646	1629.46
440.021	1633.76
440.395	1647.99
440.77	1676.02
441.145	1699.07
441.52	1732.74
441.895	1701.55
442.27	1739.52
442.645	1758.5
443.019	1779.29
443.394	1771.15
443.769	1811.38
444.143	1836.01
444.518	1826.29
444.892	1876.24
445.267	1899.29
445.641	1899.96
446.016	1932.73
446.39	1919.85
446.764	1953.07
447.139	1924.82
447.513	1969.11
447.887	1989.91
448.262	2023.58
448.636	1981.54
449.01	2038.04
449.384	2056.34
449.758	2064.93
450.132	2115.55
450.506	2084.37
450.88	2089.11
451.254	2113.97
451.628	2136.57
452.002	2184.48
452.376	2181.54
452.75	2198.49
453.123	2218.15
453.497	2258.6
453.871	2259.95
454.244	2328.2
454.618	2350.12
454.992	2351.48
455.365	2332.5
455.739	2413.62
456.112	2439.16
456.486	2447.29
456.859	2473.06
457.232	2513.28
457.606	2522.32
457.979	2596.89
458.352	2621.75
458.725	2641.41
459.099	2663.33
459.472	2706.72
459.845	2717.12
460.218	2791.01
460.591	2776.33
460.964	2772.94
461.337	2817.45
461.71	2905.59
462.083	2927.06
462.456	2892.03
462.829	2920.05
463.201	2961.18
463.574	2980.16
463.947	3059.71
464.32	3096.09
464.692	3141.29
465.065	3165.02
465.438	3219.48
465.81	3225.35
466.183	3243.88
466.555	3313.49
466.928	3362.52
467.3	3346.48
467.672	3369.53
468.045	3481.84
468.417	3494.95
468.789	3520.03
469.161	3553.71
469.534	3586.25
469.906	3646.13
470.278	3700.37
470.65	3713.02
471.022	3825.56
471.394	3886.8
471.766	3885.22
472.138	3915.05
472.51	4000.25
472.882	4047.7
473.253	4068.27
473.625	4157.76
473.997	4211.54
474.369	4252.9
474.74	4268.04
475.112	4388.94
475.484	4384.64
475.855	4510.29
476.227	4519.78
476.598	4647.01
476.97	4677.97
477.341	4790.51
477.713	4849.27
478.084	4885.42
478.455	4967
478.827	5032.54
479.198	5106.43
479.569	5088.13
479.94	5258.29
480.311	5289.03
480.682	5376.71
481.053	5535.12
481.424	5565.63
481.795	5648.11
482.166	5766.98
482.537	5754.33
482.908	5864.38
483.279	5951.38
483.65	5986.18
484.021	6131.04
484.391	6179.63
484.762	6216.69
485.133	6288.78
485.503	6381.43
485.874	6471.6
486.244	6551.82
486.615	6669.1
486.985	6692.61
487.356	6806.73
487.726	6837.01
488.097	6915.88
488.467	6992.49
488.837	7135.53
489.207	7213.72
489.578	7288.98
489.948	7297.34
490.318	7392.02
490.688	7395.86
491.058	7525.58
491.428	7625.24
491.798	7708.4
492.168	7782.07
492.538	7804.67
492.908	7909.52
493.278	7985
493.648	8024.55
494.017	8121.95
494.387	8147.71
494.757	8255.5
495.126	8239.46
495.496	8318.1
495.866	8274.94
496.235	8432.9
496.605	8446.01
496.974	8498.21
497.344	8577.53
497.713	8615.04
498.082	8568.94
498.452	8677.64
498.821	8664.98
499.19	8658.88
499.559	8760.12
499.928	8846.67
500.298	8932.55
500.667	8915.15
501.036	8871.31
501.405	8992.89
501.774	8952.89
502.143	9013.68
502.512	9067.91
502.88	9154.69
503.249	9180
503.618	9136.61
503.987	9168.25
504.356	9258.19
504.724	9270.39
505.093	9264.06
505.462	9304.29
505.83	9364.4
506.199	9388.58
506.567	9457.73
506.936	9429.26
507.304	9544.73
507.672	9539.54
508.041	9540.22
508.409	9678.74
508.777	9605.75
509.145	9696.37
509.514	9625.41
509.882	9672.42
510.25	9722.81
510.618	9680.32
510.986	9729.81
511.354	9747.67
511.722	9808.68
512.09	9849.36
512.458	9827.21
512.826	9902.69
513.193	9913.54
513.561	9946.53
513.929	9966.42
514.297	10022.69
514.664	10020.43
515.032	10000.09
515.4	10090.48
515.767	10076.25
516.135	10072.4
516.502	9963.93
516.869	10123.02
517.237	10095.45
517.604	10032.86
517.972	10168.22
518.339	10096.81
518.706	10160.09
519.073	10059.52
519.44	10110.14
519.808	10229.46
520.175	10208.45
520.542	10219.97
520.909	10296.81
521.276	10280.08
521.643	10292.29
522.009	10260.2
522.376	10363.47
522.743	10302
523.11	10367.09
523.477	10422
523.843	10428.1
524.21	10432.4
524.577	10491.6
524.943	10456.12
525.31	10497.48
525.676	10514.88
526.043	10605.5
526.409	10555.78
526.776	10567.76
527.142	10558.27
527.508	10553.75
527.874	10627.87
528.241	10579.96
528.607	10599.62
528.973	10598.27
529.339	10617.02
529.705	10615.44
530.071	10703.57
530.437	10602.11
530.803	10581.32
531.169	10629.23
531.535	10625.16
531.901	10628.1
532.267	10594.42
532.632	10572.05
532.998	10590.58
533.364	10592.39
533.73	10536.57
534.095	10630.58
534.461	10589.68
534.826	10581.54
535.192	10527.99
535.557	10558.27
535.923	10486.63
536.288	10561.66
536.653	10446.63
537.019	10402.79
537.384	10408.44
537.749	10419.29
538.114	10367.31
538.479	10375
538.845	10377.03
539.21	10225.62
539.575	10203.7
539.94	10267.65
540.305	10294.09
540.67	10149.69
541.034	10202.8
541.399	10128.45
541.764	10085.96
542.129	10052.97
542.494	10096.13
542.858	10029.92
543.223	9985.85
543.587	9986.08
543.952	9960.54
544.316	9972.52
544.681	9924.84
545.045	9982.01
545.41	9988.57
545.774	9842.81
546.138	9864.95
546.503	9816.82
546.867	9791.28
547.231	9819.3
547.595	9744.5
547.959	9647.33
548.324	9684.62
548.688	9575.24
549.052	9679.19
549.416	9615.92
549.779	9560.55
550.143	9543.15
550.507	9576.15
550.871	9567.79
551.235	9475.36
551.599	9474
551.962	9519.2
552.326	9408.02
552.689	9440.1
553.053	9398.98
553.417	9370.05
553.78	9392.65
554.143	9287.57
554.507	9398.75
554.87	9331.41
555.234	9363.95
555.597	9238.3
555.96	9261.13
556.323	9238.75
556.686	9204.63
557.05	9194.24
557.413	9196.72
557.776	9157.17
558.139	9223.39
558.502	9215.7
558.865	9130.73
559.228	9218.87
559.59	9163.28
559.953	9166.67
560.316	9228.81
560.679	9250.51
561.041	9189.04
561.404	9201.24
561.767	9180
562.129	9136.38
562.492	9249.83
562.854	9128.7
563.217	9106.33
563.579	9168.7
563.941	9269.71
564.304	9173.22
564.666	9210.51
565.028	9206.21
565.39	9194.01
565.753	9163.28
566.115	9222.26
566.477	9237.85
566.839	9151.75
567.201	9251.86
567.563	9273.56
567.925	9260.22
568.287	9237.4
568.648	9273.56
569.01	9300.9
569.372	9297.51
569.734	9281.24
570.095	9352.88
570.457	9315.36
570.819	9322.59
571.18	9381.35
571.542	9373.21
571.903	9360.33
572.265	9348.13
572.626	9409.37
572.987	9347.9
573.349	9351.29
573.71	9373.67
574.071	9377.28
574.432	9414.57
574.794	9532.31
575.155	9471.74
575.516	9400.56
575.877	9391.97
576.238	9431.29
576.599	9504.96
576.96	9479.65
577.32	9481.91
577.681	9491.85
578.042	9551.51
578.403	9570.72
578.763	9469.48
579.124	9513.55
579.485	9571.4
579.845	9593.32
580.206	9569.37
580.566	9604.85
580.927	9579.31
581.287	9625.64
581.648	9566.43
582.008	9665.41
582.368	9561.91
582.728	9704.73
583.089	9655.92
583.449	9655.01
583.809	9621.8
584.169	9740.66
584.529	9610.72
584.889	9696.6
585.249	9685.3
585.609	9615.24
585.969	9700.21
586.329	9693.21
586.688	9704.5
587.048	9704.28
587.408	9665.18
587.768	9726.43
588.127	9672.87
588.487	9703.37
588.846	9722.36
589.206	9698.18
589.565	9693.43
589.925	9752.87
590.284	9683.49
590.643	9730.04
591.003	9800.55
591.362	9790.15
591.721	9765.52
592.08	9732.98
592.44	9703.83
592.799	9804.84
593.158	9776.37
593.517	9772.07
593.876	9748.12
594.235	9704.96
594.593	9696.37
594.952	9786.08
595.311	9750.38
595.67	9790.38
596.029	9835.57
596.387	9803.49
596.746	9810.04
597.104	9732.3
597.463	9747.67
597.822	9779.53
598.18	9751.51
598.538	9730.94
598.897	9811.62
599.255	9726.88
599.613	9822.92
599.972	9786.31
600.33	9777.95
600.688	9768.91
601.046	9824.05
601.404	9851.62
601.762	9798.97
602.12	9860.66
602.478	9825.63
602.836	9816.82
603.194	9777.72
603.552	9815.46
603.91	9724.39
604.268	9795.8
604.625	9836.03
604.983	9804.84
605.341	9751.51
605.698	9830.15
606.056	9838.74
606.413	9832.64
606.771	9862.92
607.128	9887.1
607.485	9820.66
607.843	9853.88
608.2	9883.26
608.557	9936.36
608.914	9911.5
609.272	9914.44
609.629	9869.47
609.986	9925.74
610.343	9850.94
610.7	9941.79
611.057	9886.19
611.414	9864.95
611.771	9912.41
612.127	10042.35
612.484	10026.76
612.841	9951.5
613.198	9969.13
613.554	9965.06
613.911	10001.67
614.267	9981.56
614.624	9930.94
614.98	9993.08
615.337	10062.01
615.693	10006.19
616.05	10022.69
616.406	10040.54
616.762	10028.11
617.118	10065.4
617.475	10012.52
617.831	10080.09
618.187	10064.27
618.543	10140.43
618.899	10166.87
619.255	10156.7
619.611	10064.04
619.967	10098.17
620.323	10139.52
620.678	10066.08
621.034	10110.14
621.39	10080.09
621.746	10039.64
622.101	10219.75
622.457	10111.27
622.812	10102.91
623.168	10133.65
623.523	10166.41
623.879	10107.21
624.234	10043.93
624.589	10097.26
624.945	10085.51
625.3	10111.95
625.655	10024.27
626.01	10143.82
626.365	10097.49
626.72	10024.27
627.075	10106.75
627.43	10101.1
627.785	10095.68
628.14	10098.84
628.495	10074.66
628.85	10029.02
629.205	10017.26
629.559	10056.59
629.914	10069.24
630.269	10019.75
630.623	10021.56
630.978	9980.2
631.332	10024.72
631.687	10019.07
632.041	9993.31
632.396	9913.09
632.75	9876.48
633.104	9928.68
633.459	9942.24
633.813	9891.84
634.167	9924.39
634.521	9958.28
634.875	9941.56
635.229	9885.06
635.583	9812.75
635.937	9887.55
636.291	9831.96
636.645	9792.64
636.999	9795.8
637.352	9795.12
637.706	9807.78
638.06	9773.2
638.413	9756.03
638.767	9721.91
639.121	9736.82
639.474	9675.13
639.828	9673.09
640.181	9752.19
640.534	9611.4
640.888	9664.51
641.241	9635.81
641.594	9679.42
641.947	9667.9
642.301	9618.18
642.654	9631.51
643.007	9652.3
643.36	9635.13
643.713	9653.43
644.066	9734.33
644.419	9545.41
644.771	9456.6
645.124	9485.3
645.477	9501.12
645.83	9336.83
646.182	9362.82
646.535	9293.44
646.888	9352.42
647.24	9217.51
647.593	9325.53
647.945	9247.79
648.298	9243.27
648.65	9272.65
649.002	9284.63
649.355	9327.11
649.707	9287.34
650.059	9358.98
650.411	9452.53
650.763	9451.4
651.115	9607.33
651.467	9540.44
651.819	9480.33
652.171	9541.35
652.523	9498.41
652.875	9476.94
653.227	9524.85
653.578	9514.91
653.93	9459.77
654.282	9473.1
654.633	9381.35
654.985	9455.92
655.337	9450.27
655.688	9464.51
656.039	9549.71
656.391	9514.45
656.742	9496.15
657.094	9495.7
657.445	9482.59
657.796	9539.09
658.147	9580.21
658.498	9436.72
658.849	9500.22
659.2	9549.93
659.551	9499.09
659.902	9513.1
660.253	9491.85
660.604	9550.38
660.955	9492.08
661.306	9551.29
661.656	9503.61
662.007	9487.11
662.358	9522.36
662.708	9553.1
663.059	9562.59
663.409	9490.95
663.76	9609.14
664.11	9586.32
664.461	9602.59
664.811	9525.53
665.161	9580.67
665.511	9567.33
665.862	9605.75
666.212	9544.06
666.562	9603.04
666.912	9615.24
667.262	9530.27
667.612	9583.38
667.962	9615.92
668.312	9539.99
668.662	9559.42
669.011	9571.17
669.361	9600.55
669.711	9641.91
670.06	9461.57
670.41	9581.12
670.76	9445.3
671.109	9534.57
671.459	9444.4
671.808	9493.89
672.157	9484.17
672.507	9450.27
672.856	9461.8
673.205	9468.8
673.554	9543.6
673.904	9496.37
674.253	9540.67
674.602	9455.25
674.951	9346.55
675.3	9283.72
675.649	9415.25
675.998	9403.04
676.346	9400.11
676.695	9437.17
677.044	9350.84
677.393	9328.92
677.741	9351.52
678.09	9381.12
678.438	9390.61
678.787	9370.05
679.135	9379.09
679.484	9295.48
679.832	9319.43
680.181	9268.58
680.529	9314.23
680.877	9290.28
681.225	9223.61
681.573	9263.39
681.922	9222.48
682.27	9162.6
682.618	9193.33
682.966	9147.68
683.314	9140
683.661	9140.68
684.009	9112.88
684.357	9057.74
684.705	9086.67
685.053	9060
685.4	9024.3
685.748	8986.56
686.095	9009.83
686.443	8921.47
686.79	9010.74
687.138	8961.02
687.485	8903.4
687.832	8937.52
688.18	8917.18
688.527	8834.92
688.874	8733.23
689.221	8787.92
689.568	8759.22
689.915	8831.08
690.262	8761.03
690.609	8690.75
690.956	8668.37
691.303	8748.15
691.65	8595.16
691.997	8619.11
692.344	8532.11
692.69	8536.4
693.037	8446.91
693.383	8501.37
693.73	8473.12
694.077	8410.98
694.423	8377.08
694.769	8389.51
695.116	8377.31
695.462	8347.03
695.808	8273.36
696.155	8332.79
696.501	8226.35
696.847	8200.14
697.193	8177.77
697.539	8190.87
697.885	8095.51
698.231	8100.93
698.577	8078.56
698.923	8069.75
699.269	7976.64
699.614	7923.53
699.96	7877.89
700.306	7900.03
700.651	7932.57
700.997	7831.33
701.342	7837.66
701.688	7854.16
702.033	7775.29
702.379	7801.96
702.724	7728.06
703.069	7677.44
703.415	7615.75
703.76	7667.95
704.105	7602.19
704.45	7642.86
704.795	7543.43
705.14	7502.98
705.485	7488.97
705.83	7523.55
706.175	7418.01
706.52	7441.74
706.865	7344.57
707.209	7420.05
707.554	7352.48
707.899	7417.11
708.243	7290.78
708.588	7262.76
708.932	7241.97
709.277	7265.7
709.621	7268.18
709.966	7232.03
710.31	7246.94
710.654	7179.37
710.998	7189.09
711.342	7154.29
711.687	7103.9
712.031	7071.58
712.375	7055.08
712.719	7076.33
713.063	7008.98
713.407	7097.34
713.75	7036.33
714.094	7064.12
714.438	6935.99
714.782	6979.6
715.125	6985.03
715.469	6973.73
715.812	6942.77
716.156	6907.74
716.499	6946.16
716.843	6921.75
717.186	6901.64
717.53	6863.22
717.873	6943.9
718.216	6877.91
718.559	6824.81
718.902	6790.91
719.246	6796.78
719.589	6746.62
719.932	6805.6
720.275	6787.75
720.617	6720.18
720.96	6776.22
721.303	6725.15
721.646	6782.77
721.989	6745.71
722.331	6791.13
722.674	6714.98
723.016	6748.2
723.359	6690.8
723.701	6721.31
724.044	6676.56
724.386	6618.03
724.729	6715.2
725.071	6691.25
725.413	6712.72
725.755	6659.61
726.097	6694.19
726.439	6605.83
726.782	6593.63
727.124	6691.02
727.465	6632.04
727.807	6592.04
728.149	6616.22
728.491	6591.59
728.833	6576.9
729.175	6555.21
729.516	6618.03
729.858	6589.78
730.199	6620.97
730.541	6560.18
730.882	6619.16
731.224	6604.25
731.565	6605.38
731.906	6621.87
732.248	6600.86
732.589	6560.63
732.93	6610.35
733.271	6554.08
733.612	6653.74
733.953	6608.99
734.294	6605.6
734.635	6630.91
734.976	6553.18
735.317	6632.04
735.658	6587.3
735.999	6566.06
736.339	6602.21
736.68	6648.99
737.021	6618.03
737.361	6600.41
737.702	6630.24
738.042	6612.38
738.383	6631.82
738.723	6636.34
739.063	6634.08
739.404	6619.16
739.744	6684.92
740.084	6669.33
740.424	6703.91
740.764	6721.08
741.104	6773.28
741.444	6673.85
741.784	6701.42
742.124	6729.22
742.464	6758.14
742.804	6824.13
743.143	6743.23
743.483	6820.51
743.823	6805.37
744.162	6851.7
744.502	6866.84
744.841	6879.04
745.181	6981.41
745.52	6930.34
745.86	6985.03
746.199	7078.59
746.538	7040.39
746.877	7103.22
747.216	7149.09
747.556	7235.19
747.895	7254.4
748.234	7269.54
748.573	7307.51
748.911	7349.76
749.25	7399.93
749.589	7471.34
749.928	7459.59
750.267	7562.19
750.605	7634.73
750.944	7809.64
751.283	7769.64
751.621	7921.73
751.96	7921.95
752.298	8073.14
752.636	8166.69
752.975	8216.18
753.313	8274.49
753.651	8398.1
753.989	8536.63
754.327	8656.85
754.666	8735.72
755.004	8790.86
755.342	8943.85
755.679	9098.42
756.017	9255.48
756.355	9367.11
756.693	9481.69
757.031	9601.91
757.368	9733.2
757.706	9868.34
758.044	10013.2
758.381	10198.05
758.719	10299.52
759.056	10490.25
759.394	10658.6
759.731	10796.91
760.068	10895.21
760.405	11057.01
760.743	11198.25
761.08	11420.39
761.417	11539.26
761.754	11763.43
762.091	11854.73
762.428	12021.73
762.765	12232.57
763.102	12416.75
763.438	12571.1
763.775	12676.18
764.112	12806.57
764.449	12995.72
764.785	13207.46
765.122	13317.97
765.458	13434.35
765.795	13592.31
766.131	13785.53
766.467	13901.91
