Data from hue_110_FLMS001491_00055.txt Node
Date: Tue Feb 07 17:01:31 GMT 2017
User: dcchb
Spectrometer: FLMS00149
Trigger mode: 0
Integration Time (sec): 2.000000E-2
Scans to average: 10
Electric dark correction enabled: true
Nonlinearity correction enabled: false
Boxcar width: 0
XAxis mode: Wavelengths
Number of Pixels in Spectrum: 2048
>>>>>Begin Spectral Data<<<<<
341.393	3.47
341.776	3.47
342.16	3.47
342.543	-66.81
342.927	-71.1
343.31	-55.51
343.693	-65.45
344.077	-73.81
344.46	-67.94
344.843	-53.93
345.226	-40.82
345.61	-49.86
345.993	-11.67
346.376	-8.28
346.759	4.6
347.142	31.95
347.525	34.43
347.908	61.78
348.291	82.79
348.674	91.61
349.057	120.08
349.44	137.26
349.823	156.46
350.206	163.02
350.588	187.42
350.971	181.77
351.354	233.07
351.737	236.24
352.119	241.66
352.502	258.84
352.884	283.47
353.267	264.48
353.65	284.15
354.032	276.91
354.414	295.67
354.797	281.89
355.179	320.08
355.562	321.43
355.944	340.87
356.326	346.74
356.709	325.95
357.091	337.25
357.473	337.03
357.855	338.15
358.238	335.44
358.62	337.93
359.002	341.09
359.384	319.85
359.766	335.67
360.148	358.72
360.53	336.8
360.912	313.97
361.294	323.24
361.676	328.66
362.057	328.89
362.439	337.25
362.821	312.62
363.203	314.88
363.584	303.35
363.966	327.53
364.348	340.41
364.729	304.94
365.111	323.47
365.493	313.97
365.874	314.2
366.256	327.99
366.637	277.37
367.019	323.92
367.4	312.84
367.781	307.87
368.163	304.94
368.544	317.59
368.925	305.16
369.306	316.23
369.688	318.27
370.069	288.66
370.45	321.21
370.831	318.95
371.212	307.87
371.593	306.29
371.974	318.49
372.355	311.26
372.736	299.74
373.117	310.59
373.498	296.35
373.879	326.86
374.26	327.31
374.641	312.17
375.021	310.36
375.402	331.38
375.783	320.53
376.163	340.41
376.544	322.11
376.925	320.08
377.305	335.67
377.686	317.59
378.066	337.7
378.447	308.78
378.827	336.12
379.208	325.5
379.588	329.57
379.968	335.22
380.349	326.18
380.729	325.95
381.109	341.32
381.489	343.58
381.87	324.37
382.25	327.53
382.63	323.92
383.01	344.26
383.39	341.77
383.77	352.84
384.15	353.97
384.53	345.39
384.91	328.66
385.29	342.45
385.67	337.7
386.049	348.32
386.429	337.03
386.809	341.77
387.189	352.39
387.568	364.14
387.948	354.2
388.328	364.14
388.707	339.51
389.087	351.04
389.466	338.15
389.846	380.64
390.225	350.36
390.605	358.95
390.984	345.84
391.363	341.09
391.743	372.5
392.122	348.78
392.501	363.47
392.881	355.1
393.26	371.15
393.639	382
394.018	390.36
394.397	361.21
394.776	369.11
395.155	378.15
395.534	378.61
395.913	369.57
396.292	366.63
396.671	403.01
397.05	391.03
397.429	385.84
397.808	385.16
398.186	386.74
398.565	380.19
398.944	386.29
399.323	383.58
399.701	372.5
400.08	388.1
400.458	396.01
400.837	380.64
401.215	386.97
401.594	371.15
401.972	401.2
402.351	390.36
402.729	409.34
403.107	404.59
403.486	405.27
403.864	414.99
404.242	401.2
404.62	410.47
404.999	410.24
405.377	409.11
405.755	395.55
406.133	419.51
406.511	417.25
406.889	406.4
407.267	443.91
407.645	425.16
408.023	421.54
408.401	418.83
408.779	427.64
409.156	451.37
409.534	446.17
409.912	437.81
410.29	453.86
410.667	443.91
411.045	447.08
411.422	437.59
411.8	459.96
412.178	473.74
412.555	469.68
412.933	447.98
413.31	458.83
413.687	473.74
414.065	468.1
414.442	467.87
414.819	486.17
415.197	478.04
415.574	473.97
415.951	463.35
416.328	482.33
416.705	472.39
417.082	484.59
417.46	496.57
417.837	479.17
418.214	485.95
418.591	492.28
418.967	497.92
419.344	510.81
419.721	521.88
420.098	509
420.475	500.64
420.852	535.44
421.228	529.79
421.605	519.17
421.982	506.51
422.358	531.14
422.735	538.15
423.111	522.56
423.488	530.92
423.864	567.75
424.241	546.96
424.617	553.29
424.994	547.41
425.37	549.9
425.746	563.23
426.123	563.01
426.499	562.56
426.875	567.3
427.251	558.71
427.627	559.84
428.003	568.21
428.379	586.74
428.756	587.19
429.132	569.79
429.507	597.81
429.883	586.51
430.259	583.8
430.635	614.98
431.011	605.04
431.387	628.32
431.763	637.36
432.138	606.17
432.514	645.72
432.89	638.71
433.265	662.89
433.641	655.89
434.016	656.11
434.392	652.27
434.767	671.48
435.143	670.58
435.518	688.43
435.894	665.15
436.269	672.38
436.644	700.86
437.02	697.02
437.395	721.87
437.77	697.47
438.145	722.78
438.52	730.24
438.895	723.91
439.271	707.64
439.646	720.07
440.021	732.27
440.395	747.64
440.77	776.11
441.145	752.83
441.52	778.37
441.895	762.1
442.27	758.48
442.645	780.63
443.019	764.81
443.394	785.83
443.769	801.19
444.143	773.62
444.518	800.29
444.892	811.36
445.267	782.44
445.641	807.3
446.016	789.22
446.39	822.44
446.764	813.17
447.139	804.13
447.513	817.69
447.887	817.69
448.262	850.68
448.636	840.74
449.01	849.55
449.384	865.6
449.758	888.87
450.132	871.7
450.506	866.5
450.88	881.19
451.254	884.36
451.628	877.35
452.002	886.39
452.376	907.63
452.75	910.12
453.123	907.18
453.497	950.12
453.871	956.9
454.244	953.05
454.618	966.84
454.992	959.83
455.365	963
455.739	989.44
456.112	969.32
456.486	1008.65
456.859	1014.97
457.232	1051.36
457.606	1022.66
457.979	1052.71
458.352	1051.13
458.725	1085.93
459.099	1081.41
459.472	1070.11
459.845	1118.02
460.218	1137.68
460.591	1122.77
460.964	1118.25
461.337	1156.44
461.71	1212.03
462.083	1199.6
462.456	1219.94
462.829	1208.87
463.201	1231.24
463.574	1231.01
463.947	1259.03
464.32	1258.58
464.692	1293.38
465.065	1330.22
465.438	1320.28
465.81	1329.09
466.183	1350.56
466.555	1359.6
466.928	1383.33
467.3	1389.88
467.672	1397.79
468.045	1483.21
468.417	1487.96
468.789	1497.9
469.161	1533.6
469.534	1552.13
469.906	1575.64
470.278	1594.39
470.65	1631.23
471.022	1678.46
471.394	1677.55
471.766	1725.24
472.138	1708.74
472.51	1796.2
472.882	1833.48
473.253	1847.27
473.625	1896.08
473.997	1945.12
474.369	1965
474.74	2041.39
475.112	2078
475.484	2117.77
475.855	2136.98
476.227	2192.8
476.598	2248.39
476.97	2299.69
477.341	2371.1
477.713	2424.65
478.084	2468.49
478.455	2588.49
478.827	2614.93
479.198	2665.78
479.569	2723.4
479.94	2804.3
480.311	2917.75
480.682	2951.42
481.053	3096.95
481.424	3165.65
481.795	3237.29
482.166	3343.05
482.537	3390.73
482.908	3503.27
483.279	3588.01
483.65	3691.51
484.021	3825.07
484.391	3904.84
484.762	3966.31
485.133	4058.51
485.503	4150.03
485.874	4282.68
486.244	4382.79
486.615	4569.68
486.985	4698.94
487.356	4739.85
487.726	4860.97
488.097	5025.26
488.467	5124.02
488.837	5270
489.207	5429.55
489.578	5550.67
489.948	5687.17
490.318	5851.68
490.688	5874.05
491.058	6003.99
491.428	6157.89
491.798	6299.13
492.168	6450.31
492.538	6531.66
492.908	6653.7
493.278	6841.49
493.648	6975.27
494.017	7075.83
494.387	7118.09
494.757	7309.27
495.126	7472.2
495.496	7534.12
495.866	7613.44
496.235	7801.69
496.605	7922.36
496.974	8055.24
497.344	8201.9
497.713	8243.71
498.082	8429.02
498.452	8522.57
498.821	8607.77
499.19	8717.37
499.559	8842.79
499.928	8938.15
500.298	9005.95
500.667	9100.64
501.036	9206.17
501.405	9293.4
501.774	9426.73
502.143	9489.33
502.512	9541.3
502.88	9673.28
503.249	9685.03
503.618	9841.63
503.987	9888.41
504.356	9953.5
504.724	10069.65
505.093	10127.73
505.462	10233.49
505.83	10288.4
506.199	10408.17
506.567	10521.84
506.936	10550.32
507.304	10630.54
507.672	10737.88
508.041	10866.92
508.409	10857.2
508.777	10989.17
509.145	11053.13
509.514	11052.68
509.882	11182.62
510.25	11199.34
510.618	11277.53
510.986	11202.95
511.354	11353.23
511.722	11464.19
512.09	11523.17
512.458	11541.7
512.826	11641.81
513.193	11646.78
513.561	11695.6
513.929	11764.52
514.297	11887.68
514.664	11867.12
515.032	11865.08
515.4	11974.23
515.767	12023.5
516.135	12069.37
516.502	11990.73
516.869	12178.07
517.237	12147.79
517.604	12145.3
517.972	12279.31
518.339	12220.78
518.706	12192.76
519.073	12232.76
519.44	12296.71
519.808	12469.14
520.175	12411.96
520.542	12488.57
520.909	12573.54
521.276	12501.9
521.643	12671.84
522.009	12653.31
522.376	12668.9
522.743	12712.97
523.11	12760.43
523.477	12898.28
523.843	12853.76
524.21	12915.23
524.577	13023.47
524.943	13033.64
525.31	13116.12
525.676	13031.38
526.043	13033.64
526.409	13182.56
526.776	13207.2
527.142	13175.56
527.508	13200.87
527.874	13263.01
528.241	13260.75
528.607	13235.89
528.973	13244.26
529.339	13223.01
529.705	13278.83
530.071	13324.48
530.437	13357.93
530.803	13392.05
531.169	13343.69
531.535	13314.99
531.901	13266.18
532.267	13323.58
532.632	13415.55
532.998	13338.27
533.364	13329.9
533.73	13309.11
534.095	13424.59
534.461	13381.65
534.826	13297.59
535.192	13400.64
535.557	13422.1
535.923	13265.72
536.288	13368.77
536.653	13237.25
537.019	13187.53
537.384	13294.65
537.749	13213.97
538.114	13124.71
538.479	13097.59
538.845	13178.95
539.21	13133.3
539.575	12992.51
539.94	13056.01
540.305	13093.07
540.67	13001.78
541.034	13024.38
541.399	12975.79
541.764	12946.19
542.129	12853.76
542.494	12915.9
542.858	12926.75
543.223	12889.92
543.587	12828.22
543.952	12840.43
544.316	12833.19
544.681	12716.81
545.045	12724.95
545.41	12733.08
545.774	12739.18
546.138	12597.04
546.503	12629.58
546.867	12637.94
547.231	12647.21
547.595	12564.27
547.959	12545.07
548.324	12546.87
548.688	12521.34
549.052	12503.94
549.416	12321.12
549.779	12309.14
550.143	12373.09
550.507	12412.41
550.871	12264.85
551.235	12284.73
551.599	12291.51
551.962	12316.82
552.326	12269.59
552.689	12300.33
553.053	12151.18
553.417	12191.85
553.78	12194.11
554.143	12199.31
554.507	12149.14
554.87	12184.85
555.234	12236.37
555.597	12034.12
555.96	12085.19
556.323	12055.59
556.686	12017.17
557.05	12157.73
557.413	12017.4
557.776	12029.15
558.139	11992.54
558.502	12015.81
558.865	11996.38
559.228	12051.75
559.59	12021.92
559.953	11998.19
560.316	12016.94
560.679	12070.28
561.041	12029.6
561.404	12211.06
561.767	12107.11
562.129	12041.8
562.492	12092.42
562.854	12096.94
563.217	12044.74
563.579	12065.3
563.941	12138.07
564.304	12104.4
564.666	12152.53
565.028	12077.51
565.39	12082.48
565.753	12105.08
566.115	12177.84
566.477	12237.96
566.839	12174.68
567.201	12227.33
567.563	12226.2
567.925	12293.77
568.287	12256.26
568.648	12214.23
569.01	12324.73
569.372	12229.82
569.734	12261.46
570.095	12374.22
570.457	12319.31
570.819	12382.58
571.18	12375.35
571.542	12394.11
571.903	12387.33
572.265	12431.62
572.626	12370.15
572.987	12397.27
573.349	12375.35
573.71	12399.98
574.071	12418.97
574.432	12495.8
574.794	12536.48
575.155	12480.21
575.516	12412.19
575.877	12407.89
576.238	12470.49
576.599	12478.85
576.96	12454.9
577.32	12463.94
577.681	12475.69
578.042	12544.39
578.403	12522.02
578.763	12528.79
579.124	12591.84
579.485	12507.78
579.845	12609.92
580.206	12563.82
580.566	12516.59
580.927	12531.05
581.287	12569.7
581.648	12522.02
582.008	12583.93
582.368	12512.3
582.728	12544.16
583.089	12448.12
583.449	12470.94
583.809	12500.1
584.169	12533.99
584.529	12471.17
584.889	12502.13
585.249	12461.23
585.609	12443.83
585.969	12460.55
586.329	12433.66
586.688	12468.01
587.048	12427.1
587.408	12384.39
587.768	12394.79
588.127	12284.28
588.487	12334.68
588.846	12435.46
589.206	12336.71
589.565	12310.5
589.925	12338.52
590.284	12364.73
590.643	12299.65
591.003	12313.89
591.362	12374.45
591.721	12313.89
592.08	12276.15
592.44	12317.5
592.799	12309.37
593.158	12286.54
593.517	12254.68
593.876	12322.25
594.235	12258.52
594.593	12297.61
594.952	12300.55
595.311	12264.4
595.67	12244.51
596.029	12349.82
596.387	12289.25
596.746	12337.16
597.104	12307.78
597.463	12280.89
597.822	12345.52
598.18	12235.47
598.538	12135.58
598.897	12308.01
599.255	12159.31
599.613	12331.51
599.972	12271.85
600.33	12334.9
600.688	12230.05
601.046	12182.14
601.404	12295.58
601.762	12249.25
602.12	12282.02
602.478	12310.5
602.836	12221.46
603.194	12183.49
603.552	12211.29
603.91	12222.81
604.268	12253.55
604.625	12107.56
604.983	12199.31
605.341	12203.15
605.698	12265.07
606.056	12298.29
606.413	12209.48
606.771	12255.81
607.128	12284.96
607.485	12250.16
607.843	12236.83
608.2	12266.43
608.557	12275.92
608.914	12317.95
609.272	12358.86
609.629	12307.11
609.986	12414.9
610.343	12296.48
610.7	12449.02
611.057	12402.24
611.414	12344.17
611.771	12403.15
612.127	12445.18
612.484	12399.31
612.841	12399.08
613.198	12411.06
613.554	12379.42
613.911	12437.05
614.267	12379.19
614.624	12467.1
614.98	12511.85
615.337	12555.91
615.693	12445.63
616.05	12545.07
616.406	12569.02
616.762	12425.52
617.118	12478.85
617.475	12511.62
617.831	12499.19
618.187	12491.28
618.543	12518.85
618.899	12626.42
619.255	12559.75
619.611	12519.98
619.967	12621.9
620.323	12578.51
620.678	12627.32
621.034	12540.32
621.39	12593.43
621.746	12542.81
622.101	12670.49
622.457	12626.42
622.812	12541.22
623.168	12639.98
623.523	12607.66
623.879	12655.12
624.234	12648.57
624.589	12670.94
624.945	12648.79
625.3	12603.37
625.655	12603.82
626.01	12631.62
626.365	12602.47
626.72	12596.82
627.075	12585.06
627.43	12579.19
627.785	12482.24
628.14	12612.18
628.495	12601.34
628.85	12615.35
629.205	12522.47
629.559	12621
629.914	12483.15
630.269	12517.95
630.623	12543.94
630.978	12477.95
631.332	12557.04
631.687	12576.25
632.041	12537.38
632.396	12537.83
632.75	12445.18
633.104	12502.13
633.459	12389.82
633.813	12490.83
634.167	12478.17
634.521	12459.42
634.875	12441.11
635.229	12379.87
635.583	12332.42
635.937	12381.45
636.291	12343.04
636.645	12324.28
636.999	12289.48
637.352	12359.08
637.706	12239.31
638.06	12271.63
638.413	12215.36
638.767	12248.35
639.121	12304.85
639.474	12131.74
639.828	12226.2
640.181	12208.13
640.534	12220.1
640.888	12159.54
641.241	12143.49
641.594	12103.95
641.947	12120.67
642.301	12058.75
642.654	12136.04
643.007	12133.55
643.36	12108.92
643.713	12174
644.066	12117.28
644.419	12043.38
644.771	11974.46
645.124	11831.19
645.477	11826.44
645.83	11823.5
646.182	11706.22
646.535	11714.35
646.888	11750.28
647.24	11658.76
647.593	11699.44
647.945	11682.26
648.298	11627.35
648.65	11618.76
649.002	11571.08
649.355	11645.65
649.707	11641.13
650.059	11644.52
650.411	11799.32
650.763	11881.35
651.115	11928.58
651.467	11995.02
651.819	11893.78
652.171	11927.68
652.523	11912.54
652.875	11938.98
653.227	11868.02
653.578	11971.07
653.93	11868.7
654.282	11929.49
654.633	11873.9
654.985	11873.44
655.337	11894.69
655.688	11954.57
656.039	11953.67
656.391	11776.5
656.742	11867.57
657.094	11908.92
657.445	11957.74
657.796	11950.05
658.147	11977.85
658.498	11890.39
658.849	11950.5
659.2	11969.71
659.551	11939.21
659.902	12039.32
660.253	11889.94
660.604	11970.62
660.955	11991.86
661.306	11966.78
661.656	11944.18
662.007	11985.53
662.358	11998.64
662.708	11927.91
663.059	11975.14
663.409	11856.5
663.76	12013.33
664.11	11981.24
664.461	11935.59
664.811	12043.84
665.161	11955.25
665.511	11978.07
665.862	11983.05
666.212	11975.59
666.562	11999.54
666.912	11954.35
667.262	11992.31
667.612	11952.76
667.962	12002.03
668.312	11987.57
668.662	12070.05
669.011	11958.41
669.361	11957.28
669.711	11968.36
670.06	11900.79
670.41	11957.51
670.76	11958.41
671.109	11994.8
671.459	11973.78
671.808	11900.79
672.157	11934.46
672.507	11836.16
672.856	11820.79
673.205	11778.08
673.554	11855.14
673.904	11802.94
674.253	11904.86
674.602	11818.08
674.951	11663.28
675.3	11693.79
675.649	11848.36
675.998	11884.07
676.346	11838.42
676.695	11818.98
677.044	11770.4
677.393	11795.25
677.741	11775.59
678.09	11802.26
678.438	11739.66
678.787	11746.44
679.135	11738.76
679.484	11687.46
679.832	11737.18
680.181	11692.88
680.529	11687.69
680.877	11606.33
681.225	11638.42
681.573	11652.21
681.922	11692.43
682.27	11529.95
682.618	11561.59
682.966	11552.1
683.314	11576.96
683.661	11483.17
684.009	11448.6
684.357	11477.98
684.705	11491.76
685.053	11410.41
685.4	11295.38
685.748	11316.85
686.095	11299
686.443	11287.47
686.79	11225.1
687.138	11288.38
687.485	11207.47
687.832	11159.11
688.18	11185.78
688.527	11095.39
688.874	11120.24
689.221	11083.64
689.568	11132.9
689.915	11044.99
690.262	11018.1
690.609	11002.28
690.956	10919.35
691.303	10884.77
691.65	10839.8
691.997	10824.43
692.344	10735.4
692.69	10729.75
693.037	10725.45
693.383	10647.26
693.73	10694.04
694.077	10588.28
694.423	10563.65
694.769	10562.07
695.116	10532.92
695.462	10445.69
695.808	10473.71
696.155	10473.26
696.501	10311
696.847	10404.56
697.193	10286.59
697.539	10346.48
697.885	10257.22
698.231	10202.53
698.577	10183.09
698.923	10176.31
699.269	10133.15
699.614	10029.43
699.96	10011.57
700.306	9963.66
700.651	9965.25
700.997	9951.69
701.342	9863.1
701.688	9823.56
702.033	9798.47
702.379	9831.46
702.724	9776.1
703.069	9766.83
703.415	9651.81
703.76	9680.06
704.105	9656.1
704.45	9575.65
704.795	9652.49
705.14	9552.38
705.485	9575.2
705.83	9571.13
706.175	9540.17
706.52	9487.07
706.865	9447.52
707.209	9462.21
707.554	9294.3
707.899	9394.41
708.243	9348.31
708.588	9268.54
708.932	9295.21
709.277	9221.54
709.621	9259.73
709.966	9110.13
710.31	9186.06
710.654	9066.29
710.998	9106.29
711.342	9097.25
711.687	9045.04
712.031	9044.37
712.375	9017.93
712.719	8971.6
713.063	9009.34
713.407	9023.35
713.75	8904.03
714.094	8953.75
714.438	8891.15
714.782	8894.77
715.125	8898.38
715.469	8859.06
715.812	8894.09
716.156	8816.8
716.499	8760.98
716.843	8830.59
717.186	8780.42
717.53	8788.1
717.873	8844.15
718.216	8821.32
718.559	8736.13
718.902	8665.17
719.246	8743.58
719.589	8665.39
719.932	8663.36
720.275	8648.44
720.617	8650.25
720.96	8610.71
721.303	8624.04
721.646	8666.75
721.989	8621.78
722.331	8586.53
722.674	8639.41
723.016	8608.45
723.359	8570.71
723.701	8643.02
724.044	8549.69
724.386	8565.28
724.729	8592.4
725.071	8561.89
725.413	8572.74
725.755	8523.25
726.097	8508.56
726.439	8444.38
726.782	8463.82
727.124	8501.56
727.465	8507.66
727.807	8454.1
728.149	8393.99
728.491	8445.96
728.833	8459.3
729.175	8370.49
729.516	8388.56
729.858	8410.94
730.199	8385.85
730.541	8364.16
730.882	8392.86
731.224	8451.61
731.565	8342.24
731.906	8372.52
732.248	8420.88
732.589	8306.98
732.93	8387.21
733.271	8369.81
733.612	8449.35
733.953	8432.63
734.294	8379.98
734.635	8342.46
734.976	8408.68
735.317	8328.91
735.658	8372.97
735.999	8400.32
736.339	8393.99
736.68	8474.66
737.021	8412.74
737.361	8423.59
737.702	8465.17
738.042	8429.02
738.383	8442.12
738.723	8465.85
739.063	8485.74
739.404	8467.43
739.744	8526.64
740.084	8435.8
740.424	8499.3
740.764	8492.29
741.104	8500.88
741.444	8472.63
741.784	8502.01
742.124	8537.71
742.464	8626.52
742.804	8611.16
743.143	8538.62
743.483	8586.07
743.823	8628.33
744.162	8659.52
744.502	8676.01
744.841	8679.18
745.181	8724.6
745.52	8727.31
745.86	8785.62
746.199	8847.76
746.538	8834.2
746.877	8885.95
747.216	8937.7
747.556	8934.99
747.895	9006.4
748.234	9034.2
748.573	9093.86
748.911	9142.22
749.25	9172.27
749.589	9235.1
749.928	9296.56
750.267	9400.06
750.605	9540.85
750.944	9596.67
751.283	9608.65
751.621	9741.75
751.96	9753.27
752.298	9852.03
752.636	9997.79
752.975	10018.8
753.313	10080.72
753.651	10252.92
753.989	10343.77
754.327	10420.38
754.666	10492.69
755.004	10593.03
755.342	10711.22
755.679	10929.06
756.017	10939.46
756.355	11108.49
756.693	11250.86
757.031	11428.94
757.368	11462.38
757.706	11654.69
758.044	11739.44
758.381	12017.17
758.719	11961.35
759.056	12245.64
759.394	12345.07
759.731	12407.44
