Data from hue_140_FLMS001491_00032.txt Node
Date: Tue Feb 07 16:55:49 GMT 2017
User: dcchb
Spectrometer: FLMS00149
Trigger mode: 0
Integration Time (sec): 2.000000E-2
Scans to average: 10
Electric dark correction enabled: true
Nonlinearity correction enabled: false
Boxcar width: 0
XAxis mode: Wavelengths
Number of Pixels in Spectrum: 2048
>>>>>Begin Spectral Data<<<<<
341.393	-2.73
341.776	-2.73
342.16	-2.73
342.543	-55.61
342.927	-68.94
343.31	-66.23
343.693	-50.63
344.077	-46.79
344.46	-67.81
344.843	-55.61
345.226	-46.79
345.61	-47.24
345.993	-21.71
346.376	-9.28
346.759	13.32
347.142	28.69
347.525	50.83
347.908	55.35
348.291	52.87
348.674	105.07
349.057	105.97
349.44	111.85
349.823	135.35
350.206	168.12
350.588	203.37
350.971	199.53
351.354	227.1
351.737	222.35
352.119	258.28
352.502	250.15
352.884	287.44
353.267	276.81
353.65	305.29
354.032	275.23
354.414	312.07
354.797	327.43
355.179	330.15
355.562	332.63
355.944	319.75
356.326	325.18
356.709	338.06
357.091	337.83
357.473	339.64
357.855	330.82
358.238	329.24
358.62	343.03
359.002	346.19
359.384	340.09
359.766	358.39
360.148	341.45
360.53	338.73
360.912	339.19
361.294	325.63
361.676	333.76
362.057	333.31
362.439	343.25
362.821	345.97
363.203	330.15
363.584	309.58
363.966	314.55
364.348	326.08
364.729	316.59
365.111	330.6
365.493	346.87
365.874	305.29
366.256	312.97
366.637	307.55
367.019	326.3
367.4	318.4
367.781	290.83
368.163	312.07
368.544	307.77
368.925	314.78
369.306	308.23
369.688	326.53
370.069	310.26
370.45	308
370.831	301.22
371.212	310.71
371.593	306.64
371.974	315.01
372.355	318.17
372.736	317.49
373.117	318.17
373.498	317.72
373.879	319.75
374.26	322.46
374.641	313.88
375.021	314.78
375.402	336.7
375.783	338.73
376.163	357.26
376.544	310.03
376.925	315.01
377.305	326.08
377.686	349.81
378.066	333.99
378.447	357.26
378.827	319.53
379.208	336.47
379.588	340.09
379.968	325.18
380.349	341.67
380.729	340.32
381.109	341.45
381.489	357.26
381.87	322.92
382.25	359.07
382.63	331.73
383.01	350.26
383.39	345.97
383.77	340.77
384.15	345.51
384.53	350.94
384.91	360.43
385.29	355.68
385.67	353.2
386.049	359.52
386.429	359.52
386.809	363.14
387.189	359.07
387.568	370.15
387.948	361.78
388.328	388.22
388.707	365.63
389.087	377.38
389.466	393.87
389.846	387.77
390.225	360.2
390.605	375.8
390.984	365.17
391.363	380.99
391.743	369.02
392.122	383.48
392.501	388.22
392.881	387.55
393.26	391.84
393.639	382.35
394.018	402.46
394.397	399.3
394.776	388.22
395.155	367.21
395.534	407.88
395.913	390.48
396.292	406.08
396.671	395.91
397.05	402.46
397.429	404.5
397.808	422.57
398.186	420.99
398.565	418.73
398.944	399.75
399.323	403.37
399.701	418.28
400.08	420.99
400.458	407.66
400.837	416.92
401.215	411.95
401.594	418.51
401.972	408.79
402.351	407.88
402.729	423.93
403.107	406.53
403.486	434.1
403.864	419.18
404.242	426.87
404.62	414.21
404.999	425.74
405.377	411.27
405.755	425.29
406.133	436.81
406.511	433.65
406.889	470.03
407.267	442.01
407.645	450.37
408.023	482.91
408.401	492.4
408.779	441.1
409.156	458.96
409.534	474.78
409.912	462.57
410.29	486.07
410.667	500.99
411.045	452.18
411.422	481.56
411.8	493.31
412.178	466.87
412.555	495.11
412.933	485.62
413.31	509.35
413.687	510.25
414.065	495.34
414.442	508.45
414.819	529.24
415.197	509.13
415.574	486.75
415.951	543.93
416.328	517.03
416.705	537.82
417.082	525.62
417.46	525.85
417.837	529.01
418.214	540.54
418.591	520.42
418.967	537.6
419.344	537.6
419.721	547.99
420.098	559.75
420.475	557.71
420.852	567.43
421.228	568.78
421.605	566.98
421.982	575.79
422.358	569.01
422.735	577.37
423.111	580.99
423.488	583.02
423.864	599.97
424.241	583.02
424.617	608.78
424.994	591.83
425.37	611.95
425.746	601.1
426.123	598.39
426.499	611.72
426.875	622.57
427.251	638.84
427.627	628.67
428.003	649.23
428.379	665.51
428.756	634.55
429.132	646.52
429.507	658.27
429.883	695.56
430.259	664.38
430.635	658.95
431.011	710.25
431.387	671.15
431.763	700.31
432.138	696.24
432.514	707.76
432.89	702.11
433.265	719.74
433.641	704.83
434.016	714.77
434.392	736.24
434.767	752.51
435.143	760.19
435.518	761.1
435.894	778.27
436.269	776.69
436.644	775.33
437.02	760.42
437.395	783.02
437.77	816.46
438.145	801.55
438.52	821.21
438.895	813.98
439.271	814.88
439.646	847.65
440.021	826.63
440.395	826.86
440.77	845.84
441.145	834.54
441.52	844.03
441.895	856.01
442.27	866.18
442.645	849.23
443.019	859.17
443.394	896.23
443.769	910.92
444.143	884.26
444.518	892.17
444.892	922.45
445.267	890.36
445.641	924.48
446.016	916.8
446.39	901.88
446.764	937.36
447.139	915.67
447.513	968.1
447.887	932.39
448.262	952.05
448.636	977.14
449.01	946.18
449.384	989.34
449.758	978.72
450.132	1000.64
450.506	984.14
450.88	994.31
451.254	1014.42
451.628	994.76
452.002	1021.88
452.376	1013.29
452.75	1044.7
453.123	1050.35
453.497	1061.65
453.871	1063.01
454.244	1079.73
454.618	1081.54
454.992	1095.1
455.365	1071.6
455.739	1135.32
456.112	1136.91
456.486	1147.98
456.859	1159.05
457.232	1182.33
457.606	1180.07
457.979	1177.36
458.352	1217.13
458.725	1239.28
459.099	1236.11
459.472	1262.78
459.845	1243.79
460.218	1302.78
460.591	1301.65
460.964	1303
461.337	1321.31
461.71	1363.79
462.083	1378.93
462.456	1375.54
462.829	1396.79
463.201	1395.43
463.574	1413.51
463.947	1410.34
464.32	1478.82
464.692	1486.27
465.065	1507.29
465.438	1514.52
465.81	1528.31
466.183	1549.32
466.555	1610.11
466.928	1611.47
467.3	1615.54
467.672	1629.1
468.045	1659.38
468.417	1710.22
468.789	1725.36
469.161	1729.88
469.534	1765.14
469.906	1813.72
470.278	1845.59
470.65	1856.89
471.022	1911.57
471.394	1926.26
471.766	1932.36
472.138	2014.62
472.51	2067.73
472.882	2085.13
473.253	2127.39
473.625	2148.86
473.997	2232.92
474.369	2238.35
474.74	2289.19
475.112	2337.78
475.484	2384.56
475.855	2455.74
476.227	2482.41
476.598	2611.89
476.97	2638.79
477.341	2712.91
477.713	2747.48
478.084	2778.67
478.455	2918.1
478.827	2990.87
479.198	3089.62
479.569	3152.9
479.94	3223.18
480.311	3287.81
480.682	3419.33
481.053	3532.77
481.424	3606.22
481.795	3672.66
482.166	3780.45
482.537	3854.35
482.908	4040.11
483.279	4078.3
483.65	4213.21
484.021	4298.18
484.391	4420.89
484.762	4529.36
485.133	4598.06
485.503	4737.71
485.874	4924.83
486.244	5016.8
486.615	5166.18
486.985	5282.56
487.356	5490.69
487.726	5480.52
488.097	5716.67
488.467	5800.06
488.837	5968.64
489.207	6052.93
489.578	6273.72
489.948	6342.87
490.318	6507.61
490.688	6645.91
491.058	6820.82
491.428	6983.98
491.798	7073.92
492.168	7307.14
492.538	7421.94
492.908	7530.64
493.278	7791.42
493.648	7809.72
494.017	8051.98
494.387	8120.45
494.757	8272.99
495.126	8444.06
495.496	8549.37
495.866	8650.61
496.235	8796.59
496.605	8981.44
496.974	9115.45
497.344	9186.41
497.713	9283.13
498.082	9474.31
498.452	9664.14
498.821	9716.34
499.19	9880.86
499.559	9924.92
499.928	10038.37
500.298	10106.16
500.667	10301.86
501.036	10400.16
501.405	10485.13
501.774	10514.29
502.143	10692.13
502.512	10797.67
502.88	10894.84
503.249	10955.18
503.618	11134.38
503.987	11093.48
504.356	11254.61
504.724	11370.31
505.093	11386.35
505.462	11502.06
505.83	11563.98
506.199	11662.73
506.567	11861.14
506.936	11840.13
507.304	11977.98
507.672	12058.2
508.041	12162.38
508.409	12232.88
508.777	12384.97
509.145	12300.68
509.514	12383.39
509.882	12450.51
510.25	12494.8
510.618	12647.79
510.986	12604.17
511.354	12751.51
511.722	12853.66
512.09	12989.93
512.458	12918.97
512.826	12980.66
513.193	13048.46
513.561	13065.86
513.929	13176.59
514.297	13258.39
514.664	13358.28
515.032	13364.83
515.4	13453.19
515.767	13487.31
516.135	13542.91
516.502	13337.71
516.869	13673.52
517.237	13612.51
517.604	13496.81
517.972	13677.59
518.339	13728.89
518.706	13704.26
519.073	13803.24
519.44	13875.1
519.808	13929.11
520.175	13912.39
520.542	14001.88
520.909	14031.48
521.276	13986.06
521.643	14151.25
522.009	14089.11
522.376	14208.43
522.743	14257.92
523.11	14234.64
523.477	14374.52
523.843	14377.46
524.21	14526.38
524.577	14508.98
524.943	14501.07
525.31	14499.27
525.676	14562.99
526.043	14655.19
526.409	14646.83
526.776	14739.26
527.142	14632.6
527.508	14715.98
527.874	14742.65
528.241	14732.71
528.607	14775.19
528.973	14944.68
529.339	14790.78
529.705	14840.27
530.071	14904.9
530.437	14925.47
530.803	14956.65
531.169	14875.3
531.535	14839.82
531.901	14899.48
532.267	14885.47
532.632	14809.54
532.998	14828.52
533.364	14892.02
533.73	14906.71
534.095	14921.85
534.461	14853.83
534.826	14879.82
535.192	14896.09
535.557	14863.55
535.923	14887.28
536.288	14833.95
536.653	14675.98
537.019	14727.96
537.384	14748.52
537.749	14738.81
538.114	14696.32
538.479	14595.08
538.845	14630.11
539.21	14557.8
539.575	14558.7
539.94	14470.11
540.305	14566.38
540.67	14463.56
541.034	14513.73
541.399	14448.42
541.764	14410.68
542.129	14285.26
542.494	14341.3
542.858	14353.96
543.223	14306.73
543.587	14271.25
543.952	14237.35
544.316	14216.56
544.681	14134.08
545.045	14192.16
545.41	14225.83
545.774	14107.86
546.138	14079.84
546.503	13981.54
546.867	13926.4
547.231	13976.12
547.595	13973.86
547.959	13992.16
548.324	13887.76
548.688	13808.44
549.052	13815.22
549.416	13758.49
549.779	13748.55
550.143	13779.06
550.507	13702
550.871	13763.24
551.235	13726.18
551.599	13642.34
551.962	13627.88
552.326	13559.86
552.689	13617.71
553.053	13490.93
553.417	13428.33
553.78	13644.6
554.143	13344.27
554.507	13428.79
554.87	13412.97
555.234	13538.61
555.597	13390.14
555.96	13389.01
556.323	13473.98
556.686	13421.33
557.05	13456.36
557.413	13476.92
557.776	13388.56
558.139	13391.05
558.502	13405.06
558.865	13337.49
559.228	13334.1
559.59	13422.68
559.953	13326.64
560.316	13366.64
560.679	13351.05
561.041	13456.58
561.404	13423.14
561.767	13486.64
562.129	13387.2
562.492	13476.02
562.854	13467.2
563.217	13364.38
563.579	13375.91
563.941	13486.41
564.304	13468.78
564.666	13570.48
565.028	13509.01
565.39	13551.72
565.753	13548.56
566.115	13606.41
566.477	13636.01
566.839	13585.39
567.201	13595.79
567.563	13557.82
567.925	13698.38
568.287	13623.81
568.648	13641.66
569.01	13676.01
569.372	13771.15
569.734	13620.64
570.095	13695.44
570.457	13761.66
570.819	13743.13
571.18	13701.77
571.542	13803.92
571.903	13816.57
572.265	13771.15
572.626	13787.65
572.987	13739.51
573.349	13864.03
573.71	13875.78
574.071	13843.69
574.432	13923.69
574.794	13941.77
575.155	13866.74
575.516	13876.46
575.877	13922.56
576.238	13841.66
576.599	13957.13
576.96	13950.35
577.32	13987.19
577.681	13963.46
578.042	13962.78
578.403	13944.25
578.763	14010.69
579.124	14002.56
579.485	14056.57
579.845	14042.55
580.206	14029.45
580.566	14012.05
580.927	14034.87
581.287	14056.11
581.648	13958.26
582.008	13987.87
582.368	14015.66
582.728	13982.22
583.089	13967.3
583.449	13965.27
583.809	14008.21
584.169	14033.52
584.529	13900.64
584.889	14031.71
585.249	13960.97
585.609	13875.55
585.969	13963.46
586.329	13938.83
586.688	13944.48
587.048	13908.09
587.408	13905.16
587.768	13929.11
588.127	13901.99
588.487	13918.26
588.846	13937.92
589.206	13870.58
589.565	13852.05
589.925	13888.66
590.284	13837.81
590.643	13829
591.003	13806.18
591.362	13804.82
591.721	13770.02
592.08	13778.61
592.44	13824.03
592.799	13853.41
593.158	13716.69
593.517	13728.44
593.876	13773.41
594.235	13809.11
594.593	13822.9
594.952	13760.53
595.311	13683.69
595.67	13719.63
596.029	13869.9
596.387	13845.27
596.746	13813.41
597.104	13808.89
597.463	13793.97
597.822	13876.01
598.18	13784.03
598.538	13702.45
598.897	13817.93
599.255	13697.93
599.613	13760.08
599.972	13726.4
600.33	13711.72
600.688	13682.79
601.046	13734.99
601.404	13745.16
601.762	13701.55
602.12	13798.49
602.478	13784.26
602.836	13748.78
603.194	13739.74
603.552	13744.71
603.91	13761.66
604.268	13753.3
604.625	13695.44
604.983	13749.91
605.341	13684.6
605.698	13752.39
606.056	13772.51
606.413	13775.89
606.771	13704.48
607.128	13809.34
607.485	13716.69
607.843	13767.31
608.2	13854.08
608.557	13883.24
608.914	13811.37
609.272	13919.85
609.629	13925.5
609.986	13833.29
610.343	13804.37
610.7	13980.64
611.057	13935.66
611.414	13840.07
611.771	13916.91
612.127	13937.92
612.484	13921.65
612.841	13992.16
613.198	13995.32
613.554	13864.25
613.911	14054.98
614.267	14004.36
614.624	14028.32
614.98	13985.15
615.337	14013.85
615.693	13988.54
616.05	14047.3
616.406	14205.26
616.762	14022.22
617.118	14019.05
617.475	14049.79
617.831	14083.23
618.187	14091.37
618.543	14130.01
618.899	14129.78
619.255	14153.96
619.611	14050.01
619.967	14144.47
620.323	14222.89
620.678	14158.26
621.034	14091.14
621.39	14104.25
621.746	14132.72
622.101	14305.37
622.457	14163.91
622.812	14201.19
623.168	14235.32
623.523	14116
623.879	14314.64
624.234	14177.24
624.589	14140.63
624.945	14182.21
625.3	14196.9
625.655	14202.78
626.01	14143.12
626.365	14125.26
626.72	14237.13
627.075	14173.62
627.43	14176.56
627.785	14100.86
628.14	14165.49
628.495	14124.36
628.85	14154.42
629.205	14095.89
629.559	14115.77
629.914	14037.36
630.269	14057.7
630.623	14105.38
630.978	14111.03
631.332	14110.58
631.687	14092.04
632.041	14104.02
632.396	14042.1
632.75	13929.79
633.104	13998.26
633.459	13985.15
633.813	13979.73
634.167	13912.39
634.521	13906.74
634.875	13972.5
635.229	13881.2
635.583	13869.9
635.937	13846.63
636.291	13813.86
636.645	13824.71
636.999	13751.26
637.352	13791.94
637.706	13744.94
638.06	13801.2
638.413	13801.88
638.767	13730.47
639.121	13750.81
639.474	13650.7
639.828	13729.34
640.181	13694.54
640.534	13680.3
640.888	13704.26
641.241	13570.48
641.594	13606.86
641.947	13682.56
642.301	13610.93
642.654	13632.85
643.007	13574.54
643.36	13653.41
643.713	13561.66
644.066	13574.54
644.419	13466.07
644.771	13525.73
645.124	13358.73
645.477	13333.87
645.83	13162.58
646.182	13221.11
646.535	13136.14
646.888	13193.31
647.24	13089.36
647.593	13146.76
647.945	13186.53
648.298	13049.59
648.65	13008.91
649.002	12937.95
649.355	13082.13
649.707	13107.21
650.059	13205.97
650.411	13309.01
650.763	13263.59
651.115	13316.47
651.467	13370.93
651.819	13335.91
652.171	13350.6
652.523	13376.36
652.875	13298.17
653.227	13269.24
653.578	13382.68
653.93	13349.24
654.282	13370.48
654.633	13226.98
654.985	13329.8
655.337	13273.76
655.688	13241.45
656.039	13387.88
656.391	13270.82
656.742	13330.48
657.094	13264.95
657.445	13418.84
657.796	13262.69
658.147	13295.23
658.498	13264.5
658.849	13312.63
659.2	13400.09
659.551	13256.36
659.902	13381.33
660.253	13278.96
660.604	13279.18
660.955	13361.67
661.306	13356.7
661.656	13374.32
662.007	13376.58
662.358	13331.16
662.708	13404.15
663.059	13290.71
663.409	13278.96
663.76	13346.98
664.11	13340.2
664.461	13340.88
664.811	13382.91
665.161	13363.7
665.511	13400.99
665.862	13361.22
666.212	13355.11
666.562	13390.82
666.912	13386.98
667.262	13330.03
667.612	13393.31
667.962	13330.03
668.312	13349.24
668.662	13483.47
669.011	13336.81
669.361	13299.98
669.711	13335
670.06	13419.75
670.41	13317.38
670.76	13298.85
671.109	13366.41
671.459	13309.01
671.808	13344.72
672.157	13263.59
672.507	13257.49
672.856	13278.96
673.205	13333.19
673.554	13276.7
673.904	13269.92
674.253	13280.09
674.602	13255.91
674.951	13072.18
675.3	13009.36
675.649	13239.64
675.998	13159.87
676.346	13232.63
676.695	13211.62
677.044	13104.5
677.393	13175.68
677.741	13224.5
678.09	13132.3
678.438	13149.7
678.787	13083.71
679.135	13134.56
679.484	12916.71
679.832	13066.76
680.181	12966.2
680.529	13010.72
680.877	12946.31
681.225	12942.92
681.573	12961.23
681.922	12854.79
682.27	12814.79
682.618	12792.42
682.966	12788.12
683.314	12774.57
683.661	12823.83
684.009	12696.38
684.357	12835.13
684.705	12760.33
685.053	12688.24
685.4	12709.26
685.748	12609.82
686.095	12632.87
686.443	12554.23
686.79	12628.58
687.138	12624.29
687.485	12603.04
687.832	12501.8
688.18	12535.48
688.527	12431.3
688.874	12406.44
689.221	12425.87
689.568	12346.78
689.915	12378.87
690.262	12304.3
690.609	12295.71
690.956	12248.03
691.303	12059.33
691.65	12141.81
691.997	12143.17
692.344	12097.75
692.69	12010.74
693.037	11959.45
693.383	11823.18
693.73	11965.32
694.077	11854.36
694.423	11751.54
694.769	11730.07
695.116	11761.26
695.462	11724.88
695.808	11668.38
696.155	11681.71
696.501	11584.54
696.847	11581.6
697.193	11510.42
697.539	11483.75
697.885	11439.01
698.231	11365.79
698.577	11417.09
698.923	11351.33
699.269	11276.07
699.614	11250.09
699.96	11160.14
700.306	11246.02
700.651	11057.32
700.997	11063.65
701.342	11066.81
701.688	11118.34
702.033	10968.29
702.379	11027.94
702.724	10968.96
703.069	10978
703.415	10890.55
703.76	10877.67
704.105	10848.97
704.45	10875.41
704.795	10707.73
705.14	10639.03
705.485	10682.19
705.83	10629.08
706.175	10662.76
706.52	10615.07
706.865	10585.92
707.209	10448.98
707.554	10479.94
707.899	10482.87
708.243	10432.25
708.588	10436.32
708.932	10313.39
709.277	10295.53
709.621	10382.31
709.966	10253.95
710.31	10256.89
710.654	10179.61
710.998	10189.32
711.342	10228.64
711.687	10161.07
712.031	10143.45
712.375	10143.67
712.719	10095.54
713.063	10049.44
713.407	10121.98
713.75	10072.04
714.094	10018.71
714.438	9983.9
714.782	10051.02
715.125	9989.55
715.469	10013.51
715.812	9850.8
716.156	9920.63
716.499	9820.52
716.843	9858.26
717.186	9858.26
717.53	9854.19
717.873	9837.02
718.216	9877.24
718.559	9816.9
718.902	9699.62
719.246	9761.76
719.589	9677.02
719.932	9653.29
720.275	9675.44
720.617	9664.14
720.96	9640.64
721.303	9656
721.646	9708.88
721.989	9591.15
722.331	9737.58
722.674	9598.38
723.016	9584.37
723.359	9529.45
723.701	9626.85
724.044	9551.15
724.386	9498.95
724.729	9546.18
725.071	9528.77
725.413	9578.72
725.755	9529
726.097	9497.59
726.439	9497.82
726.782	9472.28
727.124	9537.36
727.465	9465.95
727.807	9480.64
728.149	9467.76
728.491	9479.74
728.833	9472.05
729.175	9461.21
729.516	9452.39
729.858	9482.67
730.199	9432.51
730.541	9413.3
730.882	9450.13
731.224	9366.29
731.565	9367.42
731.906	9373.75
732.248	9399.96
732.589	9423.47
732.93	9392.73
733.271	9370.36
733.612	9351.83
733.953	9342.34
734.294	9380.98
734.635	9372.17
734.976	9377.82
735.317	9310.48
735.658	9388.89
735.999	9370.13
736.339	9370.36
736.68	9390.47
737.021	9423.92
737.361	9339.4
737.702	9440.64
738.042	9436.57
738.383	9373.07
738.723	9464.14
739.063	9423.01
739.404	9391.15
739.744	9389.57
740.084	9407.42
740.424	9461.21
740.764	9371.94
741.104	9455.1
741.444	9444.26
741.784	9466.4
742.124	9464.37
742.464	9495.33
742.804	9511.37
743.143	9541.2
743.483	9568.77
743.823	9521.09
744.162	9566.74
744.502	9621.2
744.841	9630.47
745.181	9708.43
745.52	9611.26
745.86	9776
746.199	9795.66
746.538	9819.61
746.877	9841.31
747.216	9917.24
747.556	9960.4
747.895	10007.18
748.234	10033.85
748.573	10035.88
748.911	10115.88
749.25	10141.41
749.589	10239.26
749.928	10372.37
750.267	10360.84
750.605	10442.88
750.944	10489.65
751.283	10534.4
751.621	10681.29
751.96	10691.91
752.298	10820.72
752.636	10992.24
752.975	10997.44
753.313	11115.4
753.651	11192.69
753.989	11331.44
754.327	11440.14
754.666	11535.73
755.004	11680.58
755.342	11794.7
755.679	11924.42
756.017	12050.97
756.355	12209.38
756.693	12332.54
757.031	12549.03
757.368	12614.34
757.706	12843.94
