Data from hue_310_FLMS001491_54.txt Node
Date: Mon Feb 06 15:49:52 GMT 2017
User: dcchb
Spectrometer: FLMS00149
Trigger mode: 0
Integration Time (sec): 2.000000E-2
Scans to average: 10
Electric dark correction enabled: true
Nonlinearity correction enabled: false
Boxcar width: 0
XAxis mode: Wavelengths
Number of Pixels in Spectrum: 2048
>>>>>Begin Spectral Data<<<<<
341.393	-7.91
341.776	-7.91
342.16	-7.91
342.543	-64.18
342.927	-74.57
343.31	-81.81
343.693	-56.95
344.077	-53.78
344.46	-59.21
344.843	-63.73
345.226	-44.29
345.61	-28.93
345.993	-6.33
346.376	-9.49
346.759	4.07
347.142	22.15
347.525	52.2
347.908	49.72
348.291	61.24
348.674	85.2
349.057	129.94
349.44	121.58
349.823	140.11
350.206	165.87
350.588	186.89
350.971	212.88
351.354	239.54
351.737	226.89
352.119	274.57
352.502	259.2
352.884	252.42
353.267	275.02
353.65	290.84
354.032	285.87
354.414	284.51
354.797	312.08
355.179	316.15
355.562	314.34
355.944	351.18
356.326	347.34
356.709	329.48
357.091	343.27
357.473	332.65
357.855	339.43
358.238	329.03
358.62	328.13
359.002	351.18
359.384	343.72
359.766	328.8
360.148	340.78
360.53	337.62
360.912	320.9
361.294	337.62
361.676	310.27
362.057	324.29
362.439	332.87
362.821	329.71
363.203	322.48
363.584	318.41
363.966	346.43
364.348	318.64
364.729	311.63
365.111	320.9
365.493	332.65
365.874	317.73
366.256	312.99
366.637	306.88
367.019	319.77
367.4	308.92
367.781	304.62
368.163	325.87
368.544	303.04
368.925	296.04
369.306	312.76
369.688	303.04
370.069	302.36
370.45	301.01
370.831	307.79
371.212	331.52
371.593	337.84
371.974	319.31
372.355	299.88
372.736	315.02
373.117	338.75
373.498	310.5
373.879	310.73
374.26	305.53
374.641	326.77
375.021	312.99
375.402	332.19
375.783	332.87
376.163	330.61
376.544	336.71
376.925	337.84
377.305	340.56
377.686	351.4
378.066	310.73
378.447	312.99
378.827	331.52
379.208	315.47
379.588	335.36
379.968	327.67
380.349	332.19
380.729	338.75
381.109	351.63
381.489	345.98
381.87	346.21
382.25	338.07
382.63	334.45
383.01	332.87
383.39	342.36
383.77	330.61
384.15	353.44
384.53	323.83
384.91	355.47
385.29	341.46
385.67	359.09
386.049	367.45
386.429	360.44
386.809	358.18
387.189	325.64
387.568	359.31
387.948	346.21
388.328	372.87
388.707	367.67
389.087	345.75
389.466	374.45
389.846	372.87
390.225	371.06
390.605	376.26
390.984	385.53
391.363	373.78
391.743	371.52
392.122	377.39
392.501	355.7
392.881	378.07
393.26	379.88
393.639	382.81
394.018	370.84
394.397	378.3
394.776	387.11
395.155	401.12
395.534	390.95
395.913	377.39
396.292	395.92
396.671	406.32
397.05	399.54
397.429	410.16
397.808	394.11
398.186	396.83
398.565	388.92
398.944	422.36
399.323	415.58
399.701	400.67
400.08	409.03
400.458	404.28
400.837	415.58
401.215	420.33
401.594	410.38
401.972	421.91
402.351	427.79
402.729	429.37
403.107	417.62
403.486	438.18
403.864	421.01
404.242	433.89
404.62	431.18
404.999	436.82
405.377	425.98
405.755	448.8
406.133	428.69
406.511	459.87
406.889	484.73
407.267	481.34
407.645	480.44
408.023	467.56
408.401	464.17
408.779	462.59
409.156	476.15
409.534	510.5
409.912	502.59
410.29	507.33
410.667	516.6
411.045	525.41
411.422	512.08
411.8	512.75
412.178	545.07
412.555	564.73
412.933	556.37
413.31	546.2
413.687	588.01
414.065	579.19
414.442	567.44
414.819	604.5
415.197	591.17
415.574	627.33
415.951	622.36
416.328	599.98
416.705	621.23
417.082	635.01
417.46	651.96
417.837	660.32
418.214	654.9
418.591	683.6
418.967	691.96
419.344	698.74
419.721	691.96
420.098	684.73
420.475	718.63
420.852	699.64
421.228	722.69
421.605	728.12
421.982	753.88
422.358	765.63
422.735	773.99
423.111	790.49
423.488	798.17
423.864	776.93
424.241	810.37
424.617	817.15
424.994	818.06
425.37	822.35
425.746	831.39
426.123	827.1
426.499	824.16
426.875	849.47
427.251	869.36
427.627	891.5
428.003	895.8
428.379	900.99
428.756	907.77
429.132	920.43
429.507	945.29
429.883	941.22
430.259	975.57
430.635	975.57
431.011	974.89
431.387	978.73
431.763	1002.23
432.138	993.42
432.514	987.77
432.89	1020.31
433.265	1019.86
433.641	1052.18
434.016	1054.44
434.392	1068.67
434.767	1086.75
435.143	1096.69
435.518	1117.26
435.894	1125.62
436.269	1140.76
436.644	1160.42
437.02	1162.23
437.395	1190.93
437.77	1192.51
438.145	1207.43
438.52	1193.87
438.895	1204.26
439.271	1205.84
439.646	1244.94
440.021	1238.16
440.395	1263.47
440.77	1245.39
441.145	1249.91
441.52	1291.27
441.895	1271.83
442.27	1271.38
442.645	1300.98
443.019	1298.95
443.394	1312.96
443.769	1314.32
444.143	1319.97
444.518	1322.45
444.892	1314.32
445.267	1343.47
445.641	1326.74
446.016	1347.08
446.39	1352.05
446.764	1352.73
447.139	1357.48
447.513	1403.8
447.887	1396.35
448.262	1375.56
448.636	1396.57
449.01	1391.83
449.384	1396.8
449.758	1393.86
450.132	1428.66
450.506	1446.74
450.88	1424.14
451.254	1422.56
451.628	1435.22
452.002	1433.18
452.376	1424.14
452.75	1450.58
453.123	1490.81
453.497	1493.07
453.871	1479.28
454.244	1499.62
454.618	1536.46
454.992	1521.77
455.365	1526.97
455.739	1564.25
456.112	1606.74
456.486	1561.31
456.859	1580.75
457.232	1622.33
457.606	1600.18
457.979	1621.43
458.352	1621.2
458.725	1637.92
459.099	1634.99
459.472	1678.6
459.845	1693.06
460.218	1693.74
460.591	1713.85
460.964	1735.32
461.337	1734.64
461.71	1772.16
462.083	1794.76
462.456	1807.86
462.829	1766.51
463.201	1791.82
463.574	1797.01
463.947	1828.65
464.32	1858.26
464.692	1841.53
465.065	1892.38
465.438	1905.03
465.81	1904.81
466.183	1912.49
466.555	1957.91
466.928	1933.51
467.3	1962.21
467.672	1973.51
468.045	2007.4
468.417	2000.17
468.789	2023.68
469.161	2046.05
469.534	2051.02
469.906	2089.21
470.278	2105.71
470.65	2107.74
471.022	2154.97
471.394	2181.19
471.766	2182.77
472.138	2189.32
472.51	2210.34
472.882	2242.65
473.253	2265.03
473.625	2287.85
473.997	2326.49
474.369	2332.14
474.74	2329.66
475.112	2386.83
475.484	2401.52
475.855	2425.7
476.227	2447.39
476.598	2475.19
476.97	2514.51
477.341	2555.41
477.713	2588.41
478.084	2593.15
478.455	2646.03
478.827	2662.53
479.198	2685.58
479.569	2718.35
479.94	2734.62
480.311	2777.1
480.682	2812.58
481.053	2855.52
481.424	2891.22
481.795	2892.13
482.166	2951.79
482.537	2971.67
482.908	3001.05
483.279	3023.65
483.65	3042.63
484.021	3128.51
484.391	3125.57
484.762	3184.78
485.133	3197.2
485.503	3195.62
485.874	3264.55
486.244	3290.99
486.615	3322.4
486.985	3333.02
487.356	3398.33
487.726	3448.27
488.097	3441.27
488.467	3476.07
488.837	3536.63
489.207	3558.78
489.578	3595.84
489.948	3593.35
490.318	3642.62
490.688	3661.15
491.058	3659.34
491.428	3730.75
491.798	3750.18
492.168	3813.46
492.538	3857.53
492.908	3864.76
493.278	3909.73
493.648	3931.87
494.017	3960.57
494.387	3937.98
494.757	3969.16
495.126	4036.96
495.496	4043.74
495.866	4064.98
496.235	4102.49
496.605	4038.99
496.974	4121.47
497.344	4130.74
497.713	4160.57
498.082	4167.57
498.452	4245.31
498.821	4224.97
499.19	4196.27
499.559	4228.82
499.928	4295.25
500.298	4260.9
500.667	4342.48
501.036	4352.43
501.405	4357.17
501.774	4344.74
502.143	4414.12
502.512	4394.01
502.88	4459.54
503.249	4435.82
503.618	4420.9
503.987	4472.42
504.356	4514.91
504.724	4494.35
505.093	4521.24
505.462	4528.24
505.83	4528.02
506.199	4565.53
506.567	4648.01
506.936	4603.27
507.304	4687.79
507.672	4616.38
508.041	4682.81
508.409	4663.15
508.777	4709.48
509.145	4784.51
509.514	4739.99
509.882	4781.57
510.25	4775.47
510.618	4789.93
510.986	4816.82
511.354	4804.62
511.722	4892.07
512.09	4861.79
512.458	4834.45
512.826	4859.99
513.193	4893.66
513.561	4937.72
513.929	4920.1
514.297	4958.74
514.664	5009.81
515.032	4968.46
515.4	4998.74
515.767	5023.37
516.135	5042.81
516.502	5014.11
516.869	5070.38
517.237	5088
517.604	5023.82
517.972	5132.97
518.339	5133.65
518.706	5120.77
519.073	5124.61
519.44	5120.32
519.808	5168
520.175	5126.64
520.542	5264.27
520.909	5261.1
521.276	5219.75
521.643	5277.6
522.009	5282.35
522.376	5282.35
522.743	5332.74
523.11	5398.95
523.477	5358.05
523.843	5394.89
524.21	5440.76
524.577	5437.82
524.943	5532.74
525.31	5490.25
525.676	5583.58
526.043	5594.43
526.409	5596.91
526.776	5650.47
527.142	5673.52
527.508	5688.89
527.874	5782.9
528.241	5753.52
528.607	5775.67
528.973	5840.07
529.339	5792.16
529.705	5838.04
530.071	5834.2
530.437	5896.79
530.803	5925.49
531.169	5972.5
531.535	6001.65
531.901	5970.46
532.267	6007.07
532.632	6044.59
532.998	6009.11
533.364	6064.02
533.73	6113.74
534.095	6170.69
534.461	6141.53
534.826	6218.82
535.192	6210.68
535.557	6287.74
535.923	6313.28
536.288	6308.31
536.653	6345.37
537.019	6326.16
537.384	6344.69
537.749	6380.62
538.114	6438.02
538.479	6451.36
538.845	6441.41
539.21	6448.42
539.575	6503.56
539.94	6530.45
540.305	6549.88
540.67	6584.46
541.034	6604.12
541.399	6618.36
541.764	6627.4
542.129	6715.76
542.494	6708.52
542.858	6754.62
543.223	6728.41
543.587	6759.14
543.952	6806.37
544.316	6816.32
544.681	6858.12
545.045	6878.01
545.41	6982.42
545.774	7001.17
546.138	6963.88
546.503	7022.87
546.867	7017.22
547.231	7054.05
547.595	7056.09
547.959	7129.53
548.324	7145.12
548.688	7127.27
549.052	7215.86
549.416	7155.97
549.779	7205.01
550.143	7280.49
550.507	7298.34
550.871	7289.3
551.235	7300.37
551.599	7335.63
551.962	7327.26
552.326	7354.83
552.689	7435.96
553.053	7402.74
553.417	7412.69
553.78	7550.99
554.143	7537.2
554.507	7518.45
554.87	7547.37
555.234	7601.16
555.597	7562.74
555.96	7632.34
556.323	7658.56
556.686	7669.4
557.05	7609.97
557.413	7731.1
557.776	7766.8
558.139	7797.08
558.502	7785.78
558.865	7786.46
559.228	7798.44
559.59	7847.03
559.953	7838.66
560.316	7946.46
560.679	7909.17
561.041	8023.97
561.404	7999.11
561.767	8027.81
562.129	8026.46
562.492	8009.51
562.854	8079.11
563.217	8021.48
563.579	8080.01
563.941	8138.77
564.304	8195.72
564.666	8215.15
565.028	8255.6
565.39	8336.96
565.753	8268.71
566.115	8304.19
566.477	8324.07
566.839	8348.26
567.201	8434.35
567.563	8432.77
567.925	8534.46
568.287	8493.79
568.648	8501.92
569.01	8593.45
569.372	8633.45
569.734	8653.78
570.095	8617.17
570.457	8753.44
570.819	8741.01
571.18	8740.34
571.542	8815.36
571.903	8888.58
572.265	8847.23
572.626	8879.09
572.987	8941.69
573.349	9041.12
573.71	9061.46
574.071	9110.27
574.432	9179.42
574.794	9277.72
575.155	9295.35
575.516	9260.32
575.877	9396.59
576.238	9500.77
576.599	9571.5
576.96	9646.3
577.32	9720.2
577.681	9774.43
578.042	9874.09
578.403	9976.69
578.763	10066.4
579.124	10135.33
579.485	10250.35
579.845	10466.17
580.206	10477.46
580.566	10670.23
580.927	10747.29
581.287	10932.37
581.648	10995.42
582.008	11146.15
582.368	11291.68
582.728	11490.32
583.089	11652.57
583.449	11735.96
583.809	11972.34
584.169	12169.62
584.529	12340.92
584.889	12648.71
585.249	12749.5
585.609	12947.23
585.969	13270.84
586.329	13413.43
586.688	13583.15
587.048	13856.58
587.408	14041.66
587.768	14264.03
588.127	14571.59
588.487	14854.98
588.846	15093.61
589.206	15389.43
589.565	15593.26
589.925	15996.42
590.284	16125.45
590.643	16446.8
591.003	16807.69
591.362	17142.83
591.721	17352.76
592.08	17597.96
592.44	17999.98
592.799	18322.23
593.158	18507.76
593.517	18975.32
593.876	19198.14
594.235	19377.34
594.593	19762.87
594.952	20078.79
595.311	20303.87
595.67	20694.15
596.029	21037.86
596.387	21364.41
596.746	21816.38
597.104	22012.53
597.463	22320.77
597.822	22746.97
598.18	22836.91
598.538	23342.66
598.897	23597.35
599.255	23724.8
599.613	24309.87
599.972	24481.62
600.33	24896.07
600.688	24948.72
601.046	25488.37
601.404	25837.74
601.762	25915.93
602.12	26371.96
602.478	26725.17
602.836	26951.16
603.194	27096.91
603.552	27358.83
603.91	27502.33
604.268	27913.39
604.625	28103.44
604.983	28521.74
605.341	28640.83
605.698	29000.14
606.056	29308.38
606.413	29458.89
606.771	29984.75
607.128	30092.77
607.485	30262.03
607.843	30534.79
608.2	30874.22
608.557	31163.93
608.914	31259.74
609.272	31793.06
609.629	32021.53
609.986	32295.42
610.343	32212.03
610.7	32659.93
611.057	32859.02
611.414	33067.83
611.771	33233.48
612.127	33454.49
612.484	33780.35
612.841	33955.72
613.198	34037.98
613.554	34171.98
613.911	34481.35
614.267	34656.04
614.624	34842.02
614.98	34948.23
615.337	35265.29
615.693	35345.29
616.05	35557.71
616.406	35851.71
616.762	35734.43
617.118	35958.6
617.475	35958.83
617.831	36344.36
618.187	36444.47
618.543	36602.88
618.899	36985.47
619.255	37219.36
619.611	37059.14
619.967	37395.63
620.323	37492.8
620.678	37568.5
621.034	37425.23
621.39	37675.39
621.746	37634.04
622.101	38287.81
622.457	37973.24
622.812	38188.15
623.168	38351.31
623.523	38463.17
623.879	38620.91
624.234	38450.97
624.589	38651.41
624.945	38797.85
625.3	38872.88
625.655	38837.85
626.01	39124.62
626.365	39230.83
626.72	39131.63
627.075	39257.27
627.43	39161
627.785	39201.68
628.14	39313.54
628.495	39603.7
628.85	39556.02
629.205	39499.75
629.559	39814.77
629.914	39579.52
630.269	39699.97
630.623	39769.58
630.978	39612.97
631.332	39845.05
631.687	40013.41
632.041	39896.8
632.396	40112.84
632.75	40000.76
633.104	40092.96
633.459	39958.27
633.813	39934.54
634.167	39918.27
634.521	40011.38
634.875	40125.5
635.229	40094.31
635.583	39869.01
635.937	40036.91
636.291	39947.88
636.645	39953.53
636.999	39929.12
637.352	40135.67
637.706	39900.19
638.06	40100.41
638.413	39955.79
638.767	39977.93
639.121	40084.6
639.474	39874.21
639.828	39871.27
640.181	39851.16
640.534	39963.02
640.888	39879.86
641.241	39810.25
641.594	39838.95
641.947	39880.99
642.301	39769.8
642.654	39869.69
643.007	39835.79
643.36	39713.98
643.713	39716.7
644.066	40047.08
644.419	39652.52
644.771	39344.5
645.124	39035.81
645.477	39100.21
645.83	38856.15
646.182	38879.2
646.535	38699.32
646.888	38758.98
647.24	38531.42
647.593	38713.78
647.945	38750.17
648.298	38588.36
648.65	38514.92
649.002	38393.11
649.355	38538.2
649.707	38512.43
650.059	38698.64
650.411	39110.61
650.763	39238.06
651.115	39592.63
651.467	39487.32
651.819	39462.01
652.171	39390.38
652.523	39244.17
652.875	39341.34
653.227	39237.16
653.578	39439.41
653.93	39352.19
654.282	39248.91
654.633	39074
654.985	39358.51
655.337	39235.35
655.688	39353.09
656.039	39403.03
656.391	39072.64
656.742	39280.55
657.094	39202.81
657.445	39296.59
657.796	39077.62
658.147	39006.43
658.498	39074.23
658.849	39061.35
659.2	39134.79
659.551	39109.93
659.902	39230.61
660.253	39070.39
660.604	39199.2
660.955	38921.24
661.306	39051.4
661.656	39051.85
662.007	39018.86
662.358	39024.06
662.708	39005.75
663.059	39027.9
663.409	38756.95
663.76	39070.16
664.11	39036.94
664.461	39018.18
664.811	38925.76
665.161	38911.97
665.511	38861.13
665.862	39030.39
666.212	39003.95
666.562	39103.38
666.912	39076.26
667.262	38974.12
667.612	38872.2
667.962	38898.86
668.312	38856.83
668.662	39070.16
669.011	38946.55
669.361	38934.8
669.711	38785.65
670.06	38757.85
670.41	38776.61
670.76	38801.01
671.109	38993.1
671.459	38844.18
671.808	38760.34
672.157	38871.52
672.507	38580.68
672.856	38596.95
673.205	38618.65
673.554	38777.74
673.904	38533.68
674.253	38932.08
674.602	38620.91
674.951	38209.84
675.3	38271.99
675.649	38609.61
675.998	38396.73
676.346	38471.08
676.695	38671.53
677.044	38371.42
677.393	38559.44
677.741	38568.93
678.09	38545.2
678.438	38329.16
678.787	38463.62
679.135	38476.73
679.484	38208.49
679.832	38457.97
680.181	38105.44
680.529	38191.09
680.877	38086.68
681.225	38218.88
681.573	38269.05
681.922	38058.21
682.27	37930.08
682.618	38078.09
682.966	37937.08
683.314	37973.01
683.661	37860.25
684.009	37690.76
684.357	37590.65
684.705	37470.43
685.053	37605.34
685.4	37475.85
685.748	37488.28
686.095	37320.6
686.443	37327.61
686.79	37332.8
687.138	37301.84
687.485	37246.48
687.832	37084.67
688.18	37208.06
688.527	36848.75
688.874	37075.86
689.221	36939.59
689.568	36776.66
689.915	36678.58
690.262	36709.54
690.609	36592.26
690.956	36435.43
691.303	36477.01
691.65	36318.82
691.997	36338.25
692.344	36124.7
692.69	36076.11
693.037	36043.57
693.383	35813.75
693.73	35904.37
694.077	35763.81
694.423	35763.81
694.769	35631.61
695.116	35590.48
695.462	35469.58
695.808	35336.47
696.155	35421.22
696.501	35197.72
696.847	35199.3
697.193	34973.09
697.539	35098.06
697.885	34839.54
698.231	34821.01
698.577	34692.65
698.923	34757.96
699.269	34557.06
699.614	34421.02
699.96	34249.04
700.306	34425.54
700.651	34193.23
700.997	34035.94
701.342	34055.38
701.688	34027.35
702.033	33907.81
702.379	33766.8
702.724	33718.89
703.069	33859.22
703.415	33468.72
703.76	33396.18
704.105	33570.19
704.45	33467.14
704.795	33265.11
705.14	33082.52
705.485	33167.26
705.83	32952.81
706.175	33096.3
706.52	32880.94
706.865	32828.29
707.209	32829.65
707.554	32548.97
707.899	32755.52
708.243	32665.13
708.588	32579.93
708.932	32337.91
709.277	32233.5
709.621	32409.54
709.966	32049.78
710.31	32288.42
710.654	32014.98
710.998	31934.98
711.342	31857.92
711.687	31842.78
712.031	31723.91
712.375	31621.99
712.719	31627.87
713.063	31610.92
713.407	31709.67
713.75	31503.35
714.094	31478.49
714.438	31295.9
714.782	31430.36
715.125	31275.11
715.469	31242.34
715.812	31166.41
716.156	31058.62
716.499	30976.13
716.843	31144.72
717.186	30740.21
717.53	30863.82
717.873	30921.67
718.216	30871.73
718.559	30736.59
718.902	30484.17
719.246	30607.33
719.589	30513.32
719.932	30315.36
720.275	30293.44
720.617	30398.07
720.96	30241.69
721.303	30265.42
721.646	30294.12
721.989	30085.54
722.331	30117.63
722.674	30171.18
723.016	30119.89
723.359	29962.38
723.701	30048.25
724.044	29788.37
724.386	29660.46
724.729	29856.84
725.071	29719.9
725.413	29720.35
725.755	29645.1
726.097	29552.22
726.439	29405.55
726.782	29435.84
727.124	29461.6
727.465	29343.41
727.807	29338.89
728.149	29331.88
728.491	29239.68
728.833	29274.94
729.175	29053.47
729.516	28996.3
729.858	29029.52
730.199	29025.9
730.541	29104.55
730.882	28962.4
731.224	28954.04
731.565	28879.24
731.906	28851.44
732.248	28766.25
732.589	28732.8
732.93	28479.25
733.271	28551.57
733.612	28598.8
733.953	28610.77
734.294	28439.25
734.635	28468.4
734.976	28431.34
735.317	28313.83
735.658	28309.54
735.999	28323.78
736.339	28212.14
736.68	28352.47
737.021	28253.27
737.361	28078.13
737.702	28173.5
738.042	28130.33
738.383	28113.61
738.723	28108.87
739.063	27979.83
739.404	28069.32
739.744	27925.59
740.084	27853.5
740.424	27927.85
740.764	27835.88
741.104	27858.25
741.444	27742.32
741.784	27690.57
742.124	27596.56
742.464	27627.07
742.804	27552.72
743.143	27358.83
743.483	27519.95
743.823	27312.5
744.162	27446.74
744.502	27371.26
744.841	27154.99
745.181	27331.48
745.52	27180.98
745.86	27228.21
746.199	27001.1
746.538	27031.38
746.877	27098.27
747.216	27103.47
747.556	27006.75
747.895	26987.09
748.234	26840.88
748.573	26900.99
748.911	26815.11
749.25	26886.52
749.589	26571.28
749.928	26700.99
750.267	26773.76
750.605	26527.44
750.944	26602.46
751.283	26439.98
751.621	26607.66
751.96	26281.12
752.298	26348.23
752.636	26410.83
752.975	26281.12
753.313	26013.55
753.651	26206.99
753.989	26159.09
754.327	26027.34
754.666	25878.19
755.004	25972.65
755.342	26019.43
755.679	25829.15
756.017	25700.34
756.355	25782.82
756.693	25648.82
757.031	25620.57
757.368	25591.19
757.706	25514.36
758.044	25467.58
758.381	25420.12
758.719	25244.08
