Data from hue_290_FLMS001491_00031.txt Node
Date: Tue Feb 07 15:52:39 GMT 2017
User: dcchb
Spectrometer: FLMS00149
Trigger mode: 0
Integration Time (sec): 2.000000E-2
Scans to average: 10
Electric dark correction enabled: true
Nonlinearity correction enabled: false
Boxcar width: 0
XAxis mode: Wavelengths
Number of Pixels in Spectrum: 2048
>>>>>Begin Spectral Data<<<<<
341.393	-1.23
341.776	-1.23
342.16	-1.23
342.543	-53.88
342.927	-86.42
343.31	-81.23
343.693	-60.66
344.077	-61.57
344.46	-57.72
344.843	-70.38
345.226	-41.45
345.61	-26.31
345.993	-7.33
346.376	9.17
346.759	12.78
347.142	33.8
347.525	32.22
347.908	49.62
348.291	84.87
348.674	86.23
349.057	97.98
349.44	128.03
349.823	154.25
350.206	171.42
350.588	190.63
350.971	197.86
351.354	231.31
351.737	247.58
352.119	235.6
352.502	256.84
352.884	274.92
353.267	288.71
353.65	286
354.032	302.27
354.414	316.73
354.797	313.79
355.179	312.66
355.562	321.93
355.944	328.25
356.326	320.8
356.709	347.69
357.091	340.68
357.473	322.83
357.855	339.33
358.238	328.93
358.62	339.33
359.002	331.64
359.384	342.94
359.766	333.9
360.148	320.12
360.53	344.75
360.912	343.39
361.294	328.48
361.676	318.99
362.057	336.16
362.439	316.73
362.821	306.56
363.203	286.45
363.584	314.24
363.966	331.64
364.348	317.86
364.729	321.02
365.111	314.7
365.493	306.33
365.874	315.37
366.256	320.8
366.637	310.63
367.019	304.98
367.4	323.73
367.781	307.46
368.163	321.02
368.544	309.95
368.925	301.59
369.306	304.75
369.688	320.8
370.069	320.12
370.45	312.44
370.831	296.16
371.212	298.65
371.593	299.33
371.974	301.36
372.355	311.76
372.736	311.76
373.117	318.31
373.498	325.77
373.879	324.86
374.26	304.98
374.641	290.97
375.021	329.38
375.402	309.72
375.783	354.24
376.163	311.08
376.544	310.4
376.925	323.51
377.305	326.45
377.686	318.31
378.066	318.31
378.447	329.16
378.827	319.67
379.208	351.98
379.588	309.05
379.968	331.42
380.349	354.69
380.729	351.3
381.109	342.49
381.489	350.17
381.87	344.52
382.25	343.62
382.63	315.37
383.01	333.23
383.39	326.45
383.77	334.36
384.15	336.84
384.53	334.81
384.91	358.31
385.29	350.4
385.67	345.88
386.049	338.42
386.429	346.56
386.809	367.58
387.189	367.58
387.568	341.14
387.948	351.08
388.328	332.77
388.707	361.7
389.087	353.79
389.466	369.16
389.846	365.77
390.225	379.33
390.605	366.45
390.984	371.19
391.363	373.45
391.743	371.19
392.122	384.75
392.501	381.59
392.881	368.7
393.26	385.65
393.639	377.52
394.018	374.13
394.397	377.97
394.776	357.41
395.155	381.13
395.534	375.48
395.913	384.3
396.292	403.96
396.671	407.35
397.05	403.96
397.429	401.47
397.808	394.92
398.186	401.92
398.565	375.48
398.944	415.94
399.323	421.81
399.701	413.68
400.08	397.18
400.458	417.74
400.837	415.48
401.215	400.79
401.594	425.43
401.972	407.35
402.351	420
402.729	417.74
403.107	429.72
403.486	447.35
403.864	429.27
404.242	446.44
404.62	449.61
404.999	433.34
405.377	449.61
405.755	443.73
406.133	437.86
406.511	461.81
406.889	469.49
407.267	462.26
407.645	466.1
408.023	479.89
408.401	486.22
408.779	500.9
409.156	503.62
409.534	473.34
409.912	514.46
410.29	506.33
410.667	504.75
411.045	505.88
411.422	528.25
411.8	541.81
412.178	529.6
412.555	531.64
412.933	514.92
413.31	566.89
413.687	562.82
414.065	571.86
414.442	554.69
414.819	581.35
415.197	601.24
415.574	602.6
415.951	598.76
416.328	617.51
416.705	640.56
417.082	654.57
417.46	636.72
417.837	645.31
418.214	655.03
418.591	667.68
418.967	670.62
419.344	658.64
419.721	698.64
420.098	687.57
420.475	703.61
420.852	723.05
421.228	720.79
421.605	714.46
421.982	725.08
422.358	768.92
422.735	758.07
423.111	753.1
423.488	782.03
423.864	769.37
424.241	793.55
424.617	815.92
424.994	811.41
425.37	794
425.746	806.21
426.123	817.96
426.499	843.04
426.875	844.62
427.251	873.32
427.627	864.29
428.003	882.14
428.379	872.65
428.756	900.22
429.132	893.66
429.507	921.01
429.883	945.64
430.259	935.92
430.635	961.68
431.011	982.47
431.387	954.68
431.763	1004.85
432.138	977.73
432.514	1002.36
432.89	1017.5
433.265	1051.85
433.641	1055.01
434.016	1064.28
434.392	1092.3
434.767	1110.83
435.143	1092.08
435.518	1120.32
435.894	1155.35
436.269	1140.44
436.644	1140.66
437.02	1156.48
437.395	1172.3
437.77	1191.51
438.145	1184.05
438.52	1242.81
438.895	1213.65
439.271	1217.04
439.646	1254.56
440.021	1243.71
440.395	1255.91
440.77	1258.63
441.145	1273.77
441.52	1299.53
441.895	1273.54
442.27	1318.28
442.645	1286.65
443.019	1327.32
443.394	1306.08
443.769	1349.7
444.143	1311.51
444.518	1363.26
444.892	1345.63
445.267	1371.16
445.641	1369.36
446.016	1396.47
446.39	1394.89
446.764	1412.52
447.139	1378.17
447.513	1416.59
447.887	1414.78
448.262	1385.63
448.636	1401.67
449.01	1413.42
449.384	1463.82
449.758	1467.43
450.132	1454.55
450.506	1468.79
450.88	1466.98
451.254	1469.02
451.628	1489.81
452.002	1496.36
452.376	1497.94
452.75	1500.88
453.123	1514.21
453.497	1570.71
453.871	1559.63
454.244	1591.72
454.618	1582.23
454.992	1610.71
455.365	1582.23
455.739	1614.55
456.112	1594.21
456.486	1640.08
456.859	1654.32
457.232	1680.53
457.606	1686.41
457.979	1699.29
458.352	1724.38
458.725	1713.08
459.099	1731.61
459.472	1755.56
459.845	1768.89
460.218	1774.09
460.591	1798.05
460.964	1792.4
461.337	1819.97
461.71	1831.94
462.083	1878.04
462.456	1823.13
462.829	1842.11
463.201	1880.3
463.574	1881.21
463.947	1922.11
464.32	1933.86
464.692	1922.79
465.065	1983.35
465.438	1971.15
465.81	2001.2
466.183	2031.94
466.555	2014.09
466.928	2061.99
467.3	2054.08
467.672	2078.72
468.045	2107.42
468.417	2102.67
468.789	2104.48
469.161	2141.09
469.534	2169.79
469.906	2193.97
470.278	2200.97
470.65	2235.1
471.022	2265.15
471.394	2271.71
471.766	2307.19
472.138	2322.33
472.51	2337.92
472.882	2385.6
473.253	2405.26
473.625	2415.2
473.997	2446.84
474.369	2469.89
474.74	2497.69
475.112	2514.64
475.484	2554.64
475.855	2573.17
476.227	2629.89
476.598	2666.05
476.97	2657.68
477.341	2712.6
477.713	2740.17
478.084	2762.09
478.455	2823.78
478.827	2842.76
479.198	2853.16
479.569	2850.9
479.94	2950.78
480.311	2953.5
480.682	3020.39
481.053	3032.14
481.424	3099.48
481.795	3103.77
482.166	3107.62
482.537	3160.72
482.908	3189.42
483.279	3270.55
483.65	3210.66
484.021	3300.83
484.391	3327.5
484.762	3352.58
485.133	3355.52
485.503	3377.67
485.874	3451.34
486.244	3455.86
486.615	3592.35
486.985	3601.39
487.356	3618.34
487.726	3616.3
488.097	3680.93
488.467	3653.36
488.837	3727.49
489.207	3813.81
489.578	3806.58
489.948	3853.81
490.318	3888.84
490.688	3846.13
491.058	3943.75
491.428	3953.24
491.798	3989.85
492.168	4081.6
492.538	4075.5
492.908	4114.82
493.278	4150.07
493.648	4164.09
494.017	4189.62
494.387	4205.67
494.757	4259
495.126	4235.5
495.496	4276.85
495.866	4298.32
496.235	4330.86
496.605	4336.06
496.974	4377.87
497.344	4428.49
497.713	4385.1
498.082	4407.02
498.452	4500.35
498.821	4487.47
499.19	4493.57
499.559	4517.75
499.928	4571.76
500.298	4542.83
500.667	4603.17
501.036	4576.5
501.405	4650.17
501.774	4614.24
502.143	4641.14
502.512	4667.58
502.88	4682.49
503.249	4703.51
503.618	4728.82
503.987	4755.71
504.356	4768.36
504.724	4762.04
505.093	4814.46
505.462	4801.81
505.83	4823.73
506.199	4835.48
506.567	4872.32
506.936	4885.65
507.304	4971.07
507.672	4937.17
508.041	4938.08
508.409	4971.3
508.777	4986.66
509.145	5027.57
509.514	5018.07
509.882	5059.2
510.25	5041.8
510.618	5032.54
510.986	5063.5
511.354	5075.25
511.722	5162.25
512.09	5171.06
512.458	5096.26
512.826	5146.88
513.193	5161.57
513.561	5181.91
513.929	5188.01
514.297	5216.49
514.664	5241.12
515.032	5301.23
515.4	5264.62
515.767	5246.77
516.135	5329.25
516.502	5247.22
516.869	5325.41
517.237	5338.74
517.604	5283.83
517.972	5368.8
518.339	5367.44
518.706	5420.55
519.073	5406.76
519.44	5426.43
519.808	5430.94
520.175	5460.32
520.542	5496.25
520.909	5492.41
521.276	5472.98
521.643	5514.33
522.009	5557.04
522.376	5610.15
522.743	5590.04
523.11	5600.21
523.477	5695.57
523.843	5709.13
524.21	5662.35
524.577	5742.57
524.943	5712.07
525.31	5765.4
525.676	5777.15
526.043	5766.3
526.409	5838.39
526.776	5900.76
527.142	5882.91
527.508	5923.36
527.874	5922.23
528.241	5932.85
528.607	5987.09
528.973	6011.27
529.339	6024.38
529.705	6050.14
530.071	6069.57
530.437	6074.77
530.803	6156.58
531.169	6139.4
531.535	6111.6
531.901	6166.07
532.267	6205.84
532.632	6279.74
532.998	6219.85
533.364	6241.32
533.73	6326.06
534.095	6309.11
534.461	6362.67
534.826	6346.4
535.192	6361.09
535.557	6423.91
535.923	6401.99
536.288	6362.67
536.653	6393.63
537.019	6435.66
537.384	6478.37
537.749	6447.64
538.114	6535.55
538.479	6547.07
538.845	6562.89
539.21	6496.45
539.575	6595.43
539.94	6621.87
540.305	6591.14
540.67	6614.64
541.034	6608.77
541.399	6702.1
541.764	6640.18
542.129	6623.46
542.494	6683.57
542.858	6711.36
543.223	6724.47
543.587	6746.84
543.952	6784.13
544.316	6815.54
544.681	6794.07
545.045	6841.3
545.41	6851.47
545.774	6860.29
546.138	6908.87
546.503	6872.26
546.867	6924.24
547.231	6921.3
547.595	6964.92
547.959	6983.67
548.324	6970.11
548.688	6914.07
549.052	7004.24
549.416	7047.4
549.779	7052.82
550.143	7046.95
550.507	7054.4
550.871	7079.49
551.235	7102.99
551.599	7109.54
551.962	7102.31
552.326	7135.98
552.689	7175.76
553.053	7115.65
553.417	7142.76
553.78	7222.76
554.143	7241.29
554.507	7218.92
554.87	7258.02
555.234	7281.97
555.597	7213.95
555.96	7304.57
556.323	7333.72
556.686	7362.42
557.05	7375.53
557.413	7339.6
557.776	7370.78
558.139	7383.21
558.502	7378.24
558.865	7412.36
559.228	7517.22
559.59	7505.92
559.953	7471.34
560.316	7601.28
560.679	7526.03
561.041	7522.42
561.404	7614.84
561.767	7629.76
562.129	7615.29
562.492	7717.66
562.854	7647.84
563.217	7720.6
563.579	7729.64
563.941	7781.62
564.304	7768.28
564.666	7803.54
565.028	7835.85
565.39	7816.42
565.753	7884.89
566.115	7917.66
566.477	7897.09
566.839	7982.29
567.201	7970.31
567.563	8006.47
567.925	8038.11
568.287	8062.29
568.648	8070.2
569.01	8051.89
569.372	8147.71
569.734	8083.76
570.095	8143.87
570.457	8200.82
570.819	8197.88
571.18	8261.6
571.542	8306.12
571.903	8281.94
572.265	8355.39
572.626	8376.63
572.987	8379.57
573.349	8483.29
573.71	8423.86
574.071	8534.14
574.432	8547.47
574.794	8622.05
575.155	8606.68
575.516	8616.4
575.877	8711.08
576.238	8804.64
576.599	8758.77
576.96	8869.72
577.32	8870.85
577.681	8954.02
578.042	9017.52
578.403	9118.31
578.763	9041.02
579.124	9124.18
579.485	9245.53
579.845	9259.54
580.206	9362.37
580.566	9416.38
580.927	9419.54
581.287	9620.21
581.648	9662.47
582.008	9750.83
582.368	9783.82
582.728	9879.42
583.089	9970.71
583.449	10052.52
583.809	10164.83
584.169	10284.15
584.529	10346.97
584.889	10549.91
585.249	10507.2
585.609	10643.46
585.969	10759.17
586.329	10858.37
586.688	10988.09
587.048	11136.56
587.408	11224.92
587.768	11356.89
588.127	11446.15
588.487	11608.41
588.846	11749.42
589.206	11798.91
589.565	11912.81
589.925	12079.81
590.284	12228.05
590.643	12359.12
591.003	12535.62
591.362	12672.56
591.721	12730.87
592.08	12950.97
592.44	13058.09
592.799	13183.06
593.158	13336.5
593.517	13451.52
593.876	13581.24
594.235	13765.64
594.593	13943.04
594.952	14009.25
595.311	14133.09
595.67	14284.05
596.029	14538.5
596.387	14632.28
596.746	14846.97
597.104	14795.9
597.463	14975.78
597.822	15167.19
598.18	15192.27
598.538	15395.2
598.897	15524.46
599.255	15542.09
599.613	15886.49
599.972	15896.21
600.33	16047.16
600.688	16089.87
601.046	16261.85
601.404	16418.45
601.762	16436.76
602.12	16703.64
602.478	16741.61
602.836	16885.11
603.194	16872.45
603.552	17077.42
603.91	17024.76
604.268	17177.75
604.625	17222.5
604.983	17394.7
605.341	17402.61
605.698	17593.56
606.056	17718.08
606.413	17780.9
606.771	17855.7
607.128	17950.84
607.485	17990.61
607.843	18078.07
608.2	18240.78
608.557	18382.02
608.914	18342.7
609.272	18493.43
609.629	18599.19
609.986	18648.9
610.343	18707.43
610.7	18878.27
611.057	18950.36
611.414	19023.81
611.771	19030.59
612.127	19151.49
612.484	19260.19
612.841	19395.55
613.198	19290.24
613.554	19407.53
613.911	19453.4
614.267	19555.77
614.624	19564.36
614.98	19625.37
615.337	19788.08
615.693	19743.79
616.05	19814.07
616.406	19970.22
616.762	19997.57
617.118	20033.5
617.475	20020.17
617.831	20173.83
618.187	20184.23
618.543	20205.92
618.899	20282.08
619.255	20313.72
619.611	20285.7
619.967	20367.5
620.323	20590.77
620.678	20501.96
621.034	20528.85
621.39	20558.68
621.746	20555.52
622.101	20775.85
622.457	20663.99
622.812	20692.69
623.168	20851.1
623.523	20822.18
623.879	20983.76
624.234	20808.62
624.589	20962.06
624.945	20976.07
625.3	20984.66
625.655	20909.86
626.01	20976.07
626.365	20957.77
626.72	21044.32
627.075	21061.49
627.43	21047.94
627.785	21031.89
628.14	21187.82
628.495	21118.89
628.85	21135.39
629.205	20984.89
629.559	21095.84
629.914	21040.7
630.269	21121.38
630.623	21079.12
630.978	20962.06
631.332	21076.64
631.687	21210.42
632.041	21068.5
632.396	21147.37
632.75	21008.84
633.104	21089.97
633.459	21014.04
633.813	20999.35
634.167	21038.9
634.521	21009.07
634.875	21029.18
635.229	21012.23
635.583	20904.21
635.937	20997.32
636.291	20974.04
636.645	20909.41
636.999	20846.13
637.352	20957.32
637.706	20827.38
638.06	20938.33
638.413	20842.97
638.767	20791.9
639.121	20914.83
639.474	20834.61
639.828	20688.62
640.181	20871.22
640.534	20898.11
640.888	20818.79
641.241	20751.22
641.594	20762.07
641.947	20863.31
642.301	20740.82
642.654	20809.52
643.007	20802.29
643.36	20788.28
643.713	20782.63
644.066	20793.03
644.419	20684.55
644.771	20547.61
645.124	20426.71
645.477	20351.46
645.83	20212.93
646.182	20202.99
646.535	20086.6
646.888	20236.88
647.24	19994.4
647.593	20213.15
647.945	20107.85
648.298	19993.95
648.65	20034.4
649.002	20021.52
649.355	20142.87
649.707	20121.41
650.059	20174.51
650.411	20424
650.763	20419.48
651.115	20562.75
651.467	20392.13
651.819	20558.91
652.171	20508.29
652.523	20503.99
652.875	20520.49
653.227	20438.46
653.578	20685.01
653.93	20652.24
654.282	20436.65
654.633	20339.48
654.985	20534.95
655.337	20524.33
655.688	20498.35
656.039	20642.75
656.391	20439.14
656.742	20482.3
657.094	20574.73
657.445	20635.29
657.796	20574.73
658.147	20446.14
658.498	20645.69
658.849	20575.41
659.2	20618.12
659.551	20491.11
659.902	20547.16
660.253	20668.74
660.604	20660.83
660.955	20558
661.306	20644.33
661.656	20657.44
662.007	20577.21
662.358	20492.47
662.708	20595.07
663.059	20602.98
663.409	20520.94
663.76	20685.46
664.11	20674.61
664.461	20652.92
664.811	20732.46
665.161	20698.34
665.511	20705.8
665.862	20695.4
666.212	20650.43
666.562	20663.76
666.912	20648.4
667.262	20694.72
667.612	20717.55
667.962	20638.68
668.312	20684.1
668.662	20702.86
669.011	20626.03
669.361	20622.18
669.711	20609.98
670.06	20624.67
670.41	20592.58
670.76	20647.27
671.109	20620.15
671.459	20631.9
671.808	20518.23
672.157	20543.32
672.507	20455.18
672.856	20342.87
673.205	20470.55
673.554	20591.68
673.904	20469.65
674.253	20568.17
674.602	20509.87
674.951	20145.59
675.3	20098.58
675.649	20461.28
675.998	20457.22
676.346	20391.68
676.695	20483.2
677.044	20361.63
677.393	20409.76
677.741	20419.93
678.09	20355.07
678.438	20290.89
678.787	20341.29
679.135	20367.95
679.484	20220.84
679.832	20310.1
680.181	20241.85
680.529	20165.92
680.877	20238.69
681.225	20174.06
681.573	20203.21
681.922	20070.11
682.27	19990.11
682.618	19989.21
682.966	19929.55
683.314	19910.34
683.661	19885.48
684.009	19880.96
684.357	19784.24
684.705	19666.28
685.053	19813.39
685.4	19758.25
685.748	19521.2
686.095	19652.04
686.443	19512.83
686.79	19516.22
687.138	19546.73
687.485	19541.31
687.832	19446.4
688.18	19474.64
688.527	19348.32
688.874	19381.76
689.221	19182.22
689.568	19144.48
689.915	19110.59
690.262	19144.26
690.609	19070.81
690.956	18895.22
691.303	18893.87
691.65	18796.24
691.997	18885.96
692.344	18765.74
692.69	18814.77
693.037	18659.3
693.383	18537.49
693.73	18653.2
694.077	18512.63
694.423	18524.39
694.769	18514.44
695.116	18389.25
695.462	18345.18
695.808	18361.9
696.155	18267.67
696.501	18140.22
696.847	18198.52
697.193	18013.66
697.539	18061.57
697.885	17875.82
698.231	17809.83
698.577	17889.15
698.923	17734.8
699.269	17664.07
699.614	17669.04
699.96	17479.22
700.306	17531.42
700.651	17486
700.997	17408.93
701.342	17340.91
701.688	17322.38
702.033	17258.88
702.379	17201.48
702.724	17197.87
703.069	17105.89
703.415	16961.26
703.76	17020.24
704.105	16949.51
704.45	16868.16
704.795	16750.87
705.14	16803.3
705.485	16682.63
705.83	16533.48
706.175	16533.7
706.52	16656.41
706.865	16578.45
707.209	16425.46
707.554	16409.41
707.899	16457.77
708.243	16392.92
708.588	16366.02
708.932	16164
709.277	16166.48
709.621	16219.81
709.966	16121.06
710.31	16033.83
710.654	15991.35
710.998	16024.79
711.342	16080.16
711.687	15971.68
712.031	15863.66
712.375	15824.34
712.719	15841.74
713.063	15750.45
713.407	15861.4
713.75	15726.49
714.094	15722.2
714.438	15613.95
714.782	15656.44
715.125	15501.41
715.469	15607.85
715.812	15443.34
716.156	15432.49
716.499	15509.78
716.843	15482.66
717.186	15462.09
717.53	15461.87
717.873	15373.06
718.216	15349.1
718.559	15328.54
718.902	15200.86
719.246	15220.29
719.589	15213.06
719.932	15072.73
720.275	15185.94
720.617	15137.58
720.96	15101.2
721.303	15131.93
721.646	15194.53
721.989	15006.96
722.331	15110.69
722.674	15066.62
723.016	15110.46
723.359	15086.96
723.701	15096.45
724.044	15018.94
724.386	14900.53
724.729	14997.92
725.071	14943.01
725.413	14913.86
725.755	14996.34
726.097	14957.02
726.439	14731.04
726.782	14810.13
727.124	14893.97
727.465	14780.08
727.807	14797.03
728.149	14833.64
728.491	14802.9
728.833	14860.98
729.175	14698.05
729.516	14676.13
729.858	14625.73
730.199	14703.47
730.541	14817.36
730.882	14714.54
731.224	14758.16
731.565	14726.75
731.906	14694.2
732.248	14654.66
732.589	14565.17
732.93	14583.47
733.271	14598.39
733.612	14564.72
733.953	14598.39
734.294	14657.37
734.635	14545.06
734.976	14559.07
735.317	14641.55
735.658	14463.25
735.999	14551.38
736.339	14524.72
736.68	14565.17
737.021	14622.34
737.361	14529.24
737.702	14636.58
738.042	14600.2
738.383	14581.21
738.723	14594.09
739.063	14577.6
739.404	14620.76
739.744	14618.5
740.084	14517.03
740.424	14585.96
740.764	14642.23
741.104	14740.98
741.444	14599.52
741.784	14601.1
742.124	14649.46
742.464	14670.48
742.804	14555.22
743.143	14685.84
743.483	14650.59
743.823	14676.58
744.162	14690.14
744.502	14660.08
744.841	14753.64
745.181	14897.36
745.52	14750.02
745.86	14882
746.199	14912.73
746.538	14923.58
746.877	15072.5
747.216	15001.77
747.556	15063.69
747.895	15089.9
748.234	15064.36
748.573	15199.05
748.911	15208.31
749.25	15268.88
749.589	15225.72
749.928	15427.52
750.267	15484.69
750.605	15554.75
750.944	15606.04
751.283	15609.89
751.621	15700.73
751.96	15794.06
752.298	15822.31
752.636	15847.62
752.975	15912.48
753.313	15998.8
753.651	16221.62
753.989	16207.16
754.327	16320.83
754.666	16425.46
755.004	16498.22
755.342	16650.31
755.679	16789.06
756.017	16795.84
756.355	17014.37
756.693	17026.8
757.031	17205.1
757.368	17156.29
757.706	17356.28
758.044	17372.78
758.381	17508.82
758.719	17653
759.056	17759.66
759.394	17834.69
759.731	17803.95
