Data from hue_40_FLMS001491_50.txt Node
Date: Mon Feb 06 15:07:58 GMT 2017
User: dcchb
Spectrometer: FLMS00149
Trigger mode: 0
Integration Time (sec): 2.000000E-2
Scans to average: 10
Electric dark correction enabled: true
Nonlinearity correction enabled: false
Boxcar width: 0
XAxis mode: Wavelengths
Number of Pixels in Spectrum: 2048
>>>>>Begin Spectral Data<<<<<
341.393	-3.42
341.776	-3.42
342.16	-3.42
342.543	-58.78
342.927	-77.31
343.31	-65.56
343.693	-70.31
344.077	-66.92
344.46	-70.99
344.843	-72.12
345.226	-31.21
345.61	-35.73
345.993	-14.94
346.376	-21.27
346.759	21.67
347.142	22.8
347.525	42.68
347.908	84.49
348.291	78.61
348.674	94.66
349.057	104.15
349.44	123.81
349.823	146.86
350.206	172.85
350.588	194.77
350.971	222.79
351.354	223.47
351.737	234.77
352.119	255.33
352.502	273.18
352.884	273.64
353.267	284.48
353.65	301.66
354.032	302.11
354.414	319.06
354.797	319.29
355.179	314.31
355.562	331.26
355.944	318.61
356.326	338.72
356.709	334.88
357.091	336.91
357.473	337.59
357.855	338.72
358.238	358.83
358.62	336.91
359.002	344.14
359.384	329.23
359.766	355.89
360.148	338.49
360.53	371.71
360.912	334.65
361.294	323.35
361.676	318.61
362.057	348.21
362.439	333.75
362.821	329.45
363.203	336.46
363.584	317.48
363.966	335.56
364.348	327.19
364.729	334.2
365.111	326.06
365.493	321.77
365.874	327.19
366.256	345.27
366.637	319.06
367.019	319.96
367.4	330.13
367.781	314.09
368.163	302.11
368.544	316.8
368.925	316.57
369.306	327.42
369.688	306.4
370.069	300.98
370.45	314.77
370.831	327.87
371.212	331.94
371.593	314.31
371.974	322
372.355	307.31
372.736	324.93
373.117	319.29
373.498	326.06
373.879	316.57
374.26	343.92
374.641	322.68
375.021	311.15
375.402	329.68
375.783	320.42
376.163	337.82
376.544	329.45
376.925	317.7
377.305	331.26
377.686	311.6
378.066	349.12
378.447	346.63
378.827	327.42
379.208	332.62
379.588	318.16
379.968	353.18
380.349	338.27
380.729	330.81
381.109	311.83
381.489	335.1
381.87	344.82
382.25	345.27
382.63	348.44
383.01	327.19
383.39	340.08
383.77	337.14
384.15	362.67
384.53	341.43
384.91	352.96
385.29	376.69
385.67	340.75
386.049	348.44
386.429	362
386.809	359.51
387.189	354.54
387.568	338.95
387.948	374.43
388.328	358.61
388.707	343.47
389.087	365.39
389.466	374.2
389.846	368.1
390.225	359.96
390.605	377.14
390.984	342.56
391.363	364.93
391.743	365.16
392.122	373.52
392.501	373.3
392.881	374.88
393.26	380.75
393.639	369.45
394.018	393.18
394.397	379.4
394.776	362.9
395.155	400.41
395.534	389.11
395.913	403.8
396.292	395.67
396.671	390.7
397.05	375.33
397.429	390.24
397.808	361.54
398.186	373.75
398.565	380.75
398.944	396.8
399.323	399.96
399.701	391.6
400.08	387.31
400.458	381.88
400.837	392.28
401.215	404.48
401.594	387.08
401.972	414.42
402.351	407.19
402.729	403.35
403.107	404.03
403.486	388.44
403.864	434.76
404.242	414.42
404.62	422.56
404.999	426.63
405.377	422.79
405.755	415.55
406.133	429.34
406.511	423.01
406.889	402.45
407.267	433.63
407.645	420.53
408.023	436.8
408.401	442.67
408.779	429.56
409.156	439.28
409.534	432.73
409.912	442.45
410.29	424.59
410.667	451.71
411.045	447.64
411.422	465.72
411.8	441.09
412.178	467.76
412.555	479.73
412.933	468.21
413.31	470.69
413.687	483.57
414.065	466.4
414.442	487.87
414.819	468.21
415.197	473.41
415.574	447.87
415.951	474.99
416.328	462.11
416.705	476.12
417.082	485.61
417.46	487.19
417.837	508.66
418.214	511.14
418.591	488.55
418.967	503.69
419.344	516.12
419.721	540.3
420.098	495.33
420.475	511.6
420.852	541.65
421.228	527.64
421.605	511.6
421.982	531.48
422.358	519.51
422.735	557.92
423.111	526.29
423.488	542.33
423.864	555.89
424.241	559.73
424.617	550.24
424.994	538.71
425.37	562.67
425.746	565.83
426.123	558.83
426.499	572.61
426.875	553.4
427.251	584.59
427.627	579.17
428.003	585.72
428.379	575.32
428.756	576.45
429.132	605.83
429.507	592.05
429.883	603.57
430.259	605.15
430.635	613.06
431.011	597.47
431.387	619.62
431.763	624.59
432.138	622.78
432.514	631.59
432.89	648.54
433.265	636.57
433.641	648.09
434.016	651.71
434.392	661.2
434.767	663.23
435.143	661.65
435.518	679.5
435.894	702.33
436.269	656.23
436.644	690.12
437.02	691.25
437.395	684.25
437.77	706.62
438.145	697.13
438.52	699.16
438.895	720.86
439.271	721.31
439.646	731.48
440.021	752.49
440.395	722.89
440.77	747.07
441.145	742.78
441.52	748.88
441.895	761.08
442.27	756.79
442.645	761.53
443.019	753.85
443.394	770.35
443.769	770.12
444.143	755.21
444.518	782.55
444.892	770.12
445.267	794.53
445.641	773.96
446.016	782.78
446.39	801.53
446.764	792.49
447.139	806.28
447.513	824.36
447.887	824.81
448.262	816.45
448.636	814.41
449.01	844.7
449.384	862.32
449.758	851.93
450.132	829.55
450.506	867.52
450.88	833.17
451.254	874.3
451.628	875.65
452.002	863.45
452.376	859.38
452.75	886.5
453.123	889.21
453.497	910
453.871	899.61
454.244	917.69
454.618	908.42
454.992	921.76
455.365	923.56
455.739	948.2
456.112	956.78
456.486	963.11
456.859	975.09
457.232	1007.18
457.606	991.13
457.979	1011.24
458.352	1028.65
458.725	1039.04
459.099	1035.42
459.472	1059.6
459.845	1059.15
460.218	1058.25
460.591	1074.97
460.964	1079.04
461.337	1103.45
461.71	1110.23
462.083	1162.65
462.456	1117
462.829	1130.79
463.201	1174.86
463.574	1190.67
463.947	1182.54
464.32	1211.24
464.692	1197.68
465.065	1226.15
465.438	1233.39
465.81	1244.46
466.183	1263.44
466.555	1294.4
466.928	1289.2
467.3	1310.67
467.672	1341.41
468.045	1382.08
468.417	1358.58
468.789	1361.52
469.161	1383.21
469.534	1430.22
469.906	1470.44
470.278	1479.48
470.65	1506.15
471.022	1540.72
471.394	1561.74
471.766	1575.75
472.138	1605.35
472.51	1618.91
472.882	1661.85
473.253	1702.98
473.625	1738.46
473.997	1796.53
474.369	1788.85
474.74	1826.14
475.112	1889.41
475.484	1891.45
475.855	1954.5
476.227	1999.92
476.598	2063.87
476.97	2035.17
477.341	2130.54
477.713	2177.09
478.084	2229.29
478.455	2264.54
478.827	2326.01
479.198	2414.37
479.569	2424.54
479.94	2531.2
480.311	2561.49
480.682	2670.64
481.053	2746.57
481.424	2782.95
481.795	2852.78
482.166	2933.91
482.537	2961.02
482.908	3061.81
483.279	3134.35
483.65	3181.58
484.021	3319.43
484.391	3359.43
484.762	3476.94
485.133	3539.77
485.503	3602.36
485.874	3732.75
486.244	3793.77
486.615	3899.53
486.985	3967.33
487.356	4131.84
487.726	4236.47
488.097	4329.58
488.467	4354.66
488.837	4474.43
489.207	4630.81
489.578	4709.23
489.948	4833.97
490.318	4934.08
490.688	5044.13
491.058	5139.72
491.428	5295.65
491.798	5337.01
492.168	5548.07
492.538	5561.18
492.908	5659.48
493.278	5810.44
493.648	5919.82
494.017	6034.84
494.387	6120.26
494.757	6223.99
495.126	6325.46
495.496	6346.7
495.866	6453.59
496.235	6577.88
496.605	6645.45
496.974	6783.07
497.344	6885.67
497.713	6957.53
498.082	7073.23
498.452	7222.15
498.821	7304.41
499.19	7382.83
499.559	7463.05
499.928	7578.76
500.298	7678.41
500.667	7773.33
501.036	7772.42
501.405	7908.01
501.774	7992.53
502.143	8129.48
502.512	8181.9
502.88	8273.43
503.249	8354.78
503.618	8417.15
503.987	8496.7
504.356	8644.72
504.724	8712.29
505.093	8771.49
505.462	8803.13
505.83	8994.54
506.199	9024.59
506.567	9161.76
506.936	9122.9
507.304	9392.04
507.672	9363.12
508.041	9414.19
508.409	9523.56
508.777	9591.58
509.145	9687.4
509.514	9747.74
509.882	9842.65
510.25	9810.56
510.618	9994.51
510.986	10034.51
511.354	10202.64
511.722	10240.15
512.09	10326.71
512.458	10347.72
512.826	10433.37
513.193	10503.42
513.561	10544.33
513.929	10702.97
514.297	10768.73
514.664	10791.55
515.032	10860.48
515.4	10960.81
515.767	11050.53
516.135	11033.81
516.502	11119.91
516.869	11322.16
517.237	11261.6
517.604	11319.22
517.972	11359.22
518.339	11503.4
518.706	11548.37
519.073	11678.76
519.44	11701.36
519.808	11784.97
520.175	11811.19
520.542	11989.49
520.909	11948.58
521.276	12020.22
521.643	12182.48
522.009	12240.55
522.376	12266.09
522.743	12475.8
523.11	12525.29
523.477	12558.06
523.843	12731.16
524.21	12753.08
524.577	12885.73
524.943	12931.38
525.31	12980.2
525.676	13092.28
526.043	13221.55
526.409	13310.13
526.776	13330.02
527.142	13473.74
527.508	13485.49
527.874	13580.63
528.241	13725.03
528.607	13757.35
528.973	13844.81
529.339	13878.02
529.705	13986.72
530.071	14097.91
530.437	14192.82
530.803	14217.23
531.169	14318.92
531.535	14257
531.901	14331.57
532.267	14389.88
532.632	14545.8
532.998	14568.85
533.364	14687.95
533.73	14699.47
534.095	14845.46
534.461	14978.79
534.826	15007.26
535.192	15057.43
535.557	15180.36
535.923	15135.84
536.288	15248.16
536.653	15347.82
537.019	15279.12
537.384	15350.53
537.749	15452.67
538.114	15466.91
538.479	15555.72
538.845	15603.86
539.21	15673.01
539.575	15720.46
539.94	15729.95
540.305	15939.21
540.67	15888.14
541.034	16003.39
541.399	16056.5
541.764	16062.6
542.129	16145.31
542.494	16240.9
542.858	16381.69
543.223	16292.65
543.587	16351.41
543.952	16429.37
544.316	16560.21
544.681	16424.4
545.045	16652.42
545.41	16619.2
545.774	16754.56
546.138	16774.22
546.503	16839.98
546.867	16800.43
547.231	17020.32
547.595	17113.19
547.959	17122.01
548.324	17104.83
548.688	17040.65
549.052	17254.89
549.416	17176.92
549.779	17330.82
550.143	17318.16
550.507	17528.78
550.871	17590.7
551.235	17590.7
551.599	17650.13
551.962	17717.47
552.326	17785.04
552.689	17848.99
553.053	17875.66
553.417	17891.93
553.78	18145.48
554.143	17982.32
554.507	18074.07
554.87	18149.1
555.234	18411.69
555.597	18250.34
555.96	18395.42
556.323	18406.04
556.686	18457.79
557.05	18604.45
557.413	18680.16
557.776	18686.26
558.139	18891
558.502	18838.8
558.865	18886.48
559.228	19044.67
559.59	19104.1
559.953	19084.22
560.316	19236.3
560.679	19349.75
561.041	19440.59
561.404	19485.11
561.767	19579.34
562.129	19565.78
562.492	19783.63
562.854	19736.18
563.217	19657.53
563.579	19930.07
563.941	20024.98
564.304	19989.05
564.666	20105.88
565.028	20228.14
565.39	20181.14
565.753	20328.02
566.115	20437.63
566.477	20505.42
566.839	20589.49
567.201	20766.21
567.563	20651.86
567.925	20785.41
568.287	20816.83
568.648	20885.75
569.01	20968.46
569.372	21170.49
569.734	21089.81
570.095	21406.64
570.457	21377.94
570.819	21371.39
571.18	21490.25
571.542	21539.52
571.903	21657.93
572.265	21669.46
572.626	21828.78
572.987	21837.14
573.349	22012.73
573.71	22070.35
574.071	22171.14
574.432	22241.65
574.794	22534.07
575.155	22481.87
575.516	22570
575.877	22675.53
576.238	22793.27
576.599	22981.51
576.96	22960.05
577.32	23046.15
577.681	23239.59
578.042	23416.76
578.403	23405.68
578.763	23605.9
579.124	23575.17
579.485	23869.63
579.845	23995.5
580.206	24054.48
580.566	24146
580.927	24240.24
581.287	24491.53
581.648	24515.49
582.008	24785.99
582.368	24957.06
582.728	25093.32
583.089	25152.3
583.449	25296.93
583.809	25464.39
584.169	25741.89
584.529	25879.97
584.889	26102.79
585.249	26108.66
585.609	26170.36
585.969	26586.84
586.329	26760.4
586.688	26944.8
587.048	27028.87
587.408	27199.26
587.768	27380.72
588.127	27582.52
588.487	27803.99
588.846	28033.13
589.206	28029.74
589.565	28429.51
589.925	28633.8
590.284	28675.6
590.643	29031.52
591.003	29093.9
591.362	29348.58
591.721	29509.48
592.08	29755.57
592.44	29988.11
592.799	30102.23
593.158	30391.94
593.517	30423.13
593.876	30664.7
594.235	30873.96
594.593	31089.32
594.952	31324.57
595.311	31111.24
595.67	31691.79
596.029	31843.43
596.387	32020.15
596.746	32220.59
597.104	32305.11
597.463	32544.88
597.822	32870.29
598.18	32835.04
598.538	32873.46
598.897	33160.91
599.255	33226.89
599.613	33697.16
599.972	33854.22
600.33	33792.76
600.688	33866.2
601.046	34120.43
601.404	34490.36
601.762	34616.01
602.12	34960.86
602.478	34891.94
602.836	35101.65
603.194	34935.32
603.552	35327.63
603.91	35281.08
604.268	35639.49
604.625	35655.76
604.983	35948.41
605.341	35852.81
605.698	36164.9
606.056	36268.4
606.413	36305.23
606.771	36625.68
607.128	36695.73
607.485	36702.74
607.843	36896.4
608.2	36889.62
608.557	37213.23
608.914	37214.13
609.272	37498.65
609.629	37581.58
609.986	37870.16
610.343	37728.25
610.7	38089.82
611.057	38151.28
611.414	38183.6
611.771	38229.7
612.127	38616.58
612.484	38538.39
612.841	38713.08
613.198	38635.11
613.554	38767.77
613.911	39082.56
614.267	39030.58
614.624	39069.23
614.98	39281.2
615.337	39494.98
615.693	39405.72
616.05	39478.48
616.406	39794.63
616.762	39577.91
617.118	39657.23
617.475	39781.3
617.831	39895.42
618.187	40092.7
618.543	40105.58
618.899	40418.57
619.255	40317.1
619.611	40322.53
619.967	40541.28
620.323	40634.16
620.678	40454.95
621.034	40565.91
621.39	40654.27
621.746	40562.07
622.101	41122.73
622.457	40683.87
622.812	40937.65
623.168	41015.84
623.523	41103.07
623.879	41167.25
624.234	41040.93
624.589	41194.14
624.945	41362.5
625.3	41282.5
625.655	41378.77
626.01	41382.39
626.365	41381.93
626.72	41312.33
627.075	41256.74
627.43	41335.61
627.785	41341.71
628.14	41423.52
628.495	41505.55
628.85	41504.42
629.205	41370.18
629.559	41761.81
629.914	41521.37
630.269	41682.94
630.623	41520.46
630.978	41515.26
631.332	41548.26
631.687	41772.66
632.041	41546.45
632.396	41659.89
632.75	41485.21
633.104	41550.52
633.459	41438.43
633.813	41418.32
634.167	41517.3
634.521	41513.68
634.875	41433.23
635.229	41395.95
635.583	41444.08
635.937	41388.49
636.291	41248.38
636.645	41388.94
636.999	41105.11
637.352	41294.48
637.706	41186.23
638.06	41245.21
638.413	41198.66
638.767	41158.21
639.121	41140.36
639.474	41214.03
639.828	41025.11
640.181	41050.87
640.534	41078.44
640.888	41121.83
641.241	40875.96
641.594	41002.96
641.947	41101.72
642.301	40884.77
642.654	40988.95
643.007	40940.36
643.36	40902.17
643.713	40956.86
644.066	41032.11
644.419	40705.57
644.771	40569.98
645.124	40189.88
645.477	40108.75
645.83	39962.54
646.182	39941.75
646.535	39571.59
646.888	39861.3
647.24	39530.46
647.593	39842.54
647.945	39744.69
648.298	39516.45
648.65	39473.51
649.002	39367.75
649.355	39502.44
649.707	39541.08
650.059	39616.56
650.411	39989.65
650.763	39995.98
651.115	40434.16
651.467	40328.18
651.819	40356.2
652.171	40171.34
652.523	40138.8
652.875	40133.61
653.227	39924.35
653.578	40220.61
653.93	40217.9
654.282	40042.76
654.633	39876.66
654.985	40033.04
655.337	40016.09
655.688	40019.94
656.039	40107.62
656.391	39721.87
656.742	39795.31
657.094	40037.56
657.445	40095.64
657.796	39937.45
658.147	39830.11
658.498	39830.34
658.849	39841.41
659.2	39854.97
659.551	39768.64
659.902	39982.65
660.253	39787.17
660.604	39796.89
660.955	39683.9
661.306	39885.25
661.656	39894.06
662.007	39930
662.358	39808.42
662.708	39640.29
663.059	39667.86
663.409	39577.46
663.76	39810.22
664.11	39801.64
664.461	39790.34
664.811	39728.87
665.161	39791.69
665.511	39626.5
665.862	39674.18
666.212	39677.35
666.562	39642.32
666.912	39620.85
667.262	39656.33
667.612	39682.09
667.962	39675.54
668.312	39540.63
668.662	39707.18
669.011	39578.82
669.361	39486.62
669.711	39473.74
670.06	39421.99
670.41	39457.47
670.76	39301.31
671.109	39477.58
671.459	39427.86
671.808	39294.08
672.157	39548.54
672.507	39168.89
672.856	39267.41
673.205	39307.41
673.554	39268.77
673.904	39219.96
674.253	39556.22
674.602	39258.83
674.951	38774.55
675.3	38639.63
675.649	39122.78
675.998	39038.72
676.346	39102.22
676.695	39189.22
677.044	38902
677.393	39015.44
677.741	39260.63
678.09	39051.6
678.438	38945.39
678.787	39017.93
679.135	39015.9
679.484	38720.99
679.832	38827.65
680.181	38782.91
680.529	38819.97
680.877	38714.89
681.225	38685.73
681.573	38863.81
681.922	38526.87
682.27	38353.09
682.618	38443.25
682.966	38504.95
683.314	38463.37
683.661	38266.99
684.009	38148.12
684.357	38060.67
684.705	38097.5
685.053	38099.53
685.4	38010.05
685.748	37864.51
686.095	37906.55
686.443	37736.61
686.79	37638.08
687.138	37852.08
687.485	37737.51
687.832	37668.13
688.18	37744.74
688.527	37478.76
688.874	37374.58
689.221	37366.45
689.568	37163.06
689.915	37180.24
690.262	37227.92
690.609	36987.47
690.956	36856.18
691.303	36799.23
691.65	36816.18
691.997	36769.4
692.344	36499.58
692.69	36610.99
693.037	36467.04
693.383	36263.88
693.73	36380.26
694.077	36141.62
694.423	36188.62
694.769	35960.16
695.116	35857.33
695.462	35696.66
695.808	35716.09
696.155	35938.01
696.501	35609.43
696.847	35571.24
697.193	35302.09
697.539	35346.61
697.885	35181.42
698.231	35048.99
698.577	35187.52
698.923	35031.82
699.269	34858.49
699.614	34852.16
699.96	34762.67
700.306	34677.25
700.651	34637.93
700.997	34474.09
701.342	34421.21
701.688	34386.19
702.033	34187.55
702.379	34271.61
702.724	34110.94
703.069	34202.01
703.415	33726.77
703.76	33759.54
704.105	33776.94
704.45	33660.56
704.795	33568.13
705.14	33370.85
705.485	33406.55
705.83	33324.07
706.175	33345.31
706.52	33154.13
706.865	33110.06
707.209	32982.38
707.554	32958.65
707.899	32943.51
708.243	32854.48
708.588	32743.52
708.932	32594.37
709.277	32650.19
709.621	32553.47
709.966	32364.54
710.31	32486.12
710.654	32195.06
710.998	32251.33
711.342	32191.22
711.687	32061.5
712.031	31978.79
712.375	31875.29
712.719	31935.86
713.063	31863.31
713.407	31939.7
713.75	31732.02
714.094	31807.5
714.438	31703.09
714.782	31767.05
715.125	31445.02
715.469	31522.31
715.812	31329.09
716.156	31208.87
716.499	31193.28
716.843	31227.4
717.186	30939.72
717.53	31149.44
717.873	31133.84
718.216	31025.82
718.559	30949.67
718.902	30761.65
719.246	30758.03
719.589	30798.94
719.932	30572.05
720.275	30494.31
720.617	30643.23
720.96	30380.64
721.303	30544.48
721.646	30392.39
721.989	30305.62
722.331	30446.63
722.674	30226.3
723.016	30281.89
723.359	30150.82
723.701	30270.36
724.044	30097.49
724.386	29868.34
724.729	30072.85
725.071	29933.42
725.413	29882.8
725.755	29849.13
726.097	29819.98
726.439	29647.1
726.782	29549.48
727.124	29747.89
727.465	29562.58
727.807	29685.52
728.149	29605.07
728.491	29444.62
728.833	29523.49
729.175	29374.79
729.516	29295.7
729.858	29282.82
730.199	29397.62
730.541	29157.17
730.882	29178.41
731.224	29309.94
731.565	29050.73
731.906	29110.84
732.248	29022.26
732.589	28911.98
732.93	28766.9
733.271	28875.37
733.612	28805.32
733.953	28866.11
734.294	28786.79
734.635	28585.43
734.976	28650.74
735.317	28648.03
735.658	28575.27
735.999	28421.15
736.339	28372.56
736.68	28438.55
737.021	28375.72
737.361	28235.16
737.702	28359.45
738.042	28299.34
738.383	28265.22
738.723	28215.5
739.063	28144.77
739.404	28127.59
739.744	28048.05
740.084	27897.77
740.424	28029.74
740.764	27933.93
741.104	28126.46
741.444	27859.58
741.784	27735.51
742.124	27762.41
742.464	27737.55
742.804	27762.63
743.143	27627.27
743.483	27616.65
743.823	27555.86
744.162	27635.4
744.502	27493.03
744.841	27373.04
745.181	27459.36
745.52	27404.67
745.86	27417.56
746.199	27399.93
746.538	27218.92
746.877	27294.62
747.216	27297.79
747.556	27134.17
747.895	27286.94
748.234	26972.37
748.573	26997
748.911	27029.32
749.25	26920.62
749.589	26747.74
749.928	26810.79
750.267	26853.28
750.605	26611.48
750.944	26696.67
751.283	26552.95
751.621	26668.88
751.96	26530.8
752.298	26495.09
752.636	26559.27
752.975	26259.62
753.313	26241.99
753.651	26367.64
753.989	26214.65
754.327	26185.72
754.666	26029.34
755.004	26064.37
755.342	26073.64
755.679	25981.44
756.017	25873.19
756.355	25993.19
756.693	25743.02
757.031	25844.26
