Data from hue_340_FLMS001491_21.txt Node
Date: Mon Feb 06 15:42:41 GMT 2017
User: dcchb
Spectrometer: FLMS00149
Trigger mode: 0
Integration Time (sec): 2.000000E-2
Scans to average: 10
Electric dark correction enabled: true
Nonlinearity correction enabled: false
Boxcar width: 0
XAxis mode: Wavelengths
Number of Pixels in Spectrum: 2048
>>>>>Begin Spectral Data<<<<<
341.393	-8.57
341.776	-8.57
342.16	-8.57
342.543	-68.68
342.927	-77.95
343.31	-61.91
343.693	-69.14
344.077	-76.14
344.46	-39.76
344.843	-42.24
345.226	-51.06
345.61	-17.16
345.993	-30.49
346.376	-21.45
346.759	19.9
347.142	19
347.525	49.05
347.908	37.08
348.291	75.72
348.674	96.28
349.057	112.33
349.44	131.31
349.823	163.4
350.206	158.2
350.588	211.08
350.971	222.38
351.354	232.32
351.737	249.27
352.119	267.58
352.502	276.17
352.884	280.68
353.267	267.35
353.65	283.17
354.032	306.9
354.414	319.55
354.797	312.1
355.179	319.1
355.562	318.42
355.944	329.05
356.326	323.17
356.709	349.16
357.091	332.89
357.473	351.87
357.855	341.7
358.238	345.09
358.62	320.68
359.002	336.95
359.384	335.15
359.766	334.47
360.148	337.41
360.53	341.25
360.912	308.71
361.294	324.75
361.676	331.53
362.057	349.16
362.439	305.54
362.821	296.28
363.203	339.44
363.584	330.85
363.966	329.72
364.348	320.68
364.729	319.55
365.111	318.65
365.493	320.68
365.874	313.9
366.256	349.61
366.637	324.53
367.019	317.75
367.4	322.04
367.781	306.45
368.163	316.16
368.544	301.02
368.925	303.96
369.306	310.06
369.688	301.93
370.069	290.85
370.45	314.36
370.831	302.61
371.212	330.4
371.593	322.49
371.974	304.19
372.355	323.17
372.736	328.37
373.117	328.59
373.498	319.33
373.879	300.12
374.26	303.06
374.641	313.45
375.021	332.43
375.402	334.69
375.783	321.36
376.163	319.55
376.544	315.71
376.925	318.42
377.305	313
377.686	325.66
378.066	317.75
378.447	317.75
378.827	336.5
379.208	331.98
379.588	316.16
379.968	335.82
380.349	322.49
380.729	327.24
381.109	338.99
381.489	329.05
381.87	327.01
382.25	315.26
382.63	331.53
383.01	318.2
383.39	325.2
383.77	333.11
384.15	329.27
384.53	322.94
384.91	344.86
385.29	335.6
385.67	334.24
386.049	343.06
386.429	356.39
386.809	331.98
387.189	341.25
387.568	349.61
387.948	372.21
388.328	360.91
388.707	343.06
389.087	350.06
389.466	353.45
389.846	350.06
390.225	364.52
390.605	338.76
390.984	369.95
391.363	364.52
391.743	375.15
392.122	374.47
392.501	351.87
392.881	374.24
393.26	376.95
393.639	372.89
394.018	380.57
394.397	378.31
394.776	371.98
395.155	351.64
395.534	373.34
395.913	383.73
396.292	381.92
396.671	368.59
397.05	390.29
397.429	381.47
397.808	374.02
398.186	362.26
398.565	385.09
398.944	363.62
399.323	373.79
399.701	368.82
400.08	377.63
400.458	371.98
400.837	378.76
401.215	391.42
401.594	386.67
401.972	392.55
402.351	398.2
402.729	410.4
403.107	397.74
403.486	395.03
403.864	385.99
404.242	387.8
404.62	407.24
404.999	417.86
405.377	425.09
405.755	428.03
406.133	423.51
406.511	420.79
406.889	414.47
407.267	420.79
407.645	411.08
408.023	439.78
408.401	443.39
408.779	445.65
409.156	445.2
409.534	439.55
409.912	437.74
410.29	445.88
410.667	462.83
411.045	461.24
411.422	451.3
411.8	461.92
412.178	472.32
412.555	495.82
412.933	474.13
413.31	494.24
413.687	463.96
414.065	507.57
414.442	505.54
414.819	496.95
415.197	507.12
415.574	513.45
415.951	495.14
416.328	511.64
416.705	517.06
417.082	518.64
417.46	528.81
417.837	552.54
418.214	534.01
418.591	552.54
418.967	561.58
419.344	552.77
419.721	558.64
420.098	527.46
420.475	561.13
420.852	547.57
421.228	568.13
421.605	564.75
421.982	571.07
422.358	582.6
422.735	589.38
423.111	581.69
423.488	587.57
423.864	607.23
424.241	595.7
424.617	601.13
424.994	607.46
425.37	607
425.746	627.34
426.123	624.4
426.499	629.15
426.875	608.13
427.251	616.5
427.627	661.47
428.003	632.54
428.379	641.13
428.756	624.86
429.132	661.01
429.507	673.89
429.883	668.47
430.259	688.36
430.635	693.78
431.011	679.09
431.387	703.5
431.763	709.15
432.138	713.44
432.514	714.12
432.89	715.02
433.265	725.19
433.641	727.23
434.016	740.79
434.392	748.7
434.767	762.03
435.143	764.06
435.518	759.09
435.894	799.77
436.269	759.32
436.644	781.24
437.02	788.69
437.395	790.05
437.77	824.17
438.145	809.26
438.52	807.9
438.895	799.09
439.271	812.87
439.646	828.69
440.021	840.22
440.395	861.46
440.77	823.72
441.145	843.83
441.52	875.47
441.895	875.02
442.27	869.6
442.645	859.2
443.019	885.41
443.394	877.96
443.769	876.38
444.143	887.45
444.518	876.15
444.892	898.07
445.267	882.93
445.641	908.46
446.016	910.72
446.39	913.66
446.764	915.92
447.139	916.83
447.513	925.64
447.887	913.89
448.262	920.67
448.636	927.22
449.01	950.05
449.384	951.4
449.758	965.86
450.132	953.89
450.506	955.02
450.88	968.58
451.254	958.18
451.628	964.28
452.002	1001.12
452.376	972.42
452.75	973.1
453.123	988.91
453.497	1006.09
453.871	1021.23
454.244	1010.61
454.618	999.31
454.992	1042.92
455.365	1048.8
455.739	1033.89
456.112	1079.08
456.486	1065.07
456.859	1046.99
457.232	1077.5
457.606	1084.73
457.979	1083.6
458.352	1080.89
458.725	1085.64
459.099	1109.14
459.472	1136.93
459.845	1121.57
460.218	1166.09
460.591	1147.78
460.964	1156.37
461.337	1168.8
461.71	1201.56
462.083	1206.54
462.456	1202.24
462.829	1228.46
463.201	1232.98
463.574	1227.33
463.947	1238.17
464.32	1260.55
464.692	1267.33
465.065	1275.46
465.438	1278.4
465.81	1313.2
466.183	1324.73
466.555	1343.93
466.928	1325.63
467.3	1357.94
467.672	1344.61
468.045	1380.99
468.417	1420.99
468.789	1377.61
469.161	1407.43
469.534	1419.19
469.906	1447.66
470.278	1436.36
470.65	1491.05
471.022	1515.23
471.394	1521.1
471.766	1525.17
472.138	1538.73
472.51	1568.79
472.882	1610.59
473.253	1624.15
473.625	1619.18
473.997	1646.75
474.369	1637.94
474.74	1670.03
475.112	1744.38
475.484	1748.44
475.855	1740.31
476.227	1746.63
476.598	1796.35
476.97	1781.21
477.341	1802.68
477.713	1859.85
478.084	1880.64
478.455	1938.04
478.827	1931.26
479.198	2004.71
479.569	1969.45
479.94	2052.16
480.311	2023.92
480.682	2104.59
481.053	2079.51
481.424	2159.05
481.795	2193.18
482.166	2223.68
482.537	2194.08
482.908	2274.98
483.279	2290.12
483.65	2315.21
484.021	2381.19
484.391	2374.64
484.762	2414.41
485.133	2475.2
485.503	2447.41
485.874	2512.26
486.244	2525.6
486.615	2566.5
486.985	2608.31
487.356	2632.04
487.726	2678.59
488.097	2702.54
488.467	2730.56
488.837	2716.33
489.207	2801.52
489.578	2824.35
489.948	2893.95
490.318	2879.49
490.688	2942.99
491.058	2978.92
491.428	2997.9
491.798	3014.17
492.168	3047.17
492.538	3081.52
492.908	3113.83
493.278	3177.33
493.648	3158.35
494.017	3192.02
494.387	3190.21
494.757	3217.78
495.126	3262.53
495.496	3257.56
495.866	3306.14
496.235	3354.73
496.605	3387.04
496.974	3351.11
497.344	3411.9
497.713	3423.43
498.082	3461.17
498.452	3467.72
498.821	3509.3
499.19	3515.4
499.559	3514.5
499.928	3545.01
500.298	3571.45
500.667	3611.67
501.036	3552.69
501.405	3635.17
501.774	3640.14
502.143	3676.3
502.512	3679.69
502.88	3677.88
503.249	3690.76
503.618	3702.06
503.987	3737.09
504.356	3734.15
504.724	3779.58
505.093	3770.99
505.462	3761.5
505.83	3864.55
506.199	3832.46
506.567	3896.18
506.936	3873.81
507.304	3872.91
507.672	3926.01
508.041	3929.85
508.409	3957.88
508.777	3952
509.145	4007.14
509.514	4017.08
509.882	4060.02
510.25	4011.89
510.618	4059.34
510.986	4065.67
511.354	4074.94
511.722	4113.13
512.09	4119.23
512.458	4131.43
512.826	4148.38
513.193	4171.66
513.561	4167.81
513.929	4132.79
514.297	4217.3
514.664	4226.8
515.032	4240.13
515.4	4215.27
515.767	4263.86
516.135	4257.53
516.502	4231.32
516.869	4319.22
517.237	4350.63
517.604	4340.69
517.972	4350.63
518.339	4410.52
518.706	4401.03
519.073	4389.73
519.44	4434.02
519.808	4417.98
520.175	4412.78
520.542	4488.94
520.909	4521.03
521.276	4533.23
521.643	4486.9
522.009	4551.08
522.376	4526.45
522.743	4590.85
523.11	4623.4
523.477	4648.25
523.843	4655.71
524.21	4699.78
524.577	4711.08
524.943	4708.82
525.31	4702.26
525.676	4753.34
526.043	4789.27
526.409	4788.81
526.776	4831.3
527.142	4837.63
527.508	4871.3
527.874	4901.81
528.241	4925.99
528.607	4962.82
528.973	4962.14
529.339	5039.2
529.705	5030.16
530.071	5062.71
530.437	5103.16
530.803	5118.07
531.169	5128.47
531.535	5070.84
531.901	5143.61
532.267	5194
532.632	5204.4
532.998	5158.52
533.364	5253.44
533.73	5248.01
534.095	5275.81
534.461	5291.4
534.826	5299.99
535.192	5387.44
535.557	5410.72
535.923	5358.97
536.288	5380.44
536.653	5429.25
537.019	5455.46
537.384	5440.55
537.749	5485.52
538.114	5482.13
538.479	5536.37
538.845	5536.82
539.21	5564.39
539.575	5572.97
539.94	5636.7
540.305	5602.58
540.67	5637.15
541.034	5617.49
541.399	5676.48
541.764	5711.73
542.129	5743.37
542.494	5716.93
542.858	5791.05
543.223	5829.92
543.587	5830.37
543.952	5833.31
544.316	5885.74
544.681	5902.68
545.045	5878.96
545.41	5958.28
545.774	5987.43
546.138	5978.16
546.503	5959.63
546.867	5979.74
547.231	6059.06
547.595	6088.89
547.959	6092.96
548.324	6123.02
548.688	6162.11
549.052	6143.36
549.416	6203.01
549.779	6191.94
550.143	6204.37
550.507	6297.02
550.871	6228.78
551.235	6254.54
551.599	6262
551.962	6301.54
552.326	6334.08
552.689	6381.77
553.053	6312.62
553.417	6386.51
553.78	6497.7
554.143	6469.22
554.507	6441.88
554.87	6461.31
555.234	6539.5
555.597	6522.33
555.96	6530.24
556.323	6562.33
556.686	6545.38
557.05	6557.36
557.413	6620.41
557.776	6680.52
558.139	6645.26
558.502	6680.52
558.865	6691.14
559.228	6723.45
559.59	6727.29
559.953	6757.35
560.316	6836.9
560.679	6838.25
561.041	6839.83
561.404	6865.37
561.767	6945.59
562.129	6902.66
562.492	6912.6
562.854	6923.9
563.217	6952.83
563.579	6925.93
563.941	7019.26
564.304	6963.67
564.666	7089.55
565.028	7102.2
565.39	7134.52
565.753	7137
566.115	7105.14
566.477	7189.43
566.839	7192.37
567.201	7250.44
567.563	7247.96
567.925	7287.73
568.287	7303.32
568.648	7281.4
569.01	7337
569.372	7409.08
569.734	7449.99
570.095	7426.71
570.457	7474.85
570.819	7462.42
571.18	7548.29
571.542	7564.34
571.903	7588.52
572.265	7715.97
572.626	7710.09
572.987	7708.96
573.349	7802.75
573.71	7813.14
574.071	7863.54
574.432	7945.79
574.794	7982.4
575.155	8003.65
575.516	8009.97
575.877	8101.5
576.238	8173.81
576.599	8216.75
576.96	8308.04
577.32	8316.18
577.681	8444.09
578.042	8545.55
578.403	8535.16
578.763	8646.79
579.124	8781.25
579.485	8755.49
579.845	8938.54
580.206	8986.9
580.566	9108.25
580.927	9182.37
581.287	9253.1
581.648	9385.98
582.008	9541.46
582.368	9635.69
582.728	9756.82
583.089	9912.97
583.449	10076.13
583.809	10142.35
584.169	10309.12
584.529	10525.61
584.889	10725.16
585.249	10787.98
585.609	10966.51
585.969	11180.06
586.329	11323.33
586.688	11553.83
587.048	11687.62
587.408	11876.54
587.768	12086.7
588.127	12181.84
588.487	12554.03
588.846	12760.13
589.206	12865.66
589.565	13206.22
589.925	13536.16
590.284	13681.24
590.643	13937.95
591.003	14193.99
591.362	14406.19
591.721	14585.39
592.08	14973.41
592.44	15175.89
592.799	15498.14
593.158	15695.65
593.517	15937.45
593.876	16263.32
594.235	16452.69
594.593	16821.94
594.952	17127.7
595.311	17231.2
595.67	17675.03
596.029	18006.55
596.387	18260.32
596.746	18558.62
597.104	18766.07
597.463	19004.26
597.822	19294.42
598.18	19526.51
598.538	19732.83
598.897	20253.27
599.255	20320.38
599.613	20788.39
599.972	20937.99
600.33	21261.83
600.688	21450.98
601.046	21871.53
601.404	22151.3
601.762	22400.33
602.12	22674.67
602.478	22884.84
602.836	23135.45
603.194	23224.04
603.552	23643.91
603.91	23734.76
604.268	24172.49
604.625	24220.39
604.983	24601.63
605.341	24654.28
605.698	25033.48
606.056	25345.56
606.413	25577.65
606.771	25826.91
607.128	26096.28
607.485	26135.15
607.843	26379.89
608.2	26809.25
608.557	27028
608.914	27129.02
609.272	27393.64
609.629	27650.59
609.986	27913.4
610.343	27993.4
610.7	28414.41
611.057	28361.98
611.414	28463.22
611.771	28732.37
612.127	29115.86
612.484	29198.12
612.841	29370.09
613.198	29405.34
613.554	29667.93
613.911	29912.45
614.267	30051.2
614.624	30289.16
614.98	30489.61
615.337	30714.46
615.693	30822.48
616.05	30828.81
616.406	31097.73
616.762	31232.41
617.118	31344.73
617.475	31362.13
617.831	31591.27
618.187	31709.46
618.543	31829.69
618.899	32206.4
619.255	32296.34
619.611	32365.04
619.967	32594.41
620.323	32682.09
620.678	32617.46
621.034	32724.8
621.39	32873.05
621.746	32814.52
622.101	33440.04
622.457	33187.62
622.812	33396.65
623.168	33553.71
623.523	33493.37
623.879	33761.61
624.234	33439.59
624.589	33907.82
624.945	33845.23
625.3	33937.2
625.655	33986.47
626.01	34074.15
626.365	34121.83
626.72	34177.19
627.075	34339.68
627.43	34322.05
627.785	34396.62
628.14	34489.28
628.495	34467.13
628.85	34473.91
629.205	34500.12
629.559	34707.8
629.914	34665.54
630.269	34741.7
630.623	34602.04
630.978	34701.7
631.332	34710.74
631.687	34862.6
632.041	34890.62
632.396	34875.93
632.75	34792.77
633.104	35070.28
633.459	34893.11
633.813	34846.78
634.167	34970.17
634.521	34910.28
634.875	34852.21
635.229	35025.53
635.583	34876.61
635.937	34847.01
636.291	34860.11
636.645	35026.89
636.999	34927.46
637.352	35011.75
637.706	34986.21
638.06	34958.42
638.413	35011.07
638.767	34935.59
639.121	34999.09
639.474	34782.6
639.828	34958.64
640.181	34897.85
640.534	34869.38
640.888	34877.06
641.241	34753.9
641.594	34825.09
641.947	34963.39
642.301	34874.13
642.654	34819.44
643.007	34778.99
643.36	34863.96
643.713	34773.56
644.066	34912.99
644.419	34671.42
644.771	34504.42
645.124	34189.17
645.477	34190.75
645.83	34003.41
646.182	33686.13
646.535	33687.26
646.888	33746.47
647.24	33736.3
647.593	33883.87
647.945	33774.04
648.298	33664.67
648.65	33621.05
649.002	33650.88
649.355	33763.65
649.707	33667.83
650.059	33827.83
650.411	34421.48
650.763	34184.43
651.115	34591.42
651.467	34525.89
651.819	34633.45
652.171	34439.33
652.523	34346.91
652.875	34489.28
653.227	34259.68
653.578	34488.82
653.93	34447.02
654.282	34211.54
654.633	34242.5
654.985	34271.66
655.337	34312.33
655.688	34323.18
656.039	34430.97
656.391	34110.98
656.742	34230.75
657.094	34289.28
657.445	34383.06
657.796	34181.94
658.147	34137.2
658.498	34199.79
658.849	34262.39
659.2	34188.04
659.551	34146.69
659.902	34222.17
660.253	34106.24
660.604	34317.3
660.955	34030.08
661.306	34258.55
661.656	34071.66
662.007	34225.78
662.358	34089.06
662.708	34173.13
663.059	33981.95
663.409	33902.63
663.76	34122.28
664.11	34156.18
664.461	34148.95
664.811	34235.27
665.161	34070.98
665.511	34080.47
665.862	34120.92
666.212	34221.26
666.562	34172.67
666.912	34035.96
667.262	34052.68
667.612	34086.8
667.962	34039.35
668.312	34021.04
668.662	34193.47
669.011	34056.97
669.361	33955.51
669.711	33976.07
670.06	33923.19
670.41	33769.75
670.76	33974.04
671.109	33986.24
671.459	33916.64
671.808	33934.72
672.157	33903.76
672.507	33866.24
672.856	33783.76
673.205	33890.42
673.554	33901.95
673.904	33866.02
674.253	33916.86
674.602	33814.27
674.951	33384.45
675.3	33109.2
675.649	33645.01
675.998	33632.58
676.346	33666.47
676.695	33781.72
677.044	33455.86
677.393	33676.87
677.741	33746.47
678.09	33690.43
678.438	33446.59
678.787	33601.62
679.135	33642.97
679.484	33376.31
679.832	33606.59
680.181	33305.58
680.529	33424.67
680.877	33421.73
681.225	33228.97
681.573	33536.76
681.922	33233.72
682.27	33131.8
682.618	33192.59
682.966	33026.94
683.314	33222.87
683.661	33057.68
684.009	32823.11
684.357	32801.64
684.705	32746.27
685.053	32957.79
685.4	32772.03
685.748	32664.01
686.095	32658.82
686.443	32473.06
686.79	32520.74
687.138	32593.73
687.485	32469.67
687.832	32469.89
688.18	32466.96
688.527	32253.18
688.874	32218.15
689.221	32245.04
689.568	32056.12
689.915	32043.01
690.262	32105.61
690.609	31880.53
690.956	31819.97
691.303	31830.82
691.65	31625.85
691.997	31740.2
692.344	31436.02
692.69	31513.76
693.037	31513.08
693.383	31267.44
693.73	31442.13
694.077	31299.3
694.423	31142.7
694.769	31056.37
695.116	30943.61
695.462	30833.33
695.808	30879.43
696.155	30966.88
696.501	30661.35
696.847	30572.32
697.193	30423.62
697.539	30492.09
697.885	30335.71
698.231	30243.96
698.577	30247.13
698.923	30271.31
699.269	29953.8
699.614	29924.88
699.96	29840.36
700.306	29916.97
700.651	29720.59
700.997	29719.46
701.342	29659.57
701.688	29510.2
702.033	29502.52
702.379	29454.38
702.724	29356.98
703.069	29454.38
703.415	29139.36
703.76	29187.72
704.105	29128.97
704.45	29094.16
704.795	28860.27
705.14	28778.24
705.485	28761.97
705.83	28736.21
706.175	28799.71
706.52	28652.59
706.865	28604.01
707.209	28424.58
707.554	28327.18
707.899	28427.52
708.243	28221.64
708.588	28335.31
708.932	28056.45
709.277	28108.88
709.621	28039.5
709.966	27918.38
710.31	27968.09
710.654	27723.8
710.998	27870.92
711.342	27923.12
711.687	27700.53
712.031	27672.05
712.375	27580.08
712.719	27557.26
713.063	27411.27
713.407	27600.87
713.75	27401.55
714.094	27383.7
714.438	27289.92
714.782	27205.17
715.125	27078.62
715.469	27124.5
715.812	27032.52
716.156	26974.22
716.499	26899.19
716.843	26954.56
717.186	26760.21
717.53	26820.78
717.873	26898.06
718.216	26732.64
718.559	26756.37
718.902	26419.43
719.246	26688.8
719.589	26480.67
719.932	26453.1
720.275	26274.58
720.617	26388.02
720.96	26401.13
721.303	26345.31
721.646	26277.74
721.989	26077.52
722.331	26230.96
722.674	26099.67
723.016	26096.5
723.359	26037.3
723.701	26135.82
724.044	25844.98
724.386	25701.71
724.729	25840.46
725.071	25882.5
725.413	25690.64
725.755	25799.56
726.097	25728.83
726.439	25597.53
726.782	25603.86
727.124	25656.29
727.465	25440.48
727.807	25539
728.149	25526.57
728.491	25458.33
728.833	25493.36
729.175	25260.37
729.516	25272.57
729.858	25272.12
730.199	25249.07
730.541	25160.93
730.882	25113.7
731.224	25219.24
731.565	25092.01
731.906	25092.91
732.248	25021.96
732.589	24999.58
732.93	24871.9
733.271	24943.31
733.612	24882.07
733.953	24924.1
734.294	24788.06
734.635	24681.63
734.976	24855.18
735.317	24582.64
735.658	24636.65
735.999	24654.06
736.339	24556.2
736.68	24601.85
737.021	24521.86
737.361	24388.3
737.702	24591.46
738.042	24421.52
738.383	24412.71
738.723	24460.39
739.063	24307.4
739.404	24414.29
739.744	24284.8
740.084	24165.03
740.424	24163.45
740.764	24122.77
741.104	24130
741.444	24053.39
741.784	24034.41
742.124	24083.22
742.464	23958.03
742.804	23992.38
743.143	23904.24
743.483	24040.51
743.823	23725.27
744.162	23777.47
744.502	23857.69
744.841	23755.1
745.181	23798.26
745.52	23734.08
745.86	23591.26
746.199	23663.57
746.538	23615.44
746.877	23722.55
747.216	23632.16
747.556	23502.67
747.895	23541.99
748.234	23454.99
748.573	23460.41
748.911	23436.91
749.25	23328.44
749.589	23309.46
749.928	23272.17
750.267	23315.56
750.605	23310.14
750.944	23157.6
751.283	23153.3
751.621	23081.67
751.96	22952.4
752.298	23010.48
752.636	22948.56
752.975	22869.24
753.313	22667.67
753.651	22949.92
753.989	22799.64
754.327	22724.16
754.666	22700.21
755.004	22669.93
755.342	22675.35
755.679	22528.24
756.017	22457.5
756.355	22473.77
756.693	22492.98
757.031	22299.09
757.368	22375.7
757.706	22328.69
758.044	22087.34
758.381	22297.96
758.719	22195.59
759.056	22031.3
759.394	21992.2
759.731	22017.51
760.068	21925.99
760.405	21889.61
760.743	21875.82
761.08	21943.84
