Data from hue_110_FLMS001491_00073.txt Node
Date: Tue Feb 07 17:01:48 GMT 2017
User: dcchb
Spectrometer: FLMS00149
Trigger mode: 0
Integration Time (sec): 2.000000E-2
Scans to average: 10
Electric dark correction enabled: true
Nonlinearity correction enabled: false
Boxcar width: 0
XAxis mode: Wavelengths
Number of Pixels in Spectrum: 2048
>>>>>Begin Spectral Data<<<<<
341.393	-3.29
341.776	-3.29
342.16	-3.29
342.543	-65.21
342.927	-57.75
343.31	-64.08
343.693	-76.06
344.077	-93.46
344.46	-62.5
344.843	-43.29
345.226	-45.32
345.61	-29.5
345.993	-16.17
346.376	12.53
346.759	0.32
347.142	29.25
347.525	38.29
347.908	67.89
348.291	84.84
348.674	86.88
349.057	110.38
349.44	133.65
349.823	127.55
350.206	138.4
350.588	196.93
350.971	225.63
351.354	230.83
351.737	226.31
352.119	245.52
352.502	257.72
352.884	271.05
353.267	271.5
353.65	309.47
354.032	286.19
354.414	330.03
354.797	299.3
355.179	324.61
355.562	315.8
355.944	324.16
356.326	341.11
356.709	337.72
357.091	353.76
357.473	344.04
357.855	338.62
358.238	350.82
358.62	346.76
359.002	339.98
359.384	370.26
359.766	335.23
360.148	324.16
360.53	344.04
360.912	342.46
361.294	319.19
361.676	328
362.057	331.16
362.439	327.55
362.821	326.64
363.203	320.77
363.584	323.71
363.966	325.29
364.348	317.38
364.729	314.44
365.111	328
365.493	333.88
365.874	323.93
366.256	316.47
366.637	327.55
367.019	327.32
367.4	321.45
367.781	328.68
368.163	340.2
368.544	335.91
368.925	317.83
369.306	339.52
369.688	313.31
370.069	306.76
370.45	314.67
370.831	295.91
371.212	307.44
371.593	330.94
371.974	317.6
372.355	310.15
372.736	345.17
373.117	329.36
373.498	314.67
373.879	329.36
374.26	307.89
374.641	319.41
375.021	326.42
375.402	340.2
375.783	321.45
376.163	333.42
376.544	321.67
376.925	336.36
377.305	343.14
377.686	344.72
378.066	339.98
378.447	344.27
378.827	338.17
379.208	336.14
379.588	334.33
379.968	349.92
380.349	336.81
380.729	338.17
381.109	340.2
381.489	363.93
381.87	343.59
382.25	326.42
382.63	349.24
383.01	368.22
383.39	384.5
383.77	342.91
384.15	356.93
384.53	372.29
384.91	379.75
385.29	343.14
385.67	367.32
386.049	377.49
386.429	368
386.809	345.63
387.189	350.6
387.568	375.46
387.948	381.56
388.328	387.89
388.707	377.26
389.087	393.99
389.466	384.5
389.846	384.72
390.225	382.46
390.605	388.11
390.984	386.76
391.363	405.74
391.743	387.21
392.122	396.02
392.501	400.09
392.881	391.5
393.26	413.42
393.639	413.42
394.018	390.15
394.397	408.22
394.776	377.94
395.155	396.02
395.534	405.29
395.913	411.61
396.292	390.37
396.671	413.87
397.05	389.24
397.429	414.33
397.808	407.55
398.186	427.88
398.565	413.42
398.944	418.62
399.323	413.87
399.701	411.16
400.08	447.09
400.458	430.14
400.837	413.87
401.215	422.91
401.594	430.14
401.972	433.76
402.351	434.89
402.729	431.95
403.107	437.83
403.486	439.41
403.864	454.55
404.242	450.03
404.62	454.1
404.999	428.56
405.377	466.75
405.755	467.43
406.133	453.87
406.511	454.55
406.889	450.26
407.267	481.22
407.645	478.73
408.023	471.5
408.401	480.09
408.779	469.69
409.156	478.28
409.534	486.64
409.912	490.93
410.29	518.05
410.667	473.53
411.045	485.51
411.422	496.36
411.8	502.68
412.178	505.85
412.555	494.55
412.933	505.17
413.31	548.11
413.687	528.45
414.065	542.23
414.442	533.42
414.819	547.43
415.197	544.72
415.574	567.54
415.951	558.95
416.328	537.03
416.705	579.29
417.082	556.02
417.46	551.04
417.837	567.09
418.214	575.45
418.591	584.94
418.967	581.78
419.344	584.94
419.721	579.07
420.098	603.25
420.475	595.79
420.852	604.83
421.228	589.24
421.605	611.38
421.982	607.09
422.358	605.73
422.735	602.79
423.111	617.03
423.488	625.85
423.864	633.98
424.241	619.97
424.617	615.22
424.994	601.21
425.37	637.14
425.746	654.09
426.123	644.6
426.499	655.45
426.875	677.6
427.251	677.37
427.627	691.15
428.003	704.71
428.379	685.05
428.756	690.7
429.132	710.59
429.507	715.56
429.883	694.09
430.259	703.81
430.635	709.01
431.011	712.85
431.387	757.59
431.763	727.54
432.138	776.12
432.514	783.13
432.89	779.97
433.265	766.41
433.641	795.56
434.016	792.39
434.392	798.72
434.767	776.35
435.143	793.3
435.518	804.82
435.894	836.24
436.269	819.51
436.644	836.69
437.02	852.96
437.395	844.37
437.77	857.25
438.145	857.7
438.52	864.26
438.895	871.26
439.271	853.18
439.646	871.49
440.021	910.81
440.395	902.22
440.77	901.09
441.145	937.48
441.52	935.44
441.895	939.06
442.27	949
442.645	935.44
443.019	934.99
443.394	937.48
443.769	952.16
444.143	958.04
444.518	960.98
444.892	956.68
445.267	981.77
445.641	1003.46
446.016	988.77
446.39	978.83
446.764	990.81
447.139	1016.57
447.513	1019.28
447.887	1019.28
448.262	1018.6
448.636	1042.56
449.01	1043.91
449.384	1048.66
449.758	1065.16
450.132	1058.6
450.506	1089.56
450.88	1103.8
451.254	1085.72
451.628	1145.15
452.002	1121.43
452.376	1133.18
452.75	1156.68
453.123	1158.49
453.497	1160.52
453.871	1172.95
454.244	1194.64
454.618	1183.57
454.992	1191.93
455.365	1206.17
455.739	1222.89
456.112	1248.43
456.486	1266.73
456.859	1260.4
457.232	1293.85
457.606	1305.15
457.979	1314.87
458.352	1312.83
458.725	1342.21
459.099	1361.64
459.472	1405.26
459.845	1374.98
460.218	1419.72
460.591	1435.54
460.964	1430.8
461.337	1462.21
461.71	1495.43
462.083	1487.07
462.456	1525.03
462.829	1538.14
463.201	1531.81
463.574	1573.16
463.947	1591.92
464.32	1614.52
464.692	1622.2
465.065	1660.17
465.438	1670.34
465.81	1715.31
466.183	1728.64
466.555	1758.24
466.928	1791.69
467.3	1777
467.672	1798.24
468.045	1852.48
468.417	1884.12
468.789	1906.94
469.161	1931.57
469.534	1987.84
469.906	2045.02
470.278	2025.58
470.65	2080.04
471.022	2143.09
471.394	2184.9
471.766	2214.96
472.138	2220.61
472.51	2270.32
472.882	2314.84
473.253	2371.11
473.625	2419.7
473.997	2489.98
474.369	2486.59
474.74	2555.74
475.112	2603.87
475.484	2681.16
475.855	2741.04
476.227	2795.28
476.598	2884.09
476.97	2921.38
477.341	3045.44
477.713	3084.54
478.084	3124.31
478.455	3228.49
478.827	3297.19
479.198	3468.93
479.569	3464.19
479.94	3607.91
480.311	3648.14
480.682	3790.28
481.053	3923.16
481.424	3988.69
481.795	4078.86
482.166	4118.63
482.537	4285.86
482.908	4399.08
483.279	4484.5
483.65	4585.52
484.021	4788.22
484.391	4880.2
484.762	4939.18
485.133	5098.72
485.503	5174.88
485.874	5373.74
486.244	5428.2
486.615	5640.63
486.985	5765.15
487.356	5946.84
487.726	6051.24
488.097	6236.55
488.467	6284
488.837	6475.18
489.207	6645.57
489.578	6809.19
489.948	6915.4
490.318	7108.39
490.688	7194.26
491.058	7373.69
491.428	7582.05
491.798	7762.15
492.168	7947.46
492.538	8041.24
492.908	8227.91
493.278	8349.71
493.648	8449.14
494.017	8646.43
494.387	8823.82
494.757	8921.22
495.126	9061.56
495.496	9158.5
495.866	9251.16
496.235	9403.24
496.605	9612.5
496.974	9696.57
497.344	9965.94
497.713	10018.37
498.082	10129.55
498.452	10299.49
498.821	10403.44
499.19	10515.08
499.559	10702.64
499.928	10810.89
500.298	10919.36
500.667	11054.72
501.036	11123.65
501.405	11317.77
501.774	11358.67
502.143	11518.44
502.512	11577.65
502.88	11675.5
503.249	11793.91
503.618	11872.1
503.987	11878.66
504.356	12076.62
504.724	12095.37
505.093	12205.65
505.462	12333.79
505.83	12405.2
506.199	12629.82
506.567	12696.71
506.936	12683.16
507.304	12913.66
507.672	12977.84
508.041	13008.8
508.409	13120.88
508.777	13270.71
509.145	13276.59
509.514	13307.09
509.882	13441.78
510.25	13485.17
510.618	13641.32
510.986	13609.68
511.354	13688.1
511.722	13849.9
512.09	14016.23
512.458	13968.32
512.826	14078.37
513.193	14120.18
513.561	14167.86
513.929	14282.89
514.297	14317.69
514.664	14305.71
515.032	14456.22
515.4	14495.99
515.767	14586.83
516.135	14621.86
516.502	14471.81
516.869	14729.66
517.237	14831.57
517.604	14813.72
517.972	14809.43
518.339	14959.93
518.706	14948.63
519.073	14996.99
519.44	15030.66
519.808	15175.07
520.175	15109.98
520.542	15380.03
520.909	15328.28
521.276	15286.02
521.643	15426.36
522.009	15574.6
522.376	15502.97
522.743	15609.63
523.11	15567.37
523.477	15800.14
523.843	15705.9
524.21	15832.22
524.577	15996.29
524.943	15945.44
525.31	16029.51
525.676	15999
526.043	16088.04
526.409	16197.19
526.776	16311.31
527.142	16253.23
527.508	16299.56
527.874	16366.22
528.241	16388.82
528.607	16249.62
528.973	16324.19
529.339	16399.44
529.705	16523.73
530.071	16500.46
530.437	16594.46
530.803	16609.15
531.169	16590.4
531.535	16566.67
531.901	16509.95
532.267	16494.58
532.632	16622.94
532.998	16651.41
533.364	16631.75
533.73	16658.19
534.095	16638.53
534.461	16669.49
534.826	16673.11
535.192	16656.16
535.557	16693.67
535.923	16662.03
536.288	16647.34
536.653	16665.2
537.019	16543.39
537.384	16593.33
537.749	16626.78
538.114	16531.19
538.479	16431.98
538.845	16519.89
539.21	16382.94
539.575	16483.51
539.94	16488.93
540.305	16465.2
540.67	16427.01
541.034	16435.82
541.399	16445.99
541.764	16461.59
542.129	16337.07
542.494	16285.55
542.858	16357.63
543.223	16305.66
543.587	16295.49
543.952	16241.25
544.316	16234.93
544.681	16125.78
545.045	16176.62
545.41	16151.31
545.774	16169.17
546.138	16096.85
546.503	16047.59
546.867	16005.33
547.231	16076.51
547.595	16042.61
547.959	15983.63
548.324	15947.25
548.688	15857.76
549.052	16069.05
549.416	15911.32
549.779	15833.13
550.143	15856.18
550.507	15836.07
550.871	15870.87
551.235	15783.86
551.599	15895.73
551.962	15776.18
552.326	15789.29
552.689	15793.81
553.053	15760.14
553.417	15657.99
553.78	15791.77
554.143	15691.21
554.507	15690.31
554.87	15702.06
555.234	15788.61
555.597	15648.95
555.96	15606.47
556.323	15606.02
556.686	15610.99
557.05	15614.6
557.413	15626.13
557.776	15612.57
558.139	15806.69
558.502	15619.35
558.865	15629.74
559.228	15643.53
559.59	15657.99
559.953	15727.82
560.316	15742.96
560.679	15678.56
561.041	15729.18
561.404	15741.83
561.767	15691.21
562.129	15709.74
562.492	15775.73
562.854	15733.7
563.217	15805.56
563.579	15740.93
563.941	15797.88
564.304	15871.32
564.666	15864.09
565.028	15849.63
565.39	15868.83
565.753	15933.92
566.115	15893.92
566.477	15969.85
566.839	15953.13
567.201	16019.56
567.563	15924.43
567.925	16021.37
568.287	15985.67
568.648	16016.17
569.01	16082.84
569.372	16098.43
569.734	16104.08
570.095	16157.87
570.457	16149.28
570.819	16088.26
571.18	16138.88
571.542	16224.76
571.903	16201.25
572.265	16296.85
572.626	16265.21
572.987	16256.62
573.349	16304.53
573.71	16235.38
574.071	16396.5
574.432	16387.24
574.794	16460.46
575.155	16315.6
575.516	16310.4
575.877	16485.54
576.238	16408.26
576.599	16442.15
576.96	16468.37
577.32	16417.07
577.681	16531.42
578.042	16424.07
578.403	16481.25
578.763	16459.78
579.124	16526.67
579.485	16498.65
579.845	16495.94
580.206	16516.95
580.566	16487.57
580.927	16557.18
581.287	16521.25
581.648	16444.86
582.008	16553.11
582.368	16506.78
582.728	16596.27
583.089	16461.59
583.449	16457.52
583.809	16456.39
584.169	16473.79
584.529	16443.28
584.889	16453
585.249	16393.11
585.609	16303.17
585.969	16383.85
586.329	16399.67
586.688	16435.6
587.048	16374.36
587.408	16328.94
587.768	16374.81
588.127	16356.5
588.487	16274.25
588.846	16369.61
589.206	16379.56
589.565	16254.36
589.925	16366.67
590.284	16248.71
590.643	16296.17
591.003	16286
591.362	16274.93
591.721	16382.27
592.08	16242.38
592.44	16252.55
592.799	16297.75
593.158	16260.69
593.517	16282.16
593.876	16196.28
594.235	16181.14
594.593	16269.95
594.952	16223.4
595.311	16159
595.67	16142.73
596.029	16290.07
596.387	16282.16
596.746	16273.34
597.104	16230.18
597.463	16200.8
597.822	16252.1
598.18	16184.76
598.538	16149.96
598.897	16234.47
599.255	16122.61
599.613	16315.83
599.972	16157.64
600.33	16232.21
600.688	16090.98
601.046	16214.59
601.404	16150.86
601.762	16135.04
602.12	16242.84
602.478	16202.16
602.836	16248.26
603.194	16168.26
603.552	16119.22
603.91	16024.31
604.268	16135.04
604.625	16065.21
604.983	16107.02
605.341	16092.78
605.698	16200.35
606.056	16247.58
606.413	16086.23
606.771	16161.93
607.128	16302.72
607.485	16178.66
607.843	16158.77
608.2	16234.47
608.557	16319.9
608.914	16211.65
609.272	16316.05
609.629	16345.66
609.986	16387.24
610.343	16260.69
610.7	16386.33
611.057	16343.62
611.414	16263.85
611.771	16331.65
612.127	16436.5
612.484	16411.19
612.841	16450.29
613.198	16325.77
613.554	16335.94
613.911	16474.69
614.267	16453.68
614.624	16405.54
614.98	16438.08
615.337	16510.63
615.693	16517.63
616.05	16526.67
616.406	16606.89
616.762	16507.24
617.118	16521.92
617.475	16570.06
617.831	16493.9
618.187	16617.74
618.543	16631.07
618.899	16700
619.255	16684.86
619.611	16638.76
619.967	16728.92
620.323	16665.42
620.678	16667.46
621.034	16680.79
621.39	16621.81
621.746	16605.31
622.101	16798.75
622.457	16602.15
622.812	16694.35
623.168	16715.59
623.523	16695.71
623.879	16751.3
624.234	16649.15
624.589	16619.77
624.945	16632.66
625.3	16658.42
625.655	16626.78
626.01	16744.97
626.365	16675.82
626.72	16715.59
627.075	16691.41
627.43	16641.92
627.785	16610.74
628.14	16754.01
628.495	16624.52
628.85	16672.88
629.205	16564.41
629.559	16601.92
629.914	16562.38
630.269	16639.44
630.623	16611.64
630.978	16508.59
631.332	16538.42
631.687	16580.45
632.041	16474.69
632.396	16497.74
632.75	16438.76
633.104	16437.86
633.459	16415.71
633.813	16445.54
634.167	16412.55
634.521	16382.72
634.875	16384.07
635.229	16346.79
635.583	16263.17
635.937	16260.69
636.291	16248.49
636.645	16297.3
636.999	16226.79
637.352	16236.96
637.706	16146.79
638.06	16151.09
638.413	16205.55
638.767	16123.97
639.121	16172.55
639.474	16153.35
639.828	16085.1
640.181	16035.38
640.534	16032.45
640.888	15972.79
641.241	16035.61
641.594	15919.68
641.947	16058.43
642.301	15991.54
642.654	15976.18
643.007	16027.93
643.36	15992.22
643.713	15898.89
644.066	15990.86
644.419	15846.24
644.771	15840.13
645.124	15639.69
645.477	15597.43
645.83	15489.64
646.182	15435.4
646.535	15423.65
646.888	15446.25
647.24	15310.2
647.593	15580.25
647.945	15371.67
648.298	15283.54
648.65	15335.51
649.002	15259.58
649.355	15413.7
649.707	15375.29
650.059	15495.51
650.411	15597.43
650.763	15570.54
651.115	15818.21
651.467	15786.8
651.819	15737.09
652.171	15734.83
652.523	15754.26
652.875	15706.35
653.227	15695.28
653.578	15832.22
653.93	15709.52
654.282	15642.85
654.633	15587.03
654.985	15663.42
655.337	15686.69
655.688	15707.71
656.039	15814.82
656.391	15648.73
656.742	15675.17
657.094	15655.28
657.445	15641.72
657.796	15659.35
658.147	15669.97
658.498	15704.09
658.849	15721.72
659.2	15752.45
659.551	15669.97
659.902	15780.7
660.253	15712.23
660.604	15755.62
660.955	15747.71
661.306	15735.05
661.656	15769.63
662.007	15735.28
662.358	15759.46
662.708	15739.8
663.059	15792.23
663.409	15558.56
663.76	15741.61
664.11	15758.78
664.461	15734.83
664.811	15748.39
665.161	15796.52
665.511	15761.94
665.862	15783.41
666.212	15870.87
666.562	15695.05
666.912	15701.61
667.262	15669.97
667.612	15802.85
667.962	15733.47
668.312	15639.24
668.662	15749.29
669.011	15757.2
669.361	15803.98
669.711	15732.34
670.06	15676.52
670.41	15710.87
670.76	15579.35
671.109	15673.59
671.459	15671.55
671.808	15611.89
672.157	15629.07
672.507	15510.2
672.856	15566.92
673.205	15508.39
673.554	15568.73
673.904	15667.26
674.253	15610.08
674.602	15527.37
674.951	15446.7
675.3	15196.76
675.649	15575.51
675.998	15493.02
676.346	15559.24
676.695	15531.67
677.044	15434.04
677.393	15471.56
677.741	15452.12
678.09	15481.73
678.438	15422.74
678.787	15471.1
679.135	15396.3
679.484	15201.96
679.832	15354.95
680.181	15191.56
680.529	15363.08
680.877	15181.62
681.225	15238.79
681.573	15313.59
681.922	15080.83
682.27	15130.77
682.618	15149.98
682.966	14973.49
683.314	15061.62
683.661	14992.02
684.009	14934.85
684.357	14977.78
684.705	14929.2
685.053	14900.95
685.4	14825.02
685.748	14846.04
686.095	14871.57
686.443	14699.37
686.79	14722.42
687.138	14724.46
687.485	14719.26
687.832	14613.05
688.18	14637.23
688.527	14493.5
688.874	14638.13
689.221	14479.94
689.568	14369.89
689.915	14397.01
690.262	14449.89
690.609	14353.39
690.956	14325.15
691.303	14294.19
691.65	14224.13
691.997	14251.25
692.344	14115.89
692.69	14105.94
693.037	14097.81
693.383	13998.83
693.73	14051.25
694.077	13889.45
694.423	13955.66
694.769	13865.72
695.116	13794.99
695.462	13706.41
695.808	13714.99
696.155	13731.49
696.501	13603.58
696.847	13696.01
697.193	13487.43
697.539	13514.55
697.885	13432.74
698.231	13418.28
698.577	13394.55
698.923	13288.11
699.269	13242.24
699.614	13171.5
699.96	13176.93
700.306	13130.83
700.651	13023.71
700.997	12985.52
701.342	13015.35
701.688	12939.42
702.033	12928.35
702.379	12893.09
702.724	12802.47
703.069	12823.49
703.415	12674.79
703.76	12638.18
704.105	12683.38
704.45	12590.05
704.795	12614
705.14	12512.31
705.485	12498.98
705.83	12488.36
706.175	12433.44
706.52	12401.58
706.865	12339.89
707.209	12269.38
707.554	12250.62
707.899	12291.53
708.243	12177.86
708.588	12181.25
708.932	12089.5
709.277	12077.75
709.621	12037.52
709.966	12005.43
710.31	11928.37
710.654	11875.94
710.998	11959.11
711.342	11857.64
711.687	11924.76
712.031	11776.74
712.375	11717.53
712.719	11744.65
713.063	11756.4
713.407	11706.46
713.75	11699.9
714.094	11590.08
714.438	11674.14
714.782	11677.08
715.125	11634.6
715.469	11630.53
715.812	11569.29
716.156	11521.83
716.499	11434.83
716.843	11532.68
717.186	11458.33
717.53	11498.55
717.873	11477.99
718.216	11404.32
718.559	11426.47
718.902	11360.48
719.246	11409.06
719.589	11313.02
719.932	11315.51
720.275	11316.19
720.617	11296.53
720.96	11263.76
721.303	11197.54
721.646	11252.23
721.989	11264.21
722.331	11190.99
722.674	11214.04
723.016	11201.84
723.359	11252.91
723.701	11192.35
724.044	11091.78
724.386	11047.04
724.729	11094.27
725.071	11088.62
725.413	11136.98
725.755	11056.31
726.097	11022.86
726.439	10947.61
726.782	10960.49
727.124	11122.52
727.465	10976.31
727.807	10967.27
728.149	10950.55
728.491	10916.2
728.833	10958.68
729.175	10939.02
729.516	10920.04
729.858	10926.14
730.199	10947.83
730.541	10960.71
730.882	10895.18
731.224	10948.96
731.565	10829.42
731.906	10927.5
732.248	10962.97
732.589	10870.32
732.93	10866.25
733.271	10799.81
733.612	10861.96
733.953	10919.13
734.294	10860.38
734.635	10874.16
734.976	10913.94
735.317	10784.45
735.658	10853.82
735.999	10849.53
736.339	10906.48
736.68	10861.51
737.021	10833.49
737.361	10851.79
737.702	10880.49
738.042	10845.92
738.383	10878.68
738.723	10877.33
739.063	10946.48
739.404	10866.03
739.744	10941.73
740.084	10911.68
740.424	10930.21
740.764	10895.18
741.104	10949.64
741.444	10963.88
741.784	10914.16
742.124	11007.27
742.464	10964.1
742.804	11018.11
743.143	11038.9
743.483	11014.27
743.823	11007.27
744.162	11158.22
744.502	11133.59
744.841	11163.65
745.181	11309.63
745.52	11206.81
745.86	11248.39
746.199	11273.47
746.538	11329.29
746.877	11433.47
747.216	11489.29
747.556	11527.48
747.895	11588.49
748.234	11569.06
748.573	11604.77
748.911	11682.28
749.25	11779.22
749.589	11759.56
749.928	11933.57
750.267	12038.2
750.605	12050.4
750.944	12166.11
751.283	12148.93
751.621	12345.09
751.96	12334.69
752.298	12511.41
752.636	12545.76
752.975	12624.85
753.313	12741.23
753.651	12892.42
753.989	12893.77
754.327	13056.7
754.666	13167.89
755.004	13355
755.342	13470.03
755.679	13510.03
