Data from hue_350_FLMS001491_47.txt Node
Date: Mon Feb 06 15:38:05 GMT 2017
User: dcchb
Spectrometer: FLMS00149
Trigger mode: 0
Integration Time (sec): 2.000000E-2
Scans to average: 10
Electric dark correction enabled: true
Nonlinearity correction enabled: false
Boxcar width: 0
XAxis mode: Wavelengths
Number of Pixels in Spectrum: 2048
>>>>>Begin Spectral Data<<<<<
341.393	-6.65
341.776	-6.65
342.16	-6.65
342.543	-62.24
342.927	-68.8
343.31	-69.25
343.693	-73.54
344.077	-57.27
344.46	-57.95
344.843	-69.02
345.226	-60.44
345.61	-35.13
345.993	-20.44
346.376	1.93
346.759	20.01
347.142	5.78
347.525	52.56
347.908	66.11
348.291	71.31
348.674	107.02
349.057	118.32
349.44	123.51
349.823	135.72
350.206	186.79
350.588	202.16
350.971	206
351.354	229.05
351.737	211.2
352.119	238.99
352.502	257.3
352.884	264.3
353.267	290.51
353.65	288.71
354.032	300.23
354.414	308.37
354.797	309.5
355.179	341.59
355.562	313.57
355.944	328.93
356.326	321.25
356.709	315.83
357.091	309.27
357.473	330.97
357.855	338.65
358.238	344.52
358.62	355.82
359.002	332.1
359.384	344.52
359.766	341.36
360.148	323.96
360.53	329.84
360.912	326.45
361.294	333.68
361.676	344.75
362.057	325.54
362.439	317.41
362.821	335.03
363.203	318.08
363.584	324.64
363.966	313.79
364.348	306.79
364.729	325.77
365.111	315.37
365.493	297.07
365.874	302.49
366.256	305.66
366.637	315.37
367.019	315.37
367.4	288.93
367.781	295.94
368.163	315.83
368.544	317.18
368.925	313.79
369.306	332.1
369.688	312.44
370.069	318.54
370.45	318.99
370.831	309.95
371.212	330.06
371.593	312.89
371.974	313.11
372.355	296.39
372.736	306.33
373.117	317.41
373.498	299.78
373.879	293.9
374.26	320.12
374.641	320.57
375.021	301.59
375.402	318.31
375.783	297.75
376.163	310.85
376.544	304.98
376.925	320.12
377.305	317.86
377.686	306.79
378.066	326.45
378.447	325.09
378.827	316.73
379.208	336.84
379.588	314.7
379.968	322.83
380.349	324.41
380.729	324.19
381.109	314.24
381.489	352.21
381.87	334.13
382.25	335.03
382.63	331.19
383.01	328.93
383.39	328.03
383.77	329.38
384.15	332.77
384.53	328.25
384.91	340.01
385.29	344.07
385.67	340.91
386.049	363.73
386.429	329.84
386.809	337.07
387.189	339.33
387.568	357.86
387.948	350.17
388.328	359.44
388.707	350.85
389.087	349.72
389.466	361.02
389.846	334.13
390.225	348.82
390.605	341.59
390.984	363.51
391.363	366.22
391.743	367.12
392.122	356.95
392.501	336.39
392.881	352.66
393.26	352.21
393.639	389.04
394.018	354.69
394.397	365.32
394.776	372.55
395.155	352.21
395.534	357.41
395.913	364.64
396.292	377.74
396.671	393.34
397.05	370.74
397.429	396.27
397.808	361.7
398.186	363.28
398.565	379.55
398.944	396.27
399.323	383.62
399.701	376.61
400.08	387.46
400.458	368.48
400.837	408.93
401.215	372.77
401.594	377.52
401.972	393.79
402.351	401.02
402.729	385.43
403.107	391.98
403.486	394.69
403.864	405.99
404.242	397.86
404.62	392.43
404.999	385.65
405.377	415.94
405.755	408.03
406.133	394.02
406.511	394.69
406.889	417.07
407.267	400.57
407.645	413
408.023	409.16
408.401	441.7
408.779	424.07
409.156	420.46
409.534	408.7
409.912	455.03
410.29	434.92
410.667	453.45
411.045	467.01
411.422	441.47
411.8	460.91
412.178	431.3
412.555	461.81
412.933	433.79
413.31	454.13
413.687	462.71
414.065	468.36
414.442	448.93
414.819	476.27
415.197	455.93
415.574	460.68
415.951	460.68
416.328	472.43
416.705	468.59
417.082	479.21
417.46	481.24
417.837	486.22
418.214	504.07
418.591	483.96
418.967	517.85
419.344	513.11
419.721	491.41
420.098	512.2
420.475	525.54
420.852	513.79
421.228	518.76
421.605	496.39
421.982	520.57
422.358	504.97
422.735	547.91
423.111	523.28
423.488	537.06
423.864	558.98
424.241	532.09
424.617	553.33
424.994	547.01
425.37	557.17
425.746	558.76
426.123	543.16
426.499	555.82
426.875	571.64
427.251	573.45
427.627	598.76
428.003	584.52
428.379	589.49
428.756	598.53
429.132	601.69
429.507	593.11
429.883	604.86
430.259	612.31
430.635	633.78
431.011	628.13
431.387	615.93
431.763	615.93
432.138	653.67
432.514	629.26
432.89	661.13
433.265	652.31
433.641	661.8
434.016	683.27
434.392	680.34
434.767	662.48
435.143	686.66
435.518	672.88
435.894	668.36
436.269	647.34
436.644	699.32
437.02	684.85
437.395	671.52
437.77	700.9
438.145	703.61
438.52	706.1
438.895	727.57
439.271	724.63
439.646	715.81
440.021	752.2
440.395	733.22
440.77	747.68
441.145	751.52
441.52	770.05
441.895	751.97
442.27	774.12
442.645	768.69
443.019	758.98
443.394	781.58
443.769	749.49
444.143	771.41
444.518	785.87
444.892	799.2
445.267	769.37
445.641	781.12
446.016	794.68
446.39	777.96
446.764	793.78
447.139	803.04
447.513	800.56
447.887	818.64
448.262	821.35
448.636	801.24
449.01	800.56
449.384	824.06
449.758	858.86
450.132	844.4
450.506	847.34
450.88	850.5
451.254	854.34
451.628	843.95
452.002	848.01
452.376	857.05
452.75	873.78
453.123	873.1
453.497	888.69
453.871	906.32
454.244	893.44
454.618	913.78
454.992	916.49
455.365	903.61
455.739	932.76
456.112	910.61
456.486	952.87
456.859	937.96
457.232	975.24
457.606	979.31
457.979	997.16
458.352	980.67
458.725	998.52
459.099	1001.23
459.472	1002.81
459.845	1022.93
460.218	1014.34
460.591	1044.85
460.964	1043.49
461.337	1063.15
461.71	1080.1
462.083	1089.59
462.456	1085.52
462.829	1081.23
463.201	1094.79
463.574	1105.18
463.947	1140.66
464.32	1104.96
464.692	1113.09
465.065	1142.7
465.438	1146.54
465.81	1168.91
466.183	1187.21
466.555	1217.04
466.928	1217.72
467.3	1218.4
467.672	1231.06
468.045	1264.5
468.417	1287.1
468.789	1287.55
469.161	1289.13
469.534	1300.21
469.906	1346.31
470.278	1351.28
470.65	1377.72
471.022	1392.63
471.394	1395.8
471.766	1388.57
472.138	1428.79
472.51	1425.63
472.882	1476.25
473.253	1477.6
473.625	1499.97
473.997	1514.66
474.369	1518.73
474.74	1535.23
475.112	1551.05
475.484	1572.74
475.855	1613.42
476.227	1641.67
476.598	1653.64
476.97	1690.7
477.341	1734.32
477.713	1751.72
478.084	1754.88
478.455	1809.8
478.827	1821.1
479.198	1870.36
479.569	1865.84
479.94	1937.48
480.311	1961.88
480.682	1967.76
481.053	2024.71
481.424	2076.23
481.795	2049.34
482.166	2121.43
482.537	2145.38
482.908	2172.05
483.279	2219.28
483.65	2251.37
484.021	2306.28
484.391	2355.32
484.762	2330.69
485.133	2394.41
485.503	2378.6
485.874	2459.95
486.244	2469.44
486.615	2529.1
486.985	2542.43
487.356	2561.87
487.726	2581.53
488.097	2637.8
488.467	2669.44
488.837	2763.9
489.207	2751.47
489.578	2829.66
489.948	2816.32
490.318	2861.75
490.688	2890.67
491.058	2913.95
491.428	2979.03
491.798	3004.34
492.168	3107.16
492.538	3066.49
492.908	3080.72
493.278	3132.93
493.648	3162.98
494.017	3188.97
494.387	3212.02
494.757	3246.82
495.126	3282.75
495.496	3299.48
495.866	3297.89
496.235	3381.51
496.605	3373.37
496.974	3410.66
497.344	3416.99
497.713	3452.24
498.082	3480.04
498.452	3497.21
498.821	3534.27
499.19	3508.96
499.559	3561.62
499.928	3589.64
500.298	3609.07
500.667	3661.95
501.036	3638.22
501.405	3699.24
501.774	3705.79
502.143	3758.67
502.512	3767.94
502.88	3757.32
503.249	3787.6
503.618	3788.5
503.987	3790.54
504.356	3837.31
504.724	3808.39
505.093	3857.2
505.462	3865.34
505.83	3911.89
506.199	3957.09
506.567	4009.97
506.936	3995.95
507.304	4020.13
507.672	4019.46
508.041	4018.1
508.409	4013.58
508.777	4079.34
509.145	4094.48
509.514	4028.5
509.882	4119.11
510.25	4122.05
510.618	4099.23
510.986	4142.62
511.354	4231.2
511.722	4214.71
512.09	4218.77
512.458	4216.29
512.826	4280.47
513.193	4260.35
513.561	4292.22
513.929	4288.15
514.297	4322.95
514.664	4338.32
515.032	4351.43
515.4	4383.74
515.767	4400.24
516.135	4390.29
516.502	4399.11
516.869	4418.54
517.237	4448.15
517.604	4416.96
517.972	4432.33
518.339	4496.96
518.706	4490.86
519.073	4463.06
519.44	4522.49
519.808	4544.19
520.175	4532.89
520.542	4581.02
520.909	4588.93
521.276	4581.48
521.643	4683.62
522.009	4674.58
522.376	4646.78
522.743	4706.67
523.11	4708.03
523.477	4729.49
523.843	4805.2
524.21	4802.49
524.577	4827.8
524.943	4866.44
525.31	4871.64
525.676	4910.28
526.043	4920.22
526.409	4932.2
526.776	5035.02
527.142	4979.21
527.508	4961.35
527.874	5000.9
528.241	5103.72
528.607	5114.12
528.973	5149.6
529.339	5120.44
529.705	5156.83
530.071	5168.8
530.437	5210.39
530.803	5206.09
531.169	5232.76
531.535	5213.32
531.901	5269.82
532.267	5326.31
532.632	5331.96
532.998	5321.12
533.364	5386.43
533.73	5366.77
534.095	5417.16
534.461	5459.64
534.826	5504.84
535.192	5487.89
535.557	5464.39
535.923	5497.84
536.288	5526.31
536.653	5637.72
537.019	5544.61
537.384	5630.49
537.749	5654.67
538.114	5696.25
538.479	5663.03
538.845	5658.51
539.21	5707.1
539.575	5721.11
539.94	5724.5
540.305	5771.05
540.67	5806.53
541.034	5839.52
541.399	5869.58
541.764	5893.53
542.129	5893.31
542.494	5939.63
542.858	5957.94
543.223	5908.67
543.587	6011.27
543.952	5986.86
544.316	6023.7
544.681	6064.6
545.045	6075
545.41	6097.14
545.774	6117.03
546.138	6144.6
546.503	6162.45
546.867	6102.11
547.231	6229.79
547.595	6244.03
547.959	6267.31
548.324	6301.43
548.688	6263.69
549.052	6292.84
549.416	6305.72
549.779	6315.44
550.143	6316.57
550.507	6375.33
550.871	6431.14
551.235	6395.67
551.599	6507.98
551.962	6436.79
552.326	6493.06
552.689	6540.29
553.053	6554.76
553.417	6564.93
553.78	6644.7
554.143	6560.18
554.507	6623.68
554.87	6664.58
555.234	6679.73
555.597	6640.86
555.96	6668.43
556.323	6668.88
556.686	6724.47
557.05	6759.72
557.413	6741.64
557.776	6765.6
558.139	6828.87
558.502	6820.51
558.865	6867.52
559.228	6899.15
559.59	6962.2
559.953	6915.65
560.316	6997.01
560.679	7028.19
561.041	7011.69
561.404	7039.26
561.767	7093.05
562.129	7110.22
562.492	7192.48
562.854	7110.22
563.217	7123.1
563.579	7135.53
563.941	7174.63
564.304	7234.06
564.666	7223.21
565.028	7248.52
565.39	7304.57
565.753	7334.4
566.115	7375.07
566.477	7411.01
566.839	7454.85
567.201	7426.82
567.563	7472.92
567.925	7480.61
568.287	7489.2
568.648	7524.68
569.01	7547.5
569.372	7622.53
569.734	7564.67
570.095	7651.68
570.457	7741.17
570.819	7696.42
571.18	7699.36
571.542	7789.53
571.903	7834.05
572.265	7891.45
572.626	7890.32
572.987	7926.25
573.349	7968.51
573.71	8017.32
574.071	8059.35
574.432	8079.91
574.794	8196.52
575.155	8233.13
575.516	8189.97
575.877	8354.94
576.238	8341.83
576.599	8422.05
576.96	8494.14
577.32	8517.64
577.681	8655.72
578.042	8721.25
578.403	8794.02
578.763	8874.47
579.124	9009.61
579.485	9074.46
579.845	9204.4
580.206	9206.89
580.566	9333.44
580.927	9484.4
581.287	9594.9
581.648	9682.36
582.008	9821.34
582.368	9936.14
582.728	10091.16
583.089	10195.57
583.449	10313.53
583.809	10505.61
584.169	10586.06
584.529	10734.31
584.889	11065.37
585.249	11051.81
585.609	11241.64
585.969	11499.03
586.329	11671.68
586.688	11826.03
587.048	12085.46
587.408	12258.34
587.768	12540.14
588.127	12623.52
588.487	12919.34
588.846	13177.18
589.206	13369.72
589.565	13629.83
589.925	13863.72
590.284	14150.94
590.643	14353.2
591.003	14629.12
591.362	14959.51
591.721	15211.7
592.08	15394.3
592.44	15689.43
592.799	15967.16
593.158	16266.37
593.517	16492.8
593.876	16729.63
594.235	17074.03
594.593	17271.76
594.952	17648.93
595.311	17920.33
595.67	18314.45
596.029	18567.32
596.387	18906.3
596.746	19224.93
597.104	19443.01
597.463	19699.72
597.822	20061.75
598.18	20254.96
598.538	20573.6
598.897	20938.33
599.255	21025.34
599.613	21672.78
599.972	21793.23
600.33	22085.2
600.688	22284.74
601.046	22753.88
601.404	23054.89
601.762	23226.86
602.12	23630.92
602.478	23858.03
602.836	24020.06
603.194	24284.69
603.552	24533.95
603.91	24858
604.268	25238.33
604.625	25314.72
604.983	25775.27
605.341	25803.74
605.698	26173
606.056	26533.21
606.413	26698.18
606.771	26949.48
607.128	27177.72
607.485	27271.95
607.843	27607.99
608.2	27911.48
608.557	28248.65
608.914	28402.09
609.272	28724.34
609.629	28950.78
609.986	29182.64
610.343	29152.58
610.7	29743.3
611.057	29769.74
611.414	30006.57
611.771	30167.24
612.127	30499.89
612.484	30649.72
612.841	30996.83
613.198	30975.81
613.554	31209.93
613.911	31498.73
614.267	31766.3
614.624	31773.98
614.98	31968.33
615.337	32225.27
615.693	32370.12
616.05	32426.39
616.406	32829.32
616.762	32883.1
617.118	33004.46
617.475	33103.44
617.831	33382.98
618.187	33456.87
618.543	33648.51
618.899	33937.09
619.255	34095.05
619.611	33986.35
619.967	34417.75
620.323	34426.11
620.678	34446.68
621.034	34465.44
621.39	34726.9
621.746	34703.4
622.101	35173.21
622.457	35021.81
622.812	35179.99
623.168	35293.66
623.523	35412.3
623.879	35579.3
624.234	35375.47
624.589	35648.68
624.945	35791.5
625.3	35846.42
625.655	36021.1
626.01	36052.29
626.365	36140.42
626.72	36106.52
627.075	36117.82
627.43	36218.84
627.785	36183.58
628.14	36447.98
628.495	36457.02
628.85	36442.11
629.205	36505.83
629.559	36722.1
629.914	36669.22
630.269	36767.52
630.623	36644.14
630.978	36619.28
631.332	36845.49
631.687	36844.36
632.041	36869.89
632.396	36772.72
632.75	36759.39
633.104	36978.82
633.459	36818.82
633.813	36819.27
634.167	36847.52
634.521	36843.68
634.875	36972.49
635.229	37045.48
635.583	36985.37
635.937	36867.41
636.291	36960.74
636.645	36853.62
636.999	36913.73
637.352	37036.44
637.706	36817.24
638.06	36939.04
638.413	36821.31
638.767	36741.76
639.121	36853.4
639.474	36694.98
639.828	36751.25
640.181	36944.01
640.534	36880.74
640.888	36701.31
641.241	36758.26
641.594	36797.35
641.947	36860.63
642.301	36760.52
642.654	36837.8
643.007	36937.69
643.36	36749.44
643.713	36739.05
644.066	36972.26
644.419	36675.32
644.771	36328.66
645.124	36210.25
645.477	36108.56
645.83	35973.19
646.182	35913.99
646.535	35673.99
646.888	35910.6
647.24	35532.3
647.593	35855.68
647.945	35644.84
648.298	35620.66
648.65	35613.65
649.002	35500.89
649.355	35783.14
649.707	35593.77
650.059	35591.28
650.411	36118.95
650.763	36182.68
651.115	36498.6
651.467	36405.05
651.819	36358.04
652.171	36401.2
652.523	36342
652.875	36298.61
653.227	36095.22
653.578	36392.39
653.93	36345.84
654.282	36099.52
654.633	36074.21
654.985	36297.03
655.337	36290.47
655.688	36228.55
656.039	36330.02
656.391	36066.52
656.742	36126.63
657.094	36258.61
657.445	36196.46
657.796	36225.84
658.147	36023.81
658.498	36083.47
658.849	36293.41
659.2	36069.01
659.551	36077.14
659.902	36218.84
660.253	36080.08
660.604	36108.1
660.955	35976.36
661.306	36135.67
661.656	36011.38
662.007	36147.43
662.358	36058.16
662.708	35913.53
663.059	35962.57
663.409	35697.72
663.76	36090.7
664.11	35952.18
664.461	36048.9
664.811	36044.6
665.161	36041.21
665.511	35874.44
665.862	35933.65
666.212	36213.19
666.562	36082.34
666.912	36046.41
667.262	36012.97
667.612	35932.52
667.962	36022.23
668.312	35873.53
668.662	36107.2
669.011	36088.44
669.361	35901.33
669.711	35897.94
670.06	35934.1
670.41	35787.66
670.76	35714.22
671.109	35945.85
671.459	35803.71
671.808	35736.36
672.157	35945.62
672.507	35640.55
672.856	35634.67
673.205	35793.76
673.554	35742.01
673.904	35707.21
674.253	35885.06
674.602	35686.42
674.951	35344.96
675.3	35135.47
675.649	35610.49
675.998	35581.11
676.346	35515.58
676.695	35763.25
677.044	35317.62
677.393	35505.86
677.741	35589.25
678.09	35506.54
678.438	35488.01
678.787	35516.26
679.135	35574.33
679.484	35316.49
679.832	35313.55
680.181	35167.34
680.529	35322.81
680.877	35169.6
681.225	35108.36
681.573	35297.73
681.922	35124.85
682.27	34959.89
682.618	34945.2
682.966	34942.03
683.314	34930.51
683.661	34782.04
684.009	34650.29
684.357	34650.74
684.705	34623.62
685.053	34674.47
685.4	34521.93
685.748	34430.18
686.095	34492.78
686.443	34333.69
686.79	34293.24
687.138	34298.89
687.485	34232
687.832	34179.57
688.18	34177.99
688.527	34095.05
688.874	34113.58
689.221	34061.6
689.568	33857.54
689.915	33773.25
690.262	33800.14
690.609	33648.06
690.956	33572.35
691.303	33583.2
691.65	33458.68
691.997	33527.16
692.344	33280.61
692.69	33289.65
693.037	33236.09
693.383	32897.12
693.73	32997
694.077	32910.9
694.423	32947.74
694.769	32642.66
695.116	32736.67
695.462	32740.51
695.808	32510.01
696.155	32664.35
696.501	32440.63
696.847	32401.08
697.193	32191.82
697.539	32342.1
697.885	31964.48
698.231	31953.64
698.577	31947.76
698.923	31811.95
699.269	31810.14
699.614	31541.22
699.96	31600.2
700.306	31579.18
700.651	31495.12
700.997	31415.35
701.342	31279.3
701.688	31294.22
702.033	31172.87
702.379	31035.02
702.724	31012.65
703.069	31115.24
703.415	30634.35
703.76	30740.34
704.105	30789.37
704.45	30544.18
704.795	30440.91
705.14	30402.27
705.485	30370.63
705.83	30252.66
706.175	30230.29
706.52	30165.66
706.865	30032.78
707.209	29995.27
707.554	30060.35
707.899	30035.27
708.243	29795.73
708.588	29797.08
708.932	29749.4
709.277	29622.85
709.621	29631.89
709.966	29467.83
710.31	29422.86
710.654	29333.14
710.998	29319.58
711.342	29282.07
711.687	29211.79
712.031	29085.92
712.375	29024.45
712.719	29034.39
713.063	29049.98
713.407	29100.83
713.75	28882.53
714.094	28858.58
714.438	28784.46
714.782	28796.43
715.125	28598.92
715.469	28687.73
715.812	28488.42
716.156	28287.29
716.499	28408.42
716.843	28445.48
717.186	28250.68
717.53	28319.16
717.873	28375.43
718.216	28325.03
718.559	28160.52
718.902	27885.95
719.246	28024.7
719.589	27854.99
719.932	27860.41
720.275	27881.43
720.617	27815.89
720.96	27759.17
721.303	27712.17
721.646	27798.27
721.989	27534.54
722.331	27730.92
722.674	27601.66
723.016	27624.49
723.359	27575.45
723.701	27507.65
724.044	27386.3
724.386	27229.47
724.729	27343.36
725.071	27180.43
725.413	27251.61
725.755	27200.77
726.097	27086.65
726.439	27076.7
726.782	26945.86
727.124	27200.54
727.465	26987.44
727.807	26930.27
728.149	26812.53
728.491	26851.62
728.833	26863.6
729.175	26681.69
729.516	26685.75
729.858	26731.18
730.199	26661.35
730.541	26608.47
730.882	26480.56
731.224	26677.62
731.565	26425.87
731.906	26488.92
732.248	26411.18
732.589	26290.06
732.93	26222.04
733.271	26271.53
733.612	26371.41
733.953	26264.52
734.294	26238.31
734.635	26041.25
734.976	26095.71
735.317	25969.16
735.658	25964.64
735.999	26073.57
736.339	25980.01
736.68	25982.27
737.021	25963.51
737.361	25690.07
737.702	25835.61
738.042	25820.69
738.383	25716.06
738.723	25819.34
739.063	25700.02
739.404	25586.35
739.744	25552.9
740.084	25594.48
740.424	25523.52
740.764	25431.55
741.104	25568.49
741.444	25469.97
741.784	25287.6
742.124	25346.81
742.464	25285.34
742.804	25300.7
743.143	25190.88
743.483	25219.58
743.823	25114.72
744.162	25077.66
744.502	25129.41
744.841	24973.03
745.181	25038.11
745.52	24923.99
745.86	24898
746.199	24933.48
746.538	24895.07
746.877	24940.26
747.216	24861.85
747.556	24789.08
747.895	24806.48
748.234	24637.22
748.573	24666.6
748.911	24612.36
749.25	24588.41
749.589	24605.13
749.928	24551.8
750.267	24571.91
750.605	24481.52
750.944	24439.71
751.283	24309.54
751.621	24440.16
751.96	24281.52
752.298	24234.07
752.636	24299.6
752.975	24165.82
753.313	23970.8
753.651	24138.7
753.989	24023.68
754.327	23934.87
754.666	23790.69
755.004	23895.54
755.342	23888.54
755.679	23906.17
756.017	23612.39
756.355	23773.97
756.693	23653.97
757.031	23723.12
757.368	23508.44
757.706	23434.54
758.044	23435.44
758.381	23439.74
758.719	23359.96
759.056	23288.1
759.394	23314.99
759.731	23084.49
760.068	23045.62
760.405	23084.94
760.743	22936.93
761.08	22951.16
