Data from hue_270_FLMS001491_00011.txt Node
Date: Tue Feb 07 15:56:49 GMT 2017
User: dcchb
Spectrometer: FLMS00149
Trigger mode: 0
Integration Time (sec): 2.000000E-2
Scans to average: 10
Electric dark correction enabled: true
Nonlinearity correction enabled: false
Boxcar width: 0
XAxis mode: Wavelengths
Number of Pixels in Spectrum: 2048
>>>>>Begin Spectral Data<<<<<
341.393	-3.45
341.776	-3.45
342.16	-3.45
342.543	-49.32
342.927	-63.33
343.31	-63.33
343.693	-72.14
344.077	-70.56
344.46	-67.63
344.843	-59.49
345.226	-39.38
345.61	-38.25
345.993	-19.94
346.376	-10.23
346.759	7.63
347.142	25.25
347.525	46.27
347.908	51.24
348.291	80.62
348.674	94.86
349.057	135.08
349.44	111.8
349.823	136.21
350.206	143.44
350.588	186.61
350.971	194.51
351.354	186.15
351.737	226.83
352.119	244.68
352.502	249.88
352.884	260.5
353.267	277.45
353.65	268.41
354.032	287.39
354.414	279.03
354.797	314.29
355.179	319.71
355.562	302.31
355.944	306.83
356.326	306.15
356.709	322.87
357.091	328.75
357.473	355.41
357.855	324.91
358.238	344.12
358.62	327.39
359.002	336.88
359.384	330.78
359.766	318.81
360.148	325.36
360.53	341.18
360.912	329.88
361.294	295.75
361.676	318.35
362.057	308.64
362.439	329.65
362.821	331.46
363.203	326.04
363.584	326.49
363.966	325.13
364.348	312.48
364.729	321.29
365.111	312.48
365.493	302.53
365.874	325.36
366.256	310.22
366.637	329.43
367.019	299.6
367.4	312.93
367.781	316.09
368.163	326.26
368.544	291.69
368.925	295.08
369.306	291.24
369.688	321.97
370.069	293.95
370.45	314.06
370.831	302.31
371.212	309.54
371.593	311.57
371.974	313.16
372.355	304.57
372.736	319.94
373.117	294.4
373.498	325.36
373.879	316.77
374.26	316.32
374.641	326.71
375.021	318.35
375.402	318.58
375.783	308.18
376.163	322.42
376.544	307.73
376.925	325.81
377.305	311.57
377.686	317
378.066	310.9
378.447	336.43
378.827	311.57
379.208	314.29
379.588	344.12
379.968	338.69
380.349	325.81
380.729	323.55
381.109	326.49
381.489	328.75
381.87	348.41
382.25	351.12
382.63	320.61
383.01	331.23
383.39	332.36
383.77	322.19
384.15	335.3
384.53	355.64
384.91	333.95
385.29	352.93
385.67	342.08
386.049	360.39
386.429	366.94
386.809	373.72
387.189	361.06
387.568	350.89
387.948	350.22
388.328	358.8
388.707	346.83
389.087	340.95
389.466	364.68
389.846	363.55
390.225	372.82
390.605	358.13
390.984	381.85
391.363	374.17
391.743	373.04
392.122	380.72
392.501	389.99
392.881	371.69
393.26	408.07
393.639	362.42
394.018	400.38
394.397	396.54
394.776	398.58
395.155	376.88
395.534	386.6
395.913	390.67
396.292	384.57
396.671	385.47
397.05	395.87
397.429	411.01
397.808	406.71
398.186	416.2
398.565	382.08
398.944	420.05
399.323	399.26
399.701	410.33
400.08	402.19
400.458	416.43
400.837	416.2
401.215	434.73
401.594	419.59
401.972	428.41
402.351	453.04
402.729	430.44
403.107	443.77
403.486	424.79
403.864	436.54
404.242	426.82
404.62	431.57
404.999	456.2
405.377	461.17
405.755	449.88
406.133	493.04
406.511	464.11
406.889	464.11
407.267	480.16
407.645	505.47
408.023	485.13
408.401	512.25
408.779	478.57
409.156	474.06
409.534	511.57
409.912	509.31
410.29	521.51
410.667	527.61
411.045	524.22
411.422	530.1
411.8	527.61
412.178	568.29
412.555	552.47
412.933	560.83
413.31	563.32
413.687	563.09
414.065	580.49
414.442	570.55
414.819	577.78
415.197	584.56
415.574	596.76
415.951	617.1
416.328	631.11
416.705	607.84
417.082	626.14
417.46	638.8
417.837	638.34
418.214	650.77
418.591	653.49
418.967	675.86
419.344	680.15
419.721	661.62
420.098	693.71
420.475	680.38
420.852	690.32
421.228	700.72
421.605	721.28
421.982	724.22
422.358	721.96
422.735	711.79
423.111	761.73
423.488	759.7
423.864	762.41
424.241	762.41
424.617	798.57
424.994	816.42
425.37	825.68
425.746	827.04
426.123	847.6
426.499	849.41
426.875	851.22
427.251	875.4
427.627	873.59
428.003	889.41
428.379	938
428.756	921.28
429.132	893.25
429.507	923.08
429.883	931.22
430.259	947.72
430.635	935.96
431.011	971.67
431.387	982.97
431.763	994.95
432.138	1019.58
432.514	1025.23
432.89	1057.09
433.265	1078.11
433.641	1085.11
434.016	1049.41
434.392	1090.08
434.767	1138.67
435.143	1124.21
435.518	1146.81
435.894	1142.29
436.269	1189.74
436.644	1169.4
437.02	1215.05
437.395	1235.39
437.77	1245.56
438.145	1264.09
438.52	1271.1
438.895	1261.61
439.271	1311.32
439.646	1341.83
440.021	1314.94
440.395	1340.47
440.77	1340.25
441.145	1355.61
441.52	1426.12
441.895	1390.87
442.27	1422.73
442.645	1399.91
443.019	1439.23
443.394	1427.93
443.769	1478.1
444.143	1426.8
444.518	1469.28
444.892	1500.47
445.267	1517.64
445.641	1503.18
446.016	1516.97
446.39	1525.1
446.764	1543.86
447.139	1536.85
447.513	1535.5
447.887	1540.92
448.262	1560.58
448.636	1576.63
449.01	1585.21
449.384	1603.97
449.758	1601.03
450.132	1662.72
450.506	1635.38
450.88	1647.36
451.254	1645.55
451.628	1668.83
452.002	1701.14
452.376	1684.64
452.75	1723.06
453.123	1722.61
453.497	1740.91
453.871	1762.61
454.244	1757.41
454.618	1766.9
454.992	1818.2
455.365	1816.84
455.739	1829.95
456.112	1850.52
456.486	1884.87
456.859	1862.95
457.232	1922.6
457.606	1909.5
457.979	1931.19
458.352	1966.67
458.725	1995.6
459.099	1980.68
459.472	2043.28
459.845	2052.32
460.218	2044.18
460.591	2067.01
460.964	2055.93
461.337	2096.84
461.71	2191.75
462.083	2167.8
462.456	2151.75
462.829	2160.56
463.201	2210.96
463.574	2243.73
463.947	2227.46
464.32	2288.02
464.692	2264.06
465.065	2309.04
465.438	2328.24
465.81	2333.67
466.183	2417.06
466.555	2410.5
466.928	2455.25
467.3	2406.43
467.672	2464.74
468.045	2499.99
468.417	2516.26
468.789	2566.43
469.161	2558.52
469.534	2573.21
469.906	2640.78
470.278	2672.19
470.65	2648.69
471.022	2690.04
471.394	2758.06
471.766	2797.84
472.138	2793.99
472.51	2877.38
472.882	2879.87
473.253	2869.7
473.625	2925.97
473.997	3024.04
474.369	3002.8
474.74	2992.41
475.112	3044.38
475.484	3068.56
475.855	3186.75
476.227	3187.2
476.598	3241.89
476.97	3266.3
477.341	3323.47
477.713	3323.25
478.084	3346.52
478.455	3453.19
478.827	3442.56
479.198	3550.58
479.569	3536.12
479.94	3628.32
480.311	3639.62
480.682	3701.09
481.053	3746.06
481.424	3824.7
481.795	3825.15
482.166	3872.84
482.537	3912.83
482.908	3984.92
483.279	3997.58
483.65	4081.42
484.021	4120.06
484.391	4208.19
484.762	4177.23
485.133	4225.37
485.503	4290.68
485.874	4346.5
486.244	4362.09
486.615	4454.97
486.985	4481.18
487.356	4557.34
487.726	4570.44
488.097	4661.06
488.467	4607.73
488.837	4727.5
489.207	4739.03
489.578	4848.86
489.948	4856.99
490.318	4943.77
490.688	4922.75
491.058	4999.36
491.428	5033.48
491.798	5066.93
492.168	5160.94
492.538	5191.22
492.908	5196.19
493.278	5227.83
493.648	5250.65
494.017	5337.43
494.387	5307.6
494.757	5372.68
495.126	5398.67
495.496	5373.36
495.866	5447.71
496.235	5497.65
496.605	5521.38
496.974	5583.3
497.344	5554.83
497.713	5615.39
498.082	5648.83
498.452	5719.12
498.821	5679.12
499.19	5680.7
499.559	5758.21
499.928	5796.4
500.298	5826.46
500.667	5843.41
501.036	5787.81
501.405	5858.77
501.774	5875.72
502.143	5885.21
502.512	5893.8
502.88	5957.75
503.249	5943.06
503.618	5943.06
503.987	5995.72
504.356	6012.44
504.724	6113.46
505.093	6043.17
505.462	6099.44
505.83	6065.77
506.199	6064.87
506.567	6192.1
506.936	6202.27
507.304	6198.88
507.672	6199.78
508.041	6249.95
508.409	6291.08
508.777	6312.32
509.145	6347.35
509.514	6342.6
509.882	6367.91
510.25	6354.8
510.618	6389.61
510.986	6382.37
511.354	6459.43
511.722	6489.26
512.09	6519.09
512.458	6443.39
512.826	6479.32
513.193	6512.77
513.561	6503.5
513.929	6556.83
514.297	6554.8
514.664	6581.92
515.032	6537.17
515.4	6637.28
515.767	6626.66
516.135	6636.83
516.502	6565.65
516.869	6658.75
517.237	6682.48
517.604	6689.94
517.972	6701.24
518.339	6712.31
518.706	6712.54
519.073	6725.19
519.44	6716.83
519.808	6801.8
520.175	6786.43
520.542	6838.86
520.909	6859.88
521.276	6810.61
521.643	6864.4
522.009	6894.45
522.376	6906.43
522.743	6917.5
523.11	6986.65
523.477	7009.7
523.843	6937.61
524.21	7007.44
524.577	7049.93
524.943	7066.88
525.31	7073.66
525.676	7102.13
526.043	7133.77
526.409	7171.73
526.776	7176.25
527.142	7183.03
527.508	7215.12
527.874	7217.61
528.241	7255.12
528.607	7291.5
528.973	7333.76
529.339	7270.94
529.705	7337.83
530.071	7374.89
530.437	7362.46
530.803	7411.5
531.169	7432.52
531.535	7386.19
531.901	7373.99
532.267	7461.44
532.632	7508.9
532.998	7533.76
533.364	7522.68
533.73	7524.04
534.095	7536.92
534.461	7516.13
534.826	7573.53
535.192	7591.61
535.557	7546.41
535.923	7587.31
536.288	7622.57
536.653	7621.44
537.019	7538.28
537.384	7553.19
537.749	7607.2
538.114	7647.65
538.479	7638.84
538.845	7587.54
539.21	7606.75
539.575	7644.71
539.94	7644.49
540.305	7649.91
540.67	7641.55
541.034	7718.38
541.399	7681.78
541.764	7685.39
542.129	7669.35
542.494	7652.85
542.858	7679.06
543.223	7741.66
543.587	7738.5
543.952	7676.35
544.316	7732.85
544.681	7728.1
545.045	7769.91
545.41	7748.21
545.774	7748.67
546.138	7738.05
546.503	7735.56
546.867	7750.93
547.231	7766.29
547.595	7798.16
547.959	7813.07
548.324	7817.82
548.688	7791.83
549.052	7787.99
549.416	7806.97
549.779	7860.08
550.143	7838.16
550.507	7833.41
550.871	7896.69
551.235	7853.3
551.599	7879.28
551.962	7860.08
552.326	7927.19
552.689	7918.83
553.053	7852.84
553.417	7947.31
553.78	7973.29
554.143	7950.24
554.507	7996.57
554.87	7930.13
555.234	7985.95
555.597	7961.09
555.96	7987.76
556.323	7996.12
556.686	8004.7
557.05	8050.13
557.413	8029.56
557.776	8077.02
558.139	8125.83
558.502	8061.88
558.865	8141.65
559.228	8124.25
559.59	8236.79
559.953	8189.11
560.316	8196.11
560.679	8165.83
561.041	8267.75
561.404	8284.25
561.767	8324.02
562.129	8257.58
562.492	8364.02
562.854	8386.84
563.217	8336
563.579	8379.16
563.941	8382.77
564.304	8384.13
564.666	8497.57
565.028	8505.93
565.39	8517.69
565.753	8510.91
566.115	8564.01
566.477	8561.3
566.839	8588.64
567.201	8686.95
567.563	8655.54
567.925	8729.21
568.287	8784.35
568.648	8723.33
569.01	8782.09
569.372	8800.16
569.734	8810.56
570.095	8890.33
570.457	8851.46
570.819	8934.4
571.18	8959.48
571.542	8974.85
571.903	9051.91
572.265	9039.48
572.626	9055.07
572.987	9069.76
573.349	9161.96
573.71	9135.3
574.071	9137.56
574.432	9165.58
574.794	9280.6
575.155	9214.62
575.516	9199.02
575.877	9233.15
576.238	9329.64
576.599	9339.81
576.96	9326.25
577.32	9377.78
577.681	9446.47
578.042	9465.68
578.403	9459.81
578.763	9512.46
579.124	9540.03
579.485	9568.05
579.845	9621.84
580.206	9610.99
580.566	9542.97
580.927	9722.4
581.287	9662.51
581.648	9659.12
582.008	9732.12
582.368	9807.14
582.728	9820.93
583.089	9813.24
583.449	9836.07
583.809	9858.22
584.169	9925.78
584.529	9894.15
584.889	9952.68
585.249	9918.55
585.609	9895.73
585.969	10035.61
586.329	9966.46
586.688	10020.92
587.048	10049.62
587.408	10042.84
587.768	10101.37
588.127	10131.65
588.487	10140.47
588.846	10234.48
589.206	10209.84
589.565	10244.19
589.925	10222.27
590.284	10272.67
590.643	10290.75
591.003	10244.87
591.362	10343.63
591.721	10332.55
592.08	10388.37
592.44	10423.4
592.799	10429.95
593.158	10430.4
593.517	10520.57
593.876	10548.14
594.235	10465.21
594.593	10470.18
594.952	10440.35
595.311	10450.74
595.67	10567.35
596.029	10611.42
596.387	10662.26
596.746	10643.05
597.104	10648.25
597.463	10615.48
597.822	10622.04
598.18	10627.46
598.538	10691.64
598.897	10763.95
599.255	10692.09
599.613	10785.42
599.972	10772.32
600.33	10817.06
600.688	10723.5
601.046	10772.09
601.404	10884.63
601.762	10896.15
602.12	10794.69
602.478	10905.65
602.836	10959.88
603.194	10888.24
603.552	10915.81
603.91	10871.3
604.268	10923.05
604.625	10862.26
604.983	10989.71
605.341	10882.6
605.698	10931.86
606.056	11052.31
606.413	10962.59
606.771	10959.2
607.128	10940.22
607.485	10985.64
607.843	11032.65
608.2	11053.89
608.557	11061.35
608.914	11062.48
609.272	11057.05
609.629	11110.61
609.986	11128.69
610.343	11146.54
610.7	11152.19
611.057	11149.93
611.414	11186.32
611.771	11138.63
612.127	11256.14
612.484	11238.74
612.841	11220.44
613.198	11243.72
613.554	11243.04
613.911	11283.49
614.267	11276.94
614.624	11234.68
614.98	11202.36
615.337	11274.68
615.693	11333.66
616.05	11371.17
616.406	11404.16
616.762	11314.45
617.118	11342.02
617.475	11299.99
617.831	11392.86
618.187	11347.44
618.543	11410.26
618.899	11356.93
619.255	11359.64
619.611	11371.4
619.967	11434.22
620.323	11464.05
620.678	11426.54
621.034	11400.1
621.39	11418.63
621.746	11398.74
622.101	11516.7
622.457	11457.5
622.812	11472.41
623.168	11459.53
623.523	11482.58
623.879	11562.35
624.234	11388.8
624.589	11490.94
624.945	11523.93
625.3	11464.27
625.655	11506.31
626.01	11544.05
626.365	11509.7
626.72	11443.48
627.075	11425.63
627.43	11452.75
627.785	11413.43
628.14	11491.17
628.495	11422.92
628.85	11432.19
629.205	11336.82
629.559	11413.65
629.914	11364.62
630.269	11407.1
630.623	11361.9
630.978	11361.68
631.332	11345.86
631.687	11373.66
632.041	11283.94
632.396	11318.74
632.75	11333.43
633.104	11299.53
633.459	11260.66
633.813	11224.73
634.167	11245.52
634.521	11240.78
634.875	11232.19
635.229	11175.24
635.583	11105.87
635.937	11131.4
636.291	11204.17
636.645	11189.93
636.999	11158.29
637.352	11182.7
637.706	11160.1
638.06	11124.85
638.413	11143.38
638.767	11173.66
639.121	11115.36
639.474	11027.9
639.828	11012.99
640.181	11019.31
640.534	11041.01
640.888	11041.69
641.241	11038.98
641.594	11021.35
641.947	11047.11
642.301	10985.87
642.654	11015.47
643.007	11031.29
643.36	10933.67
643.713	10947.45
644.066	10950.62
644.419	10909.94
644.771	10854.12
645.124	10781.81
645.477	10756.72
645.83	10664.52
646.182	10654.58
646.535	10640.57
646.888	10589.5
647.24	10563.06
647.593	10626.33
647.945	10639.89
648.298	10610.29
648.65	10499.78
649.002	10449.61
649.355	10533.23
649.707	10598.99
650.059	10591.98
650.411	10717.4
650.763	10791.98
651.115	10834.69
651.467	10798.08
651.819	10773.22
652.171	10815.7
652.523	10735.71
652.875	10831.52
653.227	10754.91
653.578	10784.52
653.93	10732.09
654.282	10769.83
654.633	10699.32
654.985	10693.67
655.337	10744.29
655.688	10782.71
656.039	10797.63
656.391	10758.98
656.742	10767.57
657.094	10718.98
657.445	10841.47
657.796	10786.55
658.147	10726.22
658.498	10819.55
658.849	10806.44
659.2	10752.88
659.551	10721.24
659.902	10785.65
660.253	10834.46
660.604	10859.77
660.955	10752.43
661.306	10810.05
661.656	10790.17
662.007	10781.58
662.358	10775.48
662.708	10819.09
663.059	10789.94
663.409	10704.52
663.76	10817.74
664.11	10771.86
664.461	10871.75
664.811	10792.88
665.161	10821.13
665.511	10765.76
665.862	10740
666.212	10735.25
666.562	10738.64
666.912	10777.97
667.262	10784.52
667.612	10774.8
667.962	10808.47
668.312	10761.92
668.662	10832.88
669.011	10825.42
669.361	10674.01
669.711	10772.32
670.06	10717.18
670.41	10656.39
670.76	10669.27
671.109	10797.85
671.459	10725.09
671.808	10631.98
672.157	10732.32
672.507	10632.88
672.856	10669.49
673.205	10706.33
673.554	10710.62
673.904	10735.93
674.253	10699.78
674.602	10745.42
674.951	10524.41
675.3	10459.33
675.649	10629.49
675.998	10614.35
676.346	10606.44
676.695	10638.53
677.044	10612.77
677.393	10621.59
677.741	10565.77
678.09	10496.39
678.438	10528.03
678.787	10519.21
679.135	10586.78
679.484	10460.91
679.832	10517.18
680.181	10461.14
680.529	10509.05
680.877	10464.53
681.225	10414.58
681.573	10456.17
681.922	10365.55
682.27	10327.81
682.618	10386.11
682.966	10298.43
683.314	10380.46
683.661	10282.61
684.009	10309.5
684.357	10200.35
684.705	10266.57
685.053	10271.99
685.4	10203.97
685.748	10127.81
686.095	10138.43
686.443	10174.59
686.79	10095.05
687.138	10146.8
687.485	10127.36
687.832	10068.38
688.18	10123.29
688.527	10097.98
688.874	9994.26
689.221	9963.07
689.568	9954.48
689.915	9883.98
690.262	9934.6
690.609	9868.38
690.956	9855.28
691.303	9789.97
691.65	9826.35
691.997	9726.47
692.344	9683.98
692.69	9723.98
693.037	9667.49
693.383	9580.71
693.73	9621.16
694.077	9566.25
694.423	9567.83
694.769	9467.94
695.116	9476.98
695.462	9440.15
695.808	9430.66
696.155	9474.5
696.501	9332.13
696.847	9375.74
697.193	9242.41
697.539	9309.98
697.885	9202.87
698.231	9200.38
698.577	9212.13
698.923	9139.14
699.269	9082.64
699.614	9063.66
699.96	9020.05
700.306	9004.68
700.651	9005.13
700.997	8917.45
701.342	8962.19
701.688	8848.52
702.033	8861.41
702.379	8835.87
702.724	8795.87
703.069	8776.44
703.415	8705.48
703.76	8758.81
704.105	8735.08
704.45	8678.81
704.795	8648.53
705.14	8547.52
705.485	8593.84
705.83	8600.85
706.175	8578.02
706.52	8528.08
706.865	8529.21
707.209	8467.29
707.554	8430.68
707.899	8449.66
708.243	8399.5
708.588	8307.52
708.932	8342.32
709.277	8310.91
709.621	8358.59
709.966	8246.73
710.31	8261.2
710.654	8223.46
710.998	8216.9
711.342	8243.79
711.687	8180.29
712.031	8163.8
712.375	8178.26
712.719	8141.65
713.063	8090.13
713.407	8131.93
713.75	8051.94
714.094	8135.1
714.438	8088.09
714.782	7987.53
715.125	8019.85
715.469	7982.56
715.812	7954.54
716.156	7937.59
716.499	7967.87
716.843	7965.84
717.186	7888.55
717.53	7966.97
717.873	7955.89
718.216	7859.17
718.559	7885.39
718.902	7796.57
719.246	7839.51
719.589	7824.14
719.932	7762.9
720.275	7797.03
720.617	7829.34
720.96	7812.85
721.303	7760.87
721.646	7791.15
721.989	7670.25
722.331	7796.12
722.674	7751.6
723.016	7762.23
723.359	7714.54
723.701	7777.37
724.044	7757.71
724.386	7632.74
724.729	7682.68
725.071	7631.38
725.413	7628.22
725.755	7655.79
726.097	7632.06
726.439	7552.51
726.782	7627.99
727.124	7653.75
727.465	7555.23
727.807	7630.48
728.149	7666.41
728.491	7664.15
728.833	7594.32
729.175	7618.5
729.516	7648.33
729.858	7538.73
730.199	7598.16
730.541	7545.73
730.882	7536.24
731.224	7595.68
731.565	7517.03
731.906	7552.74
732.248	7576.47
732.589	7502.35
732.93	7513.42
733.271	7499.63
733.612	7544.83
733.953	7560.65
734.294	7515.9
734.635	7502.57
734.976	7500.76
735.317	7500.54
735.658	7521.55
735.999	7555
736.339	7524.27
736.68	7523.81
737.021	7540.54
737.361	7507.54
737.702	7543.25
738.042	7565.85
738.383	7587.31
738.723	7566.52
739.063	7531.27
739.404	7600.87
739.744	7596.35
740.084	7535.34
740.424	7606.98
740.764	7577.15
741.104	7616.47
741.444	7589.12
741.784	7634.09
742.124	7657.82
742.464	7629.35
742.804	7649.91
743.143	7695.56
743.483	7678.84
743.823	7697.59
744.162	7730.36
744.502	7738.5
744.841	7790.47
745.181	7829.34
745.52	7819.85
745.86	7872.5
746.199	7887.87
746.538	7930.81
746.877	7938.27
747.216	8020.07
747.556	8020.98
747.895	8051.48
748.234	8077.7
748.573	8076.34
748.911	8226.39
749.25	8171.93
749.589	8263.46
749.928	8355.43
750.267	8431.36
750.605	8423.9
750.944	8460.96
751.283	8539.15
751.621	8630.23
751.96	8727.4
752.298	8784.57
752.636	8886.04
752.975	8942.08
753.313	8964.45
753.651	9146.6
753.989	9204.45
754.327	9324.22
754.666	9403.76
755.004	9532.57
755.342	9687.15
755.679	9700.71
756.017	9823.19
756.355	9959.91
756.693	10080.36
757.031	10210.3
757.368	10327.13
757.706	10427.24
758.044	10499.1
758.381	10815.25
758.719	10925.08
759.056	11085.98
759.394	11164.17
759.731	11248.01
760.068	11344.28
760.405	11559.41
760.743	11587.44
761.08	11844.38
761.417	11990.36
761.754	12112.62
762.091	12282.11
762.428	12429
762.765	12527.07
763.102	12757.12
