Data from hue_70_FLMS001491_66.txt Node
Date: Mon Feb 06 15:21:16 GMT 2017
User: dcchb
Spectrometer: FLMS00149
Trigger mode: 0
Integration Time (sec): 2.000000E-2
Scans to average: 10
Electric dark correction enabled: true
Nonlinearity correction enabled: false
Boxcar width: 0
XAxis mode: Wavelengths
Number of Pixels in Spectrum: 2048
>>>>>Begin Spectral Data<<<<<
341.393	-14.65
341.776	-14.65
342.16	-14.65
342.543	-57.58
342.927	-58.94
343.31	-72.27
343.693	-63.68
344.077	-57.81
344.46	-49.45
344.843	-63.68
345.226	-36.79
345.61	-19.39
345.993	-13.52
346.376	-18.49
346.759	21.74
347.142	34.17
347.525	35.07
347.908	58.35
348.291	64.45
348.674	80.04
349.057	101.28
349.44	139.47
349.823	166.37
350.206	141.51
350.588	179.7
350.971	213.6
351.354	222.18
351.737	240.26
352.119	244.1
352.502	277.55
352.884	259.02
353.267	275.97
353.65	277.55
354.032	284.78
354.414	303.99
354.797	316.87
355.179	320.71
355.562	312.35
355.944	304.67
356.326	332.46
356.709	332.91
357.091	340.37
357.473	328.4
357.855	354.16
358.238	338.79
358.62	339.69
359.002	340.15
359.384	347.15
359.766	333.59
360.148	334.27
360.53	343.08
360.912	332.24
361.294	344.89
361.676	347.15
362.057	333.37
362.439	321.16
362.821	312.58
363.203	309.41
363.584	334.04
363.966	314.61
364.348	329.3
364.729	331.11
365.111	320.49
365.493	322.52
365.874	327.94
366.256	322.52
366.637	306.93
367.019	317.1
367.4	304.44
367.781	315.06
368.163	292.01
368.544	311.67
368.925	317.1
369.306	308.51
369.688	304.67
370.069	316.19
370.45	315.06
370.831	307.38
371.212	304.67
371.593	311.67
371.974	286.14
372.355	323.2
372.736	305.8
373.117	324.1
373.498	313.03
373.879	306.7
374.26	312.12
374.641	320.03
375.021	316.87
375.402	322.97
375.783	327.94
376.163	322.52
376.544	319.13
376.925	308.51
377.305	333.59
377.686	320.94
378.066	302.86
378.447	341.05
378.827	329.53
379.208	341.05
379.588	334.95
379.968	339.47
380.349	333.37
380.729	321.16
381.109	335.17
381.489	323.42
381.87	331.79
382.25	313.93
382.63	318.68
383.01	318.68
383.39	351.67
383.77	343.31
384.15	337.21
384.53	348.96
384.91	356.64
385.29	350.99
385.67	340.37
386.049	341.05
386.429	352.12
386.809	354.84
387.189	331.11
387.568	337.66
387.948	329.98
388.328	355.06
388.707	332.91
389.087	334.95
389.466	362.97
389.846	364.1
390.225	340.82
390.605	361.39
390.984	338.56
391.363	370.43
391.743	346.7
392.122	341.73
392.501	363.2
392.881	362.29
393.26	382.41
393.639	367.94
394.018	376.76
394.397	356.64
394.776	351.22
395.155	360.48
395.534	348.73
395.913	393.48
396.292	373.14
396.671	392.12
397.05	356.64
397.429	379.92
397.808	367.04
398.186	361.39
398.565	358.68
398.944	383.76
399.323	370.2
399.701	369.3
400.08	378.34
400.458	368.17
400.837	399.81
401.215	402.74
401.594	401.16
401.972	383.76
402.351	398.9
402.729	379.92
403.107	400.26
403.486	396.64
403.864	398.22
404.242	401.39
404.62	388.96
404.999	399.35
405.377	400.48
405.755	421.05
406.133	421.73
406.511	399.13
406.889	384.89
407.267	385.79
407.645	428.96
408.023	417.21
408.401	440.93
408.779	389.18
409.156	417.66
409.534	404.78
409.912	452.23
410.29	438
410.667	441.16
411.045	438.67
411.422	438
411.8	430.54
412.178	448.84
412.555	427.6
412.933	435.96
413.31	454.27
413.687	466.7
414.065	451.78
414.442	485.45
414.819	439.13
415.197	463.08
415.574	483.65
415.951	454.95
416.328	469.63
416.705	479.35
417.082	480.71
417.46	491.1
417.837	468.96
418.214	467.37
418.591	496.07
418.967	483.65
419.344	481.16
419.721	519.12
420.098	498.56
420.475	507.6
420.852	530.42
421.228	520.03
421.605	506.02
421.982	515.74
422.358	502.4
422.735	533.59
423.111	525.9
423.488	519.58
423.864	522.29
424.241	548.95
424.617	543.76
424.994	544.21
425.37	537.2
425.746	547.82
426.123	536.75
426.499	549.18
426.875	562.97
427.251	546.02
427.627	566.81
428.003	566.13
428.379	562.51
428.756	540.14
429.132	569.29
429.507	582.17
429.883	604.32
430.259	582.17
430.635	581.95
431.011	566.58
431.387	616.98
431.763	600.48
432.138	591.44
432.514	604.09
432.89	593.47
433.265	649.97
433.641	626.24
434.016	630.31
434.392	628.73
434.767	649.97
435.143	663.08
435.518	662.17
435.894	650.19
436.269	657.43
436.644	648.16
437.02	653.81
437.395	654.71
437.77	697.88
438.145	677.31
438.52	709.18
438.895	700.14
439.271	701.04
439.646	723.41
440.021	716.63
440.395	697.2
440.77	722.74
441.145	703.3
441.52	731.32
441.895	744.66
442.27	742.62
442.645	746.01
443.019	730.42
443.394	756.63
443.769	755.05
444.143	747.14
444.518	752.11
444.892	755.05
445.267	753.24
445.641	738.33
446.016	776.29
446.39	789.85
446.764	777.88
447.139	795.28
447.513	800.02
447.887	782.39
448.262	821.72
448.636	808.16
449.01	797.76
449.384	816.29
449.758	809.06
450.132	825.33
450.506	831.88
450.88	825.78
451.254	830.3
451.628	843.18
452.002	863.97
452.376	833.69
452.75	852.68
453.123	884.31
453.497	884.54
453.871	872.34
454.244	913.69
454.618	914.59
454.992	907.14
455.365	914.59
455.739	945.55
456.112	919.11
456.486	951.43
456.859	913.24
457.232	985.55
457.606	972.9
457.979	975.61
458.352	997.3
458.725	1004.31
459.099	1012.67
459.472	1015.38
459.845	1027.13
460.218	1040.02
460.591	1048.15
460.964	1063.29
461.337	1075.49
461.71	1110.52
462.083	1116.85
462.456	1109.39
462.829	1134.93
463.201	1120.24
463.574	1157.3
463.947	1151.2
464.32	1191.42
464.692	1213.12
465.065	1208.6
465.438	1246.79
465.81	1243.4
466.183	1257.18
466.555	1310.97
466.928	1320.69
467.3	1308.71
467.672	1308.26
468.045	1345.09
468.417	1373.11
468.789	1381.25
469.161	1429.84
469.534	1449.04
469.906	1450.63
470.278	1474.35
470.65	1504.41
471.022	1535.6
471.394	1575.14
471.766	1608.81
472.138	1621.47
472.51	1660.11
472.882	1690.39
473.253	1741.69
473.625	1743.27
473.997	1800.9
474.369	1829.6
474.74	1877.28
475.112	1908.47
475.484	1982.14
475.855	1996.6
476.227	2048.12
476.598	2072.76
476.97	2130.16
477.341	2211.06
477.713	2242.92
478.084	2273.88
478.455	2357.95
478.827	2384.61
479.198	2492.86
479.569	2546.19
479.94	2620.31
480.311	2731.95
480.682	2802.45
481.053	2837.03
481.424	2930.36
481.795	2994.99
482.166	3067.08
482.537	3184.14
482.908	3288.54
483.279	3342.1
483.65	3450.8
484.021	3551.36
484.391	3636.33
484.762	3721.07
485.133	3848.08
485.503	3909.54
485.874	4068.64
486.244	4138.46
486.615	4266.37
486.985	4380.49
487.356	4512.01
487.726	4603.31
488.097	4763.31
488.467	4858.9
488.837	4992.23
489.207	5113.13
489.578	5257.98
489.948	5400.35
490.318	5499.78
490.688	5563.74
491.058	5789.27
491.428	5858.42
491.798	6007.34
492.168	6272.42
492.538	6325.53
492.908	6446.65
493.278	6622.69
493.648	6695.01
494.017	6890.03
494.387	6994.66
494.757	7205.73
495.126	7327.08
495.496	7350.36
495.866	7508.09
496.235	7702.66
496.605	7835.77
496.974	7922.09
497.344	8039.38
497.713	8215.19
498.082	8390.56
498.452	8529.08
498.821	8623.09
499.19	8726.14
499.559	8890.66
499.928	9022.63
500.298	9148.5
500.667	9263.08
501.036	9322.06
501.405	9533.13
501.774	9612.44
502.143	9793.91
502.512	9774.93
502.88	10061.47
503.249	10093.11
503.618	10231.41
503.987	10320.9
504.356	10430.73
504.724	10562.7
505.093	10594.34
505.462	10686.54
505.83	10863.94
506.199	10986.42
506.567	11154.55
506.936	11244.94
507.304	11412.62
507.672	11511.38
508.041	11547.99
508.409	11663.01
508.777	11793.86
509.145	11917.47
509.514	11991.37
509.882	12117.92
510.25	12208.76
510.618	12316.33
510.986	12344.12
511.354	12564.01
511.722	12676.55
512.09	12795.86
512.458	12768.75
512.826	12984.79
513.193	13122.64
513.561	13114.05
513.929	13198.34
514.297	13364.66
514.664	13426.58
515.032	13572.34
515.4	13679
515.767	13684.65
516.135	13914.25
516.502	13829.51
516.869	14110.63
517.237	14152.44
517.604	14000.58
517.972	14303.62
518.339	14358.08
518.706	14371.42
519.073	14564.63
519.44	14617.74
519.808	14810.27
520.175	14811.86
520.542	14981.12
520.909	14995.13
521.276	15001.46
521.643	15223.37
522.009	15264.73
522.376	15483.93
522.743	15544.94
523.11	15561.22
523.477	15721.21
523.843	15766.63
524.21	15974.31
524.577	16039.17
524.943	16163.69
525.31	16156.23
525.676	16273.51
526.043	16377.24
526.409	16459.5
526.776	16541.08
527.142	16555.09
527.508	16746.27
527.874	16817.45
528.241	16878.47
528.607	16848.19
528.973	17092.25
529.339	17083.89
529.705	17189.87
530.071	17318.46
530.437	17339.7
530.803	17481.62
531.169	17469.19
531.535	17449.3
531.901	17538.11
532.267	17669.41
532.632	17752.8
532.998	17776.3
533.364	17748.28
533.73	17781.72
534.095	17945.79
534.461	18003.41
534.826	18063.52
535.192	18130.64
535.557	18194.37
535.923	18258.09
536.288	18231.88
536.653	18303.29
537.019	18233.46
537.384	18323.18
537.749	18317.53
538.114	18267.13
538.479	18341.48
538.845	18421.7
539.21	18401.37
539.575	18421.7
539.94	18418.77
540.305	18588.71
540.67	18478.2
541.034	18611.3
541.399	18571.31
541.764	18705.77
542.129	18684.07
542.494	18679.78
542.858	18726.33
543.223	18707.57
543.587	18773.79
543.952	18826.21
544.316	18833.22
544.681	18804.29
545.045	18898.08
545.41	18918.19
545.774	18978.53
546.138	18869.15
546.503	18952.31
546.867	18830.28
547.231	19055.59
547.595	18997.06
547.959	19000.67
548.324	19034.57
548.688	19077.28
549.052	19124.74
549.416	19087
549.779	19091.07
550.143	19051.07
550.507	19283.38
550.871	19284.96
551.235	19260.33
551.599	19328.57
551.962	19316.82
552.326	19322.25
552.689	19439.53
553.053	19286.99
553.417	19421.23
553.78	19569.7
554.143	19454.22
554.507	19546.2
554.87	19603.82
555.234	19702.58
555.597	19604.72
555.96	19580.32
556.323	19690.37
556.686	19673.65
557.05	19734.66
557.413	19833.87
557.776	19936.24
558.139	19944.15
558.502	19959.29
558.865	19968.56
559.228	20052.62
559.59	20200.87
559.953	20174.88
560.316	20350.47
560.679	20254.43
561.041	20441.31
561.404	20447.64
561.767	20505.04
562.129	20453.06
562.492	20715.88
562.854	20602.89
563.217	20601.53
563.579	20702.32
563.941	20758.59
564.304	20884.24
564.666	20867.29
565.028	20931.92
565.39	20956.33
565.753	21096.21
566.115	21114.97
566.477	21155.19
566.839	21245.13
567.201	21273.38
567.563	21415.98
567.925	21501.4
568.287	21505.69
568.648	21434.51
569.01	21599.47
569.372	21769.19
569.734	21703.43
570.095	21807.15
570.457	21822.29
570.819	21775.29
571.18	21862.52
571.542	22023.64
571.903	22032.46
572.265	22123.75
572.626	22082.4
572.987	22136.41
573.349	22196.97
573.71	22182.06
574.071	22204.88
574.432	22292.56
574.794	22448.27
575.155	22409.4
575.516	22349.96
575.877	22416.4
576.238	22445.33
576.599	22624.31
576.96	22547.92
577.32	22638.77
577.681	22640.13
578.042	22729.39
578.403	22649.84
578.763	22761.25
579.124	22615.94
579.485	22872.66
579.845	22938.87
580.206	22829.95
580.566	22790.18
580.927	22749.95
581.287	22859.78
581.648	22843.28
582.008	23038.98
582.368	22783.62
582.728	22928.48
583.089	22887.58
583.449	22944.3
583.809	22883.96
584.169	22906.11
584.529	22907.24
584.889	23111.98
585.249	22987.69
585.609	22818.65
585.969	23063.84
586.329	22840.57
586.688	22970.06
587.048	22970.51
587.408	22999.89
587.768	22870.18
588.127	22885.32
588.487	22902.49
588.846	23008.48
589.206	22849.84
589.565	22883.06
589.925	22971.64
590.284	23035.37
590.643	22913.34
591.003	22951.53
591.362	22986.56
591.721	22901.14
592.08	23000.79
592.44	23001.25
592.799	22939.1
593.158	22921.02
593.517	23023.84
593.876	22966.22
594.235	22950.4
594.593	22913.56
594.952	23095.48
595.311	22881.25
595.67	22959.66
596.029	23132.99
596.387	23052.54
596.746	23114.69
597.104	23015.03
597.463	23111.07
597.822	23142.94
598.18	22973.9
598.538	23024.75
598.897	23175.48
599.255	22844.41
599.613	23276.49
599.972	23130.51
600.33	23264.06
600.688	23044.18
601.046	23282.14
601.404	23231.3
601.762	23262.03
602.12	23295.48
602.478	23360.11
602.836	23319.43
603.194	23205.99
603.552	23274.68
603.91	23215.48
604.268	23320.79
604.625	23248.47
604.983	23316.27
605.341	23228.81
605.698	23350.84
606.056	23398.52
606.413	23441.01
606.771	23512.87
607.128	23527.56
607.485	23345.64
607.843	23337.28
608.2	23601.23
608.557	23629.93
608.914	23474.68
609.272	23540.67
609.629	23704.05
609.986	23736.37
610.343	23493.89
610.7	23849.13
611.057	23773.65
611.414	23626.77
611.771	23783.6
612.127	23826.53
612.484	23826.99
612.841	23986.08
613.198	23877.83
613.554	23897.72
613.911	24007.77
614.267	24059.52
614.624	24092.52
614.98	24113.31
615.337	24175.45
615.693	24145.85
616.05	24147.88
616.406	24234.21
616.762	24021.78
617.118	24149.69
617.475	24160.99
617.831	24313.75
618.187	24273.3
618.543	24297.48
618.899	24430.59
619.255	24371.15
619.611	24450.25
619.967	24457.93
620.323	24444.82
620.678	24272.62
621.034	24216.35
621.39	24346.97
621.746	24312.4
622.101	24562.33
622.457	24412.28
622.812	24503.35
623.168	24502.9
623.523	24566.85
623.879	24570.7
624.234	24472.85
624.589	24635.78
624.945	24586.29
625.3	24554.65
625.655	24526.63
626.01	24591.94
626.365	24707.42
626.72	24626.29
627.075	24578.83
627.43	24590.81
627.785	24531.83
628.14	24588.1
628.495	24727.75
628.85	24616.8
629.205	24545.84
629.559	24654.99
629.914	24516.91
630.269	24601.88
630.623	24523.69
630.978	24505.61
631.332	24655.89
631.687	24620.19
632.041	24536.8
632.396	24536.8
632.75	24410.7
633.104	24589.9
633.459	24297.71
633.813	24302.68
634.167	24424.48
634.521	24383.58
634.875	24430.36
635.229	24334.54
635.583	24203.47
635.937	24275.11
636.291	24240.99
636.645	24170.93
636.999	24152.63
637.352	24226.52
637.706	24160.54
638.06	24223.81
638.413	24193.3
638.767	24239.63
639.121	24153.53
639.474	23957.83
639.828	24048
640.181	24111.95
640.534	24000.32
640.888	23899.53
641.241	23923.71
641.594	23954.44
641.947	24009.13
642.301	23912.86
642.654	23919.41
643.007	24034.89
643.36	23963.25
643.713	23775.24
644.066	23941.33
644.419	23793.99
644.771	23546.77
645.124	23440.56
645.477	23458.18
645.83	23166.44
646.182	23223.39
646.535	23037.85
646.888	23180.45
647.24	23036.5
647.593	23182.48
647.945	23025.65
648.298	23008.02
648.65	22891.19
649.002	22937.29
649.355	23084.18
649.707	22936.84
650.059	23021.58
650.411	23359.43
650.763	23377.73
651.115	23599.87
651.467	23531.4
651.819	23611.4
652.171	23530.72
652.523	23557.39
652.875	23456.83
653.227	23361.91
653.578	23523.94
653.93	23535.24
654.282	23410.73
654.633	23354.68
654.985	23440.78
655.337	23410.73
655.688	23402.36
656.039	23536.37
656.391	23258.64
656.742	23384.29
657.094	23317.4
657.445	23365.08
657.796	23390.16
658.147	23359.65
658.498	23294.35
658.849	23427.22
659.2	23330.05
659.551	23305.87
659.902	23445.98
660.253	23369.82
660.604	23350.16
660.955	23283.5
661.306	23435.13
661.656	23388.35
662.007	23343.84
662.358	23289.37
662.708	23384.06
663.059	23342.48
663.409	23348.58
663.76	23389.26
664.11	23431.74
664.461	23400.33
664.811	23330.05
665.161	23357.17
665.511	23257.06
665.862	23338.64
666.212	23448.47
666.562	23421.12
666.912	23375.25
667.262	23270.84
667.612	23377.51
667.962	23294.57
668.312	23260.22
668.662	23410.05
669.011	23258.64
669.361	23344.97
669.711	23207.12
670.06	23322.82
670.41	23206.66
670.76	23198.3
671.109	23285.98
671.459	23161.92
671.808	23189.94
672.157	23257.28
672.507	23121.02
672.856	23211.86
673.205	23064.97
673.554	23279.66
673.904	23068.59
674.253	23219.54
674.602	23158.08
674.951	22758.09
675.3	22728.03
675.649	22977.52
675.998	22912.43
676.346	23076.72
676.695	23172.77
677.044	22890.74
677.393	23022.49
677.741	23022.94
678.09	22943.85
678.438	22880.8
678.787	22846.9
679.135	22839.44
679.484	22696.39
679.832	22813.91
680.181	22654.36
680.529	22751.08
680.877	22629.96
681.225	22588.6
681.573	22641.03
681.922	22558.32
682.27	22565.55
682.618	22558.32
682.966	22437.87
683.314	22550.86
683.661	22516.96
684.009	22361.94
684.357	22249.63
684.705	22231.1
685.053	22265.9
685.4	22246.69
685.748	22156.75
686.095	22180.7
686.443	22089.41
686.79	22006.92
687.138	22021.84
687.485	22068.84
687.832	21875.17
688.18	21906.59
688.527	21850.09
688.874	21838.56
689.221	21693.48
689.568	21646.93
689.915	21724.89
690.262	21649.87
690.609	21497.78
690.956	21384.34
691.303	21407.84
691.65	21341.63
691.997	21280.39
692.344	21152.48
692.69	21089.21
693.037	21236.09
693.383	20993.39
693.73	21032.26
694.077	20976.89
694.423	20906.61
694.769	20817.12
695.116	20753.85
695.462	20804.47
695.808	20666.39
696.155	20768.54
696.501	20596.34
696.847	20505.27
697.193	20355.21
697.539	20333.97
697.885	20361.54
698.231	20207.65
698.577	20276.12
698.923	20211.94
699.269	19943.47
699.614	19866.41
699.96	19840.65
700.306	19915
700.651	19710.48
700.997	19732.63
701.342	19724.5
701.688	19597.72
702.033	19508.46
702.379	19488.57
702.724	19425.97
703.069	19455.12
703.415	19238.86
703.76	19307.11
704.105	19354.56
704.45	19143.95
704.795	19154.79
705.14	19115.92
705.485	19073.67
705.83	19004.74
706.175	18978.75
706.52	18917.29
706.865	18856.5
707.209	18809.94
707.554	18753
707.899	18745.99
708.243	18630.29
708.588	18616.28
708.932	18453.34
709.277	18426.68
709.621	18529.5
709.966	18367.7
710.31	18401.14
710.654	18243.86
710.998	18245.89
711.342	18329.73
711.687	18135.61
712.031	18110.98
712.375	18011.55
712.719	18099.68
713.063	18011.77
713.407	18057.19
713.75	17980.13
714.094	18008.83
714.438	17873.7
714.782	17860.82
715.125	17738.78
715.469	17750.54
715.812	17693.14
716.156	17605.91
716.499	17731.55
716.843	17577.89
717.186	17520.26
717.53	17636.64
717.873	17598.22
718.216	17644.55
718.559	17502.86
718.902	17462.41
719.246	17390.77
719.589	17294.95
719.932	17320.49
720.275	17280.04
720.617	17317.55
720.96	17218.35
721.303	17217.67
721.646	17232.13
721.989	17040.27
722.331	17141.96
722.674	17145.81
723.016	17179.25
723.359	17084.56
723.701	17082.31
724.044	16962.99
724.386	16896.1
724.729	17040.5
725.071	16984.68
725.413	16993.72
725.755	17001.4
726.097	16862.65
726.439	16819.94
726.782	16782.43
727.124	16967.96
727.465	16771.35
727.807	16726.61
728.149	16717.57
728.491	16752.37
728.833	16742.43
729.175	16742.43
729.516	16689.1
729.858	16684.8
730.199	16724.8
730.541	16658.14
730.882	16664.24
731.224	16689.77
731.565	16591.7
731.906	16600.06
732.248	16573.62
732.589	16531.81
732.93	16451.81
733.271	16518.93
733.612	16510.12
733.953	16518.48
734.294	16450.23
734.635	16415.2
734.976	16544.69
735.317	16476.9
735.658	16409.33
735.999	16386.28
736.339	16406.62
736.68	16446.84
737.021	16414.75
737.361	16265.83
737.702	16374.08
738.042	16352.15
738.383	16319.16
738.723	16392.38
739.063	16391.7
739.404	16308.54
739.744	16315.77
740.084	16265.83
740.424	16377.24
740.764	16338.82
741.104	16338.82
741.444	16263.12
741.784	16285.94
742.124	16252.04
742.464	16251.59
742.804	16378.14
743.143	16380.85
743.483	16351.25
743.823	16265.83
744.162	16302.21
744.502	16407.07
744.841	16359.39
745.181	16321.2
745.52	16419.05
745.86	16393.96
746.199	16457.01
746.538	16425.83
746.877	16475.09
747.216	16543.79
747.556	16524.81
747.895	16604.58
748.234	16448.2
748.573	16565.93
748.911	16554.18
749.25	16626.72
749.589	16679.6
749.928	16657.68
750.267	16756.44
750.605	16769.54
750.944	16749.88
751.283	16821.29
751.621	16966.6
751.96	16958.24
752.298	16954.4
752.636	17004.57
752.975	17071.23
753.313	17043.66
753.651	17219.02
753.989	17174.05
754.327	17250.21
754.666	17288.85
755.004	17325.91
755.342	17427.38
755.679	17433.71
756.017	17465.57
756.355	17585.57
756.693	17639.13
