Data from hue_32_FLMS001491_00001.txt Node
Date: Tue Feb 07 17:22:49 GMT 2017
User: dcchb
Spectrometer: FLMS00149
Trigger mode: 0
Integration Time (sec): 2.000000E-2
Scans to average: 10
Electric dark correction enabled: true
Nonlinearity correction enabled: false
Boxcar width: 0
XAxis mode: Wavelengths
Number of Pixels in Spectrum: 2048
>>>>>Begin Spectral Data<<<<<
341.393	-21.23
341.776	-21.23
342.16	-21.23
342.543	-58.97
342.927	-73.88
343.31	-69.59
343.693	-71.4
344.077	-70.27
344.46	-70.72
344.843	-60.32
345.226	-39.08
345.61	-18.97
345.993	-18.29
346.376	7.02
346.759	18.09
347.142	25.55
347.525	40.47
347.908	58.09
348.291	56.96
348.674	102.38
349.057	110.07
349.44	125.43
349.823	145.32
350.206	162.27
350.588	207.24
350.971	193.68
351.354	227.8
351.737	257.86
352.119	267.8
352.502	266.67
352.884	254.7
353.267	269.61
353.65	300.12
354.032	295.83
354.414	291.98
354.797	324.98
355.179	341.25
355.562	308.25
355.944	319.55
356.326	344.64
356.709	338.31
357.091	353.45
357.473	353
357.855	333.79
358.238	332.21
358.62	355.03
359.002	348.93
359.384	370.17
359.766	340.34
360.148	354.36
360.53	334.47
360.912	334.02
361.294	342.15
361.676	340.34
362.057	347.58
362.439	344.41
362.821	320.68
363.203	353
363.584	337.86
363.966	324.07
364.348	340.8
364.729	345.99
365.111	323.85
365.493	313.68
365.874	341.02
366.256	335.82
366.637	309.16
367.019	307.58
367.4	338.76
367.781	347.12
368.163	313.45
368.544	315.94
368.925	315.03
369.306	335.82
369.688	308.71
370.069	334.92
370.45	312.77
370.831	331.76
371.212	330.17
371.593	326.33
371.974	306.22
372.355	334.69
372.736	339.44
373.117	315.49
373.498	323.4
373.879	322.27
374.26	345.32
374.641	327.46
375.021	316.84
375.402	311.87
375.783	322.94
376.163	353.45
376.544	333.11
376.925	333.34
377.305	310.06
377.686	331.53
378.066	331.3
378.447	335.37
378.827	355.71
379.208	339.89
379.588	332.89
379.968	333.56
380.349	342.38
380.729	329.05
381.109	334.02
381.489	340.12
381.87	353
382.25	353.45
382.63	340.34
383.01	329.5
383.39	338.08
383.77	354.36
384.15	363.85
384.53	348.48
384.91	352.1
385.29	366.56
385.67	350.74
386.049	382.15
386.429	356.39
386.809	356.16
387.189	371.3
387.568	354.81
387.948	362.26
388.328	365.2
388.707	356.39
389.087	360.91
389.466	362.49
389.846	347.58
390.225	352.1
390.605	378.76
390.984	366.78
391.363	386.44
391.743	375.6
392.122	373.79
392.501	375.6
392.881	357.97
393.26	398.2
393.639	375.6
394.018	399.55
394.397	396.16
394.776	376.28
395.155	396.84
395.534	379.67
395.913	387.57
396.292	387.57
396.671	365.43
397.05	402.49
397.429	396.84
397.808	397.74
398.186	399.78
398.565	407.91
398.944	405.88
399.323	417.86
399.701	418.08
400.08	388.7
400.458	400.23
400.837	400.46
401.215	414.92
401.594	437.97
401.972	423.05
402.351	398.65
402.729	415.14
403.107	412.43
403.486	405.88
403.864	403.39
404.242	433.9
404.62	426.44
404.999	438.19
405.377	410.4
405.755	421.47
406.133	413.34
406.511	447.01
406.889	435.48
407.267	426.67
407.645	447.46
408.023	447.69
408.401	452.43
408.779	436.61
409.156	460.57
409.534	431.64
409.912	461.24
410.29	460.12
410.667	472.77
411.045	449.49
411.422	462.6
411.8	485.88
412.178	464.63
412.555	485.2
412.933	471.19
413.31	482.26
413.687	474.13
414.065	475.03
414.442	495.37
414.819	495.37
415.197	495.82
415.574	516.84
415.951	488.14
416.328	513.9
416.705	523.39
417.082	518.87
417.46	515.03
417.837	518.42
418.214	499.21
418.591	528.36
418.967	524.29
419.344	528.36
419.721	549.38
420.098	505.76
420.475	532.66
420.852	558.19
421.228	539.43
421.605	539.66
421.982	548.47
422.358	558.87
422.735	556.38
423.111	568.13
423.488	570.85
423.864	577.4
424.241	569.49
424.617	559.1
424.994	555.25
425.37	574.01
425.746	585.99
426.123	577.17
426.499	583.73
426.875	581.47
427.251	610.62
427.627	585.99
428.003	620.79
428.379	614.69
428.756	588.7
429.132	623.5
429.507	624.86
429.883	623.95
430.259	620.34
430.635	635.48
431.011	647.23
431.387	635.7
431.763	647
432.138	642.03
432.514	658.98
432.89	658.98
433.265	697.85
433.641	685.65
434.016	657.4
434.392	678.64
434.767	706.21
435.143	686.1
435.518	700.56
435.894	719.54
436.269	717.28
436.644	739.88
437.02	730.39
437.395	738.07
437.77	759.99
438.145	757.06
438.52	759.77
438.895	757.73
439.271	770.84
439.646	767
440.021	761.8
440.395	783.95
440.77	784.4
441.145	758.64
441.52	751.41
441.895	771.97
442.27	813.33
442.645	786.21
443.019	797.96
443.394	765.42
443.769	795.7
444.143	815.13
444.518	825.3
444.892	808.58
445.267	845.64
445.641	842.03
446.016	845.87
446.39	844.29
446.764	860.1
447.139	832.53
447.513	855.81
447.887	877.28
448.262	847
448.636	871.4
449.01	865.3
449.384	872.76
449.758	875.92
450.132	900.56
450.506	880.44
450.88	890.39
451.254	901.91
451.628	919.31
452.002	920.22
452.376	947.79
452.75	944.85
453.123	952.98
453.497	947.11
453.871	955.02
454.244	980.1
454.618	995.24
454.992	987.11
455.365	1000.44
455.739	1020.78
456.112	1003.83
456.486	1022.36
456.859	1040.66
457.232	1062.81
457.606	1052.64
457.979	1070.27
458.352	1097.39
458.725	1073.43
459.099	1112.3
459.472	1135.8
459.845	1113.66
460.218	1153.43
460.591	1158.63
460.964	1131.96
461.337	1148.23
461.71	1176.25
462.083	1183.94
462.456	1181.45
462.829	1221.9
463.201	1235.24
463.574	1220.77
463.947	1248.12
464.32	1292.18
464.692	1301.9
465.065	1288.57
465.438	1308.68
465.81	1331.5
466.183	1350.71
466.555	1365.63
466.928	1372.63
467.3	1370.83
467.672	1403.82
468.045	1448.11
468.417	1464.83
468.789	1498.05
469.161	1504.38
469.534	1511.61
469.906	1514.55
470.278	1552.97
470.65	1582.12
471.022	1615.34
471.394	1630.03
471.766	1642.46
472.138	1686.3
472.51	1720.19
472.882	1747.54
473.253	1772.4
473.625	1802.68
473.997	1833.41
474.369	1829.8
474.74	1907.31
475.112	1917.7
475.484	1969.91
475.855	2009.23
476.227	1997.25
476.598	2088.55
476.97	2120.41
477.341	2146.62
477.713	2207.64
478.084	2227.07
478.455	2317.47
478.827	2351.59
479.198	2420.29
479.569	2455.32
479.94	2534.41
480.311	2566.73
480.682	2630.23
481.053	2683.11
481.424	2729.21
481.795	2801.07
482.166	2880.84
482.537	2908.41
482.908	2999.03
483.279	3062.76
483.65	3135.3
484.021	3204.22
484.391	3291.23
484.762	3305.01
485.133	3428.62
485.503	3457.78
485.874	3554.04
486.244	3622.97
486.615	3714.72
486.985	3780.48
487.356	3914.71
487.726	3917.65
488.097	4066.12
488.467	4072.68
488.837	4201.49
489.207	4324.42
489.578	4366.23
489.948	4440.58
490.318	4526.67
490.688	4583.62
491.058	4658.87
491.428	4751.3
491.798	4847.34
492.168	4991.52
492.538	5059.09
492.908	5098.41
493.278	5235.36
493.648	5278.29
494.017	5408.23
494.387	5400.1
494.757	5505.18
495.126	5609.81
495.496	5691.39
495.866	5739.98
496.235	5818.17
496.605	5887.54
496.974	6026.97
497.344	6045.28
497.713	6089.12
498.082	6179.74
498.452	6307.42
498.821	6298.15
499.19	6362.78
499.559	6469.45
499.928	6610.24
500.298	6637.13
500.667	6673.28
501.036	6772.04
501.405	6843.45
501.774	6873.51
502.143	6982.66
502.512	7014.29
502.88	7070.56
503.249	7147.85
503.618	7132.26
503.987	7249.77
504.356	7324.12
504.724	7348.52
505.093	7371.57
505.462	7443.66
505.83	7501.29
506.199	7589.87
506.567	7692.92
506.936	7732.92
507.304	7927.04
507.672	7872.58
508.041	7953.93
508.409	8015.17
508.777	8111.89
509.145	8138.56
509.514	8139.24
509.882	8230.76
510.25	8224.88
510.618	8322.51
510.986	8371.32
511.354	8483.18
511.722	8523.18
512.09	8640.01
512.458	8647.92
512.826	8666.68
513.193	8741.71
513.561	8746.68
513.929	8854.92
514.297	8893.34
514.664	8982.15
515.032	8978.99
515.4	9114.8
515.767	9110.51
516.135	9137.4
516.502	9043.39
516.869	9214.01
517.237	9336.94
517.604	9307.57
517.972	9420.33
518.339	9486.77
518.706	9468.01
519.073	9524.28
519.44	9616.71
519.808	9582.14
520.175	9646.54
520.542	9721.57
520.909	9810.15
521.276	9812.64
521.643	9948.91
522.009	9964.72
522.376	10078.17
522.743	10002.01
523.11	10177.6
523.477	10209.01
523.843	10274.55
524.21	10380.98
524.577	10422.34
524.943	10468.44
525.31	10502.56
525.676	10664.37
526.043	10707.3
526.409	10714.53
526.776	10815.55
527.142	10854.87
527.508	10893.06
527.874	10960.86
528.241	11040.85
528.607	11050.57
528.973	11215.76
529.339	11175.54
529.705	11250.34
530.071	11356.55
530.437	11404.23
530.803	11497.79
531.169	11636.32
531.535	11573.72
531.901	11534.17
532.267	11579.37
532.632	11754.28
532.998	11697.33
533.364	11826.6
533.73	11914.5
534.095	11979.13
534.461	12010.55
534.826	12029.75
535.192	12172.12
535.557	12234.27
535.923	12263.42
536.288	12205.12
536.653	12316.3
537.019	12243.76
537.384	12380.25
537.749	12476.52
538.114	12471.78
538.479	12518.1
538.845	12590.19
539.21	12624.77
539.575	12685.33
539.94	12670.19
540.305	12777.98
540.67	12815.27
541.034	12824.08
541.399	13067.69
541.764	13080.57
542.129	13063.4
542.494	12979.56
542.858	13116.51
543.223	13140.46
543.587	13226.78
543.952	13267.01
544.316	13260.68
544.681	13285.77
545.045	13413.67
545.41	13503.16
545.774	13550.17
546.138	13539.32
546.503	13601.92
546.867	13597.62
547.231	13702.03
547.595	13757.84
547.959	13867.67
548.324	13831.97
548.688	13834.9
549.052	13920.78
549.416	13977.05
549.779	14076.03
550.143	14064.96
550.507	14153.31
550.871	14198.28
551.235	14213.65
551.599	14308.34
551.962	14348.11
552.326	14443.02
552.689	14471.27
553.053	14427.43
553.417	14520.54
553.78	14599.4
554.143	14591.72
554.507	14620.42
554.87	14725.95
555.234	14786.52
555.597	14774.31
555.96	14827.42
556.323	14855.89
556.686	14950.81
557.05	15051.14
557.413	15048.21
557.776	15113.06
558.139	15151.71
558.502	15195.55
558.865	15279.84
559.228	15327.07
559.59	15396.67
559.953	15364.81
560.316	15536.1
560.679	15542.88
561.041	15654.97
561.404	15657.68
561.767	15823.55
562.129	15779.71
562.492	15841.41
562.854	15872.14
563.217	15887.96
563.579	15927.5
563.941	16022.87
564.304	16096.09
564.666	16205.46
565.028	16184
565.39	16192.81
565.753	16325.91
566.115	16393.93
566.477	16391.45
566.839	16491.78
567.201	16526.13
567.563	16598
567.925	16788.73
568.287	16649.75
568.648	16840.48
569.01	16786.47
569.372	16939.23
569.734	16951.43
570.095	17179.68
570.457	17227.81
570.819	17223.29
571.18	17172.67
571.542	17331.31
571.903	17419.9
572.265	17482.27
572.626	17510.06
572.987	17702.37
573.349	17768.13
573.71	17798.64
574.071	17923.84
574.432	18052.19
574.794	18054.68
575.155	18089.26
575.516	18183.94
575.877	18336.26
576.238	18453.54
576.599	18566.98
576.96	18629.58
577.32	18699.86
577.681	18883.36
578.042	19015.11
578.403	19059.17
578.763	19253.52
579.124	19359.73
579.485	19535.77
579.845	19719.27
580.206	19868.42
580.566	19982.99
580.927	19973.27
581.287	20284.45
581.648	20425.47
582.008	20778.68
582.368	20754.5
582.728	20905
583.089	21037.65
583.449	21245.78
583.809	21542.95
584.169	21808.25
584.529	21785.88
584.889	22241.24
585.249	22312.65
585.609	22390.84
585.969	22835.57
586.329	23069.24
586.688	23288.44
587.048	23328.89
587.408	23651.6
587.768	23839.16
588.127	24092.26
588.487	24308.75
588.846	24704.9
589.206	24790.55
589.565	25038.45
589.925	25408.16
590.284	25569.96
590.643	25863.74
591.003	26115.94
591.362	26416.95
591.721	26740.33
592.08	26919.08
592.44	27251.73
592.799	27507.09
593.158	27696.91
593.517	27923.12
593.876	28309.78
594.235	28321.08
594.593	28621.63
594.952	29076.54
595.311	29194.95
595.67	29443.08
596.029	29963.52
596.387	30112.22
596.746	30405.32
597.104	30481.92
597.463	30840.56
597.822	31057.28
598.18	31207.56
598.538	31570.26
598.897	31983.35
599.255	31914.66
599.613	32503.79
599.972	32527.52
600.33	32955.53
600.688	32873.05
601.046	33359.14
601.404	33568.62
601.762	33647.49
602.12	34113.02
602.478	34299.45
602.836	34489.28
603.194	34487.47
603.552	34698.54
603.91	34812.88
604.268	35252.65
604.625	35474.34
604.983	35712.52
605.341	35540.55
605.698	36145.73
606.056	36259.63
606.413	36417.36
606.771	36763.79
607.128	36798.37
607.485	36949.33
607.843	37004.69
608.2	37351.8
608.557	37626.14
608.914	37698.91
609.272	37921.95
609.629	37981.16
609.986	38364.2
610.343	38138.22
610.7	38752.67
611.057	38842.16
611.414	38816.62
611.771	38862.27
612.127	39160.57
612.484	39367.34
612.841	39589.26
613.198	39609.82
613.554	39800.78
613.911	40085.51
614.267	40150.37
614.624	40216.58
614.98	40330.71
615.337	40687.76
615.693	40676.46
616.05	40638.27
616.406	41007.07
616.762	40950.8
617.118	41141.76
617.475	41122.32
617.831	41296.1
618.187	41480.73
618.543	41578.58
618.899	41802.08
619.255	41766.15
619.611	41768.18
619.967	41996.42
620.323	42260.37
620.678	42106.25
621.034	42050.43
621.39	42169.3
621.746	42198.23
622.101	42707.14
622.457	42474.83
622.812	42800.47
623.168	42769.51
623.523	42831.2
623.879	42964.08
624.234	42819.91
624.589	42922.73
624.945	43057.41
625.3	43224.64
625.655	43269.38
626.01	43158.2
626.365	43239.78
626.72	43172.89
627.075	43246.11
627.43	43284.07
627.785	43294.24
628.14	43345.54
628.495	43445.65
628.85	43501.02
629.205	43231.19
629.559	43641.58
629.914	43504.86
630.269	43637.74
630.623	43415.14
630.978	43455.59
631.332	43640.67
631.687	43927.45
632.041	43560.68
632.396	43757.28
632.75	43670.96
633.104	43513.67
633.459	43599.32
633.813	43529.72
634.167	43406.56
634.521	43609.04
634.875	43760.9
635.229	43582.6
635.583	43497.85
635.937	43482.71
636.291	43385.77
636.645	43466.22
636.999	43433.9
637.352	43498.31
637.706	43341.02
638.06	43470.28
638.413	43337.18
638.767	43249.5
639.121	43428.25
639.474	43104.64
639.828	43354.58
640.181	43302.83
640.534	43442.71
640.888	43195.26
641.241	43124.08
641.594	43115.94
641.947	43367.01
642.301	43111.42
642.654	43193.23
643.007	43178.31
643.36	43090.41
643.713	43122.27
644.066	43282.27
644.419	43157.75
644.771	42893.35
645.124	42420.59
645.477	42491.1
645.83	42066.03
646.182	42056.54
646.535	42038.91
646.888	41965.01
647.24	41818.35
647.593	42031.68
647.945	41922.75
648.298	41638.24
648.65	41790.78
649.002	41625.81
649.355	41842.53
649.707	41912.58
650.059	41991.23
650.411	42496.07
650.763	42340.82
651.115	42849.28
651.467	42715.73
651.819	42752.79
652.171	42640.7
652.523	42590.76
652.875	42537.43
653.227	42511.44
653.578	42645.45
653.93	42647.71
654.282	42331.78
654.633	42395.51
654.985	42388.5
655.337	42456.75
655.688	42457.43
656.039	42587.59
656.391	42116.87
656.742	42243.88
657.094	42303.08
657.445	42480.93
657.796	42339.92
658.147	42377.66
658.498	42060.6
658.849	42284.78
659.2	42211.79
659.551	42122.97
659.902	42419.01
660.253	42186.25
660.604	42297.43
660.955	41988.06
661.306	42195.97
661.656	42213.14
662.007	42180.37
662.358	42119.58
662.708	42189.41
663.059	42225.12
663.409	41941.51
663.76	42202.07
664.11	42300.82
664.461	42365.68
664.811	42197.1
665.161	42172.24
665.511	42130.21
665.862	42061.73
666.212	42180.6
666.562	42079.81
666.912	42166.59
667.262	41990.77
667.612	42114.16
667.962	42213.82
668.312	42063.54
668.662	42183.54
669.011	42066.93
669.361	41991
669.711	41911
670.06	42066.7
670.41	41764.57
670.76	41727.28
671.109	41908.06
671.459	41851.57
671.808	41950.78
672.157	41922.75
672.507	41661.74
672.856	41902.42
673.205	41811.34
673.554	41959.36
673.904	41828.29
674.253	42003.2
674.602	41693.38
674.951	41472.82
675.3	41075.09
675.649	41613.16
675.998	41692.93
676.346	41616.77
676.695	41796.88
677.044	41429.66
677.393	41659.03
677.741	41629.88
678.09	41452.94
678.438	41410.68
678.787	41582.2
679.135	41445.93
679.484	41304.46
679.832	41358.25
680.181	41089.1
680.529	41231.92
680.877	41295.43
681.225	41182.89
681.573	41364.8
681.922	41030.12
682.27	40861.09
682.618	40941.08
682.966	40908.54
683.314	41082.1
683.661	40829.22
684.009	40680.75
684.357	40655.89
684.705	40665.39
685.053	40574.99
685.4	40592.62
685.748	40302.01
686.095	40377.94
686.443	40240.54
686.79	40380.2
687.138	40257.03
687.485	40305.17
687.832	40177.71
688.18	40158.73
688.527	40008
688.874	39802.13
689.221	39810.94
689.568	39646.43
689.915	39659.54
690.262	39733.88
690.609	39504.51
690.956	39488.24
691.303	39304.07
691.65	39251.86
691.997	39254.12
692.344	39100.23
692.69	38944.98
693.037	38991.08
693.383	38765.55
693.73	38914.25
694.077	38629.96
694.423	38482.62
694.769	38470.64
695.116	38306.8
695.462	38494.37
695.808	38196.3
696.155	38344.09
696.501	38119.69
696.847	37994.27
697.193	37756.76
697.539	37845.57
697.885	37581.62
698.231	37533.49
698.577	37447.62
698.923	37484.23
699.269	37273.61
699.614	37186.38
699.96	37012.83
700.306	37064.8
700.651	36919.27
700.997	36830.01
701.342	36743
701.688	36662.55
702.033	36598.83
702.379	36492.39
702.724	36391.83
703.069	36525.16
703.415	36108.44
703.76	36255.56
704.105	36037.48
704.45	36057.82
704.795	35841.56
705.14	35893.99
705.485	35755.01
705.83	35618.96
706.175	35699.19
706.52	35571.73
706.865	35382.59
707.209	35483.37
707.554	35289.93
707.899	35422.81
708.243	35099.66
708.588	35124.29
708.932	34862.37
709.277	34873.67
709.621	34979.21
709.966	34625.77
710.31	34687.46
710.654	34559.11
710.998	34618.99
711.342	34550.74
711.687	34424.87
712.031	34285.21
712.375	34255.84
712.719	34331.99
713.063	34135.16
713.407	34167.93
713.75	34035.73
714.094	34017.42
714.438	33900.59
714.782	33833.93
715.125	33714.61
715.469	33758.22
715.812	33644.78
716.156	33521.17
716.499	33398.46
716.843	33487.04
717.186	33250.21
717.53	33598
717.873	33432.81
718.216	33204.34
718.559	33107.39
718.902	32832.37
719.246	33011.58
719.589	32846.38
719.932	32729.78
720.275	32789.89
720.617	32712.83
720.96	32724.8
721.303	32558.03
721.646	32723.45
721.989	32429.67
722.331	32553.96
722.674	32538.37
723.016	32548.31
723.359	32431.03
723.701	32415.43
724.044	32193.52
724.386	31958.95
724.729	32235.32
725.071	32031.04
725.413	32081.43
725.755	32034.2
726.097	31906.29
726.439	31777.48
726.782	31833.53
727.124	31862.91
727.465	31705.85
727.807	31708.78
728.149	31583.14
728.491	31680.99
728.833	31608.67
729.175	31466.98
729.516	31433.76
729.858	31469.92
730.199	31422.24
730.541	31337.27
730.882	31143.15
731.224	31381.79
731.565	31268.8
731.906	31267.67
732.248	31137.95
732.589	31062.02
732.93	31001.23
733.271	30962.82
733.612	31018.41
733.953	31021.8
734.294	30774.8
734.635	30714.23
734.976	30828.81
735.317	30641.47
735.658	30614.35
735.999	30509.95
736.339	30627.68
736.68	30540.23
737.021	30359.89
737.361	30305.21
737.702	30544.75
738.042	30332.55
738.383	30420.46
738.723	30393.11
739.063	30364.64
739.404	30301.82
739.744	30154.93
740.084	30056.85
740.424	30224.53
740.764	30015.27
741.104	30190.63
741.444	29983.18
741.784	29919.23
742.124	29929.17
742.464	29939.57
742.804	29841.49
743.143	29810.76
743.483	29771.21
743.823	29592.23
744.162	29679.69
744.502	29661.61
744.841	29485.11
745.181	29651.66
745.52	29475.62
745.86	29526.02
746.199	29554.72
746.538	29425.23
746.877	29451.22
747.216	29512.91
747.556	29342.52
747.895	29194.27
748.234	29145.46
748.573	29177.55
748.911	29141.39
749.25	29048.52
749.589	28967.16
749.928	29099.59
750.267	29020.72
750.605	28860.72
750.944	28879.48
751.283	28695.53
751.621	28864.79
751.96	28667.51
752.298	28577.34
752.636	28686.72
752.975	28583.44
753.313	28422.09
753.651	28655.31
753.989	28313.17
754.327	28286.5
754.666	28248.08
755.004	28115.43
755.342	28204.24
755.679	28268.65
756.017	28046.73
756.355	28115.43
756.693	27924.48
757.031	27950.24
757.368	27829.11
757.706	27738.27
