Data from hue_310_FLMS001491_62.txt Node
Date: Mon Feb 06 15:50:00 GMT 2017
User: dcchb
Spectrometer: FLMS00149
Trigger mode: 0
Integration Time (sec): 2.000000E-2
Scans to average: 10
Electric dark correction enabled: true
Nonlinearity correction enabled: false
Boxcar width: 0
XAxis mode: Wavelengths
Number of Pixels in Spectrum: 2048
>>>>>Begin Spectral Data<<<<<
341.393	-1.78
341.776	-1.78
342.16	-1.78
342.543	-60.31
342.927	-72.74
343.31	-64.83
343.693	-63.25
344.077	-63.7
344.46	-66.64
344.843	-67.31
345.226	-47.65
345.61	-32.06
345.993	-8.56
346.376	-14.43
346.759	31.89
347.142	28.95
347.525	31.44
347.908	68.95
348.291	69.86
348.674	87.03
349.057	110.31
349.44	114.6
349.823	140.36
350.206	152.57
350.588	182.4
350.971	201.6
351.354	213.13
351.737	244.54
352.119	222.85
352.502	231.21
352.884	250.19
353.267	271.89
353.65	280.25
354.032	283.41
354.414	293.58
354.797	310.53
355.179	300.59
355.562	313.01
355.944	342.17
356.326	317.53
356.709	349.4
357.091	346.01
357.473	334.03
357.855	336.06
358.238	328.83
358.62	334.93
359.002	335.16
359.384	334.48
359.766	316.18
360.148	320.02
360.53	336.06
360.912	331.09
361.294	332.22
361.676	306.01
362.057	324.99
362.439	313.69
362.821	331.54
363.203	315.73
363.584	317.53
363.966	310.3
364.348	331.54
364.729	340.81
365.111	305.1
365.493	301.94
365.874	309.17
366.256	295.61
366.637	299.91
367.019	309.4
367.4	292.22
367.781	302.39
368.163	305.1
368.544	297.42
368.925	295.16
369.306	315.27
369.688	298.55
370.069	307.36
370.45	311.43
370.831	314.82
371.212	306.01
371.593	305.56
371.974	291.55
372.355	313.92
372.736	297.65
373.117	320.02
373.498	305.56
373.879	298.78
374.26	322.05
374.641	310.3
375.021	296.97
375.402	297.87
375.783	319.57
376.163	310.98
376.544	315.5
376.925	314.14
377.305	303.98
377.686	331.32
378.066	311.43
378.447	315.73
378.827	314.6
379.208	342.84
379.588	322.05
379.968	337.87
380.349	309.62
380.729	310.53
381.109	334.48
381.489	333.35
381.87	319.12
382.25	337.65
382.63	322.73
383.01	329.96
383.39	336.97
383.77	346.69
384.15	335.84
384.53	333.8
384.91	311.66
385.29	350.98
385.67	343.52
386.049	370.41
386.429	323.41
386.809	348.27
387.189	360.02
387.568	362.5
387.948	326.12
388.328	346.23
388.707	334.48
389.087	342.62
389.466	365.67
389.846	369.74
390.225	362.28
390.605	350.98
390.984	361.6
391.363	379.91
391.743	366.57
392.122	362.28
392.501	354.6
392.881	361.37
393.26	354.82
393.639	362.5
394.018	371.54
394.397	368.61
394.776	364.54
395.155	384.2
395.534	353.24
395.913	367.48
396.292	368.61
396.671	383.3
397.05	377.19
397.429	392.79
397.808	391.66
398.186	391.2
398.565	382.84
398.944	399.57
399.323	393.01
399.701	381.71
400.08	377.42
400.458	386.01
400.837	413.8
401.215	396.4
401.594	379.23
401.972	409.06
402.351	417.19
402.729	405.89
403.107	413.58
403.486	410.64
403.864	413.35
404.242	403.63
404.62	423.52
404.999	435.27
405.377	435.27
405.755	421.71
406.133	455.16
406.511	442.73
406.889	441.82
407.267	438.89
407.645	443.18
408.023	440.69
408.401	475.72
408.779	447.93
409.156	477.08
409.534	470.75
409.912	470.75
410.29	495.38
410.667	488.83
411.045	486.57
411.422	506.46
411.8	485.44
412.178	519.79
412.555	508.72
412.933	517.53
413.31	536.06
413.687	520.01
414.065	544.87
414.442	551.2
414.819	554.14
415.197	581.71
415.574	574.25
415.951	571.99
416.328	595.27
416.705	588.49
417.082	582.16
417.46	597.98
417.837	619.9
418.214	616.96
418.591	630.07
418.967	651.08
419.344	639.33
419.721	627.81
420.098	644.53
420.475	672.1
420.852	644.31
421.228	678.2
421.605	703.96
421.982	680.46
422.358	680.24
422.735	705.09
423.111	691.08
423.488	734.02
423.864	733.34
424.241	720.91
424.617	726.11
424.994	737.18
425.37	741.7
425.746	740.57
426.123	771.08
426.499	764.53
426.875	760.91
427.251	790.29
427.627	814.47
428.003	788.03
428.379	821.7
428.756	837.52
429.132	834.36
429.507	855.15
429.883	868.25
430.259	861.7
430.635	860.57
431.011	865.99
431.387	899.44
431.763	886.56
432.138	914.35
432.514	913.22
432.89	943.73
433.265	950.51
433.641	948.48
434.016	980.57
434.392	994.58
434.767	1009.72
435.143	992.32
435.518	1001.13
435.894	1023.73
436.269	1043.39
436.644	1039.55
437.02	1046.55
437.395	1037.74
437.77	1064.63
438.145	1075.48
438.52	1093.33
438.895	1078.19
439.271	1105.76
439.646	1099.66
440.021	1091.52
440.395	1095.37
440.77	1111.41
441.145	1128.13
441.52	1148.7
441.895	1141.02
442.27	1149.38
442.645	1148.47
443.019	1185.08
443.394	1171.75
443.769	1169.26
444.143	1191.18
444.518	1185.76
444.892	1180.79
445.267	1185.08
445.641	1198.64
446.016	1188.25
446.39	1195.25
446.764	1206.1
447.139	1227.34
447.513	1219.66
447.887	1224.18
448.262	1229.37
448.636	1263.5
449.01	1231.86
449.384	1254.91
449.758	1279.32
450.132	1231.18
450.506	1243.16
450.88	1260.11
451.254	1261.01
451.628	1283.16
452.002	1270.73
452.376	1290.84
452.75	1275.7
453.123	1335.59
453.497	1331.52
453.871	1321.12
454.244	1352.76
454.618	1346.43
454.992	1364.51
455.365	1355.92
455.739	1383.27
456.112	1387.34
456.486	1375.81
456.859	1420.33
457.232	1395.92
457.606	1414.68
457.979	1411.74
458.352	1452.65
458.725	1452.42
459.099	1476.15
459.472	1499.88
459.845	1489.71
460.218	1517.73
460.591	1499.88
460.964	1513.66
461.337	1554.79
461.71	1553.66
462.083	1544.39
462.456	1580.33
462.829	1546.88
463.201	1588.46
463.574	1593.88
463.947	1590.49
464.32	1642.92
464.692	1644.5
465.065	1625.07
465.438	1638.18
465.81	1674.79
466.183	1681.11
466.555	1717.5
466.928	1698.51
467.3	1700.77
467.672	1755.91
468.045	1753.65
468.417	1767.44
468.789	1771.96
469.161	1774.22
469.534	1791.39
469.906	1816.7
470.278	1841.56
470.65	1864.39
471.022	1867.78
471.394	1875.69
471.766	1917.49
472.138	1928.11
472.51	1924.95
472.882	1953.2
473.253	1985.06
473.625	2013.08
473.997	2033.2
474.369	2016.02
474.74	2034.78
475.112	2070.48
475.484	2093.53
475.855	2114.55
476.227	2122.68
476.598	2154.55
476.97	2205.62
477.341	2222.34
477.713	2196.81
478.084	2232.96
478.455	2262.34
478.827	2317.71
479.198	2321.1
479.569	2309.12
479.94	2407.2
480.311	2352.06
480.682	2437.25
481.053	2469.79
481.424	2514.54
481.795	2514.54
482.166	2553.86
482.537	2553.18
482.908	2611.71
483.279	2620.98
483.65	2633.63
484.021	2667.53
484.391	2708.66
484.762	2733.29
485.133	2714.53
485.503	2756.57
485.874	2764.25
486.244	2839.28
486.615	2884.92
486.985	2876.34
487.356	2940.74
487.726	2922.89
488.097	2952.04
488.467	2977.13
488.837	2985.26
489.207	3051.7
489.578	3095.09
489.948	3097.57
490.318	3129.66
490.688	3131.7
491.058	3154.07
491.428	3222.54
491.798	3210.57
492.168	3286.72
492.538	3253.95
492.908	3296.66
493.278	3325.82
493.648	3335.31
494.017	3366.72
494.387	3358.81
494.757	3376.89
495.126	3468.19
495.496	3433.61
495.866	3434.29
496.235	3495.08
496.605	3524.46
496.974	3514.29
497.344	3533.49
497.713	3570.78
498.082	3569.2
498.452	3573.27
498.821	3636.77
499.19	3599.26
499.559	3614.85
499.928	3681.29
500.298	3660.95
500.667	3720.61
501.036	3632.02
501.405	3727.39
501.774	3754.28
502.143	3760.61
502.512	3764.22
502.88	3792.24
503.249	3778.01
503.618	3789.76
503.987	3818.91
504.356	3852.13
504.724	3846.93
505.093	3877.67
505.462	3861.4
505.83	3881.96
506.199	3891.9
506.567	3952.24
506.936	3893.03
507.304	3945.24
507.672	3966.7
508.041	3993.6
508.409	3992.69
508.777	3996.08
509.145	4029.98
509.514	4036.31
509.882	4023.43
510.25	4060.49
510.618	4096.64
510.986	4081.95
511.354	4084.44
511.722	4085.8
512.09	4123.54
512.458	4156.08
512.826	4160.37
513.193	4197.21
513.561	4180.71
513.929	4164.89
514.297	4244.89
514.664	4207.6
515.032	4174.38
515.4	4217.54
515.767	4232.46
516.135	4258.9
516.502	4189.07
516.869	4238.79
517.237	4307.26
517.604	4244.89
517.972	4334.38
518.339	4373.25
518.706	4274.72
519.073	4352.91
519.44	4335.51
519.808	4415.96
520.175	4350.87
520.542	4397.65
520.909	4412.34
521.276	4432.68
521.643	4455.05
522.009	4450.76
522.376	4507.03
522.743	4499.8
523.11	4572.79
523.477	4556.29
523.843	4612.11
524.21	4572.34
524.577	4577.31
524.943	4655.95
525.31	4615.27
525.676	4702.28
526.043	4682.84
526.409	4746.8
526.776	4745.44
527.142	4738.21
527.508	4814.82
527.874	4818.88
528.241	4806.23
528.607	4846
528.973	4895.04
529.339	4841.71
529.705	4913.57
530.071	4905.89
530.437	4954.93
530.803	4972.78
531.169	5034.25
531.535	5072.66
531.901	5024.53
532.267	5083.96
532.632	5089.16
532.998	5072.66
533.364	5068.14
533.73	5126.22
534.095	5199.44
534.461	5177.52
534.826	5180.91
535.192	5228.82
535.557	5274.47
535.923	5255.48
536.288	5290.28
536.653	5318.98
537.019	5321.02
537.384	5360.34
537.749	5377.06
538.114	5393.11
538.479	5428.13
538.845	5446.89
539.21	5487.57
539.575	5438.98
539.94	5482.37
540.305	5505.19
540.67	5497.74
541.034	5551.07
541.399	5515.59
541.764	5574.34
542.129	5625.64
542.494	5642.14
542.858	5702.7
543.223	5651.63
543.587	5710.61
543.952	5765.07
544.316	5723.95
544.681	5731.4
545.045	5756.04
545.41	5848.69
545.774	5816.37
546.138	5834.45
546.503	5821.57
546.867	5924.84
547.231	6010.04
547.595	5944.96
547.959	5951.06
548.324	5983.37
548.688	6038.51
549.052	6030.38
549.416	6018.18
549.779	6059.08
550.143	6097.72
550.507	6133.43
550.871	6100.43
551.235	6160.32
551.599	6124.61
551.962	6218.85
552.326	6194.89
552.689	6279.86
553.053	6254.1
553.417	6270.82
553.78	6325.06
554.143	6287.77
554.507	6340.88
554.87	6297.04
555.234	6321.67
555.597	6338.62
555.96	6382.01
556.323	6405.06
556.686	6418.16
557.05	6426.53
557.413	6494.55
557.776	6518.73
558.139	6523.92
558.502	6549.23
558.865	6539.07
559.228	6602.79
559.59	6598.72
559.953	6564.6
560.316	6635.79
560.679	6652.96
561.041	6748.55
561.404	6681.21
561.767	6708.33
562.129	6719.85
562.492	6752.17
562.854	6776.57
563.217	6759.85
563.579	6774.77
563.941	6830.36
564.304	6893.86
564.666	6889.11
565.028	6867.64
565.39	6913.97
565.753	6985.61
566.115	7005.95
566.477	7008.43
566.839	7038.71
567.201	7066.06
567.563	7084.14
567.925	7074.19
568.287	7148.09
568.648	7166.17
569.01	7202.78
569.372	7193.06
569.734	7203
570.095	7295.2
570.457	7326.62
570.819	7285.03
571.18	7386.05
571.542	7369.55
571.903	7433.73
572.265	7463.33
572.626	7508.31
572.987	7493.16
573.349	7559.15
573.71	7638.7
574.071	7648.87
574.432	7725.7
574.794	7813.16
575.155	7825.59
575.516	7827.17
575.877	7979.48
576.238	7984
576.599	8041.4
576.96	8161.62
577.32	8207.27
577.681	8254.27
578.042	8397.55
578.403	8438.22
578.763	8520.48
579.124	8612.91
579.485	8691.55
579.845	8781.04
580.206	8882.28
580.566	8973.58
580.927	9072.78
581.287	9217.19
581.648	9269.39
582.008	9506.67
582.368	9616.5
582.728	9788.47
583.089	9882.93
583.449	10083.38
583.809	10216.48
584.169	10384.39
584.529	10545.06
584.889	10758.84
585.249	10869.57
585.609	11081.54
585.969	11317.47
586.329	11468.43
586.688	11745.03
587.048	11951.35
587.408	12135.3
587.768	12350.44
588.127	12604.67
588.487	12752.46
588.846	13080.36
589.206	13286.23
589.565	13528.26
589.925	13841.7
590.284	14081.92
590.643	14344.51
591.003	14658.17
591.362	14930.94
591.721	15174.54
592.08	15419.28
592.44	15776.79
592.799	16003.9
593.158	16258.58
593.517	16569.76
593.876	16825.12
594.235	17165
594.593	17436.63
594.952	17766.34
595.311	17878.43
595.67	18315.03
596.029	18753.89
596.387	19056.25
596.746	19313.64
597.104	19543.24
597.463	19778.94
597.822	20091.25
598.18	20382.32
598.538	20683.55
598.897	21118.12
599.255	21229.75
599.613	21801.49
599.972	21919.23
600.33	22214.13
600.688	22430.4
601.046	22728.7
601.404	23189.02
601.762	23255.24
602.12	23790.59
602.478	24034.88
602.836	24340.18
603.194	24419.27
603.552	24674.63
603.91	24932.48
604.268	25319.81
604.625	25445.69
604.983	25894.04
605.341	25939.01
605.698	26306.23
606.056	26524.98
606.413	26795.71
606.771	27114.57
607.128	27345.98
607.485	27447.89
607.843	27764.27
608.2	28140.98
608.557	28381.65
608.914	28549.11
609.272	28778.71
609.629	29020.06
609.986	29342.08
610.343	29374.62
610.7	29847.83
611.057	29843.54
611.414	30047.15
611.771	30262.28
612.127	30580.92
612.484	30798.09
612.841	30998.99
613.198	31142.94
613.554	31208.02
613.911	31533.44
614.267	31771.85
614.624	31742.47
614.98	31931.39
615.337	32411.15
615.693	32475.56
616.05	32552.17
616.406	32800.3
616.762	32741.77
617.118	32937.24
617.475	33177.91
617.831	33219.04
618.187	33538.13
618.543	33636.66
618.899	33915.97
619.255	33939.25
619.611	34109.19
619.967	34314.15
620.323	34617.88
620.678	34437.31
621.034	34464.66
621.39	34669.17
621.746	34703.75
622.101	35049.95
622.457	34994.36
622.812	35113.68
623.168	35189.61
623.523	35527
623.879	35569.26
624.234	35458.3
624.589	35715.93
624.945	35772.87
625.3	35873.44
625.655	35870.95
626.01	36143.26
626.365	36140.32
626.72	36184.61
627.075	36162.69
627.43	36240.88
627.785	36282.69
628.14	36555.9
628.495	36606.75
628.85	36525.4
629.205	36517.03
629.559	36669.35
629.914	36589.57
630.269	36683.81
630.623	36703.02
630.978	36438.62
631.332	36811.72
631.687	36799.74
632.041	36770.59
632.396	36910.02
632.75	36874.09
633.104	37028.21
633.459	36908.66
633.813	36876.8
634.167	36987.98
634.521	36929.9
634.875	36955.67
635.229	36953.63
635.583	36877.48
635.937	37078.6
636.291	36969.9
636.645	36896.01
636.999	36782.56
637.352	36876.8
637.706	36851.71
638.06	37030.24
638.413	36931.49
638.767	37032.5
639.121	36987.76
639.474	36868.44
639.828	36944.59
640.181	36936.01
640.534	36967.64
640.888	36794.32
641.241	36717.03
641.594	36827.31
641.947	36962.9
642.301	36939.85
642.654	37044.93
643.007	36896.91
643.36	37003.12
643.713	36804.71
644.066	36924.48
644.419	36777.59
644.771	36552.06
645.124	36210.83
645.477	36187.33
645.83	35985.3
646.182	35858.75
646.535	35821.23
646.888	35936.03
647.24	35639.77
647.593	36031.17
647.945	35863.49
648.298	35825.98
648.65	35594.12
649.002	35703.5
649.355	35779.43
649.707	35791.86
650.059	35937.84
650.411	36341.22
650.763	36364.04
651.115	36675
651.467	36457.37
651.819	36642.45
652.171	36551.61
652.523	36422.8
652.875	36344.16
653.227	36402.46
653.578	36560.2
653.93	36456.24
654.282	36337.38
654.633	36157.04
654.985	36492.18
655.337	36381.44
655.688	36350.26
656.039	36511.84
656.391	36143.48
656.742	36301.22
657.094	36234.78
657.445	36395.91
657.796	36237.27
658.147	36360.88
658.498	36395.68
658.849	36352.29
659.2	36364.95
659.551	36289.92
659.902	36313.88
660.253	36243.6
660.604	36281.79
660.955	36153.88
661.306	36407.88
661.656	36172.41
662.007	36296.25
662.358	36232.52
662.708	36192.07
663.059	36136.03
663.409	35969.7
663.76	36181.22
664.11	36177.16
664.461	36244.95
664.811	36186.87
665.161	36120.21
665.511	36120.21
665.862	36115.01
666.212	36231.84
666.562	36244.05
666.912	36178.29
667.262	36147.1
667.612	36118.17
667.962	36087.67
668.312	36038.18
668.662	36247.89
669.011	36197.04
669.361	36068.01
669.711	35977.16
670.06	35979.42
670.41	36001.34
670.76	35890.16
671.109	36105.29
671.459	35908.46
671.808	36002.02
672.157	36009.25
672.507	35776.26
672.856	35824.85
673.205	35833.44
673.554	35930.16
673.904	35805.41
674.253	35991.17
674.602	35892.19
674.951	35294.47
675.3	35155.26
675.649	35741.91
675.998	35758.41
676.346	35872.31
676.695	35850.16
677.044	35549.6
677.393	35779.2
677.741	35857.62
678.09	35687.68
678.438	35624.4
678.787	35634.35
679.135	35709.37
679.484	35456.27
679.832	35528.13
680.181	35345.09
680.529	35661.69
680.877	35530.62
681.225	35296.28
681.573	35710.5
681.922	35357.52
682.27	35186.67
682.618	35274.58
682.966	35239.78
683.314	35156.17
683.661	35165.66
684.009	34860.13
684.357	34827.14
684.705	34860.35
685.053	34839.56
685.4	34722.28
685.748	34699.68
686.095	34706.46
686.443	34587.37
686.79	34552.57
687.138	34525.45
687.485	34634.37
687.832	34388.95
688.18	34413.59
688.527	34294.27
688.874	34223.99
689.221	34216.3
689.568	34049.98
689.915	34003.2
690.262	34023.09
690.609	33960.27
690.956	33822.87
691.303	33878.69
691.65	33716.43
691.997	33734.96
692.344	33487.06
692.69	33450
693.037	33448.87
693.383	33248.87
693.73	33338.81
694.077	33186.5
694.423	33186.05
694.769	33043.68
695.116	32961.65
695.462	32918.71
695.808	32794.19
696.155	32867.41
696.501	32495.67
696.847	32515.78
697.193	32438.5
697.539	32529.34
697.885	32288.44
698.231	32264.94
698.577	32230.37
698.923	32125.74
699.269	32118.51
699.614	31897.04
699.96	31808.01
700.306	31826.99
700.651	31757.61
700.997	31665.41
701.342	31638.29
701.688	31492.99
702.033	31485.98
702.379	31478.75
702.724	31350.16
703.069	31431.07
703.415	31022.72
703.76	31042.83
704.105	31008.25
704.45	31016.84
704.795	30713.12
705.14	30677.19
705.485	30691.42
705.83	30539.56
706.175	30592.22
706.52	30443.3
706.865	30414.37
707.209	30400.58
707.554	30227.71
707.899	30395.39
708.243	30161.5
708.588	30141.61
708.932	29779.58
709.277	29878.11
709.621	30042.4
709.966	29745.46
710.31	29788.4
710.654	29473.15
710.998	29686.25
711.342	29721.51
711.687	29520.61
712.031	29539.36
712.375	29483.55
712.719	29461.85
713.063	29317.9
713.407	29439.93
713.75	29129.88
714.094	29227.51
714.438	29059.83
714.782	29204.91
715.125	29034.52
715.469	28929.66
715.812	28829.33
716.156	28655.55
716.499	28696.67
716.843	28650.8
717.186	28598.6
717.53	28656
717.873	28645.6
718.216	28490.58
718.559	28529.67
718.902	28203.81
719.246	28376.91
719.589	28349.79
719.932	28249.68
720.275	28234.54
720.617	28136.92
720.96	28022.79
721.303	28077.93
721.646	28069.12
721.989	27911.84
722.331	28047.43
722.674	27906.41
723.016	27842.69
723.359	27746.42
723.701	27842.91
724.044	27651.73
724.386	27539.42
724.729	27610.38
725.071	27521.79
725.413	27439.31
725.755	27589.13
726.097	27393.66
726.439	27218.3
726.782	27290.61
727.124	27344.17
727.465	27256.26
727.807	27109.6
728.149	27238.86
728.491	27181.91
728.833	27015.82
729.175	26943.27
729.516	26902.82
729.858	26886.1
730.199	26964.52
730.541	26845.2
730.882	26800
731.224	26898.76
731.565	26653.79
731.906	26713.68
732.248	26601.36
732.589	26490.18
732.93	26505.55
733.271	26549.16
733.612	26494.25
733.953	26454.7
734.294	26471.2
734.635	26358.66
734.976	26351.2
735.317	26309.39
735.658	26334.03
735.999	26341.48
736.339	26202.73
736.68	26266.23
737.021	26176.52
737.361	26025.33
737.702	26273.46
738.042	26084.31
738.383	26054.94
738.723	26069.85
739.063	25990.31
739.404	26080.02
739.744	25890.19
740.084	25868.05
740.424	25899.01
740.764	25853.81
741.104	25799.35
741.444	25740.82
741.784	25602.07
742.124	25621.73
742.464	25676.42
742.804	25601.84
743.143	25522.52
743.483	25454.27
743.823	25383.54
744.162	25328.4
744.502	25409.3
744.841	25241.4
745.181	25375.41
745.52	25200.95
745.86	25218.35
746.199	25183.55
746.538	25067.17
746.877	25255.41
747.216	25158.24
747.556	25080.05
747.895	25039.82
748.234	24871.24
748.573	24842.09
748.911	24792.82
749.25	24870.56
749.589	24814.07
749.928	24740.17
750.267	24804.35
750.605	24691.81
750.944	24628.53
751.283	24550.57
751.621	24573.85
751.96	24496.56
752.298	24374.53
752.636	24428.99
752.975	24288.43
753.313	24171.37
753.651	24355.09
753.989	24099.06
754.327	24176.79
754.666	23988.32
755.004	24151.71
755.342	24061.54
755.679	23986.52
756.017	23841.66
756.355	23908.55
756.693	23777.03
757.031	23801.66
757.368	23607.54
757.706	23576.81
758.044	23607.54
758.381	23561.22
758.719	23485.96
759.056	23443.25
759.394	23384.5
759.731	23257.72
