Data from hue_30_FLMS001491_53.txt Node
Date: Mon Feb 06 15:05:35 GMT 2017
User: dcchb
Spectrometer: FLMS00149
Trigger mode: 0
Integration Time (sec): 2.000000E-2
Scans to average: 10
Electric dark correction enabled: true
Nonlinearity correction enabled: false
Boxcar width: 0
XAxis mode: Wavelengths
Number of Pixels in Spectrum: 2048
>>>>>Begin Spectral Data<<<<<
341.393	-15.34
341.776	-15.34
342.16	-15.34
342.543	-59.63
342.927	-71.61
343.31	-62.57
343.693	-60.54
344.077	-78.39
344.46	-46.52
344.843	-57.15
345.226	-28.9
345.61	-36.13
345.993	-49.91
346.376	7.49
346.759	9.07
347.142	20.37
347.525	29.63
347.908	55.39
348.291	86.81
348.674	102.62
349.057	108.73
349.44	101.27
349.823	125
350.206	162.96
350.588	190.53
350.971	210.87
351.354	203.19
351.737	222.17
352.119	273.24
352.502	249.74
352.884	276.63
353.267	279.79
353.65	286.12
354.032	302.62
354.414	289.96
354.797	301.49
355.179	313.92
355.562	321.38
355.944	313.01
356.326	326.8
356.709	334.26
357.091	333.58
357.473	346.46
357.855	336.06
358.238	352.56
358.62	346.91
359.002	333.58
359.384	330.64
359.766	339.23
360.148	342.39
360.53	332
360.912	331.54
361.294	319.12
361.676	324.09
362.057	309.62
362.439	318.21
362.821	321.83
363.203	327.93
363.584	327.93
363.966	326.8
364.348	317.76
364.729	338.1
365.111	327.25
365.493	332.22
365.874	334.48
366.256	300.36
366.637	306.69
367.019	316.18
367.4	321.83
367.781	323.64
368.163	314.82
368.544	293.81
368.925	282.28
369.306	319.34
369.688	306.46
370.069	307.36
370.45	331.77
370.831	290.42
371.212	304.43
371.593	291.09
371.974	314.6
372.355	321.15
372.736	319.12
373.117	294.71
373.498	335.61
373.879	312.56
374.26	297.2
374.641	301.49
375.021	295.16
375.402	315.5
375.783	315.95
376.163	330.87
376.544	329.29
376.925	337.42
377.305	319.12
377.686	301.26
378.066	318.44
378.447	312.79
378.827	330.87
379.208	333.58
379.588	347.14
379.968	327.03
380.349	320.92
380.729	307.59
381.109	336.97
381.489	338.78
381.87	321.15
382.25	339.91
382.63	332.22
383.01	330.42
383.39	326.35
383.77	345.78
384.15	338.78
384.53	339.23
384.91	340.81
385.29	352.56
385.67	329.29
386.049	348.27
386.429	338.78
386.809	333.35
387.189	341.71
387.568	357.08
387.948	364.54
388.328	367.93
388.707	368.61
389.087	350.3
389.466	353.24
389.846	356.63
390.225	366.35
390.605	355.27
390.984	368.38
391.363	348.04
391.743	379.91
392.122	374.93
392.501	372.45
392.881	369.28
393.26	327.93
393.639	389.62
394.018	344.65
394.397	362.96
394.776	369.74
395.155	382.17
395.534	364.76
395.913	384.2
396.292	358.66
396.671	388.04
397.05	370.64
397.429	365.67
397.808	381.49
398.186	408.61
398.565	369.74
398.944	372
399.323	384.88
399.701	393.69
400.08	384.65
400.458	366.57
400.837	381.26
401.215	374.26
401.594	400.24
401.972	384.42
402.351	383.3
402.729	397.31
403.107	386.68
403.486	406.12
403.864	382.62
404.242	402.05
404.62	397.53
404.999	396.4
405.377	402.5
405.755	405.89
406.133	409.96
406.511	394.82
406.889	442.28
407.267	397.98
407.645	437.98
408.023	414.25
408.401	414.71
408.779	415.84
409.156	428.49
409.534	420.13
409.912	435.27
410.29	453.12
410.667	432.33
411.045	444.31
411.422	448.15
411.8	452.45
412.178	451.09
412.555	419.23
412.933	461.26
413.31	443.86
413.687	454.03
414.065	466
414.442	472.56
414.819	451.77
415.197	470.07
415.574	484.99
415.951	476.4
416.328	461.26
416.705	478.89
417.082	458.55
417.46	473.69
417.837	504.65
418.214	506
418.591	497.64
418.967	496.06
419.344	501.03
419.721	511.88
420.098	487.25
420.475	516.4
420.852	510.52
421.228	519.79
421.605	533.12
421.982	513.24
422.358	510.3
422.735	512.56
423.111	520.92
423.488	528.6
423.864	515.72
424.241	530.18
424.617	545.1
424.994	540.13
425.37	540.13
425.746	560.92
426.123	545.78
426.499	556.17
426.875	557.98
427.251	551.2
427.627	564.76
428.003	571.76
428.379	577.19
428.756	561.14
429.132	568.83
429.507	585.1
429.883	596.4
430.259	583.74
430.635	573.8
431.011	593.01
431.387	610.41
431.763	601.14
432.138	606.34
432.514	618.77
432.89	625.55
433.265	629.84
433.641	629.39
434.016	631.2
434.392	643.63
434.767	646.79
435.143	654.47
435.518	653.8
435.894	661.93
436.269	682.5
436.644	660.35
437.02	664.19
437.395	654.47
437.77	663.97
438.145	682.72
438.52	708.48
438.895	709.39
439.271	688.82
439.646	716.17
440.021	717.3
440.395	702.83
440.77	710.52
441.145	723.4
441.52	741.03
441.895	755.26
442.27	731.76
442.645	727.69
443.019	765.21
443.394	747.13
443.769	759.33
444.143	753
444.518	769.95
444.892	754.81
445.267	782.61
445.641	791.65
446.016	761.36
446.39	774.02
446.764	798.2
447.139	788.26
447.513	789.61
447.887	797.52
448.262	779.67
448.636	811.53
449.01	810.4
449.384	808.14
449.758	829.84
450.132	814.7
450.506	819.44
450.88	827.58
451.254	835.94
451.628	843.62
452.002	856.73
452.376	848.14
452.75	860.57
453.123	872.1
453.497	872.77
453.871	890.63
454.244	913.45
454.618	888.82
454.992	896.28
455.365	933.79
455.739	920.68
456.112	931.98
456.486	908.25
456.859	950.51
457.232	951.87
457.606	943.96
457.979	989.83
458.352	999.78
458.725	996.39
459.099	1022.15
459.472	1019.89
459.845	1032.77
460.218	1030.96
460.591	1039.77
460.964	1029.61
461.337	1069.6
461.71	1073.9
462.083	1110.51
462.456	1085.65
462.829	1102.82
463.201	1116.38
463.574	1117.06
463.947	1137.17
464.32	1156.83
464.692	1162.48
465.065	1180.79
465.438	1184.86
465.81	1209.71
466.183	1225.98
466.555	1226.89
466.928	1257.62
467.3	1223.5
467.672	1281.35
468.045	1311.63
468.417	1294.91
468.789	1291.97
469.161	1318.19
469.534	1353.21
469.906	1386.66
470.278	1372.87
470.65	1407
471.022	1406.77
471.394	1454.23
471.766	1454
472.138	1479.09
472.51	1524.51
472.882	1543.49
473.253	1566.09
473.625	1618.29
473.997	1633.43
474.369	1630.95
474.74	1667.56
475.112	1721.34
475.484	1706.2
475.855	1778.06
476.227	1775.35
476.598	1811.73
476.97	1847.66
477.341	1879.75
477.713	1915.68
478.084	1941.67
478.455	2001.56
478.827	2028.68
479.198	2089.01
479.569	2128.11
479.94	2170.14
480.311	2185.96
480.682	2272.96
481.053	2287.2
481.424	2356.58
481.795	2405.39
482.166	2431.83
482.537	2476.8
482.908	2518.15
483.279	2576.68
483.65	2630.47
484.021	2683.35
484.391	2756.11
484.762	2785.49
485.133	2814.19
485.503	2859.84
485.874	2960.63
486.244	3003.11
486.615	3040.4
486.985	3075.88
487.356	3159.95
487.726	3204.69
488.097	3316.78
488.467	3301.18
488.837	3418.24
489.207	3451.01
489.578	3510.44
489.948	3604.68
490.318	3642.19
490.688	3691
491.058	3752.25
491.428	3796.54
491.798	3867.27
492.168	3947.5
492.538	3969.42
492.908	4085.57
493.278	4125.57
493.648	4137.32
494.017	4188.39
494.387	4236.98
494.757	4286.02
495.126	4352.23
495.496	4438.1
495.866	4495.28
496.235	4502.28
496.605	4597.42
496.974	4622.28
497.344	4706.12
497.713	4708.38
498.082	4769.62
498.452	4850.3
498.821	4850.52
499.19	4915.15
499.559	4944.08
499.928	4998.09
500.298	5040.12
500.667	5098.2
501.036	5086.67
501.405	5174.36
501.774	5170.06
502.143	5242.38
502.512	5296.61
502.88	5328.48
503.249	5307.46
503.618	5402.15
503.987	5436.5
504.356	5476.27
504.724	5517.62
505.093	5567.57
505.462	5588.36
505.83	5617.06
506.199	5659.77
506.567	5753.78
506.936	5725.08
507.304	5830.16
507.672	5786.09
508.041	5847.56
508.409	5907.22
508.777	5934.11
509.145	5976.14
509.514	5987.89
509.882	6033.99
510.25	6037.38
510.618	6101.56
510.986	6140.43
511.354	6145.63
511.722	6199.19
512.09	6218.4
512.458	6248.45
512.826	6380.88
513.193	6266.76
513.561	6386.53
513.929	6382.91
514.297	6442.57
514.664	6483.25
515.032	6462.91
515.4	6544.71
515.767	6529.12
516.135	6612.51
516.502	6568.44
516.869	6691.83
517.237	6686.41
517.604	6646.18
517.972	6807.31
518.339	6761.43
518.706	6770.92
519.073	6840.53
519.44	6850.47
519.808	6913.97
520.175	6887.98
520.542	6981.09
520.909	7037.81
521.276	7017.47
521.643	7046.17
522.009	7096.79
522.376	7129.11
522.743	7140.41
523.11	7187.41
523.477	7284.58
523.843	7315.99
524.21	7359.16
524.577	7392.83
524.943	7481.64
525.31	7474.63
525.676	7537.68
526.043	7542.88
526.409	7629.43
526.776	7691.8
527.142	7714.63
527.508	7729.32
527.874	7874.17
528.241	7840.5
528.607	7873.49
528.973	7911.01
529.339	7880.95
529.705	7982.42
530.071	8072.13
530.437	8036.2
530.803	8136.31
531.169	8203.65
531.535	8174.5
531.901	8214.5
532.267	8255.86
532.632	8271.45
532.998	8350.09
533.364	8454.04
533.73	8389.86
534.095	8432.35
534.461	8441.84
534.826	8513.93
535.192	8533.82
535.557	8635.51
535.923	8589.18
536.288	8589.18
536.653	8727.71
537.019	8730.19
537.384	8767.71
537.749	8784.66
538.114	8901.49
538.479	8880.7
538.845	8874.82
539.21	8888.16
539.575	8989.4
539.94	8957.76
540.305	9113.01
540.67	8995.5
541.034	9096.06
541.399	9158.66
541.764	9188.26
542.129	9261.48
542.494	9198.66
542.858	9287.47
543.223	9296.51
543.587	9362.04
543.952	9359.78
544.316	9444.75
544.681	9452.21
545.045	9487.01
545.41	9524.07
545.774	9612.66
546.138	9571.08
546.503	9671.41
546.867	9687.46
547.231	9731.75
547.595	9729.49
547.959	9786.44
548.324	9776.49
548.688	9794.12
549.052	9848.58
549.416	9963.38
549.779	9948.24
550.143	9980.1
550.507	9933.33
550.871	10059.88
551.235	10045.41
551.599	10170.16
551.962	10108.46
552.326	10187.56
552.689	10243.83
553.053	10183.72
553.417	10250.15
553.78	10361.56
554.143	10321.34
554.507	10439.3
554.87	10396.14
555.234	10485.63
555.597	10364.95
555.96	10465.52
556.323	10598.85
556.686	10527.89
557.05	10592.74
557.413	10708.9
557.776	10643.59
558.139	10710.93
558.502	10766.3
558.865	10722.68
559.228	10806.07
559.59	10886.75
559.953	10913.64
560.316	10997.25
560.679	10959.51
561.041	11094.88
561.404	11050.59
561.767	11183.46
562.129	11067.31
562.492	11173.52
562.854	11214.2
563.217	11207.87
563.579	11226.85
563.941	11430.69
564.304	11407.19
564.666	11377.36
565.028	11399.05
565.39	11503
565.753	11597.24
566.115	11551.36
566.477	11592.72
566.839	11630.23
567.201	11691.92
567.563	11700.51
567.925	11806.72
568.287	11792.94
568.648	11812.82
569.01	11871.58
569.372	11999.94
569.734	11981.18
570.095	11970.56
570.457	12110.67
570.819	12178.47
571.18	12235.86
571.542	12267.95
571.903	12214.62
572.265	12382.75
572.626	12381.4
572.987	12356.54
573.349	12588.4
573.71	12587.27
574.071	12620.04
574.432	12784.78
574.794	12831.56
575.155	12867.71
575.516	12823.65
575.877	13037.88
576.238	13049.18
576.599	13171.66
576.96	13251.21
577.32	13196.29
577.681	13398.55
578.042	13518.99
578.403	13554.7
578.763	13679.22
579.124	13780.68
579.485	13964.18
579.845	14038.76
580.206	14097.96
580.566	14240.78
580.927	14393.1
581.287	14502.02
581.648	14640.1
582.008	14859.98
582.368	14983.59
582.728	15087.99
583.089	15364.37
583.449	15390.58
583.809	15591.48
584.169	15831.02
584.529	15966.39
584.889	16192.82
585.249	16325.47
585.609	16429.65
585.969	16774.73
586.329	16977.43
586.688	17246.81
587.048	17420.81
587.408	17529.28
587.768	17800.24
588.127	18018.31
588.487	18198.65
588.846	18558.41
589.206	18712.98
589.565	18900.77
589.925	19209.69
590.284	19446.75
590.643	19671.6
591.003	19972.61
591.362	20229.55
591.721	20429.1
592.08	20635.87
592.44	20865.24
592.799	21272.69
593.158	21425.23
593.517	21655.73
593.876	22007.59
594.235	22214.13
594.593	22420
594.952	22727.57
595.311	22925.3
595.67	23215.24
596.029	23573.42
596.387	23836.01
596.746	24115.1
597.104	24247.3
597.463	24664.24
597.822	24844.35
598.18	24962.99
598.538	25139.71
598.897	25607.72
599.255	25702.18
599.613	26236.85
599.972	26210.86
600.33	26547.58
600.688	26691.3
601.046	26977.4
601.404	27280.44
601.762	27505.07
602.12	27776.02
602.478	27910.93
602.836	28288.78
603.194	28353.18
603.552	28689.9
603.91	28724.7
604.268	29046.72
604.625	29180.05
604.983	29447.62
605.341	29623.2
605.698	29847.38
606.056	30139.8
606.413	30254.37
606.771	30462.73
607.128	30631.99
607.485	30717.86
607.843	30984.07
608.2	31227.23
608.557	31675.58
608.914	31558.29
609.272	31907.44
609.629	32127.55
609.986	32408.44
610.343	32210.48
610.7	32751.03
611.057	32783.57
611.414	33021.98
611.771	33128.65
612.127	33252.94
612.484	33473.5
612.841	33601.86
613.198	33653.38
613.554	33798.01
613.911	34133.37
614.267	34160.03
614.624	34335.4
614.98	34470.76
615.337	34722.73
615.693	34578.1
616.05	34833.69
616.406	35235.49
616.762	35045.89
617.118	35237.29
617.475	35354.8
617.831	35447.01
618.187	35574.23
618.543	35790.73
618.899	35995.69
619.255	36027.1
619.611	36037.95
619.967	36296.48
620.323	36499.18
620.678	36450.37
621.034	36340.99
621.39	36476.13
621.746	36590.93
622.101	36958.38
622.457	36849
622.812	36821.66
623.168	36938.04
623.523	37113.4
623.879	37189.78
624.234	36964.48
624.589	37225.04
624.945	37183.01
625.3	37533.28
625.655	37418.25
626.01	37497.8
626.365	37565.14
626.72	37661.18
627.075	37630
627.43	37653.95
627.785	37580.51
628.14	37843.55
628.495	37904.12
628.85	37878.35
629.205	37749.77
629.559	38063.43
629.914	37838.36
630.269	37914.74
630.623	37801.97
630.978	37857.79
631.332	37961.29
631.687	38130.1
632.041	37910.44
632.396	38082.42
632.75	38022.31
633.104	38025.7
633.459	37839.49
633.813	37998.13
634.167	38082.19
634.521	37993.61
634.875	38050.1
635.229	37979.14
635.583	37896.88
635.937	37891.46
636.291	37876.09
636.645	37931.91
636.999	37882.42
637.352	38041.97
637.706	37855.76
638.06	38025.92
638.413	37923.1
638.767	37775.08
639.121	37963.1
639.474	37756.1
639.828	37832.71
640.181	37836.1
640.534	37914.06
640.888	37710
641.241	37696.66
641.594	37736.89
641.947	37879.48
642.301	37658.02
642.654	37789.09
643.007	37813.05
643.36	37703.67
643.713	37757.91
644.066	37788.64
644.419	37465.71
644.771	37437.91
645.124	37028.43
645.477	37092.39
645.83	36775.56
646.182	36644.26
646.535	36680.19
646.888	36693.07
647.24	36372.86
647.593	36621.44
647.945	36581.89
648.298	36421.67
648.65	36309.13
649.002	36323.14
649.355	36445.4
649.707	36402.01
650.059	36485.4
650.411	36957.25
650.763	36967.42
651.115	37457.35
651.467	37272.04
651.819	37267.07
652.171	37263.68
652.523	37177.13
652.875	37010.35
653.227	36865.73
653.578	37106.85
653.93	37042.44
654.282	36895.56
654.633	36936.91
654.985	37009.22
655.337	37013.97
655.688	37000.41
656.039	37203.34
656.391	36811.94
656.742	36942.33
657.094	36950.47
657.445	37137.13
657.796	36927.64
658.147	36959.96
658.498	36853.07
658.849	37007.87
659.2	36897.14
659.551	36753.19
659.902	36870.92
660.253	36805.61
660.604	37019.85
660.955	36656.69
661.306	36856.46
661.656	36754.99
662.007	36778.95
662.358	36765.84
662.708	36827.08
663.059	36718.38
663.409	36560.87
663.76	36786.86
664.11	36743.24
664.461	36837.93
664.811	36810.81
665.161	36710.93
665.511	36735.79
665.862	36687.2
666.212	36757.03
666.562	36828.44
666.912	36713.41
667.262	36792.96
667.612	36723.36
667.962	36739.85
668.312	36648.33
668.662	36758.61
669.011	36702.34
669.361	36651.95
669.711	36658.95
670.06	36605.62
670.41	36353.87
670.76	36491.05
671.109	36694.66
671.459	36532.18
671.808	36458.05
672.157	36549.35
672.507	36437.26
672.856	36457.83
673.205	36507.32
673.554	36424.38
673.904	36359.98
674.253	36599.07
674.602	36405.62
674.951	35965.18
675.3	35684.51
675.649	36303.71
675.998	36243.82
676.346	36368.11
676.695	36504.15
677.044	36145.29
677.393	36274.78
677.741	36250.6
678.09	36140.09
678.438	36082.24
678.787	36160.66
679.135	36009.02
679.484	35994.79
679.832	36029.36
680.181	35876.37
680.529	35972.87
680.877	35864.17
681.225	35821.46
681.573	36012.19
681.922	35704.17
682.27	35709.37
682.618	35712.08
682.966	35627.57
683.314	35565.19
683.661	35723.38
684.009	35583.27
684.357	35432.77
684.705	35369.27
685.053	35465.31
685.4	35351.19
685.748	35261.02
686.095	35260.34
686.443	34965.21
686.79	34941.26
687.138	34963.18
687.485	35024.19
687.832	34761.15
688.18	34861.94
688.527	34669.4
688.874	34720.47
689.221	34548.95
689.568	34463.53
689.915	34416.52
690.262	34367.71
690.609	34307.83
690.956	34132.24
691.303	34152.12
691.65	34091.11
691.997	34028.29
692.344	33869.87
692.69	33869.65
693.037	33915.97
693.383	33583.33
693.73	33713.04
694.077	33415.42
694.423	33548.52
694.769	33467.62
695.116	33261.98
695.462	33331.13
695.808	33073.73
696.155	33277.57
696.501	32938.6
696.847	32836.68
697.193	32791.03
697.539	32842.55
697.885	32681.88
698.231	32654.54
698.577	32626.29
698.923	32564.82
699.269	32303.81
699.614	32083.48
699.96	32220.2
700.306	32217.71
700.651	31981.56
700.997	31918.96
701.342	31871.28
701.688	31829.25
702.033	31637.39
702.379	31704.73
702.724	31636.71
703.069	31680.33
703.415	31262.94
703.76	31379.99
704.105	31469.48
704.45	31300
704.795	31153.56
705.14	30899.55
705.485	31043.73
705.83	30886.22
706.175	30863.85
706.52	30803.96
706.865	30643.97
707.209	30656.17
707.554	30582.27
707.899	30524.42
708.243	30426.35
708.588	30391.55
708.932	30217.09
709.277	30039.24
709.621	30157.2
709.966	29852.35
710.31	30048.28
710.654	29756.31
710.998	29801.73
711.342	29915.85
711.687	29688.74
712.031	29647.84
712.375	29531.23
712.719	29612.13
713.063	29538.46
713.407	29464.56
713.75	29358.58
714.094	29349.77
714.438	29248.75
714.782	29277
715.125	29060.51
715.469	29266.6
715.812	29013.95
716.156	28967.18
716.499	28888.08
716.843	29053.28
717.186	28784.36
717.53	28932.37
717.873	28802.21
718.216	28719.5
718.559	28593.4
718.902	28499.39
719.246	28517.7
719.589	28427.3
719.932	28306.85
720.275	28391.15
720.617	28310.92
720.96	28235.67
721.303	28256.69
721.646	28180.98
721.989	28086.52
722.331	28078.39
722.674	28091.27
723.016	28094.66
723.359	27904.61
723.701	28083.81
724.044	27814.89
724.386	27697.61
724.729	27804.49
725.071	27628.45
725.413	27746.19
725.755	27689.24
726.097	27604.5
726.439	27431.4
726.782	27526.99
727.124	27630.04
727.465	27469.81
727.807	27369.48
728.149	27478.63
728.491	27336.26
728.833	27398.63
729.175	27254
729.516	27121.8
729.858	27192.99
730.199	27130.16
730.541	27139.43
730.882	26986.89
731.224	27098.07
731.565	26847.91
731.906	27025.98
732.248	26867.34
732.589	26785.76
732.93	26717.07
733.271	26745.31
733.612	26668.93
733.953	26760
734.294	26646.33
734.635	26464.42
734.976	26691.98
735.317	26423.29
735.658	26405.89
735.999	26447.24
736.339	26350.07
736.68	26532.44
737.021	26360.01
737.361	26182.62
737.702	26448.37
738.042	26305.55
738.383	26197.53
738.723	26269.39
739.063	26031.21
739.404	26177.42
739.744	25986.24
740.084	26040.93
740.424	26044.09
740.764	25933.58
741.104	26009.29
741.444	25867.6
741.784	25754.61
742.124	25844.32
742.464	25827.6
742.804	25786.02
743.143	25734.94
743.483	25580.82
743.823	25564.78
744.162	25590.54
744.502	25483.43
744.841	25424.9
745.181	25482.97
745.52	25381.06
745.86	25438.68
746.199	25374.5
746.538	25253.38
746.877	25404.11
747.216	25340.38
747.556	25402.75
747.895	25345.12
748.234	25206.6
748.573	25101.52
748.911	25083.66
749.25	25142.64
749.589	24976.77
749.928	25115.75
750.267	24945.36
750.605	24953.27
750.944	24846.15
751.283	24745.59
751.621	24931.8
751.96	24805.25
752.298	24665.14
752.636	24663.56
752.975	24592.38
753.313	24459.5
753.651	24526.16
753.989	24466.73
754.327	24473.06
754.666	24399.39
755.004	24292.72
755.342	24355.55
755.679	24347.18
756.017	24188.77
756.355	24266.06
756.693	24139.96
757.031	24219.73
757.368	24023.13
757.706	23991.26
758.044	23828.33
758.381	23975.9
758.719	23820.19
759.056	23800.53
759.394	23701.55
759.731	23681.89
