Data from hue_200_FLMS001491_00087.txt Node
Date: Tue Feb 07 16:44:04 GMT 2017
User: dcchb
Spectrometer: FLMS00149
Trigger mode: 0
Integration Time (sec): 2.000000E-2
Scans to average: 10
Electric dark correction enabled: true
Nonlinearity correction enabled: false
Boxcar width: 0
XAxis mode: Wavelengths
Number of Pixels in Spectrum: 2048
>>>>>Begin Spectral Data<<<<<
341.393	1.43
341.776	1.43
342.16	1.43
342.543	-59.14
342.927	-53.94
343.31	-70.44
343.693	-67.72
344.077	-80.61
344.46	-61.85
344.843	-58.91
345.226	-43.54
345.61	-27.05
345.993	-22.98
346.376	7.3
346.759	7.75
347.142	22.44
347.525	41.88
347.908	65.38
348.291	75.1
348.674	89.56
349.057	123.68
349.44	131.59
349.823	150.8
350.206	167.75
350.588	195.09
350.971	211.59
351.354	241.87
351.737	254.08
352.119	254.08
352.502	263.11
352.884	288.42
353.267	283.23
353.65	308.31
354.032	300.63
354.414	290.46
354.797	325.26
355.179	323.68
355.562	313.51
355.944	326.62
356.326	326.62
356.709	342.43
357.091	337.46
357.473	332.72
357.855	349.89
358.238	337.91
358.62	336.11
359.002	355.54
359.384	338.82
359.766	348.08
360.148	347.41
360.53	345.82
360.912	334.98
361.294	353.51
361.676	313.96
362.057	357.12
362.439	325.03
362.821	343.11
363.203	321.19
363.584	338.14
363.966	309.22
364.348	323.23
364.729	316.67
365.111	331.81
365.493	297.46
365.874	324.81
366.256	313.51
366.637	317.8
367.019	308.99
367.4	327.07
367.781	333.17
368.163	294.53
368.544	315.54
368.925	327.07
369.306	331.81
369.688	305.83
370.069	322.55
370.45	335.88
370.831	315.09
371.212	312.15
371.593	326.62
371.974	304.24
372.355	312.83
372.736	314.86
373.117	346.95
373.498	316.45
373.879	325.03
374.26	320.97
374.641	313.06
375.021	307.41
375.402	323.23
375.783	344.92
376.163	333.17
376.544	342.66
376.925	331.14
377.305	327.52
377.686	320.74
378.066	331.59
378.447	326.39
378.827	343.11
379.208	337.01
379.588	328.2
379.968	334.3
380.349	355.32
380.729	337.91
381.109	351.25
381.489	361.87
381.87	335.88
382.25	346.95
382.63	354.19
383.01	356.45
383.39	343.11
383.77	342.66
384.15	339.72
384.53	354.86
384.91	366.61
385.29	370.46
385.67	360.51
386.049	362.77
386.429	376.11
386.809	344.24
387.189	353.73
387.568	346.28
387.948	358.93
388.328	378.59
388.707	378.59
389.087	357.35
389.466	370.91
389.846	374.52
390.225	390.79
390.605	379.95
390.984	374.75
391.363	383.11
391.743	388.53
392.122	362.77
392.501	377.91
392.881	358.93
393.26	382.89
393.639	384.24
394.018	397.57
394.397	391.7
394.776	404.35
395.155	403.22
395.534	393.28
395.913	397.8
396.292	391.7
396.671	415.88
397.05	411.59
397.429	405.26
397.808	404.13
398.186	398.25
398.565	403.68
398.944	402.32
399.323	403
399.701	423.11
400.08	428.53
400.458	412.04
400.837	421.08
401.215	429.66
401.594	425.14
401.972	460.62
402.351	432.38
402.729	442.77
403.107	429.66
403.486	440.06
403.864	458.14
404.242	439.61
404.62	473.05
404.999	488.65
405.377	478.48
405.755	469.21
406.133	473.73
406.511	479.83
406.889	494.29
407.267	496.33
407.645	488.87
408.023	488.65
408.401	517.57
408.779	493.16
409.156	525.03
409.534	533.16
409.912	534.29
410.29	554.41
410.667	556.44
411.045	576.78
411.422	544.01
411.8	579.49
412.178	571.36
412.555	612.94
412.933	618.81
413.31	613.16
413.687	617
414.065	633.05
414.442	646.38
414.819	651.35
415.197	684.57
415.574	678.47
415.951	685.25
416.328	682.31
416.705	673.05
417.082	699.94
417.46	711.24
417.837	736.1
418.214	732.71
418.591	733.16
418.967	752.37
419.344	779.71
419.721	793.27
420.098	772.48
420.475	818.13
420.852	812.48
421.228	840.27
421.605	816.55
421.982	851.12
422.358	869.43
422.735	886.15
423.111	893.15
423.488	894.96
423.864	921.18
424.241	941.97
424.617	991.68
424.994	973.15
425.37	1013.6
425.746	1004.79
426.123	1017.22
426.499	1050.21
426.875	1009.99
427.251	1066.26
427.627	1078.91
428.003	1089.76
428.379	1114.39
428.756	1112.81
429.132	1128.85
429.507	1148.06
429.883	1169.08
430.259	1175.86
430.635	1183.54
431.011	1199.59
431.387	1223.54
431.763	1245.46
432.138	1275.29
432.514	1294.05
432.89	1307.61
433.265	1329.75
433.641	1375.63
434.016	1378.11
434.392	1414.5
434.767	1426.93
435.143	1458.79
435.518	1492.23
435.894	1488.62
436.269	1522.06
436.644	1550.09
437.02	1582.85
437.395	1613.36
437.77	1627.37
438.145	1658.11
438.52	1689.07
438.895	1723.64
439.271	1712.79
439.646	1773.81
440.021	1818.33
440.395	1808.61
440.77	1811.55
441.145	1843.41
441.52	1932.45
441.895	1907.59
442.27	1934.93
442.645	1947.82
443.019	1990.3
443.394	1966.35
443.769	2000.47
444.143	2004.31
444.518	2067.36
444.892	2092.22
445.267	2088.38
445.641	2128.83
446.016	2126.12
446.39	2158.88
446.764	2174.7
447.139	2192.56
447.513	2205.66
447.887	2248.37
448.262	2260.12
448.636	2212.89
449.01	2275.94
449.384	2301.25
449.758	2317.3
450.132	2346
450.506	2361.36
450.88	2404.53
451.254	2393.68
451.628	2378.99
452.002	2447.69
452.376	2468.25
452.75	2510.51
453.123	2546.44
453.497	2552.77
453.871	2568.14
454.244	2634.58
454.618	2646.33
454.992	2685.88
455.365	2665.31
455.739	2786.21
456.112	2730.39
456.486	2818.3
456.859	2797.74
457.232	2872.76
457.606	2867.34
457.979	2910.73
458.352	2946.89
458.725	2997.51
459.099	3011.52
459.472	3077.73
459.845	3099.2
460.218	3177.16
460.591	3146.65
460.964	3193.21
461.337	3256.71
461.71	3294.45
462.083	3372.86
462.456	3334.22
462.829	3337.38
463.201	3438.4
463.574	3441.79
463.947	3465.06
464.32	3538.28
464.692	3575.8
465.065	3583.93
465.438	3635.23
465.81	3697.37
466.183	3731.05
466.555	3815.56
466.928	3816.47
467.3	3814.21
467.672	3904.37
468.045	3990.93
468.417	4032.73
468.789	4058.49
469.161	4093.07
469.534	4139.62
469.906	4260.75
470.278	4254.65
470.65	4284.93
471.022	4376.9
471.394	4437.92
471.766	4484.02
472.138	4547.07
472.51	4648.54
472.882	4660.97
473.253	4727.63
473.625	4752.71
473.997	4870.45
474.369	4889.21
474.74	4977.57
475.112	5010.33
475.484	5129.88
475.855	5194.28
476.227	5273.15
476.598	5357.9
476.97	5418.23
477.341	5522.64
477.713	5574.84
478.084	5658.9
478.455	5734.38
478.827	5775.06
479.198	5924.89
479.569	5931.89
479.94	6146.12
480.311	6177.76
480.682	6296.85
481.053	6399.22
481.424	6519.45
481.795	6563.74
482.166	6633.79
482.537	6736.39
482.908	6863.39
483.279	6913.56
483.65	6992.66
484.021	7116.95
484.391	7165.31
484.762	7276.49
485.133	7323.04
485.503	7448.91
485.874	7543.38
486.244	7608.23
486.615	7762.8
486.985	7793.76
487.356	7908.34
487.726	8011.61
488.097	8153.98
488.467	8152.85
488.837	8311.49
489.207	8399.4
489.578	8461.32
489.948	8568.21
490.318	8728.43
490.688	8675.55
491.058	8832.38
491.428	8922.32
491.798	8940.85
492.168	9137.91
492.538	9085.48
492.908	9224.69
493.278	9306.04
493.648	9267.85
494.017	9455.87
494.387	9507.17
494.757	9586.49
495.126	9711.91
495.496	9665.81
495.866	9747.84
496.235	9781.51
496.605	9858.34
496.974	9859.47
497.344	9937.89
497.713	9977.44
498.082	10062.63
498.452	10183.31
498.821	10120.48
499.19	10184.89
499.559	10246.58
499.928	10300.82
500.298	10335.17
500.667	10363.64
501.036	10425.11
501.405	10452.23
501.774	10448.84
502.143	10479.57
502.512	10520.02
502.88	10492.45
503.249	10644.08
503.618	10617.64
503.987	10666.46
504.356	10735.16
504.724	10765.44
505.093	10766.34
505.462	10785.32
505.83	10802.72
506.199	10803.18
506.567	10973.79
506.936	10998.88
507.304	11037.29
507.672	11041.59
508.041	11045.2
508.409	11039.55
508.777	11166.78
509.145	11151.42
509.514	11139.66
509.882	11195.03
510.25	11159.33
510.618	11240.9
510.986	11227.57
511.354	11224.18
511.722	11365.65
512.09	11393.22
512.458	11305.31
512.826	11404.97
513.193	11398.19
513.561	11415.82
513.929	11491.07
514.297	11490.16
514.664	11498.07
515.032	11498.98
515.4	11528.36
515.767	11567.22
516.135	11595.92
516.502	11498.98
516.869	11614.23
517.237	11595.7
517.604	11564.29
517.972	11631.18
518.339	11648.35
518.706	11602.48
519.073	11659.43
519.44	11676.83
519.808	11689.25
520.175	11666.43
520.542	11756.82
520.909	11801.79
521.276	11733.1
521.643	11829.14
522.009	11759.99
522.376	11780.78
522.743	11818.06
523.11	11835.92
523.477	11888.8
523.843	11873.2
524.21	11969.25
524.577	12016.48
524.943	11941.9
525.31	11929.02
525.676	12032.52
526.043	11919.98
526.409	12021.22
526.776	12076.82
527.142	11986.42
527.508	12025.07
527.874	11975.8
528.241	12013.54
528.607	11948.68
528.973	12024.16
529.339	11981.9
529.705	11965.41
530.071	12023.48
530.437	12065.97
530.803	11972.41
531.169	11954.11
531.535	11907.1
531.901	11859.65
532.267	11959.08
532.632	11908.68
532.998	11831.62
533.364	11764.73
533.73	11834.56
534.095	11786.65
534.461	11774.22
534.826	11805.41
535.192	11744.85
535.557	11723.83
535.923	11727.9
536.288	11626.88
536.653	11647.67
537.019	11601.12
537.384	11570.39
537.749	11561.8
538.114	11454.46
538.479	11439.32
538.845	11474.35
539.21	11290.85
539.575	11252.43
539.94	11298.53
540.305	11235.03
540.67	11197.74
541.034	11205.65
541.399	11122.04
541.764	11104.86
542.129	11077.52
542.494	11045.66
542.858	11087.01
543.223	10930.63
543.587	10986.67
543.952	10876.39
544.316	10826
544.681	10841.59
545.045	10804.53
545.41	10747.81
545.774	10623.07
546.138	10528.38
546.503	10630.3
546.867	10586.23
547.231	10590.07
547.595	10548.72
547.959	10453.13
548.324	10397.31
548.688	10392.11
549.052	10359.35
549.416	10316.64
549.779	10273.47
550.143	10249.52
550.507	10237.09
550.871	10136.98
551.235	10131.78
551.599	10168.16
551.962	10075.74
552.326	10042.97
552.689	10010.65
553.053	9895.86
553.417	9897.66
553.78	9981.05
554.143	9891.34
554.507	9894.5
554.87	9791.23
555.234	9783.09
555.597	9777.21
555.96	9789.87
556.323	9735.18
556.686	9753.26
557.05	9751.45
557.413	9700.83
557.776	9628.52
558.139	9649.08
558.502	9659.93
558.865	9621.06
559.228	9579.71
559.59	9583.77
559.953	9589.2
560.316	9616.31
560.679	9534.96
561.041	9569.99
561.404	9608.63
561.767	9628.52
562.129	9473.72
562.492	9575.41
562.854	9514.85
563.217	9503.78
563.579	9424.23
563.941	9536.09
564.304	9533.38
564.666	9545.58
565.028	9528.41
565.39	9441.63
565.753	9447.51
566.115	9534.51
566.477	9514.62
566.839	9501.06
567.201	9570.67
567.563	9494.28
567.925	9539.93
568.287	9508.52
568.648	9517.56
569.01	9537.67
569.372	9604.79
569.734	9547.39
570.095	9632.81
570.457	9613.6
570.819	9522.76
571.18	9614.96
571.542	9591.46
571.903	9603.89
572.265	9610.89
572.626	9603.21
572.987	9598.91
573.349	9627.39
573.71	9621.51
574.071	9626.71
574.432	9601.85
574.794	9637.56
575.155	9716.88
575.516	9577.22
575.877	9648.63
576.238	9585.58
576.599	9687.73
576.96	9666.26
577.32	9607.95
577.681	9578.58
578.042	9638.91
578.403	9664.68
578.763	9588.75
579.124	9651.57
579.485	9664.9
579.845	9722.07
580.206	9628.74
580.566	9682.98
580.927	9660.38
581.287	9632.13
581.648	9650.21
582.008	9685.01
582.368	9654.73
582.728	9627.61
583.089	9699.93
583.449	9723.88
583.809	9697.22
584.169	9638.46
584.529	9659.25
584.889	9663.55
585.249	9586.94
585.609	9568.86
585.969	9655.64
586.329	9630.33
586.688	9588.75
587.048	9659.93
587.408	9632.59
587.768	9559.14
588.127	9529.99
588.487	9592.13
588.846	9658.8
589.206	9553.94
589.565	9503.78
589.925	9597.33
590.284	9569.99
590.643	9626.94
591.003	9571.34
591.362	9563.66
591.721	9560.95
592.08	9557.33
592.44	9505.36
592.799	9536.77
593.158	9518.01
593.517	9555.98
593.876	9557.11
594.235	9516.66
594.593	9533.38
594.952	9506.49
595.311	9505.36
595.67	9468.52
596.029	9525.47
596.387	9496.54
596.746	9620.83
597.104	9521.63
597.463	9512.81
597.822	9502.65
598.18	9528.63
598.538	9420.61
598.897	9505.13
599.255	9395.98
599.613	9538.8
599.972	9492.25
600.33	9540.61
600.688	9445.47
601.046	9491.35
601.404	9529.76
601.762	9458.8
602.12	9536.99
602.478	9527.05
602.836	9493.15
603.194	9467.84
603.552	9471.69
603.91	9466.04
604.268	9471.23
604.625	9391.91
604.983	9464.91
605.341	9380.61
605.698	9466.71
606.056	9439.14
606.413	9412.25
606.771	9478.01
607.128	9429.65
607.485	9436.43
607.843	9430.11
608.2	9498.58
608.557	9511.91
608.914	9508.07
609.272	9545.13
609.629	9520.95
609.986	9620.61
610.343	9462.42
610.7	9635.52
611.057	9568.63
611.414	9528.18
611.771	9537.45
612.127	9600.5
612.484	9569.31
612.841	9581.06
613.198	9588.75
613.554	9586.03
613.911	9565.92
614.267	9654.96
614.624	9564.56
614.98	9569.99
615.337	9637.56
615.693	9703.77
616.05	9652.02
616.406	9734.5
616.762	9629.42
617.118	9654.05
617.475	9655.41
617.831	9716.43
618.187	9652.7
618.543	9643.43
618.899	9709.65
619.255	9745.58
619.611	9679.36
619.967	9717.56
620.323	9722.75
620.678	9642.53
621.034	9699.7
621.39	9624.68
621.746	9677.78
622.101	9737.89
622.457	9750.55
622.812	9703.32
623.168	9694.96
623.523	9729.98
623.879	9743.32
624.234	9649.31
624.589	9722.53
624.945	9758.23
625.3	9728.18
625.655	9703.09
626.01	9693.83
626.365	9708.52
626.72	9685.69
627.075	9652.92
627.43	9685.01
627.785	9647.95
628.14	9711.68
628.495	9689.53
628.85	9710.78
629.205	9662.64
629.559	9697.89
629.914	9713.49
630.269	9704.45
630.623	9655.18
630.978	9650.89
631.332	9635.3
631.687	9581.06
632.041	9601.17
632.396	9591.46
632.75	9536.99
633.104	9591.46
633.459	9473.27
633.813	9523.21
634.167	9529.99
634.521	9495.64
634.875	9499.26
635.229	9495.41
635.583	9442.31
635.937	9440.73
636.291	9428.52
636.645	9467.39
636.999	9337.9
637.352	9449.99
637.706	9326.83
638.06	9306.27
638.413	9393.95
638.767	9323.44
639.121	9339.94
639.474	9306.49
639.828	9336.32
640.181	9352.59
640.534	9270.11
640.888	9287.74
641.241	9248.42
641.594	9279.15
641.947	9292.48
642.301	9234.86
642.654	9245.48
643.007	9268.75
643.36	9301.97
643.713	9248.87
644.066	9264.91
644.419	9235.76
644.771	9125.48
645.124	9151.69
645.477	9074.18
645.83	9010
646.182	8989.21
646.535	8961.42
646.888	8976.33
647.24	8935.2
647.593	9000.74
647.945	8994.18
648.298	8918.48
648.65	8869.22
649.002	8871.93
649.355	8982.89
649.707	8874.19
650.059	8899.72
650.411	9012.04
650.763	9102.88
651.115	9205.03
651.467	9156.21
651.819	9139.04
652.171	9172.03
652.523	9052.94
652.875	9119.6
653.227	9079.83
653.578	9089.32
653.93	9158.02
654.282	9091.58
654.633	9086.61
654.985	9077.57
655.337	9142.88
655.688	9122.32
656.039	9152.37
656.391	9100.85
656.742	9130.9
657.094	9089.78
657.445	9184.46
657.796	9051.81
658.147	9079.38
658.498	9059.72
658.849	9166.16
659.2	9081.87
659.551	9134.29
659.902	9093.16
660.253	9101.07
660.604	9140.62
660.955	9114.86
661.306	9091.13
661.656	9151.47
662.007	9190.34
662.358	9123.9
662.708	9161.41
663.059	9188.76
663.409	9079.61
663.76	9137.68
664.11	9202.99
664.461	9205.7
664.811	9149.89
665.161	9167.74
665.511	9233.27
665.862	9097.68
666.212	9239.15
666.562	9188.53
666.912	9184.24
667.262	9208.42
667.612	9189.21
667.962	9226.72
668.312	9094.97
668.662	9203.9
669.011	9159.15
669.361	9192.6
669.711	9170.45
670.06	9180.62
670.41	9143.33
670.76	9086.61
671.109	9173.61
671.459	9139.49
671.808	9141.75
672.157	9141.07
672.507	9037.57
672.856	9118.93
673.205	9066.05
673.554	9099.72
673.904	9085.03
674.253	9100.85
674.602	9114.18
674.951	8926.84
675.3	8966.84
675.649	9025.37
675.998	9033.51
676.346	9062.66
676.695	9087.06
677.044	8987.4
677.393	9006.39
677.741	8983.56
678.09	9011.81
678.438	8906.73
678.787	8954.64
679.135	8923
679.484	8903.34
679.832	8869.89
680.181	8839.39
680.529	8947.86
680.877	8868.09
681.225	8813.62
681.573	8984.24
681.922	8826.51
682.27	8755.55
682.618	8821.08
682.966	8731.82
683.314	8779.73
683.661	8722.1
684.009	8669.67
684.357	8691.14
684.705	8645.27
685.053	8751.25
685.4	8632.61
685.748	8572.05
686.095	8691.14
686.443	8606.4
686.79	8556
687.138	8575.89
687.485	8577.7
687.832	8494.76
688.18	8474.2
688.527	8493.41
688.874	8456.35
689.221	8424.93
689.568	8406.18
689.915	8371.6
690.262	8405.73
690.609	8382.9
690.956	8320.98
691.303	8313.52
691.65	8250.48
691.997	8319.4
692.344	8220.87
692.69	8182.68
693.037	8167.31
693.383	8139.07
693.73	8141.78
694.077	8020.2
694.423	8055.23
694.769	7988.11
695.116	8023.59
695.462	7936.36
695.808	8004.38
696.155	7999.18
696.501	7953.31
696.847	7835.8
697.193	7831.28
697.539	7856.36
697.885	7822.92
698.231	7793.99
698.577	7767.1
698.923	7685.29
699.269	7737.27
699.614	7670.6
699.96	7673.09
700.306	7576.37
700.651	7576.59
700.997	7531.62
701.342	7469.03
701.688	7467.67
702.033	7525.52
702.379	7426.77
702.724	7389.03
703.069	7399.65
703.415	7302.93
703.76	7312.87
704.105	7306.77
704.45	7333.21
704.795	7248.02
705.14	7253.44
705.485	7169.37
705.83	7170.73
706.175	7189.71
706.52	7093.9
706.865	7122.82
707.209	7181.58
707.554	7091.86
707.899	7080.11
708.243	7010.06
708.588	6972.99
708.932	6992.2
709.277	6930.06
709.621	6984.07
709.966	6915.82
710.31	6913.79
710.654	6834.02
710.998	6899.78
711.342	6935.26
711.687	6841.7
712.031	6786.33
712.375	6767.12
712.719	6834.69
713.063	6781.59
713.407	6737.52
713.75	6799.44
714.094	6756.96
714.438	6738.42
714.782	6754.7
715.125	6724.64
715.469	6748.14
715.812	6671.76
716.156	6667.01
716.499	6691.65
716.843	6668.37
717.186	6657.75
717.53	6689.16
717.873	6606
718.216	6606.45
718.559	6556.06
718.902	6543.85
719.246	6592.89
719.589	6534.59
719.932	6542.72
720.275	6574.59
720.617	6568.71
720.96	6547.02
721.303	6510.18
721.646	6568.26
721.989	6513.35
722.331	6480.8
722.674	6531.65
723.016	6475.15
723.359	6443.52
723.701	6548.37
724.044	6448.71
724.386	6433.57
724.729	6448.49
725.071	6450.75
725.413	6429.28
725.755	6483.74
726.097	6422.27
726.439	6399.68
726.782	6377.3
727.124	6437.64
727.465	6378.89
727.807	6403.29
728.149	6383.41
728.491	6386.57
728.833	6394.25
729.175	6412.56
729.516	6396.96
729.858	6422.05
730.199	6371.88
730.541	6392.9
730.882	6342.28
731.224	6386.34
731.565	6339.11
731.906	6392.22
732.248	6367.36
732.589	6387.93
732.93	6358.1
733.271	6337.53
733.612	6369.17
733.953	6422.73
734.294	6350.86
734.635	6358.77
734.976	6421.14
735.317	6370.3
735.658	6368.26
735.999	6362.84
736.339	6385.89
736.68	6356.74
737.021	6333.46
737.361	6404.2
737.702	6423.4
738.042	6387.25
738.383	6360.36
738.723	6414.37
739.063	6348.38
739.404	6437.64
739.744	6462.27
740.084	6446
740.424	6483.29
740.764	6453.69
741.104	6480.58
741.444	6491.2
741.784	6410.98
742.124	6544.08
742.464	6523.97
742.804	6543.18
743.143	6577.07
743.483	6539.56
743.823	6617.98
744.162	6585.89
744.502	6659.78
744.841	6661.82
745.181	6671.76
745.52	6718.09
745.86	6755.15
746.199	6766.45
746.538	6796.73
746.877	6873.11
747.216	6851.87
747.556	6920.11
747.895	6947.68
748.234	7048.47
748.573	7044.63
748.911	7055.93
749.25	7162.59
749.589	7247.11
749.928	7293.66
750.267	7362.36
750.605	7410.95
750.944	7458.18
751.283	7497.5
751.621	7657.95
751.96	7669.93
752.298	7795.12
752.636	7857.04
752.975	7940.2
753.313	8044.83
753.651	8251.38
753.989	8270.59
754.327	8419.74
754.666	8496.12
755.004	8627.19
755.342	8748.77
755.679	8833.74
756.017	8973.62
756.355	9109.21
756.693	9214.97
757.031	9438.01
757.368	9541.97
757.706	9687.5
758.044	9804.78
758.381	10008.85
758.719	10194.15
759.056	10341.27
759.394	10422.17
759.731	10604.76
760.068	10786.91
760.405	10960.23
760.743	11118.2
761.08	11283.16
761.417	11491.29
761.754	11637.96
762.091	11830.95
762.428	11891.74
762.765	12113.65
763.102	12411.04
763.438	12449.69
763.775	12614.2
764.112	12955.89
764.449	13097.35
764.785	13255.09
765.122	13387.52
765.458	13481.98
