Data from hue_200_FLMS001491_00045.txt Node
Date: Tue Feb 07 16:43:20 GMT 2017
User: dcchb
Spectrometer: FLMS00149
Trigger mode: 0
Integration Time (sec): 2.000000E-2
Scans to average: 10
Electric dark correction enabled: true
Nonlinearity correction enabled: false
Boxcar width: 0
XAxis mode: Wavelengths
Number of Pixels in Spectrum: 2048
>>>>>Begin Spectral Data<<<<<
341.393	-11.98
341.776	-11.98
342.16	-11.98
342.543	-60.11
342.927	-72.99
343.31	-70.96
343.693	-83.84
344.077	-54.46
344.46	-54.46
344.843	-62.37
345.226	-42.48
345.61	-31.86
345.993	-35.93
346.376	6.33
346.759	15.82
347.142	20.56
347.525	51.75
347.908	55.14
348.291	80.22
348.674	89.49
349.057	117.06
349.44	128.81
349.823	177.4
350.206	168.81
350.588	191.41
350.971	198.64
351.354	228.69
351.737	235.7
352.119	247.9
352.502	249.03
352.884	281.35
353.267	274.57
353.65	294.91
354.032	293.78
354.414	294
354.797	301.91
355.179	325.19
355.562	302.36
355.944	320.22
356.326	318.18
356.709	348.92
357.091	318.86
357.473	343.95
357.855	325.19
358.238	357.73
358.62	357.28
359.002	351.86
359.384	337.62
359.766	332.42
360.148	331.74
360.53	319.99
360.912	343.49
361.294	331.29
361.676	344.4
362.057	341.91
362.439	330.16
362.821	325.42
363.203	340.1
363.584	308.92
363.966	339.2
364.348	341.01
364.729	331.52
365.111	313.21
365.493	306.43
365.874	325.87
366.256	321.57
366.637	319.99
367.019	298.07
367.4	333.55
367.781	320.67
368.163	303.72
368.544	281.8
368.925	319.09
369.306	313.44
369.688	296.04
370.069	337.62
370.45	318.41
370.831	296.72
371.212	314.57
371.593	295.13
371.974	310.5
372.355	312.99
372.736	314.12
373.117	310.5
373.498	315.7
373.879	315.7
374.26	308.01
374.641	298.52
375.021	307.34
375.402	312.99
375.783	338.75
376.163	334.23
376.544	322.93
376.925	317.51
377.305	325.64
377.686	331.97
378.066	343.72
378.447	320.44
378.827	325.42
379.208	320.22
379.588	329.93
379.968	317.96
380.349	320.22
380.729	350.5
381.109	322.25
381.489	348.92
381.87	353.44
382.25	327.45
382.63	323.38
383.01	354.79
383.39	347.34
383.77	323.61
384.15	358.41
384.53	347.34
384.91	345.3
385.29	343.49
385.67	355.24
386.049	344.85
386.429	352.08
386.809	343.27
387.189	344.62
387.568	343.49
387.948	355.24
388.328	366.77
388.707	350.73
389.087	364.96
389.466	375.36
389.846	365.41
390.225	364.96
390.605	367.22
390.984	364.06
391.363	363.38
391.743	354.79
392.122	366.32
392.501	367.9
392.881	399.99
393.26	377.39
393.639	379.65
394.018	374.91
394.397	391.85
394.776	378.75
395.155	378.07
395.534	397.96
395.913	395.47
396.292	399.31
396.671	402.25
397.05	392.31
397.429	405.64
397.808	394.11
398.186	382.59
398.565	398.63
398.944	413.1
399.323	407.67
399.701	411.06
400.08	386.66
400.458	432.98
400.837	436.6
401.215	445.64
401.594	416.94
401.972	426.66
402.351	453.1
402.729	420.33
403.107	454.23
403.486	437.5
403.864	450.84
404.242	464.62
404.62	447.9
404.999	445.41
405.377	450.61
405.755	459.65
406.133	470.5
406.511	462.13
406.889	474.79
407.267	505.75
407.645	482.02
408.023	500.1
408.401	490.61
408.779	501.23
409.156	514.11
409.534	514.56
409.912	527.22
410.29	552.75
410.667	541.68
411.045	571.06
411.422	560.44
411.8	558.4
412.178	565.18
412.555	574.9
412.933	609.7
413.31	627.33
413.687	602.02
414.065	643.15
414.442	630.72
414.819	655.12
415.197	660.1
415.574	658.06
415.951	687.44
416.328	676.59
416.705	677.72
417.082	711.62
417.46	696.93
417.837	717.72
418.214	712.52
418.591	738.29
418.967	745.74
419.344	768.34
419.721	762.01
420.098	770.15
420.475	794.56
420.852	811.73
421.228	824.61
421.605	830.49
421.982	837.04
422.358	874.1
422.735	879.3
423.111	896.47
423.488	909.58
423.864	936.7
424.241	966.98
424.617	953.42
424.994	961.56
425.37	994.55
425.746	997.94
426.123	1007.21
426.499	1044.94
426.875	1041.1
427.251	1082.91
427.627	1059.18
428.003	1105.73
428.379	1107.77
428.756	1138.5
429.132	1166.07
429.507	1169.01
429.883	1183.02
430.259	1185.05
430.635	1172.17
431.011	1176.92
431.387	1197.93
431.763	1278.38
432.138	1276.35
432.514	1275.45
432.89	1280.42
433.265	1361.32
433.641	1340.98
434.016	1368.33
434.392	1441.77
434.767	1446.06
435.143	1431.6
435.518	1450.58
435.894	1492.62
436.269	1529
436.644	1560.18
437.02	1586.62
437.395	1611.03
437.77	1658.94
438.145	1661.2
438.52	1688.09
438.895	1717.47
439.271	1732.16
439.646	1806.73
440.021	1810.57
440.395	1836.34
440.77	1821.65
441.145	1866.84
441.52	1900.06
441.895	1900.06
442.27	1952.72
442.645	1954.3
443.019	2013.73
443.394	2013.96
443.769	2011.92
444.143	2011.7
444.518	2046.27
444.892	2070.68
445.267	2102.09
445.641	2114.07
446.016	2170.11
446.39	2145.93
446.764	2178.25
447.139	2190
447.513	2222.31
447.887	2201.3
448.262	2223.67
448.636	2253.27
449.01	2293.73
449.384	2306.15
449.758	2342.99
450.132	2357.23
450.506	2371.46
450.88	2368.75
451.254	2373.5
451.628	2439.94
452.002	2449.43
452.376	2462.99
452.75	2496.88
453.123	2519.26
453.497	2549.54
453.871	2562.19
454.244	2633.15
454.618	2649.87
454.992	2643.55
455.365	2697.78
455.739	2717.22
456.112	2732.13
456.486	2787.95
456.859	2831.79
457.232	2846.7
457.606	2843.09
457.979	2890.09
458.352	2990.43
458.725	3020.26
459.099	3000.15
459.472	3059.81
459.845	3060.03
460.218	3099.81
460.591	3146.13
460.964	3183.19
461.337	3218.22
461.71	3303.64
462.083	3339.8
462.456	3357.65
462.829	3386.58
463.201	3424.99
463.574	3432.23
463.947	3474.26
464.32	3564.2
464.692	3587.93
465.065	3610.53
465.438	3643.52
465.81	3701.6
466.183	3774.82
466.555	3821.82
466.928	3855.27
467.3	3883.06
467.672	3915.15
468.045	4026.11
468.417	4008.71
468.789	4016.62
469.161	4097.29
469.534	4123.73
469.906	4241.02
470.278	4289.83
470.65	4318.3
471.022	4370.28
471.394	4507.68
471.766	4525.53
472.138	4549.03
472.51	4652.53
472.882	4681.23
473.253	4709.25
473.625	4821.79
473.997	4905.86
474.369	4932.53
474.74	5022.01
475.112	5082.35
475.484	5143.59
475.855	5243.93
476.227	5272.18
476.598	5390.14
476.97	5482.57
477.341	5570.25
477.713	5607.76
478.084	5619.97
478.455	5803.24
478.827	5853.18
479.198	6007.07
479.569	6014.76
479.94	6183.57
480.311	6266.73
480.682	6294.3
481.053	6460.17
481.424	6546.49
481.795	6580.84
482.166	6611.8
482.537	6726.15
482.908	6808.86
483.279	6967.27
483.65	7080.49
484.021	7170.43
484.391	7248.17
484.762	7271.9
485.133	7357.55
485.503	7453.59
485.874	7603.19
486.244	7674.37
486.615	7789.85
486.985	7889.06
487.356	8063.29
487.726	8112.78
488.097	8207.24
488.467	8191.2
488.837	8365.66
489.207	8469.83
489.578	8520.91
489.948	8609.94
490.318	8752.09
490.688	8759.77
491.058	8844.29
491.428	8956.83
491.798	8971.97
492.168	9221
492.538	9195.01
492.908	9290.83
493.278	9343.94
493.648	9403.37
494.017	9569.92
494.387	9589.35
494.757	9689.24
495.126	9740.08
495.496	9767.2
495.866	9777.6
496.235	9817.59
496.605	9919.29
496.974	10023.01
497.344	10084.25
497.713	10088.55
498.082	10099.85
498.452	10170.81
498.821	10285.15
499.19	10260.3
499.559	10340.07
499.928	10408.54
500.298	10391.82
500.667	10467.07
501.036	10497.13
501.405	10473.85
501.774	10576.45
502.143	10540.97
502.512	10656.89
502.88	10646.73
503.249	10684.69
503.618	10753.84
503.987	10754.29
504.356	10878.13
504.724	10908.87
505.093	10819.6
505.462	10877.45
505.83	10953.61
506.199	10960.16
506.567	11149.31
506.936	11074.51
507.304	11141.85
507.672	11119.48
508.041	11132.81
508.409	11150.89
508.777	11229.99
509.145	11276.54
509.514	11236.09
509.882	11322.19
510.25	11326.71
510.618	11358.35
510.986	11325.13
511.354	11400.38
511.722	11441.73
512.09	11499.36
512.458	11483.54
512.826	11540.04
513.193	11573.26
513.561	11512.69
513.929	11582.52
514.297	11586.14
514.664	11650.09
515.032	11644.67
515.4	11654.38
515.767	11658
516.135	11710.43
516.502	11589.3
516.869	11842.63
517.237	11758.33
517.604	11699.35
517.972	11838.78
518.339	11826.58
518.706	11766.24
519.073	11757.66
519.44	11799.46
519.808	11885.11
520.175	11802.4
520.542	11903.42
520.909	11970.08
521.276	11851.21
521.643	11928.05
522.009	11954.49
522.376	11886.92
522.743	11912.91
523.11	12021.15
523.477	12099.57
523.843	12076.29
524.21	12182.05
524.577	12174.14
524.943	12097.99
525.31	12118.1
525.676	12135.95
526.043	12197.42
526.409	12172.34
526.776	12239.23
527.142	12135.5
527.508	12241.49
527.874	12177.31
528.241	12217.53
528.607	12216.63
528.973	12231.54
529.339	12133.92
529.705	12165.78
530.071	12225.44
530.437	12165.56
530.803	12220.02
531.169	12176.18
531.535	12117.42
531.901	12100.7
532.267	12123.07
532.632	12081.04
532.998	12135.27
533.364	12070.42
533.73	11999.91
534.095	12012.34
534.461	12076.97
534.826	11970.08
535.192	12004.66
535.557	12004.2
535.923	11875.39
536.288	11856.19
536.653	11837.43
537.019	11802.18
537.384	11763.76
537.749	11707.94
538.114	11740.93
538.479	11699.58
538.845	11637.66
539.21	11568.06
539.575	11586.36
539.94	11438.34
540.305	11537.55
540.67	11384.33
541.034	11465.69
541.399	11373.94
541.764	11359.02
542.129	11301.85
542.494	11253.26
542.858	11231.34
543.223	11169.42
543.587	11146.83
543.952	11112.7
544.316	11064.79
544.681	10951.58
545.045	10944.34
545.41	10964.91
545.774	10859.15
546.138	10955.87
546.503	10781.64
546.867	10722.66
547.231	10775.54
547.595	10689.21
547.959	10736.44
548.324	10617.8
548.688	10523.57
549.052	10564.47
549.416	10472.04
549.779	10421.42
550.143	10412.61
550.507	10421.87
550.871	10423.91
551.235	10225.72
551.599	10364.7
551.962	10231.37
552.326	10200.18
552.689	10250.58
553.053	10136.91
553.417	10074.31
553.78	10178.49
554.143	10032.05
554.507	10026.18
554.87	10056.68
555.234	10077.93
555.597	9965.16
555.96	9924.48
556.323	9872.28
556.686	9889.68
557.05	9914.09
557.413	9879.74
557.776	9897.59
558.139	9763.81
558.502	9835.67
558.865	9741.44
559.228	9847.65
559.59	9702.12
559.953	9655.79
560.316	9750.03
560.679	9687.2
561.041	9721.78
561.404	9735.11
561.767	9702.57
562.129	9638.16
562.492	9704.83
562.854	9644.72
563.217	9597.71
563.579	9639.97
563.941	9602.69
564.304	9593.87
564.666	9635.45
565.028	9648.11
565.39	9619.86
565.753	9646.98
566.115	9596.81
566.477	9600.43
566.839	9668.22
567.201	9646.98
567.563	9665.96
567.925	9657.83
568.287	9668.45
568.648	9693.3
569.01	9649.01
569.372	9650.82
569.734	9677.49
570.095	9682.91
570.457	9710.93
570.819	9724.49
571.18	9658.73
571.542	9707.09
571.903	9603.36
572.265	9740.08
572.626	9652.63
572.987	9712.51
573.349	9679.07
573.71	9689.01
574.071	9685.4
574.432	9754.77
574.794	9743.02
575.155	9765.62
575.516	9712.74
575.877	9723.59
576.238	9714.32
576.599	9746.86
576.96	9674.1
577.32	9713.64
577.681	9787.77
578.042	9737.15
578.403	9717.26
578.763	9717.71
579.124	9816.92
579.485	9775.79
579.845	9799.52
580.206	9750.25
580.566	9729.24
580.927	9692.17
581.287	9686.52
581.648	9698.95
582.008	9738.95
582.368	9780.31
582.728	9703.93
583.089	9666.86
583.449	9721.78
583.809	9708.67
584.169	9693.53
584.529	9629.8
584.889	9674.1
585.249	9647.88
585.609	9618.05
585.969	9652.85
586.329	9644.94
586.688	9641.33
587.048	9605.85
587.408	9616.7
587.768	9623.7
588.127	9626.19
588.487	9610.14
588.846	9683.59
589.206	9550.03
589.565	9555.45
589.925	9658.28
590.284	9547.09
590.643	9629.58
591.003	9615.79
591.362	9606.75
591.721	9627.09
592.08	9497.6
592.44	9634.77
592.799	9590.48
593.158	9588.9
593.517	9607.43
593.876	9597.49
594.235	9497.38
594.593	9519.52
594.952	9489.47
595.311	9440.88
595.67	9527.89
596.029	9518.39
596.387	9558.39
596.746	9499.19
597.104	9465.29
597.463	9466.42
597.822	9470.49
598.18	9409.24
598.538	9422.58
598.897	9534.66
599.255	9438.85
599.613	9445.4
599.972	9457.15
600.33	9531.5
600.688	9376.48
601.046	9508
601.404	9471.16
601.762	9463.03
602.12	9524.95
602.478	9463.93
602.836	9522.46
603.194	9431.16
603.552	9454.44
603.91	9396.82
604.268	9435.23
604.625	9409.7
604.983	9457.6
605.341	9392.07
605.698	9426.42
606.056	9495.8
606.413	9444.72
606.771	9506.19
607.128	9519.07
607.485	9399.75
607.843	9366.76
608.2	9467.32
608.557	9484.27
608.914	9501.45
609.272	9441.79
609.629	9491.05
609.986	9565.17
610.343	9457.83
610.7	9512.74
611.057	9491.5
611.414	9512.07
611.771	9508.9
612.127	9510.71
612.484	9477.72
612.841	9567.43
613.198	9532.63
613.554	9503.93
613.911	9550.26
614.267	9518.17
614.624	9516.81
614.98	9572.4
615.337	9614.89
615.693	9533.08
616.05	9548.9
616.406	9654.44
616.762	9551.39
617.118	9515
617.475	9585.28
617.831	9601.1
618.187	9590.93
618.543	9642.23
618.899	9618.73
619.255	9605.17
619.611	9623.48
619.967	9633.87
620.323	9679.75
620.678	9561.1
621.034	9606.3
621.39	9616.47
621.746	9619.63
622.101	9726.3
622.457	9634.77
622.812	9650.82
623.168	9647.66
623.523	9668.9
623.879	9653.53
624.234	9544.83
624.589	9599.97
624.945	9652.63
625.3	9679.29
625.655	9652.63
626.01	9629.13
626.365	9615.11
626.72	9555.45
627.075	9618.5
627.43	9530.37
627.785	9496.47
628.14	9589.8
628.495	9550.03
628.85	9632.74
629.205	9569.47
629.559	9600.88
629.914	9541.22
630.269	9560.65
630.623	9529.69
630.978	9529.69
631.332	9489.69
631.687	9584.83
632.041	9524.95
632.396	9564.27
632.75	9434.33
633.104	9542.57
633.459	9467.55
633.813	9429.81
634.167	9432.07
634.521	9389.13
634.875	9532.63
635.229	9425.06
635.583	9386.65
635.937	9359.98
636.291	9342.35
636.645	9364.05
636.999	9305.07
637.352	9373.09
637.706	9270.04
638.06	9265.07
638.413	9332.86
638.767	9275.91
639.121	9312.3
639.474	9217.38
639.828	9230.27
640.181	9308.23
640.534	9280.21
640.888	9130.16
641.241	9179.42
641.594	9205.63
641.947	9216.71
642.301	9193.2
642.654	9210.38
643.007	9201.34
643.36	9178.74
643.713	9139.65
644.066	9101.23
644.419	9079.54
644.771	9020.55
645.124	9014.9
645.477	9008.12
645.83	8917.51
646.182	8961.12
646.535	8941.69
646.888	8898.98
647.24	8888.13
647.593	8803.38
647.945	8793.89
648.298	8844.06
648.65	8828.47
649.002	8886.09
649.355	8843.61
649.707	8889.48
650.059	8891.74
650.411	8979.88
650.763	9016.71
651.115	9054.23
651.467	9011.97
651.819	9075.69
652.171	9048.12
652.523	9013.32
652.875	9057.39
653.227	9004.51
653.578	9042.02
653.93	9030.72
654.282	9017.62
654.633	9023.49
654.985	9054.45
655.337	9059.65
655.688	9062.59
656.039	9088.8
656.391	9065.75
656.742	9105.75
657.094	9003.61
657.445	9131.51
657.796	9065.3
658.147	9058.07
658.498	9034.56
658.849	9044.96
659.2	9102.13
659.551	9038.18
659.902	9087.9
660.253	9042.02
660.604	9031.4
660.955	9074.79
661.306	9059.87
661.656	9106.2
662.007	9118.4
662.358	9146.43
662.708	9127.67
663.059	9132.42
663.409	9064.85
663.76	9141.45
664.11	9110.49
664.461	9165.63
664.811	9179.19
665.161	9140.78
665.511	9108.24
665.862	9165.63
666.212	9122.7
666.562	9188.91
666.912	9107.78
667.262	9094
667.612	9105.3
667.962	9187.1
668.312	9138.74
668.662	9163.15
669.011	9151.62
669.361	9137.16
669.711	9131.74
670.06	9108.24
670.41	9123.6
670.76	9042.02
671.109	9112.75
671.459	9132.19
671.808	9108.69
672.157	9079.99
672.507	9064.85
672.856	9040.67
673.205	9044.28
673.554	9070.5
673.904	9079.99
674.253	9120.89
674.602	9061
674.951	8971.74
675.3	8896.04
675.649	9011.51
675.998	9008.58
676.346	8994.57
676.695	9055.36
677.044	8980.33
677.393	8997.96
677.741	8990.05
678.09	8957.5
678.438	8909.82
678.787	8889.26
679.135	8905.08
679.484	8847.9
679.832	8968.13
680.181	8868.47
680.529	8813.55
680.877	8813.78
681.225	8770.62
681.573	8948.47
681.922	8805.42
682.27	8826.89
682.618	8746.66
682.966	8722.26
683.314	8743.5
683.661	8688.81
684.009	8675.48
684.357	8647
684.705	8606.55
685.053	8638.64
685.4	8597.97
685.748	8576.27
686.095	8585.09
686.443	8537.63
686.79	8482.04
687.138	8483.39
687.485	8466.9
687.832	8488.82
688.18	8412.89
688.527	8427.12
688.874	8397.29
689.221	8410.85
689.568	8377.41
689.915	8283.85
690.262	8330.4
690.609	8308.48
690.956	8279.33
691.303	8260.57
691.65	8244.98
691.997	8237.75
692.344	8140.8
692.69	8146.45
693.037	8111.2
693.383	8021.03
693.73	8089.96
694.077	8033.01
694.423	8008.15
694.769	7967.25
695.116	7943.07
695.462	7938.77
695.808	7861.49
696.155	7875.05
696.501	7836.4
696.847	7817.87
697.193	7741.27
697.539	7767.03
697.885	7735.39
698.231	7656.07
698.577	7638.22
698.923	7714.37
699.269	7578.78
699.614	7594.38
699.96	7531.55
700.306	7541.5
700.651	7493.14
700.997	7438
701.342	7397.77
701.688	7447.04
702.033	7333.82
702.379	7330.65
702.724	7257.66
703.069	7336.53
703.415	7249.98
703.76	7236.19
704.105	7201.84
704.45	7173.37
704.795	7161.85
705.14	7158
705.485	7106.48
705.83	7139.02
706.175	7136.99
706.52	7023.77
706.865	7042.98
707.209	6980.16
707.554	6986.71
707.899	7010.66
708.243	6944.9
708.588	6919.14
708.932	6905.58
709.277	6900.16
709.621	6883.21
709.966	6800.95
710.31	6867.62
710.654	6786.26
710.998	6811.35
711.342	6835.3
711.687	6757.79
712.031	6743.55
712.375	6740.39
712.719	6675.53
713.063	6705.36
713.407	6725.92
713.75	6667.62
714.094	6651.12
714.438	6645.47
714.782	6636.66
715.125	6654.74
715.469	6604.8
715.812	6562.99
716.156	6575.87
716.499	6545.59
716.843	6551.69
717.186	6532.94
717.53	6544.69
717.873	6575.65
718.216	6514.4
718.559	6472.6
718.902	6446.16
719.246	6453.62
719.589	6451.36
719.932	6450
720.275	6445.93
720.617	6420.85
720.96	6432.37
721.303	6407.74
721.646	6468.53
721.989	6397.57
722.331	6403.67
722.674	6354.64
723.016	6368.65
723.359	6377.23
723.701	6357.12
724.044	6341.98
724.386	6390.79
724.729	6370.91
725.071	6323
725.413	6352.83
725.755	6357.8
726.097	6302.43
726.439	6318.25
726.782	6336.33
727.124	6335.65
727.465	6308.31
727.807	6322.55
728.149	6339.04
728.491	6246.62
728.833	6309.21
729.175	6298.82
729.516	6304.02
729.858	6275.54
730.199	6323.45
730.541	6302.66
730.882	6339.04
731.224	6332.26
731.565	6345.6
731.906	6273.28
732.248	6316.44
732.589	6307.63
732.93	6282.32
733.271	6280.51
733.612	6281.19
733.953	6264.92
734.294	6297.01
734.635	6303.34
734.976	6324.35
735.317	6319.61
735.658	6280.29
735.999	6343.56
736.339	6305.6
736.68	6342.88
737.021	6285.94
737.361	6267.18
737.702	6317.35
738.042	6343.34
738.383	6318.25
738.723	6373.84
739.063	6328.87
739.404	6404.13
739.744	6399.38
740.084	6351.47
740.424	6384.46
740.764	6406.39
741.104	6438.47
741.444	6394.18
741.784	6416.78
742.124	6471.24
742.464	6494.07
742.804	6462.65
743.143	6532.71
743.483	6532.03
743.823	6531.81
744.162	6523.44
744.502	6593.5
744.841	6660.16
745.181	6711.01
745.52	6668.3
745.86	6742.87
746.199	6724.79
746.538	6772.25
746.877	6829.2
747.216	6858.8
747.556	6917.33
747.895	6987.61
748.234	7007.95
748.573	6996.65
748.911	7102.86
749.25	7212.92
749.589	7206.36
749.928	7295.63
750.267	7360.94
750.605	7393.7
750.944	7516.64
751.283	7599.35
751.621	7666.47
751.96	7722.73
752.298	7807.7
752.636	7960.47
752.975	7970.19
753.313	8103.29
753.651	8238.2
753.989	8284.98
754.327	8432.32
754.666	8492.21
755.004	8625.76
755.342	8774.68
755.679	8894.68
756.017	8983.49
756.355	9189.36
756.693	9265.97
757.031	9506.64
757.368	9555.23
757.706	9707.09
758.044	9879.74
758.381	10018.27
758.719	10220.52
759.056	10318.15
759.394	10488.31
759.731	10631.13
760.068	10788.64
760.405	10931.46
760.743	11077.22
761.08	11293.49
761.417	11475.63
761.754	11618.68
762.091	11777.77
762.428	11981.61
762.765	12097.08
763.102	12319.45
763.438	12516.51
763.775	12667.46
764.112	12728.03
764.449	13041.24
764.785	13166.89
765.122	13278.75
765.458	13449.82
765.795	13666.31
766.131	13815.68
