Data from hue_320_FLMS001491_88.txt Node
Date: Mon Feb 06 15:47:50 GMT 2017
User: dcchb
Spectrometer: FLMS00149
Trigger mode: 0
Integration Time (sec): 2.000000E-2
Scans to average: 10
Electric dark correction enabled: true
Nonlinearity correction enabled: false
Boxcar width: 0
XAxis mode: Wavelengths
Number of Pixels in Spectrum: 2048
>>>>>Begin Spectral Data<<<<<
341.393	-26.37
341.776	-26.37
342.16	-26.37
342.543	-45.13
342.927	-67.95
343.31	-43.32
343.693	-72.92
344.077	-61.85
344.46	-71.57
344.843	-57.1
345.226	-43.54
345.61	-32.47
345.993	-40.83
346.376	3.69
346.759	29
347.142	17.47
347.525	64.02
347.908	72.39
348.291	54.31
348.674	85.04
349.057	97.7
349.44	120.75
349.823	149.9
350.206	165.72
350.588	192.83
350.971	207.97
351.354	237.58
351.737	238.26
352.119	237.8
352.502	266.73
352.884	257.69
353.267	294.53
353.65	286.62
354.032	287.52
354.414	311.7
354.797	331.36
355.179	319.38
355.562	330.23
355.944	341.76
356.326	319.84
356.709	330.91
357.091	348.08
357.473	358.25
357.855	329.33
358.238	334.98
358.62	370.68
359.002	345.37
359.384	325.49
359.766	351.47
360.148	316.45
360.53	313.51
360.912	329.1
361.294	328.88
361.676	329.1
362.057	338.37
362.439	320.74
362.821	344.69
363.203	341.98
363.584	330.46
363.966	329.78
364.348	316.22
364.729	329.78
365.111	338.59
365.493	319.38
365.874	318.03
366.256	308.31
366.637	317.12
367.019	310.57
367.4	332.72
367.781	305.37
368.163	320.97
368.544	328.42
368.925	301.08
369.306	309.67
369.688	327.29
370.069	311.93
370.45	332.72
370.831	314.41
371.212	319.61
371.593	308.54
371.974	312.83
372.355	330.68
372.736	312.6
373.117	304.7
373.498	332.27
373.879	306.28
374.26	328.42
374.641	336.56
375.021	329.78
375.402	328.2
375.783	313.06
376.163	345.6
376.544	328.88
376.925	332.27
377.305	314.19
377.686	315.77
378.066	346.73
378.447	343.34
378.827	334.75
379.208	324.13
379.588	328.88
379.968	343.11
380.349	344.92
380.729	321.87
381.109	340.17
381.489	333.4
381.87	330.01
382.25	364.13
382.63	358.48
383.01	343.56
383.39	337.01
383.77	330.46
384.15	348.31
384.53	341.08
384.91	353.06
385.29	335.43
385.67	348.99
386.049	360.51
386.429	344.24
386.809	355.32
387.189	351.47
387.568	356.45
387.948	362.32
388.328	358.93
388.707	374.98
389.087	369.33
389.466	376.11
389.846	372.94
390.225	365.48
390.605	373.17
390.984	356.67
391.363	374.07
391.743	354.19
392.122	395.77
392.501	381.08
392.881	365.03
393.26	383.11
393.639	358.03
394.018	358.48
394.397	382.43
394.776	372.04
395.155	369.1
395.534	366.84
395.913	395.77
396.292	390.57
396.671	398.25
397.05	391.7
397.429	403.22
397.808	375.88
398.186	393.28
398.565	396.9
398.944	400.51
399.323	397.57
399.701	388.99
400.08	406.16
400.458	405.48
400.837	395.54
401.215	409.78
401.594	423.34
401.972	407.52
402.351	420.85
402.729	420.85
403.107	420.17
403.486	427.18
403.864	444.35
404.242	436.22
404.62	438.03
404.999	426.27
405.377	454.07
405.755	430.12
406.133	459.72
406.511	447.97
406.889	431.92
407.267	463.79
407.645	447.97
408.023	446.61
408.401	457.01
408.779	466.5
409.156	459.27
409.534	473.5
409.912	480.96
410.29	485.93
410.667	479.15
411.045	504.92
411.422	478.93
411.8	504.24
412.178	537.68
412.555	508.08
412.933	525.48
413.31	545.37
413.687	529.77
414.065	531.13
414.442	539.04
414.819	534.75
415.197	560.28
415.574	557.57
415.951	562.99
416.328	557.34
416.705	589.66
417.082	580.17
417.46	587.4
417.837	603.44
418.214	616.78
418.591	605.93
418.967	607.96
419.344	620.39
419.721	642.77
420.098	637.79
420.475	645.03
420.852	666.27
421.228	667.4
421.605	675.08
421.982	673.73
422.358	668.98
422.735	682.76
423.111	683.67
423.488	708.3
423.864	691.8
424.241	688.41
424.617	703.78
424.994	708.53
425.37	726.15
425.746	729.54
426.123	746.27
426.499	741.07
426.875	731.12
427.251	764.12
427.627	779.03
428.003	801.41
428.379	803.89
428.756	793.72
429.132	786.72
429.507	786.49
429.883	812.7
430.259	823.1
430.635	840.27
431.011	855.87
431.387	857.22
431.763	866.71
432.138	854.51
432.514	879.6
432.89	887.5
433.265	883.89
433.641	918.01
434.016	921.85
434.392	929.76
434.767	960.72
435.143	941.51
435.518	956.88
435.894	970.21
436.269	968.63
436.644	960.27
437.02	986.26
437.395	988.97
437.77	1024.22
438.145	1008.63
438.52	1021.51
438.895	1028.52
439.271	1025.58
439.646	1045.92
440.021	1038.69
440.395	1058.35
440.77	1040.04
441.145	1058.8
441.52	1094.51
441.895	1065.13
442.27	1085.01
442.645	1119.59
443.019	1110.55
443.394	1115.97
443.769	1104.45
444.143	1118.91
444.518	1127.5
444.892	1129.53
445.267	1130.89
445.641	1129.31
446.016	1145.8
446.39	1133.15
446.764	1171.79
447.139	1166.59
447.513	1145.8
447.887	1141.51
448.262	1176.54
448.636	1170.21
449.01	1186.25
449.384	1181.06
449.758	1195.75
450.132	1170.66
450.506	1220.6
450.88	1203.2
451.254	1194.62
451.628	1223.09
452.002	1225.8
452.376	1249.3
452.75	1244.78
453.123	1238.91
453.497	1289.08
453.871	1240.49
454.244	1291.56
454.618	1264.44
454.992	1282.07
455.365	1314.61
455.739	1306.48
456.112	1357.55
456.486	1334.05
456.859	1311
457.232	1334.5
457.606	1353.48
457.979	1365.91
458.352	1377.66
458.725	1422.86
459.099	1410.2
459.472	1408.62
459.845	1443.2
460.218	1439.35
460.591	1448.85
460.964	1450.2
461.337	1469.18
461.71	1519.8
462.083	1525
462.456	1525.45
462.829	1522.29
463.201	1503.53
463.574	1544.21
463.947	1553.25
464.32	1587.15
464.692	1565.45
465.065	1594.83
465.438	1623.76
465.81	1598.9
466.183	1639.35
466.555	1655.62
466.928	1665.56
467.3	1670.76
467.672	1669.18
468.045	1714.6
468.417	1707.14
468.789	1721.83
469.161	1744.21
469.534	1746.69
469.906	1788.27
470.278	1803.41
470.65	1794.83
471.022	1849.06
471.394	1871.66
471.766	1839.12
472.138	1872.56
472.51	1899
472.882	1902.62
473.253	1923.41
473.625	1993.92
473.997	1993.92
474.369	1992.79
474.74	2037.98
475.112	2035.27
475.484	2056.97
475.855	2096.96
476.227	2111.2
476.598	2161.82
476.97	2159.11
477.341	2194.82
477.713	2207.02
478.084	2236.62
478.455	2257.86
478.827	2308.26
479.198	2349.39
479.569	2364.98
479.94	2385.32
480.311	2391.19
480.682	2443.4
481.053	2468.71
481.424	2508.48
481.795	2531.76
482.166	2556.61
482.537	2553.68
482.908	2664.86
483.279	2615.6
483.65	2647.46
484.021	2718.19
484.391	2736.95
484.762	2739.21
485.133	2788.7
485.503	2819.66
485.874	2838.64
486.244	2873.67
486.615	2913.44
486.985	2925.87
487.356	3006.09
487.726	3031.18
488.097	3051.74
488.467	3043.61
488.837	3074.34
489.207	3122.7
489.578	3154.79
489.948	3172.42
490.318	3269.14
490.688	3262.13
491.058	3270.95
491.428	3328.34
491.798	3356.37
492.168	3422.13
492.538	3412.86
492.908	3419.87
493.278	3422.13
493.648	3407.66
494.017	3464.16
494.387	3560.88
494.757	3563.37
495.126	3584.84
495.496	3568.11
495.866	3614.89
496.235	3652.86
496.605	3672.06
496.974	3694.89
497.344	3688.79
497.713	3724.49
498.082	3694.66
498.452	3790.03
498.821	3789.35
499.19	3791.38
499.559	3804.49
499.928	3842.23
500.298	3907.31
500.667	3872.29
501.036	3915.9
501.405	3963.13
501.774	3911.38
502.143	3960.87
502.512	3969.01
502.88	3978.72
503.249	3983.92
503.618	4009.68
503.987	4017.37
504.356	4024.37
504.724	4038.16
505.093	4053.07
505.462	4065.95
505.83	4098.27
506.199	4107.99
506.567	4124.48
506.936	4129.68
507.304	4186.85
507.672	4187.31
508.041	4207.64
508.409	4259.85
508.777	4254.2
509.145	4256.91
509.514	4242.67
509.882	4240.86
510.25	4294.19
510.618	4341.43
510.986	4324.25
511.354	4377.13
511.722	4394.31
512.09	4390.92
512.458	4378.71
512.826	4434.08
513.193	4453.51
513.561	4423.68
513.929	4474.76
514.297	4488.54
514.664	4535.54
515.032	4521.53
515.4	4545.49
515.767	4511.36
516.135	4559.5
516.502	4517.92
516.869	4642.43
517.237	4653.73
517.604	4610.34
517.972	4634.07
518.339	4667.97
518.706	4624.13
519.073	4702.32
519.44	4671.59
519.808	4725.6
520.175	4683.34
520.542	4753.39
520.909	4803.33
521.276	4818.47
521.643	4773.28
522.009	4804.69
522.376	4827.51
522.743	4850.11
523.11	4888.08
523.477	4963.33
523.843	4954.52
524.21	4989.54
524.577	4979.6
524.943	5050.11
525.31	5047.17
525.676	5072.03
526.043	5106.83
526.409	5086.49
526.776	5169.65
527.142	5166.26
527.508	5230.44
527.874	5242.42
528.241	5273.38
528.607	5257.11
528.973	5326.71
529.339	5276.09
529.705	5382.3
530.071	5411.68
530.437	5429.76
530.803	5456.88
531.169	5477.44
531.535	5452.13
531.901	5517.44
532.267	5512.69
532.632	5517.89
532.998	5552.02
533.364	5599.47
533.73	5597.66
534.095	5626.59
534.461	5591.11
534.826	5735.29
535.192	5708.85
535.557	5835.85
535.923	5754.27
536.288	5814.38
536.653	5826.13
537.019	5783.42
537.384	5859.58
537.749	5896.64
538.114	5885.34
538.479	5890.76
538.845	5924.66
539.21	5918.11
539.575	5975.51
539.94	5933.25
540.305	6020.93
540.67	6008.05
541.034	6088.05
541.399	6099.57
541.764	6158.1
542.129	6197.2
542.494	6156.74
542.858	6183.41
543.223	6185.9
543.587	6267.48
543.952	6254.14
544.316	6286.01
544.681	6262.5
545.045	6391.77
545.41	6351.32
545.774	6423.63
546.138	6350.64
546.503	6416.85
546.867	6427.7
547.231	6464.53
547.595	6492.56
547.959	6494.14
548.324	6488.94
548.688	6584.08
549.052	6540.46
549.416	6657.3
549.779	6609.84
550.143	6621.37
550.507	6673.34
550.871	6693
551.235	6724.19
551.599	6765.32
551.962	6761.47
552.326	6770.51
552.689	6834.92
553.053	6792.21
553.417	6831.98
553.78	6882.6
554.143	6896.39
554.507	6860.68
554.87	6891.87
555.234	7018.87
555.597	6954.46
555.96	6966.89
556.323	6999.43
556.686	7020
557.05	7112.65
557.413	7046.66
557.776	7184.29
558.139	7112.43
558.502	7152.88
558.865	7117.4
559.228	7213.44
559.59	7226.1
559.953	7259.09
560.316	7284.4
560.679	7307.68
561.041	7310.84
561.404	7364.62
561.767	7348.13
562.129	7387
562.492	7467.44
562.854	7394.23
563.217	7466.31
563.579	7500.89
563.941	7519.65
564.304	7543.6
564.666	7592.87
565.028	7528.46
565.39	7638.29
565.753	7618.4
566.115	7644.16
566.477	7695.91
566.839	7743.37
567.201	7790.6
567.563	7802.13
567.925	7858.4
568.287	7817.94
568.648	7848
569.01	7935.23
569.372	8048.22
569.734	7912.63
570.095	7967.77
570.457	8066.75
570.819	8050.25
571.18	8110.14
571.542	8193.98
571.903	8198.27
572.265	8234.2
572.626	8247.99
572.987	8275.11
573.349	8324.82
573.71	8354.2
574.071	8473.75
574.432	8463.12
574.794	8564.37
575.155	8599.39
575.516	8603.91
575.877	8695.44
576.238	8778.6
576.599	8831.02
576.96	8926.16
577.32	8963
577.681	9000.29
578.042	9120.06
578.403	9139.94
578.763	9220.62
579.124	9360.95
579.485	9468.3
579.845	9585.36
580.206	9681.17
580.566	9734.5
580.927	9821.96
581.287	10006.14
581.648	10056.98
582.008	10217.2
582.368	10296.07
582.728	10473.69
583.089	10551.43
583.449	10735.61
583.809	10908.94
584.169	11038.88
584.529	11127.46
584.889	11388.25
585.249	11515.47
585.609	11672.98
585.969	11859.42
586.329	12044.5
586.688	12323.36
587.048	12448.78
587.408	12669.12
587.768	12923.35
588.127	13117.01
588.487	13233.39
588.846	13584.8
589.206	13825.47
589.565	13931.91
589.925	14254.61
590.284	14564.66
590.643	14736.63
591.003	14965.55
591.362	15333
591.721	15562.83
592.08	15775.48
592.44	16125.52
592.799	16392.86
593.158	16637.37
593.517	16831.94
593.876	17280.52
594.235	17478.03
594.593	17768.87
594.952	18031.01
595.311	18255.18
595.67	18615.63
596.029	19140.81
596.387	19217.64
596.746	19532.66
597.104	19838.65
597.463	20010.39
597.822	20419.19
598.18	20521.56
598.538	20950.48
598.897	21321.32
599.255	21409
599.613	21982.54
599.972	22128.53
600.33	22414.85
600.688	22593.37
601.046	22923.08
601.404	23401.26
601.762	23530.98
602.12	23882.15
602.478	24186.33
602.836	24433.33
603.194	24586.09
603.552	24832.86
603.91	25071.5
604.268	25395.56
604.625	25603.24
604.983	25971.59
605.341	26060.63
605.698	26452.26
606.056	26638.69
606.413	26869.19
606.771	27178.34
607.128	27416.3
607.485	27562.74
607.843	27762.73
608.2	28222.15
608.557	28328.37
608.914	28434.8
609.272	28907.79
609.629	29121.56
609.986	29345.06
610.343	29430.03
610.7	29856.91
611.057	29946.85
611.414	30165.15
611.771	30422.55
612.127	30577.12
612.484	30664.12
612.841	30977.79
613.198	31108.41
613.554	31265.24
613.911	31615.74
614.267	31768.5
614.624	31835.62
614.98	31992.9
615.337	32357.19
615.693	32315.38
616.05	32472.66
616.406	33014.12
616.762	32948.13
617.118	32924.18
617.475	33140.22
617.831	33354.45
618.187	33402.58
618.543	33688
618.899	34068.78
619.255	33950.36
619.611	34206.63
619.967	34316
620.323	34461.76
620.678	34463.8
621.034	34519.39
621.39	34633.06
621.746	34805.48
622.101	35238.47
622.457	34998.25
622.812	35260.61
623.168	35376.32
623.523	35330.22
623.879	35452.7
624.234	35516.88
624.589	35763.88
624.945	35766.59
625.3	35902.18
625.655	35912.57
626.01	36084.55
626.365	36091.55
626.72	36033.02
627.075	36104.66
627.43	36224.65
627.785	36104.66
628.14	36333.58
628.495	36339.68
628.85	36430.98
629.205	36408.38
629.559	36656.96
629.914	36410.64
630.269	36636.17
630.623	36686.79
630.978	36575.61
631.332	36659.9
631.687	36822.38
632.041	36793.91
632.396	36883.62
632.75	36750.29
633.104	36833
633.459	36728.37
633.813	36835.26
634.167	36905.54
634.521	36736.28
634.875	36987.57
635.229	36879.55
635.583	36860.57
635.937	36750.29
636.291	36737.64
636.645	36866.22
636.999	36749.84
637.352	37004.97
637.706	36742.83
638.06	36953.45
638.413	36893.79
638.767	36758.65
639.121	36781.48
639.474	36821.02
639.828	36751.42
640.181	36689.05
640.534	36796.84
640.888	36757.52
641.241	36679.33
641.594	36742.38
641.947	36855.15
642.301	36792.32
642.654	36810.63
643.007	36963.17
643.36	36755.49
643.713	36685.43
644.066	36844.53
644.419	36635.04
644.771	36497.42
645.124	36218.33
645.477	36025.11
645.83	35873.48
646.182	35790.09
646.535	35767.94
646.888	35688.17
647.24	35416.77
647.593	35799.58
647.945	35648.85
648.298	35469.42
648.65	35496.09
649.002	35406.15
649.355	35597.78
649.707	35500.83
650.059	35669.42
650.411	36057.2
650.763	36153.47
651.115	36560.47
651.467	36380.36
651.819	36498.09
652.171	36314.14
652.523	36309.4
652.875	36251.77
653.227	36045.68
653.578	36396.85
653.93	36376.52
654.282	36172.9
654.633	36081.61
654.985	36110.08
655.337	36229.85
655.688	36212.68
656.039	36305.1
656.391	36011.78
656.742	36064.43
657.094	36101.49
657.445	36254.94
657.796	36207.48
658.147	36111.21
658.498	36035.06
658.849	36124.32
659.2	36155.28
659.551	36091.78
659.902	36071.21
660.253	36067.6
660.604	36142.17
660.955	36016.98
661.306	36093.13
661.656	36058.11
662.007	35949.86
662.358	35992.8
662.708	36061.5
663.059	35947.37
663.409	35826.25
663.76	35991.44
664.11	35958.9
664.461	36021.95
664.811	35926.36
665.161	36038.22
665.511	35717.55
665.862	36002.74
666.212	36065.11
666.562	35947.83
666.912	35948.96
667.262	35882.06
667.612	35870.77
667.962	36001.61
668.312	35770.43
668.662	36104.66
669.011	35931.33
669.361	35885
669.711	35887.04
670.06	35689.75
670.41	35798
670.76	35671.9
671.109	35843.65
671.459	35754.38
671.808	35718
672.157	35819.92
672.507	35559.59
672.856	35520.04
673.205	35692.69
673.554	35847.04
673.904	35695.86
674.253	35901.05
674.602	35635.52
674.951	35229.2
675.3	35009.32
675.649	35577.44
675.998	35518.91
676.346	35620.83
676.695	35564.33
677.044	35402.08
677.393	35462.64
677.741	35505.13
678.09	35387.16
678.438	35417.67
678.787	35439.14
679.135	35358.24
679.484	35183.55
679.832	35375.41
680.181	35136.55
680.529	35226.94
680.877	35221.29
681.225	35259.03
681.573	35274.4
681.922	35033.05
682.27	34934.97
682.618	34955.99
682.966	34903.79
683.314	35050.45
683.661	34798.93
684.009	34772.26
684.357	34786.73
684.705	34738.59
685.053	34711.25
685.4	34663.79
685.748	34415.66
686.095	34412.27
686.443	34278.27
686.79	34291.82
687.138	34371.37
687.485	34388.09
687.832	34049.8
688.18	34186.97
688.527	33960.08
688.874	33885.96
689.221	33838.05
689.568	33812.51
689.915	33774.78
690.262	33850.03
690.609	33610.71
690.956	33644.38
691.303	33577.94
691.65	33197.62
691.997	33417.05
692.344	33143.15
692.69	33189.93
693.037	33149.71
693.383	32959.66
693.73	33043.27
694.077	32797.17
694.423	32818.87
694.769	32774.35
695.116	32689.61
695.462	32679.89
695.808	32455.94
696.155	32653
696.501	32342.27
696.847	32249.39
697.193	32144.76
697.539	32286.45
697.885	32017.76
698.231	31934.6
698.577	31981.6
698.923	31785.22
699.269	31702.51
699.614	31521.73
699.96	31491.9
700.306	31458
700.651	31436.53
700.997	31328.29
701.342	31274.73
701.688	31135.75
702.033	31226.82
702.379	31071.57
702.724	30967.62
703.069	31135.52
703.415	30750.45
703.76	30817.11
704.105	30774.63
704.45	30594.29
704.795	30389.78
705.14	30400.18
705.485	30326.96
705.83	30313.62
706.175	30358.14
706.52	30246.96
706.865	30033.18
707.209	30148.88
707.554	29988.66
707.899	30028.43
708.243	29911.15
708.588	29746.86
708.932	29530.14
709.277	29649.91
709.621	29607.43
709.966	29468.22
710.31	29502.8
710.654	29245.18
710.998	29324.5
711.342	29208.57
711.687	29175.35
712.031	29103.94
712.375	28944.39
712.719	28931.29
713.063	29023.04
713.407	29057.84
713.75	28781.91
714.094	28818.07
714.438	28756.38
714.782	28701.01
715.125	28553.9
715.469	28548.02
715.812	28583.5
716.156	28286.11
716.499	28400.68
716.843	28354.81
717.186	28104.19
717.53	28364.3
717.873	28309.38
718.216	28235.71
718.559	28113
718.902	27950.3
719.246	28092.44
719.589	27979.22
719.932	27925.66
720.275	27941.26
720.617	27876.63
720.96	27717.53
721.303	27806.8
721.646	27770.64
721.989	27567.03
722.331	27670.53
722.674	27552.79
723.016	27590.53
723.359	27466.69
723.701	27481.83
724.044	27317.54
724.386	27171.56
724.729	27337.66
725.071	27215.63
725.413	27247.72
725.755	27207.26
726.097	27119.13
726.439	27026.25
726.782	26884.56
727.124	27144.44
727.465	26958.46
727.807	26937.67
728.149	26866.03
728.491	26750.55
728.833	26779.03
729.175	26689.99
729.516	26672.14
729.858	26652.48
730.199	26602.53
730.541	26568.19
730.882	26631.91
731.224	26604.34
731.565	26374.29
731.906	26405.48
732.248	26560.05
732.589	26303.56
732.93	26253.39
733.271	26354.63
733.612	26277.35
733.953	26212.04
734.294	26202.55
734.635	26116.67
734.976	26211.13
735.317	25987.18
735.658	26046.62
735.999	26063.34
736.339	25937.69
736.68	26015.21
737.021	25960.52
737.361	25869.9
737.702	25941.08
738.042	25853.63
738.383	25716.46
738.723	25750.13
739.063	25742.9
739.404	25738.38
739.744	25615.44
740.084	25450.25
740.424	25609.79
740.764	25610.7
741.104	25521.43
741.444	25415.45
741.784	25445.73
742.124	25516.69
742.464	25372.74
742.804	25347.65
743.143	25252.06
743.483	25207.32
743.823	25084.16
744.162	25161.44
744.502	25189.92
744.841	24952.86
745.181	25058.17
745.52	25002.8
745.86	24974.78
746.199	24991.5
746.538	24864.28
746.877	24959.87
747.216	24949.7
747.556	24892.07
747.895	24935.01
748.234	24749.7
748.573	24729.36
748.911	24768.91
749.25	24579.09
749.589	24496.15
749.928	24625.41
750.267	24569.59
750.605	24464.96
750.944	24463.38
751.283	24342.26
751.621	24534.57
751.96	24281.47
752.298	24313.1
752.636	24278.75
752.975	24168.25
753.313	24130.51
753.651	24113.79
753.989	23976.39
754.327	23912.89
754.666	23895.04
755.004	23832.66
755.342	23904.3
755.679	23770.29
756.017	23729.39
756.355	23674.48
756.693	23645.55
757.031	23657.98
757.368	23495.5
757.706	23436.52
758.044	23428.38
758.381	23346.8
758.719	23301.83
759.056	23365.56
759.394	23277.65
759.731	23152
760.068	23176.64
760.405	23063.87
