Data from hue_140_FLMS001491_00038.txt Node
Date: Tue Feb 07 16:55:50 GMT 2017
User: dcchb
Spectrometer: FLMS00149
Trigger mode: 0
Integration Time (sec): 2.000000E-2
Scans to average: 10
Electric dark correction enabled: true
Nonlinearity correction enabled: false
Boxcar width: 0
XAxis mode: Wavelengths
Number of Pixels in Spectrum: 2048
>>>>>Begin Spectral Data<<<<<
341.393	-20.37
341.776	-20.37
342.16	-20.37
342.543	-53.36
342.927	-77.54
343.31	-71.44
343.693	-60.59
344.077	-63.98
344.46	-64.89
344.843	-74.83
345.226	-59.69
345.61	-33.93
345.993	-10.88
346.376	3.81
346.759	27.54
347.142	30.25
347.525	23.47
347.908	69.57
348.291	78.39
348.674	99.4
349.057	107.77
349.44	119.52
349.823	136.47
350.206	152.51
350.588	177.37
350.971	193.41
351.354	208.78
351.737	225.73
352.119	257.14
352.502	254.43
352.884	285.39
353.267	275.44
353.65	289.46
354.032	269.12
354.414	291.72
354.797	309.79
355.179	306.86
355.562	318.61
355.944	333.75
356.326	306.4
356.709	336.46
357.091	326.74
357.473	358.61
357.855	336.23
358.238	347.53
358.62	325.84
359.002	337.14
359.384	333.52
359.766	330.58
360.148	305.05
360.53	333.97
360.912	347.08
361.294	339.4
361.676	323.35
362.057	317.48
362.439	338.95
362.821	327.19
363.203	329
363.584	327.87
363.966	326.97
364.348	328.55
364.729	330.81
365.111	331.94
365.493	316.12
365.874	324.26
366.256	313.86
366.637	313.18
367.019	322.9
367.4	312.28
367.781	321.32
368.163	323.81
368.544	335.78
368.925	305.95
369.306	314.77
369.688	303.24
370.069	312.51
370.45	307.53
370.831	314.99
371.212	331.49
371.593	312.96
371.974	336.91
372.355	308.44
372.736	305.5
373.117	307.99
373.498	329.45
373.879	317.03
374.26	288.55
374.641	326.74
375.021	303.47
375.402	332.17
375.783	324.26
376.163	312.28
376.544	333.52
376.925	345.73
377.305	329.45
377.686	332.17
378.066	319.06
378.447	335.56
378.827	349.79
379.208	321.32
379.588	320.42
379.968	322.22
380.349	341.43
380.729	334.43
381.109	346.4
381.489	333.07
381.87	339.62
382.25	342.34
382.63	337.14
383.01	334.43
383.39	332.17
383.77	342.34
384.15	339.62
384.53	342.79
384.91	349.34
385.29	363.13
385.67	342.11
386.049	358.83
386.429	351.15
386.809	343.24
387.189	365.16
387.568	369.23
387.948	351.83
388.328	353.41
388.707	356.35
389.087	368.78
389.466	359.96
389.846	363.58
390.225	355.44
390.605	382.33
390.984	377.36
391.363	370.36
391.743	386.18
392.122	362.67
392.501	373.52
392.881	381.2
393.26	360.41
393.639	398.15
394.018	374.88
394.397	388.66
394.776	370.81
395.155	383.46
395.534	394.99
395.913	395.44
396.292	373.75
396.671	391.37
397.05	396.57
397.429	394.76
397.808	400.64
398.186	406.74
398.565	414.65
398.944	406.06
399.323	403.35
399.701	413.97
400.08	392.05
400.458	409.68
400.837	419.85
401.215	388.66
401.594	416.68
401.972	418.72
402.351	429.79
402.729	433.18
403.107	433.18
403.486	425.27
403.864	407.19
404.242	441.32
404.62	408.32
404.999	416.23
405.377	445.38
405.755	454.88
406.133	433.18
406.511	437.25
406.889	437.93
407.267	440.64
407.645	440.86
408.023	451.71
408.401	447.87
408.779	471.82
409.156	467.3
409.534	448.55
409.912	466.17
410.29	474.76
410.667	464.14
411.045	491.03
411.422	474.99
411.8	486.29
412.178	490.13
412.555	503.46
412.933	476.57
413.31	503.91
413.687	520.64
414.065	506.17
414.442	500.07
414.819	505.27
415.197	511.82
415.574	511.37
415.951	523.8
416.328	508.21
416.705	512.05
417.082	536.23
417.46	537.58
417.837	531.71
418.214	525.38
418.591	545.27
418.967	535.32
419.344	547.75
419.721	512.73
420.098	560.41
420.475	551.82
420.852	562.22
421.228	523.57
421.605	578.71
421.982	550.47
422.358	569.67
422.735	603.57
423.111	592.05
423.488	573.74
423.864	577.58
424.241	593.4
424.617	597.02
424.994	599.05
425.37	617.58
425.746	622.78
426.123	621.65
426.499	620.07
426.875	617.36
427.251	630.46
427.627	622.1
428.003	608.32
428.379	662.78
428.756	644.47
429.132	635.21
429.507	676.79
429.883	672.72
430.259	676.56
430.635	664.81
431.011	660.75
431.387	699.16
431.763	699.61
432.138	669.56
432.514	699.16
432.89	702.55
433.265	702.55
433.641	717.02
434.016	740.74
434.392	721.76
434.767	754.98
435.143	748.88
435.518	738.26
435.894	764.02
436.269	788.2
436.644	768.99
437.02	757.69
437.395	769.9
437.77	773.74
438.145	819.61
438.52	789.78
438.895	835.88
439.271	804.24
439.646	834.3
440.021	831.59
440.395	845.37
440.77	836.56
441.145	853.96
441.52	860.51
441.895	854.41
442.27	874.75
442.645	851.25
443.019	866.39
443.394	886.73
443.769	881.98
444.143	882.21
444.518	903.9
444.892	894.41
445.267	897.12
445.641	897.35
446.016	907.29
446.39	926.5
446.764	890.34
447.139	944.81
447.513	942.32
447.887	929.89
448.262	926.28
448.636	945.03
449.01	965.37
449.384	970.12
449.758	974.18
450.132	995.43
450.506	974.41
450.88	997.69
451.254	1008.08
451.628	1007.63
452.002	1022.32
452.376	1030
452.75	1017.8
453.123	1046.95
453.497	1058.93
453.871	1076.33
454.244	1067.29
454.618	1063.9
454.992	1093.95
455.365	1089.66
455.739	1129.89
456.112	1139.15
456.486	1130.79
456.859	1168.75
457.232	1155.42
457.606	1163.33
457.979	1189.77
458.352	1210.56
458.725	1227.74
459.099	1220.73
459.472	1264.12
459.845	1276.55
460.218	1271.58
460.591	1278.81
460.964	1301.41
461.337	1353.83
461.71	1349.54
462.083	1365.59
462.456	1359.48
462.829	1405.58
463.201	1402.42
463.574	1406.26
463.947	1429.09
464.32	1446.71
464.692	1472.02
465.065	1463.89
465.438	1520.84
465.81	1499.59
466.183	1559.93
466.555	1585.92
466.928	1605.58
467.3	1591.57
467.672	1644.45
468.045	1650.1
468.417	1664.79
468.789	1726.25
469.161	1731.9
469.534	1776.65
469.906	1810.32
470.278	1836.76
470.65	1853.26
471.022	1889.64
471.394	1936.42
471.766	1976.64
472.138	1992.69
472.51	2060.93
472.882	2082.85
473.253	2110.65
473.625	2154.49
473.997	2205.56
474.369	2255.96
474.74	2265.67
475.112	2382.06
475.484	2422.05
475.855	2479.68
476.227	2549.74
476.598	2577.53
476.97	2633.57
477.341	2727.13
477.713	2752.22
478.084	2803.97
478.455	2925.54
478.827	2968.26
479.198	3090.29
479.569	3131.41
479.94	3252.77
480.311	3292.99
480.682	3414.8
481.053	3583.15
481.424	3618.41
481.795	3673.55
482.166	3746.99
482.537	3852.3
482.908	3994.89
483.279	4048.9
483.65	4189.01
484.021	4278.05
484.391	4444.15
484.762	4547.65
485.133	4583.13
485.503	4760.3
485.874	4901.31
486.244	5020.4
486.615	5151.02
486.985	5299.27
487.356	5402.54
487.726	5497.91
488.097	5695.87
488.467	5771.35
488.837	5941.96
489.207	6074.39
489.578	6220.37
489.948	6413.59
490.318	6549.18
490.688	6659.01
491.058	6793.92
491.428	7004.53
491.798	7124.76
492.168	7280.46
492.538	7401.13
492.908	7547.57
493.278	7716.83
493.648	7774
494.017	8021.23
494.387	8153.66
494.757	8268
495.126	8418.51
495.496	8464.61
495.866	8622.34
496.235	8762.91
496.605	8891.94
496.974	9008.77
497.344	9202.67
497.713	9316.56
498.082	9418.26
498.452	9610.34
498.821	9679.94
499.19	9800.17
499.559	9833.16
499.928	10012.14
500.298	10167.61
500.667	10267.95
501.036	10358.8
501.405	10405.35
501.774	10511.33
502.143	10745.45
502.512	10729.86
502.88	10910.42
503.249	10926.24
503.618	11115.16
503.987	11116.06
504.356	11194.71
504.724	11238.77
505.093	11395.83
505.462	11453.68
505.83	11610.29
506.199	11694.13
506.567	11767.8
506.936	11808.47
507.304	11956.27
507.672	12087.34
508.041	12027.68
508.409	12187.22
508.777	12302.47
509.145	12363.04
509.514	12367.56
509.882	12524.16
510.25	12592.86
510.618	12680.32
510.986	12663.59
511.354	12721.9
511.722	12749.24
512.09	12846.64
512.458	12951.04
512.826	13040.31
513.193	13087.99
513.561	13189.23
513.929	13188.33
514.297	13264.71
514.664	13357.36
515.032	13356.68
515.4	13431.03
515.767	13417.02
516.135	13421.09
516.502	13394.87
516.869	13618.14
517.237	13632.16
517.604	13630.35
517.972	13706.96
518.339	13717.35
518.706	13755.09
519.073	13811.81
519.44	13786.95
519.808	13941.07
520.175	13896.56
520.542	14047.96
520.909	14049.77
521.276	14033.5
521.643	14053.84
522.009	14167.06
522.376	14268.52
522.743	14200.28
523.11	14215.87
523.477	14437.11
523.843	14383.32
524.21	14484.79
524.577	14494.05
524.943	14570.44
525.31	14518.46
525.676	14627.38
526.043	14649.76
526.409	14665.12
526.776	14717.32
527.142	14719.58
527.508	14781.96
527.874	14841.84
528.241	14829.19
528.607	14762.75
528.973	14806.59
529.339	14740.83
529.705	14837.55
530.071	14789.87
530.437	14870.09
530.803	14936.98
531.169	14879.58
531.535	14823.08
531.901	14852.01
532.267	14896.3
532.632	14935.17
532.998	14824.44
533.364	14826.47
533.73	14823.08
534.095	14909.18
534.461	14902.86
534.826	14918.9
535.192	14903.31
535.557	14975.62
535.923	14815.63
536.288	14798.9
536.653	14812.01
537.019	14790.54
537.384	14724.78
537.749	14666.93
538.114	14725.46
538.479	14642.3
538.845	14694.27
539.21	14578.8
539.575	14620.15
539.94	14605.24
540.305	14660.38
540.67	14572.24
541.034	14475.52
541.399	14501.06
541.764	14456.09
542.129	14377.22
542.494	14315.98
542.858	14351.23
543.223	14330.44
543.587	14222.87
543.952	14206.38
544.316	14248.64
544.681	14109.43
545.045	14193.27
545.41	14151.46
545.774	14113.95
546.138	14049.77
546.503	14092.48
546.867	13968.64
547.231	14006.61
547.595	13923.67
547.959	13990.11
548.324	13858.82
548.688	13881.64
549.052	13796.22
549.416	13834.86
549.779	13790.8
550.143	13699.72
550.507	13765.71
550.871	13719.39
551.235	13624.7
551.599	13671.93
551.962	13622.44
552.326	13567.98
552.689	13628.09
553.053	13473.52
553.417	13530.92
553.78	13613.63
554.143	13475.55
554.507	13453.86
554.87	13502.67
555.234	13602.55
555.597	13406.4
555.96	13407.75
556.323	13475.78
556.686	13350.13
557.05	13450.01
557.413	13366.85
557.776	13449.56
558.139	13403.24
558.502	13407.08
558.865	13406.62
559.228	13379.96
559.59	13337.25
559.953	13383.35
560.316	13527.07
560.679	13391.71
561.041	13371.15
561.404	13373.18
561.767	13494.31
562.129	13508.54
562.492	13442.1
562.854	13462.89
563.217	13426.06
563.579	13522.78
563.941	13467.19
564.304	13460.18
564.666	13551.48
565.028	13440.75
565.39	13534.98
565.753	13591.93
566.115	13504.02
566.477	13694.07
566.839	13623.57
567.201	13614.76
567.563	13664.47
567.925	13684.81
568.287	13680.74
568.648	13628.31
569.01	13761.42
569.372	13693.85
569.734	13657.47
570.095	13770.91
570.457	13781.08
570.819	13708.31
571.18	13702.44
571.542	13771.59
571.903	13838.03
572.265	13795.99
572.626	13844.81
572.987	13787.86
573.349	13823.11
573.71	13889.55
574.071	13883
574.432	13908.76
574.794	13923.67
575.155	13936.33
575.516	13942.43
575.877	13913.5
576.238	13951.24
576.599	14016.78
576.96	13932.03
577.32	13883
577.681	14041.41
578.042	14040.28
578.403	13998.7
578.763	13977.23
579.124	14012.94
579.485	13988.76
579.845	14059.72
580.206	14031.24
580.566	13986.95
580.927	13947.63
581.287	14060.62
581.648	13949.44
582.008	14086.16
582.368	14083.44
582.728	13993.05
583.089	13948.98
583.449	13982.65
583.809	14005.25
584.169	13997.34
584.529	13932.94
584.889	14024.46
585.249	13901.53
585.609	13880.96
585.969	14019.72
586.329	13937.23
586.688	13986.04
587.048	13828.08
587.408	13897.91
587.768	13863.79
588.127	13859.27
588.487	13836.44
588.846	13940.85
589.206	13853.62
589.565	13866.73
589.925	13866.95
590.284	13810.46
590.643	13907.63
591.003	13815.88
591.362	13882.09
591.721	13851.36
592.08	13743.79
592.44	13866.73
592.799	13811.36
593.158	13770.01
593.517	13840.51
593.876	13814.52
594.235	13756.9
594.593	13801.87
594.952	13770.91
595.311	13738.82
595.67	13781.98
596.029	13799.83
596.387	13898.36
596.746	13839.38
597.104	13776.11
597.463	13719.39
597.822	13811.36
598.18	13712.38
598.538	13643.68
598.897	13827.86
599.255	13669.44
599.613	13865.14
599.972	13746.28
600.33	13795.32
600.688	13687.97
601.046	13814.75
601.404	13786.28
601.762	13698.59
602.12	13780.4
602.478	13738.14
602.836	13752.15
603.194	13744.24
603.552	13727.07
603.91	13748.76
604.268	13747.41
604.625	13779.5
604.983	13734.53
605.341	13780.85
605.698	13732.04
606.056	13831.47
606.413	13749.44
606.771	13777.01
607.128	13807.97
607.485	13784.02
607.843	13731.36
608.2	13884.58
608.557	13854.97
608.914	13829.44
609.272	13855.43
609.629	13812.72
609.986	13926.39
610.343	13830.79
610.7	13989.89
611.057	13812.49
611.414	13961.41
611.771	13933.84
612.127	13953.05
612.484	14054.29
612.841	13970
613.198	13890.68
613.554	13994.18
613.911	14053.16
614.267	13992.15
614.624	14031.47
614.98	14024.01
615.337	14134.97
615.693	14048.42
616.05	13956.89
616.406	14066.95
616.762	14022.65
617.118	14032.37
617.475	14026.5
617.831	14078.92
618.187	14023.78
618.543	14180.84
618.899	14180.84
619.255	14128.87
619.611	14121.63
619.967	14211.12
620.323	14214.51
620.678	14157.79
621.034	14141.52
621.39	14151.92
621.746	14087.74
622.101	14242.08
622.457	14082.09
622.812	14145.36
623.168	14133.39
623.523	14167.96
623.879	14213.61
624.234	14180.62
624.589	14110.79
624.945	14163.67
625.3	14253.38
625.655	14160.73
626.01	14208.86
626.365	14197.34
626.72	14164.8
627.075	14173.38
627.43	14160.5
627.785	14145.14
628.14	14104.69
628.495	14176.32
628.85	14102.2
629.205	14128.64
629.559	14213.84
629.914	14090.22
630.269	14151.24
630.623	14045.93
630.978	14098.36
631.332	14138.36
631.687	14056.1
632.041	14025.14
632.396	14061.75
632.75	14024.24
633.104	13989.21
633.459	13975.88
633.813	13961.19
634.167	13913.28
634.521	13896.1
634.875	13878.25
635.229	13855.65
635.583	13870.12
635.937	13823.34
636.291	13838.7
636.645	13907.4
636.999	13803
637.352	13821.08
637.706	13695.66
638.06	13799.38
638.413	13789.67
638.767	13785.37
639.121	13787.41
639.474	13724.13
639.828	13667.86
640.181	13727.75
640.534	13719.61
640.888	13649.1
641.241	13667.86
641.594	13668.99
641.947	13689.1
642.301	13590.8
642.654	13622.89
643.007	13656.79
643.36	13651.82
643.713	13542.89
644.066	13546.51
644.419	13571.37
644.771	13525.04
645.124	13295.44
645.477	13320.98
645.83	13242.11
646.182	13200.3
646.535	13058.39
646.888	13223.35
647.24	13116.46
647.593	13094.32
647.945	13120.08
648.298	13040.53
648.65	13088.67
649.002	13051.61
649.355	13126.86
649.707	13105.39
650.059	13114.43
650.411	13314.88
650.763	13224.26
651.115	13371.82
651.467	13387.64
651.819	13371.37
652.171	13290.92
652.523	13333.63
652.875	13348.1
653.227	13257.93
653.578	13341.54
653.93	13308.32
654.282	13335.67
654.633	13312.39
654.985	13400.07
655.337	13306.51
655.688	13429.45
656.039	13474.42
656.391	13275.78
656.742	13367.08
657.094	13344.25
657.445	13374.99
657.796	13368.21
658.147	13273.3
658.498	13390.81
658.849	13366.17
659.2	13345.61
659.551	13273.52
659.902	13367.76
660.253	13336.34
660.604	13360.3
660.955	13232.62
661.306	13395.1
661.656	13365.04
662.007	13317.14
662.358	13319.62
662.708	13387.64
663.059	13348.1
663.409	13266.06
663.76	13467.41
664.11	13447.3
664.461	13393.52
664.811	13380.86
665.161	13335.89
665.511	13306.97
665.862	13335.21
666.212	13404.82
666.562	13372.05
666.912	13369.11
667.262	13376.57
667.612	13300.19
667.962	13429
668.312	13398.04
668.662	13419.73
669.011	13308.1
669.361	13333.63
669.711	13357.81
670.06	13327.98
670.41	13337.93
670.76	13296.12
671.109	13400.07
671.459	13377.02
671.808	13294.76
672.157	13310.36
672.507	13232.84
672.856	13261.32
673.205	13308.77
673.554	13303.58
673.904	13193.98
674.253	13409.79
674.602	13308.55
674.951	13106.75
675.3	13019.74
675.649	13170.47
675.998	13196.69
676.346	13190.81
676.695	13270.36
677.044	13132.06
677.393	13208.21
677.741	13212.28
678.09	13142.45
678.438	13150.13
678.787	13092.73
679.135	13023.13
679.484	12955.56
679.832	12993.3
680.181	13064.49
680.529	13012.06
680.877	13020.42
681.225	12964.38
681.573	13028.78
681.922	12930.48
682.27	12853.87
682.618	12854.77
682.966	12827.21
683.314	12880.76
683.661	12911.72
684.009	12759.64
684.357	12741.78
684.705	12704.27
685.053	12747.43
685.4	12732.97
685.748	12684.84
686.095	12615.91
686.443	12591.05
686.79	12582.69
687.138	12591.96
687.485	12560.09
687.832	12516.03
688.18	12510.38
688.527	12451.62
688.874	12426.54
689.221	12452.98
689.568	12328.24
689.915	12365.07
690.262	12291.63
690.609	12271.97
690.956	12179.76
691.303	12219.31
691.65	12100.67
691.997	12159.88
692.344	12027.68
692.69	12031.29
693.037	12064.97
693.383	11852.32
693.73	11901.58
694.077	11811.19
694.423	11836.5
694.769	11814.35
695.116	11777.06
695.462	11733.22
695.808	11719.21
696.155	11811.64
696.501	11618.2
696.847	11590.63
697.193	11506.56
697.539	11611.42
697.885	11507.47
698.231	11419.11
698.577	11460.91
698.923	11366.9
699.269	11333.46
699.614	11326.68
699.96	11199.68
700.306	11227.93
700.651	11130.53
700.997	11121.94
701.342	11100.7
701.688	11052.56
702.033	11070.87
702.379	11009.4
702.724	10954.03
703.069	11006.46
703.415	10873.58
703.76	10911.1
704.105	10871.78
704.45	10796.75
704.795	10759.46
705.14	10745.9
705.485	10704.78
705.83	10628.17
706.175	10688.05
706.52	10599.47
706.865	10662.97
707.209	10499.13
707.554	10485.57
707.899	10468.17
708.243	10434.05
708.588	10387.5
708.932	10371.9
709.277	10361.96
709.621	10327.38
709.966	10268.18
710.31	10220.72
710.654	10186.6
710.998	10255.75
711.342	10198.12
711.687	10158.35
712.031	10171.91
712.375	10038.35
712.719	10099.37
713.063	10036.09
713.407	10144.11
713.75	10025.92
714.094	10079.25
714.438	10001.06
714.782	9981.18
715.125	9948.18
715.469	9931.46
715.812	9897.56
716.156	9911.58
716.499	9940.5
716.843	9922.2
717.186	9852.82
717.53	9917.68
717.873	9880.62
718.216	9820.05
718.559	9844.46
718.902	9756.55
719.246	9737.79
719.589	9702.54
719.932	9664.12
720.275	9685.37
720.617	9747.74
720.96	9698.25
721.303	9642.43
721.646	9687.63
721.989	9606.72
722.331	9667.97
722.674	9601.98
723.016	9673.39
723.359	9601.98
723.701	9607.4
724.044	9578.48
724.386	9554.3
724.729	9584.8
725.071	9571.47
725.413	9553.62
725.755	9503.68
726.097	9497.58
726.439	9451.25
726.782	9487.63
727.124	9532.83
727.465	9438.14
727.807	9499.38
728.149	9491.7
728.491	9482.89
728.833	9445.6
729.175	9434.3
729.516	9405.15
729.858	9484.24
730.199	9481.08
730.541	9437.69
730.882	9435.2
731.224	9397.69
731.565	9440.18
731.906	9382.1
732.248	9426.16
732.589	9430.91
732.93	9314.76
733.271	9373.51
733.612	9383
733.953	9376.67
734.294	9386.17
734.635	9355.21
734.976	9427.52
735.317	9389.1
735.658	9378.26
735.999	9365.6
736.339	9416.67
736.68	9432.49
737.021	9404.92
737.361	9362.66
737.702	9474.75
738.042	9391.36
738.383	9393.4
738.723	9478.37
739.063	9378.93
739.404	9495.54
739.744	9509.78
740.084	9474.75
740.424	9476.78
740.764	9422.32
741.104	9479.5
741.444	9419.84
741.784	9496.22
742.124	9528.08
742.464	9582.32
742.804	9536.22
743.143	9561.75
743.483	9537.8
743.823	9568.08
744.162	9523.34
744.502	9637.68
744.841	9621.19
745.181	9722.43
745.52	9658.47
745.86	9775.99
746.199	9804.91
746.538	9770.79
746.877	9844.23
747.216	9966.04
747.556	9881.75
747.895	9999.03
748.234	9991.8
748.573	10005.36
748.911	10051.23
749.25	10180.27
749.589	10183.43
749.928	10277.89
750.267	10359.25
750.605	10484.89
750.944	10520.15
751.283	10502.97
751.621	10653.25
751.96	10699.8
752.298	10788.61
752.636	10879.46
752.975	11046.91
753.313	11101.37
753.651	11219.79
753.989	11264.08
754.327	11405.32
754.666	11547.46
755.004	11699.78
755.342	11852.54
755.679	11997.4
756.017	11986.78
756.355	12220.89
756.693	12381.57
757.031	12477.84
757.368	12592.41
757.706	12796.92
