Data from hue_350_FLMS001491_96.txt Node
Date: Mon Feb 06 15:38:47 GMT 2017
User: dcchb
Spectrometer: FLMS00149
Trigger mode: 0
Integration Time (sec): 2.000000E-2
Scans to average: 10
Electric dark correction enabled: true
Nonlinearity correction enabled: false
Boxcar width: 0
XAxis mode: Wavelengths
Number of Pixels in Spectrum: 2048
>>>>>Begin Spectral Data<<<<<
341.393	-8.04
341.776	-8.04
342.16	-8.04
342.543	-42.16
342.927	-56.85
343.31	-78.32
343.693	-67.24
344.077	-58.66
344.46	-71.76
344.843	-52.33
345.226	-55.04
345.61	-29.5
345.993	-24.99
346.376	3.26
346.759	33.32
347.142	21.12
347.525	48.69
347.908	48.23
348.291	75.8
348.674	89.59
349.057	117.84
349.44	118.06
349.823	149.02
350.206	155.8
350.588	214.33
350.971	187.66
351.354	206.42
351.737	245.74
352.119	270.37
352.502	264.72
352.884	280.77
353.267	301.33
353.65	288.68
354.032	315.57
354.414	332.75
354.797	313.99
355.179	316.7
355.562	329.81
355.944	336.36
356.326	352.86
356.709	353.76
357.091	335.01
357.473	346.98
357.855	344.5
358.238	334.1
358.62	350.15
359.002	337.94
359.384	348.56
359.766	329.36
360.148	343.14
360.53	343.82
360.912	322.12
361.294	318.28
361.676	335.91
362.057	338.85
362.439	339.3
362.821	320.99
363.203	331.16
363.584	330.94
363.966	332.75
364.348	329.13
364.729	346.53
365.111	301.33
365.493	322.58
365.874	317.15
366.256	319.64
366.637	320.77
367.019	307.66
367.4	311.05
367.781	317.6
368.163	330.71
368.544	312.86
368.925	308.79
369.306	321.67
369.688	324.84
370.069	319.64
370.45	319.86
370.831	312.86
371.212	327.55
371.593	326.19
371.974	329.58
372.355	309.47
372.736	323.25
373.117	330.94
373.498	315.57
373.879	305.63
374.26	303.59
374.641	323.25
375.021	299.53
375.402	311.28
375.783	318.96
376.163	334.78
376.544	337.04
376.925	328
377.305	344.04
377.686	341.11
378.066	329.13
378.447	346.08
378.827	332.97
379.208	315.12
379.588	312.41
379.968	331.62
380.349	344.27
380.729	337.04
381.109	348.11
381.489	348.34
381.87	339.07
382.25	327.1
382.63	332.75
383.01	325.74
383.39	340.43
383.77	330.71
384.15	329.13
384.53	331.62
384.91	351.95
385.29	334.33
385.67	363.03
386.049	357.83
386.429	361.67
386.809	342.24
387.189	344.27
387.568	351.5
387.948	348.11
388.328	347.43
388.707	346.3
389.087	353.99
389.466	364.38
389.846	346.98
390.225	350.82
390.605	355.34
390.984	352.63
391.363	385.63
391.743	347.66
392.122	359.41
392.501	359.86
392.881	375.23
393.26	363.25
393.639	382.01
394.018	383.82
394.397	374.55
394.776	382.46
395.155	385.4
395.534	372.74
395.913	399.64
396.292	368.68
396.671	384.04
397.05	380.2
397.429	388.11
397.808	384.27
398.186	378.85
398.565	384.95
398.944	370.03
399.323	394.21
399.701	385.85
400.08	394.44
400.458	393.53
400.837	398.96
401.215	422.01
401.594	394.21
401.972	423.36
402.351	403.48
402.729	412.52
403.107	410.26
403.486	391.05
403.864	405.74
404.242	404.38
404.62	403.48
404.999	403.03
405.377	416.13
405.755	407.55
406.133	419.07
406.511	422.46
406.889	418.84
407.267	422.23
407.645	430.14
408.023	445.96
408.401	420.65
408.779	434.44
409.156	429.69
409.534	441.9
409.912	432.18
410.29	447.32
410.667	452.29
411.045	446.64
411.422	460.88
411.8	437.15
412.178	440.54
412.555	422.01
412.933	457.94
413.31	450.48
413.687	462.69
414.065	463.14
414.442	479.63
414.819	498.84
415.197	488
415.574	492.06
415.951	498.39
416.328	517.37
416.705	501.78
417.082	485.51
417.46	534.55
417.837	506.07
418.214	504.72
418.591	488.45
418.967	520.99
419.344	497.03
419.721	519.18
420.098	513.98
420.475	525.73
420.852	519.18
421.228	526.86
421.605	528.22
421.982	529.12
422.358	542.46
422.735	537.03
423.111	537.71
423.488	559.86
423.864	542.46
424.241	582
424.617	583.36
424.994	560.99
425.37	574.1
425.746	575.22
426.123	563.25
426.499	591.72
426.875	588.78
427.251	565.73
427.627	578.84
428.003	593.76
428.379	602.57
428.756	603.92
429.132	585.17
429.507	636.01
429.883	612.06
430.259	642.12
430.635	630.14
431.011	612.51
431.387	629.01
431.763	664.94
432.138	632.62
432.514	629.46
432.89	632.62
433.265	676.92
433.641	682.11
434.016	652.06
434.392	674.21
434.767	687.31
435.143	687.76
435.518	713.75
435.894	703.36
436.269	705.39
436.644	697.93
437.02	690.7
437.395	727.99
437.77	715.33
438.145	722.11
438.52	733.41
438.895	741.1
439.271	753.3
439.646	749.68
440.021	753.3
440.395	745.39
440.77	747.42
441.145	766.63
441.52	775.45
441.895	784.71
442.27	790.36
442.645	769.57
443.019	809.12
443.394	788.55
443.769	798.72
444.143	779.29
444.518	799.85
444.892	796.24
445.267	808.89
445.641	812.96
446.016	810.02
446.39	819.06
446.764	807.99
447.139	803.92
447.513	840.53
447.887	825.16
448.262	838.72
448.636	860.19
449.01	824.26
449.384	850.7
449.758	858.83
450.132	850.7
450.506	856.12
450.88	871.26
451.254	843.69
451.628	880.3
452.002	890.92
452.376	872.62
452.75	889.34
453.123	927.98
453.497	924.82
453.871	917.81
454.244	921.2
454.618	951.49
454.992	938.61
455.365	948.77
455.739	969.56
456.112	976.57
456.486	950.81
456.859	968.21
457.232	977.93
457.606	994.42
457.979	1001.43
458.352	1031.03
458.725	1033.52
459.099	1031.48
459.472	1052.27
459.845	1040.98
460.218	1075.32
460.591	1052.5
460.964	1063.8
461.337	1104.02
461.71	1110.58
462.083	1113.97
462.456	1126.62
462.829	1108.09
463.201	1149.22
463.574	1166.4
463.947	1119.84
464.32	1151.03
464.692	1196.9
465.065	1201.65
465.438	1177.7
465.81	1205.94
466.183	1213.17
466.555	1224.93
466.928	1250.24
467.3	1255.21
467.672	1273.06
468.045	1316.67
468.417	1300.18
468.789	1321.19
469.161	1342.44
469.534	1361.42
469.906	1384.02
470.278	1367.52
470.65	1381.98
471.022	1415.2
471.394	1428.08
471.766	1454.75
472.138	1483.22
472.51	1504.92
472.882	1532.26
473.253	1534.3
473.625	1540.62
473.997	1587.18
474.369	1582.43
474.74	1598.7
475.112	1621.53
475.484	1638.7
475.855	1678.25
476.227	1743.56
476.598	1780.39
476.97	1782.2
477.341	1827.62
477.713	1817.45
478.084	1857
478.455	1901.07
478.827	1892.03
479.198	1966.83
479.569	1945.13
479.94	2000.72
480.311	2045.69
480.682	2090.67
481.053	2104.9
481.424	2174.28
481.795	2182.87
482.166	2222.41
482.537	2260.38
482.908	2269.87
483.279	2310.77
483.65	2339.47
484.021	2408.4
484.391	2418.79
484.762	2460.15
485.133	2473.48
485.503	2551.22
485.874	2580.6
486.244	2602.06
486.615	2614.27
486.985	2651.55
487.356	2729.29
487.726	2726.35
488.097	2793.25
488.467	2791.89
488.837	2856.29
489.207	2906.69
489.578	2957.76
489.948	3000.02
490.318	3014.93
490.688	3016.06
491.058	3075.72
491.428	3120.92
491.798	3141.03
492.168	3161.6
492.538	3195.72
492.908	3296.96
493.278	3301.03
493.648	3281.14
494.017	3314.81
494.387	3372.67
494.757	3383.51
495.126	3438.43
495.496	3463.06
495.866	3446.56
496.235	3546.67
496.605	3527.69
496.974	3576.95
497.344	3574.47
497.713	3616.95
498.082	3668.48
498.452	3713.9
498.821	3731.75
499.19	3722.49
499.559	3755.03
499.928	3760.9
500.298	3795.48
500.667	3822.82
501.036	3836.61
501.405	3872.99
501.774	3873.22
502.143	3951.63
502.512	3872.09
502.88	3982.82
503.249	3965.64
503.618	3971.29
503.987	3984.17
504.356	4011.74
504.724	4028.24
505.093	4056.94
505.462	4111.63
505.83	4122.48
506.199	4153.66
506.567	4156.83
506.936	4159.76
507.304	4218.75
507.672	4234.79
508.041	4234.11
508.409	4239.54
508.777	4294
509.145	4312.3
509.514	4326.76
509.882	4334
510.25	4368.35
510.618	4343.71
510.986	4411.28
511.354	4387.55
511.722	4444.73
512.09	4477.5
512.458	4453.99
512.826	4469.36
513.193	4523.6
513.561	4522.69
513.929	4558.62
514.297	4595.91
514.664	4610.83
515.032	4605.18
515.4	4628.9
515.767	4626.42
516.135	4663.03
516.502	4646.98
516.869	4728.34
517.237	4711.61
517.604	4708.9
517.972	4770.59
518.339	4750.03
518.706	4827.99
519.073	4792.52
519.44	4779.63
519.808	4813.08
520.175	4833.42
520.542	4888.33
520.909	4921.55
521.276	4878.39
521.643	4879.74
522.009	4960.42
522.376	4992.28
522.743	5004.94
523.11	5050.14
523.477	5045.62
523.843	5086.52
524.21	5106.63
524.577	5083.13
524.943	5126.29
525.31	5179.62
525.676	5203.8
526.043	5235.67
526.409	5225.5
526.776	5322.44
527.142	5302.56
527.508	5304.37
527.874	5359.73
528.241	5432.72
528.607	5422.78
528.973	5457.81
529.339	5472.95
529.705	5443.8
530.071	5576.22
530.437	5543.23
530.803	5582.1
531.169	5590.01
531.535	5618.71
531.901	5614.41
532.267	5677.01
532.632	5745.26
532.998	5771.47
533.364	5789.78
533.73	5770.12
534.095	5826.16
534.461	5831.81
534.826	5856.67
535.192	5896.67
535.557	5951.58
535.923	5910
536.288	5924.69
536.653	5992.48
537.019	5976.66
537.384	5965.37
537.749	6042.88
538.114	6058.02
538.479	6051.01
538.845	6089.2
539.21	6059.6
539.575	6095.53
539.94	6166.26
540.305	6254.4
540.67	6211.23
541.034	6199.71
541.399	6243.55
541.764	6285.36
542.129	6279.03
542.494	6318.35
542.858	6340.27
543.223	6346.37
543.587	6411
543.952	6454.84
544.316	6438.57
544.681	6485.8
545.045	6479.02
545.41	6592.24
545.774	6546.82
546.138	6554.28
546.503	6519.25
546.867	6581.62
547.231	6626.82
547.595	6702.75
547.959	6679.7
548.324	6721.05
548.688	6715.18
549.052	6745.01
549.416	6787.49
549.779	6750.88
550.143	6783.65
550.507	6881.73
550.871	6909.3
551.235	6909.52
551.599	6913.14
551.962	6927.37
552.326	7032.46
552.689	6972.12
553.053	6973.47
553.417	6996.3
553.78	7033.36
554.143	7070.2
554.507	7077.88
554.87	7054.6
555.234	7198.1
555.597	7110.19
555.96	7192.45
556.323	7163.3
556.686	7222.96
557.05	7295.73
557.413	7288.27
557.776	7316.74
558.139	7272.68
558.502	7364.43
558.865	7334.14
559.228	7409.17
559.59	7469.73
559.953	7493.91
560.316	7556.28
560.679	7534.82
561.041	7542.73
561.404	7624.98
561.767	7605.32
562.129	7613.68
562.492	7694.36
562.854	7684.64
563.217	7695.49
563.579	7749.05
563.941	7712.21
564.304	7739.78
564.666	7784.3
565.028	7852.55
565.39	7873.34
565.753	7840.8
566.115	7930.51
566.477	7932.09
566.839	8039.66
567.201	8040.79
567.563	8006.44
567.925	8073.56
568.287	8097.06
568.648	8127.57
569.01	8120.79
569.372	8170.51
569.734	8179.54
570.095	8254.57
570.457	8302.71
570.819	8281.92
571.18	8330.05
571.542	8367.11
571.903	8391.06
572.265	8575.92
572.626	8479.2
572.987	8531.4
573.349	8630.83
573.71	8674.45
574.071	8718.97
574.432	8692.07
574.794	8765.29
575.155	8813.65
575.516	8851.39
575.877	8942.01
576.238	9015.91
576.599	9070.37
576.96	9130.71
577.32	9191.72
577.681	9236.69
578.042	9384.48
578.403	9376.12
578.763	9556.01
579.124	9598.72
579.485	9699.28
579.845	9761.65
580.206	9831.48
580.566	9993.73
580.927	10089.78
581.287	10223.56
581.648	10269.89
582.008	10499.03
582.368	10528.64
582.728	10743.09
583.089	10802.07
583.449	10917.33
583.809	11138.56
584.169	11312.34
584.529	11466.01
584.889	11661.26
585.249	11724.31
585.609	11914.59
585.969	12142.6
586.329	12273.45
586.688	12581.91
587.048	12740.33
587.408	12830.72
587.768	13124.5
588.127	13269.58
588.487	13452.4
588.846	13858.04
589.206	13934.2
589.565	14181.19
589.925	14491.47
590.284	14683.78
590.643	14936.88
591.003	15218.68
591.362	15559.24
591.721	15683.08
592.08	15984.09
592.44	16296.39
592.799	16528.48
593.158	16767.57
593.517	17113.77
593.876	17308.34
594.235	17634.66
594.593	17963.02
594.952	18213.41
595.311	18363.68
595.67	18816.78
596.029	19037.56
596.387	19372.24
596.746	19740.82
597.104	19915.51
597.463	20133.35
597.822	20497.19
598.18	20695.6
598.538	20938.08
598.897	21389.59
599.255	21421.68
599.613	22083.36
599.972	22096.69
600.33	22508.21
600.688	22622.33
601.046	22979.83
601.404	23457.11
601.762	23653.26
602.12	24008.51
602.478	24331.89
602.836	24417.54
603.194	24735.04
603.552	24894.13
603.91	25105.43
604.268	25575.02
604.625	25693.89
604.983	26100.2
605.341	26073.31
605.698	26559.85
606.056	26795.55
606.413	27061.99
606.771	27401.41
607.128	27537
607.485	27613.16
607.843	27825.36
608.2	28326.36
608.557	28626.69
608.914	28574.49
609.272	29056.96
609.629	29226.22
609.986	29541.69
610.343	29686.1
610.7	29961.12
611.057	30165.63
611.414	30284.73
611.771	30537.83
612.127	30869.34
612.484	30893.75
612.841	31211.71
613.198	31326.28
613.554	31330.12
613.911	31763.33
614.267	31840.62
614.624	31942.54
614.98	32270.89
615.337	32514.05
615.693	32642.63
616.05	32711.56
616.406	33069.06
616.762	33017.08
617.118	33191.99
617.475	33373.68
617.831	33608.03
618.187	33693.45
618.543	33776.16
618.899	34059.77
619.255	34295.24
619.611	34259.76
619.967	34433.32
620.323	34570.94
620.678	34505.18
621.034	34612.75
621.39	34628.34
621.746	34810.93
622.101	35249.57
622.457	35165.95
622.812	35440.75
623.168	35446.17
623.523	35497.7
623.879	35829.44
624.234	35635.55
624.589	35799.38
624.945	36040.96
625.3	36073.95
625.655	36018.13
626.01	36183.1
626.365	36172.71
626.72	36294.29
627.075	36330.44
627.43	36448.18
627.785	36318.69
628.14	36505.58
628.495	36585.13
628.85	36731.56
629.205	36571.11
629.559	36845.23
629.914	36756.87
630.269	36810.88
630.623	36562.3
630.978	36746.03
631.332	36968.39
631.687	37066.02
632.041	36868.51
632.396	36952.35
632.75	36847.72
633.104	36953.48
633.459	36824.67
633.813	36871.45
634.167	36900.37
634.521	36920.03
634.875	37135.17
635.229	37034.61
635.583	36916.87
635.937	36899.47
636.291	36936.75
636.645	36932.01
636.999	36933.14
637.352	37030.54
637.706	36965.68
638.06	37187.37
638.413	37044.32
638.767	37009.97
639.121	37095.62
639.474	36998.45
639.828	36978.79
640.181	36992.12
640.534	37043.87
640.888	37105.34
641.241	36734.5
641.594	36903.99
641.947	37043.19
642.301	36923.2
642.654	36946.02
643.007	36893.37
643.36	36887.49
643.713	36876.42
644.066	37128.61
644.419	36856.08
644.771	36567.72
645.124	36287.51
645.477	36235.08
645.83	35995.54
646.182	35938.14
646.535	35866.5
646.888	35848.42
647.24	35711.25
647.593	35850.23
647.945	35790.57
648.298	35720.29
648.65	35611.59
649.002	35496.34
649.355	35727.07
649.707	35554.87
650.059	35835.09
650.411	36255.64
650.763	36337.67
651.115	36625.8
651.467	36526.37
651.819	36448.86
652.171	36417.67
652.523	36464.45
652.875	36399.37
653.227	36417.45
653.578	36643.88
653.93	36605.01
654.282	36271.69
654.633	36172.26
654.985	36315.3
655.337	36285.47
655.688	36334.28
656.039	36434.62
656.391	36084.8
656.742	36205.93
657.094	36129.54
657.445	36253.16
657.796	36232.37
658.147	36226.04
658.498	36149.43
658.849	36194.85
659.2	36202.76
659.551	36145.82
659.902	36390.55
660.253	36157.11
660.604	36275.76
660.955	36099.94
661.306	36199.15
661.656	35987.18
662.007	36071.47
662.358	36007.29
662.708	35934.3
663.059	35937.69
663.409	35845.94
663.76	36108.75
664.11	35967.29
664.461	36125.48
664.811	36238.02
665.161	36073.27
665.511	36065.14
665.862	36101.75
666.212	36124.8
666.562	36078.92
666.912	35989.21
667.262	35946.05
667.612	36116.89
667.962	36101.97
668.312	36032.15
668.662	36270.11
669.011	36110.56
669.361	35959.83
669.711	35966.84
670.06	35990.11
670.41	35883.22
670.76	35763.45
671.109	35950.57
671.459	35979.04
671.808	35920.51
672.157	35937.23
672.507	35771.14
672.856	35679.61
673.205	35800.74
673.554	35809.78
673.904	35780.63
674.253	35984.69
674.602	35773.85
674.951	35283.24
675.3	35017.26
675.649	35743.79
675.998	35666.51
676.346	35674.42
676.695	35663.12
677.044	35513.06
677.393	35617.47
677.741	35633.96
678.09	35460.41
678.438	35554.64
678.787	35493.4
679.135	35480.52
679.484	35190.59
679.832	35417.02
680.181	35173.19
680.529	35436.68
680.877	35193.98
681.225	35183.35
681.573	35349.68
681.922	35080.98
682.27	35040.08
682.618	35110.14
682.966	34980.42
683.314	34968.67
683.661	35064.71
684.009	34842.35
684.357	34753.54
684.705	34682.12
685.053	34793.53
685.4	34732.29
685.748	34518.06
686.095	34449.59
686.443	34307.67
686.79	34316.48
687.138	34294.79
687.485	34312.64
687.832	34168.01
688.18	34196.26
688.527	34081.01
688.874	34077.39
689.221	34026.32
689.568	33926.21
689.915	33935.25
690.262	33798.31
690.609	33688.7
690.956	33680.34
691.303	33532.32
691.65	33384.98
691.997	33443.97
692.344	33229.51
692.69	33212.11
693.037	33307.02
693.383	33149.28
693.73	33180.47
694.077	32978.67
694.423	32932.79
694.769	32878.78
695.116	32731.22
695.462	32833.59
695.808	32599.24
696.155	32601.73
696.501	32431.79
696.847	32408.96
697.193	32276.76
697.539	32321.51
697.885	32065.7
698.231	32020.05
698.577	31964.68
698.923	31827.96
699.269	31786.61
699.614	31567.4
699.96	31601.3
700.306	31508.42
700.651	31475.2
700.997	31182.56
701.342	31404.7
701.688	31359.27
702.033	31164.25
702.379	31153.63
702.724	31103.01
703.069	31106.63
703.415	30775.33
703.76	30766.3
704.105	30844.26
704.45	30776.92
704.795	30510.71
705.14	30516.58
705.485	30417.83
705.83	30302.35
706.175	30262.35
706.52	30222.81
706.865	30121.79
707.209	30108.91
707.554	30099.19
707.899	29948.69
708.243	29814.23
708.588	29822.59
708.932	29614.24
709.277	29691.52
709.621	29598.87
709.966	29428.48
710.31	29600.45
710.654	29439.32
710.998	29402.04
711.342	29332.89
711.687	29277.52
712.031	29137.86
712.375	29023.97
712.719	29115.04
713.063	29015.38
713.407	29046.34
713.75	28912.78
714.094	28897.42
714.438	28775.39
714.782	28792.11
715.125	28685.45
715.469	28635.5
715.812	28577.65
716.156	28370.2
716.499	28478.22
716.843	28460.37
717.186	28374.72
717.53	28303.31
717.873	28321.61
718.216	28238.23
718.559	28160.71
718.902	27959.82
719.246	28057.44
719.589	27881.4
719.932	27828.97
720.275	27916.65
720.617	27850.44
720.96	27749.43
721.303	27768.41
721.646	27758.24
721.989	27484.57
722.331	27768.18
722.674	27611.8
723.016	27614.74
723.359	27469.66
723.701	27568.19
724.044	27395.76
724.386	27170.91
724.729	27265.14
725.071	27256.56
725.413	27161.19
725.755	27280.96
726.097	27071.03
726.439	26927.75
726.782	27045.04
727.124	27043.68
727.465	26928.2
727.807	26845.04
728.149	26817.47
728.491	26890.47
728.833	26847.53
729.175	26751.26
729.516	26740.86
729.858	26558.5
730.199	26631.94
730.541	26677.14
730.882	26512.85
731.224	26615.9
731.565	26562.56
731.906	26433.98
732.248	26478.95
732.589	26292.97
732.93	26299.52
733.271	26332.29
733.612	26348.33
733.953	26282.35
734.294	26152.41
734.635	26049.58
734.976	26280.31
735.317	26045.97
735.658	26044.16
735.999	26037.83
736.339	25981.34
736.68	26017.04
737.021	25940.43
737.361	25802.81
737.702	25895.24
738.042	25851.4
738.383	25781.79
738.723	25838.52
739.063	25660.89
739.404	25731.4
739.744	25666.54
740.084	25483.27
740.424	25549.71
740.764	25583.16
741.104	25518.98
741.444	25521.01
741.784	25361.01
742.124	25421.13
742.464	25342.71
742.804	25332.77
743.143	25157.63
743.483	25128.93
743.823	25124.64
744.162	25165.31
744.502	25158.31
744.841	25045.09
745.181	25232.88
745.52	25043.73
745.86	25035.82
746.199	24961.25
746.538	24950.86
746.877	24918.31
747.216	24846.45
747.556	24832.21
747.895	24851.65
748.234	24694.59
748.573	24722.84
748.911	24662.05
749.25	24667.02
749.589	24557.65
749.928	24641.71
750.267	24583.86
750.605	24555.16
750.944	24349.97
751.283	24337.09
751.621	24462.96
751.96	24357.65
752.298	24231.55
752.636	24287.37
752.975	24221.83
753.313	24130.54
753.651	24105.45
753.989	24069.52
754.327	24051.67
754.666	23931
755.004	23919.92
755.342	23914.95
755.679	23903.88
756.017	23769.19
756.355	23884.22
756.693	23629.99
757.031	23712.92
757.368	23552.25
757.706	23513.38
758.044	23511.35
758.381	23520.84
758.719	23391.35
759.056	23365.59
759.394	23407.62
759.731	23227.06
760.068	23125.37
760.405	23182.31
760.743	23032.71
