Data from hue_300_FLMS001491_00074.txt Node
Date: Tue Feb 07 15:51:11 GMT 2017
User: dcchb
Spectrometer: FLMS00149
Trigger mode: 0
Integration Time (sec): 2.000000E-2
Scans to average: 10
Electric dark correction enabled: true
Nonlinearity correction enabled: false
Boxcar width: 0
XAxis mode: Wavelengths
Number of Pixels in Spectrum: 2048
>>>>>Begin Spectral Data<<<<<
341.393	16.81
341.776	16.81
342.16	16.81
342.543	-51.89
342.927	-62.96
343.31	-52.34
343.693	-48.28
344.077	-73.81
344.46	-71.1
344.843	-53.02
345.226	-38.11
345.61	-36.52
345.993	-13.25
346.376	-12.12
346.759	18.39
347.142	14.32
347.525	52.29
347.908	66.52
348.291	59.97
348.674	79.63
349.057	107.43
349.44	101.1
349.823	135.22
350.206	157.59
350.588	203.47
350.971	188.33
351.354	222.9
351.737	208.89
352.119	250.25
352.502	243.92
352.884	259.96
353.267	279.85
353.65	296.35
354.032	284.82
354.414	294.09
354.797	296.57
355.179	328.66
355.562	305.84
355.944	317.36
356.326	302
356.709	335.22
357.091	332.28
357.473	332.28
357.855	324.82
358.238	336.12
358.62	340.64
359.002	330.92
359.384	338.15
359.766	317.82
360.148	320.3
360.53	339.74
360.912	319.62
361.294	308.1
361.676	320.53
362.057	328.44
362.439	319.4
362.821	337.25
363.203	317.36
363.584	315.78
363.966	322.11
364.348	309
364.729	308.1
365.111	307.2
365.493	315.78
365.874	310.81
366.256	323.01
366.637	310.59
367.019	314.2
367.4	317.82
367.781	318.72
368.163	317.82
368.544	314.65
368.925	317.36
369.306	313.97
369.688	310.81
370.069	316.46
370.45	317.36
370.831	321.21
371.212	320.3
371.593	298.83
371.974	275.11
372.355	308.78
372.736	305.61
373.117	312.17
373.498	300.42
373.879	315.33
374.26	307.2
374.641	311.26
375.021	315.56
375.402	317.36
375.783	313.3
376.163	322.11
376.544	320.3
376.925	312.17
377.305	336.57
377.686	319.17
378.066	325.95
378.447	316.23
378.827	311.04
379.208	334.31
379.588	319.62
379.968	333.41
380.349	323.47
380.729	351.26
381.109	327.08
381.489	323.47
381.87	342.22
382.25	335.44
382.63	331.6
383.01	338.38
383.39	362.56
383.77	347.65
384.15	330.02
384.53	344.93
384.91	329.12
385.29	352.62
385.67	342.9
386.049	341.77
386.429	325.95
386.809	344.26
387.189	340.64
387.568	335.9
387.948	370.24
388.328	370.7
388.707	339.74
389.087	363.69
389.466	367.31
389.846	351.94
390.225	363.24
390.605	362.11
390.984	351.49
391.363	370.24
391.743	377.7
392.122	353.97
392.501	363.92
392.881	377.7
393.26	368.21
393.639	387.19
394.018	387.87
394.397	388.1
394.776	363.69
395.155	371.83
395.534	381.09
395.913	387.19
396.292	362.56
396.671	385.16
397.05	366.63
397.429	383.8
397.808	374.76
398.186	394.42
398.565	386.29
398.944	403.24
399.323	383.13
399.701	405.05
400.08	397.81
400.458	417.25
400.837	426.97
401.215	415.67
401.594	403.24
401.972	403.24
402.351	411.37
402.729	421.54
403.107	417.47
403.486	451.6
403.864	426.29
404.242	418.83
404.62	433.97
404.999	436.01
405.377	436.68
405.755	468.1
406.133	444.14
406.511	429
406.889	468.77
407.267	450.92
407.645	468.55
408.023	459.73
408.401	491.15
408.779	487.3
409.156	494.54
409.534	476
409.912	501.09
410.29	526.62
410.667	494.99
411.045	526.17
411.422	533.86
411.8	534.53
412.178	546.06
412.555	557.13
412.933	567.53
413.31	577.24
413.687	584.93
414.065	589
414.442	609.11
414.819	614.53
415.197	604.81
415.574	629.9
415.951	652.72
416.328	626.28
416.705	627.64
417.082	662.67
417.46	667.41
417.837	674.42
418.214	688.43
418.591	681.87
418.967	665.6
419.344	685.72
419.721	721.2
420.098	717.35
420.475	763.23
420.852	747.64
421.228	750.57
421.605	756.9
421.982	772.95
422.358	767.52
422.735	772.49
423.111	795.54
423.488	799.84
423.864	802.55
424.241	807.3
424.617	816.79
424.994	838.25
425.37	826.05
425.746	838.71
426.123	858.82
426.499	842.77
426.875	851.36
427.251	879.16
427.627	905.6
428.003	921.42
428.379	912.15
428.756	922.55
429.132	918.48
429.507	943.79
429.883	954.41
430.259	978.82
430.635	967.74
431.011	987.63
431.387	1003.22
431.763	1021.98
432.138	1013.39
432.514	1022.66
432.89	1039.61
433.265	1038.93
433.641	1088.42
434.016	1092.03
434.392	1098.81
434.767	1121.19
435.143	1134.74
435.518	1144.69
435.894	1148.76
436.269	1149.66
436.644	1176.78
437.02	1195.53
437.395	1186.95
437.77	1211.58
438.145	1211.35
438.52	1192.82
438.895	1231.92
439.271	1244.35
439.646	1282.99
440.021	1286.15
440.395	1256.77
440.77	1258.58
441.145	1274.85
441.52	1304.01
441.895	1297.23
442.27	1285.7
442.645	1316.66
443.019	1314.85
443.394	1343.78
443.769	1380.39
444.143	1341.29
444.518	1359.82
444.892	1330.45
445.267	1350.56
445.641	1365.02
446.016	1402.76
446.39	1368.86
446.764	1391.46
447.139	1364.79
447.513	1373.38
447.887	1393.95
448.262	1379.26
448.636	1392.59
449.01	1391.01
449.384	1419.48
449.758	1421.97
450.132	1429.2
450.506	1450.67
450.88	1415.87
451.254	1453.38
451.628	1483.89
452.002	1471.46
452.376	1435.53
452.75	1491.12
453.123	1473.94
453.497	1515.07
453.871	1515.53
454.244	1504.9
454.618	1558.01
454.992	1560.27
455.365	1554.17
455.739	1586.71
456.112	1577.44
456.486	1570.44
456.859	1600.04
457.232	1606.82
457.606	1618.8
457.979	1616.09
458.352	1644.34
458.725	1661.74
459.099	1663.32
459.472	1689.98
459.845	1718.91
460.218	1704.67
460.591	1715.75
460.964	1744.9
461.337	1755.07
461.71	1772.92
462.083	1776.54
462.456	1765.46
462.829	1777.89
463.201	1847.04
463.574	1800.94
463.947	1819.7
464.32	1872.8
464.692	1883.65
465.065	1853.6
465.438	1871.45
465.81	1894.05
466.183	1933.59
466.555	1946.93
466.928	1958.23
467.3	1979.24
467.672	1965.46
468.045	2036.19
468.417	1990.54
468.789	2035.06
469.161	2062.86
469.534	2067.38
469.906	2073.7
470.278	2097.88
470.65	2098.79
471.022	2149.86
471.394	2181.04
471.766	2170.42
472.138	2219.24
472.51	2233.92
472.882	2241.61
473.253	2296.3
473.625	2287.71
473.997	2343.75
474.369	2336.52
474.74	2302.62
475.112	2372.68
475.484	2432.34
475.855	2360.47
476.227	2428.04
476.598	2501.94
476.97	2494.71
477.341	2536.74
477.713	2558.89
478.084	2557.31
478.455	2577.64
478.827	2666.23
479.198	2683.4
479.569	2684.08
479.94	2781.03
480.311	2775.6
480.682	2813.8
481.053	2839.33
481.424	2890.86
481.795	2889.73
482.166	2906
482.537	2932.21
482.908	2974.7
483.279	2967.46
483.65	3029.84
484.021	3078.65
484.391	3087.91
484.762	3078.65
485.133	3102.6
485.503	3153
485.874	3192.54
486.244	3209.04
486.615	3248.81
486.985	3335.59
487.356	3293.78
487.726	3329.71
488.097	3415.81
488.467	3426.21
488.837	3460.56
489.207	3486.32
489.578	3526.09
489.948	3512.53
490.318	3557.05
490.688	3536.71
491.058	3617.84
491.428	3654
491.798	3693.77
492.168	3721.34
492.538	3725.18
492.908	3777.84
493.278	3815.35
493.648	3750.72
494.017	3852.41
494.387	3836.37
494.757	3874.11
495.126	3912.3
495.496	3910.94
495.866	3892.19
496.235	3946.65
496.605	4014.67
496.974	3976.48
497.344	3994.78
497.713	4009.7
498.082	4054.44
498.452	4085.85
498.821	4071.39
499.19	4108.68
499.559	4106.19
499.928	4145.06
500.298	4189.13
500.667	4195.68
501.036	4161.11
501.405	4187.77
501.774	4191.16
502.143	4237.94
502.512	4270.71
502.88	4256.02
503.249	4284.27
503.618	4304.83
503.987	4321.1
504.356	4314.77
504.724	4337.6
505.093	4360.65
505.462	4390.93
505.83	4391.61
506.199	4400.42
506.567	4412.62
506.936	4406.75
507.304	4449.01
507.672	4491.04
508.041	4514.09
508.409	4501.44
508.777	4532.62
509.145	4566.74
509.514	4556.58
509.882	4585.5
510.25	4594.99
510.618	4612.84
510.986	4642.67
511.354	4664.37
511.722	4683.8
512.09	4710.7
512.458	4705.95
512.826	4668.89
513.193	4707.31
513.561	4679.74
513.929	4735.33
514.297	4819.62
514.664	4736.01
515.032	4828.43
515.4	4829.34
515.767	4798.15
516.135	4850.13
516.502	4743.24
516.869	4881.99
517.237	4876.79
517.604	4827.3
517.972	4870.69
518.339	4911.59
518.706	4884.02
519.073	4935.1
519.44	4947.75
519.808	4957.02
520.175	4937.36
520.542	4975.1
520.909	5020.74
521.276	4970.8
521.643	5008.09
522.009	5112.04
522.376	5098.26
522.743	5098.71
523.11	5159.05
523.477	5161.08
523.843	5209.89
524.21	5205.6
524.577	5228.42
524.943	5262.77
525.31	5262.55
525.676	5309.1
526.043	5305.48
526.409	5359.27
526.776	5410.11
527.142	5408.3
527.508	5436.1
527.874	5481.07
528.241	5475.42
528.607	5476.1
528.973	5530.11
529.339	5477.68
529.705	5545.93
530.071	5583.44
530.437	5629.99
530.803	5627.06
531.169	5667.96
531.535	5719.03
531.901	5655.76
532.267	5712.7
532.632	5732.14
532.998	5771.46
533.364	5765.13
533.73	5829.99
534.095	5846.71
534.461	5909.31
534.826	5910.89
535.192	5916.77
535.557	5946.37
535.923	5999.7
536.288	5976.42
536.653	5999.93
537.019	5982.75
537.384	6051.68
537.749	6019.81
538.114	6081.51
538.479	6096.42
538.845	6077.21
539.21	6087.38
539.575	6165.12
539.94	6118.34
540.305	6159.24
540.67	6245.57
541.034	6261.84
541.399	6270.43
541.764	6323.53
542.129	6310.43
542.494	6350.88
542.858	6357.21
543.223	6408.73
543.587	6417.32
543.952	6459.12
544.316	6462.51
544.681	6450.99
545.045	6521.5
545.41	6558.56
545.774	6573.7
546.138	6602.4
546.503	6652.34
546.867	6650.08
547.231	6686.69
547.595	6737.76
547.959	6715.61
548.324	6707.93
548.688	6699.34
549.052	6792.67
549.416	6815.05
549.779	6772.34
550.143	6839.68
550.507	6870.64
550.871	6906.57
551.235	6906.57
551.599	6917.19
551.962	6984.31
552.326	6941.15
552.689	6961.26
553.053	6979.11
553.417	6974.82
553.78	7102.27
554.143	6996.74
554.507	7126.23
554.87	7071.76
555.234	7106.79
555.597	7147.69
555.96	7149.05
556.323	7158.09
556.686	7271.08
557.05	7195.38
557.413	7236.73
557.776	7288.93
558.139	7305.43
558.502	7335.71
558.865	7353.79
559.228	7360.12
559.59	7370.51
559.953	7452.77
560.316	7475.59
560.679	7451.64
561.041	7497.74
561.404	7515.37
561.767	7568.93
562.129	7502.03
562.492	7574.8
562.854	7594.91
563.217	7630.62
563.579	7608.47
563.941	7659.77
564.304	7680.33
564.666	7743.84
565.028	7746.77
565.39	7773.21
565.753	7819.54
566.115	7828.58
566.477	7871.29
566.839	7824.96
567.201	7907.9
567.563	7953.1
567.925	8014.11
568.287	8010.27
568.648	7995.81
569.01	8062.25
569.372	8106.76
569.734	8041
570.095	8177.95
570.457	8196.03
570.819	8175.24
571.18	8227.67
571.542	8311.28
571.903	8341.11
572.265	8349.02
572.626	8408.45
572.987	8384.05
573.349	8501.1
573.71	8561.22
574.071	8605.28
574.432	8645.06
574.794	8680.31
575.155	8766.86
575.516	8711.95
575.877	8892.05
576.238	8937.7
576.599	8964.82
576.96	9027.19
577.32	9061.09
577.681	9235.32
578.042	9347.41
578.403	9385.15
578.763	9488.42
579.124	9539.04
579.485	9760.96
579.845	9870.33
580.206	9833.5
580.566	10000.05
580.927	10158.69
581.287	10304.45
581.648	10405.01
582.008	10638
582.368	10712.57
582.728	10950.76
583.089	10968.38
583.449	11182.84
583.809	11370.18
584.169	11515.94
584.529	11752.09
584.889	11957.51
585.249	12124.74
585.609	12247.45
585.969	12501.9
586.329	12748
586.688	12945.96
587.048	13180.98
587.408	13374.65
587.768	13636.11
588.127	13880.85
588.487	14138.24
588.846	14470.89
589.206	14564.45
589.565	14863.2
589.925	15213.7
590.284	15368.49
590.643	15733.91
591.003	16016.61
591.362	16332.31
591.721	16550.84
592.08	16773.43
592.44	17136.81
592.799	17501.55
593.158	17760.75
593.517	17969.1
593.876	18339.49
594.235	18627.17
594.593	18864.67
594.952	19263.76
595.311	19400.25
595.67	19795.04
596.029	20098.54
596.387	20489.94
596.746	20822.36
597.104	20904.85
597.463	21261.67
597.822	21654.2
598.18	21893.52
598.538	22131.48
598.897	22537.8
599.255	22697.34
599.613	23112.25
599.972	23344.1
600.33	23804.43
600.688	23927.14
601.046	24267.02
601.404	24557.18
601.762	24882.37
602.12	25201.46
602.478	25488.68
602.836	25739.29
603.194	25886.41
603.552	26224.03
603.91	26412.72
604.268	26828.98
604.625	26789.21
604.983	27261.97
605.341	27278.01
605.698	27747.15
606.056	28082.06
606.413	28242.96
606.771	28560.01
607.128	28878.42
607.485	28829.38
607.843	29056.72
608.2	29512.98
608.557	29825.52
608.914	29936.25
609.272	30287.65
609.629	30454.43
609.986	30747.3
610.343	30750.24
610.7	31155.2
611.057	31257.12
611.414	31563.77
611.771	31698.91
612.127	31935.52
612.484	32054.84
612.841	32382.28
613.198	32260.48
613.554	32571.43
613.911	32941.14
614.267	32948.14
614.624	33086.22
614.98	33367.12
615.337	33556.26
615.693	33716.49
616.05	33733.66
616.406	33967.33
616.762	33979.08
617.118	34288.67
617.475	34412.29
617.831	34623.36
618.187	34757.14
618.543	34836.68
618.899	35170.91
619.255	35193.51
619.611	35255.88
619.967	35400.96
620.323	35757.79
620.678	35560.96
621.034	35621.07
621.39	35756.66
621.746	35834.17
622.101	36228.28
622.457	36087.5
622.812	36522.06
623.168	36476.41
623.523	36587.15
623.879	36684.09
624.234	36569.97
624.589	36795.28
624.945	36965.67
625.3	36965.89
625.655	37022.84
626.01	37046.79
626.365	36962.05
626.72	37250.18
627.075	37233
627.43	37211.31
627.785	37243.17
628.14	37278.65
628.495	37595.25
628.85	37517.97
629.205	37499.66
629.559	37734.23
629.914	37634.35
630.269	37624.18
630.623	37592.99
630.978	37591.19
631.332	37877.51
631.687	37770.39
632.041	37784.63
632.396	37851.74
632.75	37557.29
633.104	37834.34
633.459	37674.57
633.813	37858.98
634.167	37857.17
634.521	37918.86
634.875	37877.28
635.229	37918.64
635.583	37811.52
635.937	37794.12
636.291	37779.43
636.645	37892.65
636.999	37784.63
637.352	37934.91
637.706	37735.59
638.06	37887
638.413	37777.17
638.767	37782.14
639.121	37896.04
639.474	37630.28
639.828	37720
640.181	37767
640.534	37891.07
640.888	37662.15
641.241	37560.91
641.594	37641.13
641.947	37707.12
642.301	37789.37
642.654	37882.93
643.007	37788.24
643.36	37800.22
643.713	37560.91
644.066	37823.05
644.419	37632.54
644.771	37452.43
645.124	37126.11
645.477	37087.02
645.83	36952.79
646.182	36696.3
646.535	36617.65
646.888	36642.06
647.24	36703.53
647.593	36731.32
647.945	36703.3
648.298	36427.38
648.65	36498.33
649.002	36434.61
649.355	36662.85
649.707	36532.91
650.059	36703.75
650.411	37112.1
650.763	37134.48
651.115	37584.86
651.467	37335.6
651.819	37398.2
652.171	37314.13
652.523	37242.27
652.875	37407.24
653.227	37180.35
653.578	37355.03
653.93	37348.48
654.282	37124.08
654.633	37196.85
654.985	37062.84
655.337	37274.13
655.688	37232.1
656.039	37432.55
656.391	37107.81
656.742	37073.91
657.094	37156.85
657.445	37388.48
657.796	37110.52
658.147	37129.28
658.498	37198.88
658.849	37233.91
659.2	37246.56
659.551	37047.25
659.902	37118.43
660.253	37164.76
660.604	37223.29
660.955	36933.12
661.306	37125.44
661.656	37162.27
662.007	37036.4
662.358	37209.73
662.708	37126.57
663.059	37056.96
663.409	36864.43
663.76	37126.11
664.11	37057.42
664.461	37026.23
664.811	37089.51
665.161	37083.18
665.511	36837.76
665.862	36991.43
666.212	37052.67
666.562	37082.27
666.912	36937.42
667.262	36967.7
667.612	36921.6
667.962	36896.52
668.312	36918.89
668.662	37161.37
669.011	37107.13
669.361	37023.52
669.711	36851.55
670.06	36993.91
670.41	36820.59
670.76	36807.25
671.109	36929.51
671.459	36907.81
671.808	36727.93
672.157	36876.63
672.507	36646.13
672.856	36630.31
673.205	36802.05
673.554	36920.02
673.904	36744.43
674.253	36751.89
674.602	36724.09
674.951	36191
675.3	36093.6
675.649	36548.28
675.998	36648.84
676.346	36749.85
676.695	36758.21
677.044	36456.53
677.393	36609.74
677.741	36756.63
678.09	36440.03
678.438	36393.48
678.787	36454.72
679.135	36609.97
679.484	36229.64
679.832	36347.83
680.181	36142.19
680.529	36220.38
680.877	36208.17
681.225	36073.94
681.573	36412.23
681.922	36040.04
682.27	35993.71
682.618	36059.7
682.966	35948.52
683.314	36045.01
683.661	35951.91
684.009	35699.71
684.357	35761.86
684.705	35732.48
685.053	35629.2
685.4	35547.17
685.748	35448.19
686.095	35535.87
686.443	35353.51
686.79	35340.85
687.138	35505.59
687.485	35347.4
687.832	35067.41
688.18	35069.45
688.527	35118.03
688.874	34939.51
689.221	34894.08
689.568	34718.49
689.915	34781.09
690.262	34716.69
690.609	34600.76
690.956	34543.36
691.303	34598.5
691.65	34324.15
691.997	34349.92
692.344	34158.73
692.69	34132.29
693.037	34179.75
693.383	33780.21
693.73	34047.55
694.077	33879.42
694.423	33929.59
694.769	33755.81
695.116	33544.06
695.462	33523.05
695.808	33416.83
696.155	33567.56
696.501	33194.01
696.847	33256.84
697.193	33071.53
697.539	33093.9
697.885	32961.48
698.231	32886
698.577	32819.33
698.923	32788.38
699.269	32654.37
699.614	32415.28
699.96	32327.14
700.306	32398.78
700.651	32213.48
700.997	32086.02
701.342	32279.01
701.688	32086.02
702.033	31971.67
702.379	31952.69
702.724	31706.6
703.069	31879.02
703.415	31493.27
703.76	31502.31
704.105	31472.03
704.45	31390.67
704.795	31327.17
705.14	31177.12
705.485	31159.04
705.83	31026.16
706.175	31035.65
706.52	30990.68
706.865	30832.72
707.209	30877.24
707.554	30739.16
707.899	30728.32
708.243	30637.92
708.588	30685.38
708.932	30414.43
709.277	30445.16
709.621	30385.05
709.966	30354.31
710.31	30337.37
710.654	30134.21
710.998	30221.66
711.342	30135.56
711.687	30086.53
712.031	29943.03
712.375	29714.11
712.719	29839.75
713.063	29707.78
713.407	29877.94
713.75	29621.68
714.094	29650.83
714.438	29461.23
714.782	29611.06
715.125	29427.56
715.469	29459.88
715.812	29311.4
716.156	29064.86
716.499	29127.45
716.843	29169.94
717.186	28951.19
717.53	29214.01
717.873	29034.35
718.216	28974.46
718.559	28830.97
718.902	28716.17
719.246	28841.36
719.589	28718.43
719.932	28604.98
720.275	28588.94
720.617	28630.29
720.96	28492.44
721.303	28543.97
721.646	28493.12
721.989	28411.32
722.331	28432.33
722.674	28351.66
723.016	28400.02
723.359	28326.8
723.701	28091.1
724.044	27980.82
724.386	28033.47
724.729	28064.88
725.071	27896.3
725.413	27956.64
725.755	27918.9
726.097	27856.08
726.439	27650.66
726.782	27741.28
727.124	27784.44
727.465	27705.34
727.807	27647.27
728.149	27612.24
728.491	27630.32
728.833	27608.85
729.175	27503.99
729.516	27416.31
729.858	27422.41
730.199	27485.24
730.541	27383.55
730.882	27432.13
731.224	27413.15
731.565	27353.94
731.906	27264.68
732.248	27315.75
732.589	27180.16
732.93	27074.4
733.271	27125.47
733.612	27111.46
733.953	27122.31
734.294	26912.6
734.635	26979.26
734.976	27004.8
735.317	26917.57
735.658	26859.72
735.999	26806.39
736.339	26764.35
736.68	26806.16
737.021	26675.99
737.361	26704.02
737.702	26663.79
738.042	26703.56
738.383	26584.24
738.723	26625.83
739.063	26586.96
739.404	26634.86
739.744	26469.9
740.084	26426.96
740.424	26443.01
740.764	26300.18
741.104	26526.17
741.444	26358.94
741.784	26151.94
742.124	26320.3
742.464	26329.56
742.804	26137.02
743.143	26085.27
743.483	26130.7
743.823	26051.15
744.162	25949.68
744.502	25994.88
744.841	25891.38
745.181	26099.06
745.52	25882.57
745.86	25997.82
746.199	25920.53
746.538	25932.28
746.877	25939.97
747.216	25846.86
747.556	25753.31
747.895	25953.75
748.234	25746.75
748.573	25750.37
748.911	25660.2
749.25	25724.83
749.589	25511.73
749.928	25548.11
750.267	25655.68
750.605	25523.71
750.944	25364.16
751.283	25502.47
751.621	25502.01
751.96	25361.68
752.298	25446.65
752.636	25347.21
752.975	25327.33
753.313	25153.77
753.651	25320.32
753.989	25183.38
754.327	25135.47
754.666	25026.55
755.004	25140.89
755.342	25194.45
755.679	25091.4
756.017	25060.67
756.355	25055.7
756.693	24954.46
757.031	24948.81
757.368	24839.88
757.706	24827.23
758.044	24784.07
758.381	24730.06
758.719	24698.87
759.056	24704.75
759.394	24551.76
759.731	24477.63
