Data from hue_270_FLMS001491_00015.txt Node
Date: Tue Feb 07 15:56:50 GMT 2017
User: dcchb
Spectrometer: FLMS00149
Trigger mode: 0
Integration Time (sec): 2.000000E-2
Scans to average: 10
Electric dark correction enabled: true
Nonlinearity correction enabled: false
Boxcar width: 0
XAxis mode: Wavelengths
Number of Pixels in Spectrum: 2048
>>>>>Begin Spectral Data<<<<<
341.393	-17.13
341.776	-17.13
342.16	-17.13
342.543	-53.97
342.927	-78.37
343.31	-68.2
343.693	-76.57
344.077	-58.49
344.46	-46.06
344.843	-55.1
345.226	-30.69
345.61	-31.82
345.993	-33.63
346.376	1.85
346.759	3.88
347.142	31.23
347.525	31.68
347.908	61.28
348.291	59.48
348.674	101.28
349.057	109.87
349.44	151
349.823	135.41
350.206	165.69
350.588	187.83
350.971	194.61
351.354	202.97
351.737	229.87
352.119	234.61
352.502	239.13
352.884	270.32
353.267	281.39
353.65	273.71
354.032	292.69
354.414	283.2
354.797	300.6
355.179	306.47
355.562	300.37
355.944	308.28
356.326	323.2
356.709	333.82
357.091	329.07
357.473	308.51
357.855	333.82
358.238	314.84
358.62	364.55
359.002	335.63
359.384	321.39
359.766	329.3
360.148	338.56
360.53	336.98
360.912	312.8
361.294	320.26
361.676	320.26
362.057	320.71
362.439	308.06
362.821	327.27
363.203	318.45
363.584	311.22
363.966	303.76
364.348	320.49
364.729	305.12
365.111	298.34
365.493	327.27
365.874	311.67
366.256	321.84
366.637	313.48
367.019	297.89
367.4	305.57
367.781	313.48
368.163	306.93
368.544	320.26
368.925	302.63
369.306	318.9
369.688	298.11
370.069	318.23
370.45	289.07
370.831	322.29
371.212	311.67
371.593	300.6
371.974	310.09
372.355	274.39
372.736	306.25
373.117	304.89
373.498	319.58
373.879	309.19
374.26	306.7
374.641	317.32
375.021	326.59
375.402	303.99
375.783	315.06
376.163	309.64
376.544	334.95
376.925	315.29
377.305	298.79
377.686	334.72
378.066	329.53
378.447	311.67
378.827	325.46
379.208	335.63
379.588	313.93
379.968	318.9
380.349	320.94
380.729	351.45
381.109	327.49
381.489	332.91
381.87	329.53
382.25	326.14
382.63	333.59
383.01	328.17
383.39	327.04
383.77	333.14
384.15	332.69
384.53	325.68
384.91	352.35
385.29	346.93
385.67	343.99
386.049	349.64
386.429	321.62
386.809	360.48
387.189	369.98
387.568	325.23
387.948	339.02
388.328	341.95
388.707	349.19
389.087	342.18
389.466	372.01
389.846	353.71
390.225	365.46
390.605	367.49
390.984	352.35
391.363	380.15
391.743	367.94
392.122	360.26
392.501	383.76
392.881	398.68
393.26	392.57
393.639	379.02
394.018	379.92
394.397	365.23
394.776	378.34
395.155	397.55
395.534	401.84
395.913	395.96
396.292	391.67
396.671	386.47
397.05	415.4
397.429	390.09
397.808	372.69
398.186	405.91
398.565	403.87
398.944	413.59
399.323	376.08
399.701	405.23
400.08	416.75
400.458	415.17
400.837	428.51
401.215	409.52
401.594	407.94
401.972	435.06
402.351	429.64
402.729	440.03
403.107	456.3
403.486	438.45
403.864	425.34
404.242	451.1
404.62	428.05
404.999	457.88
405.377	437.54
405.755	452.69
406.133	449.07
406.511	456.98
406.889	476.64
407.267	462.63
407.645	459.24
408.023	472.8
408.401	477.77
408.779	484.32
409.156	486.58
409.534	497.66
409.912	482.74
410.29	501.95
410.667	521.84
411.045	530.65
411.422	528.84
411.8	509.18
412.178	506.92
412.555	560.25
412.933	563.19
413.31	540.59
413.687	580.82
414.065	578.78
414.442	590.08
414.819	587.6
415.197	597.99
415.574	600.7
415.951	600.7
416.328	613.59
416.705	628.05
417.082	610.87
417.46	631.21
417.837	621.49
418.214	636.18
418.591	651.78
418.967	664.66
419.344	677.54
419.721	674.6
420.098	684.32
420.475	699.46
420.852	697.65
421.228	686.35
421.605	731.55
421.982	747.37
422.358	730.64
422.735	753.69
423.111	765.22
423.488	769.97
423.864	786.24
424.241	769.74
424.617	794.37
424.994	793.02
425.37	813.81
425.746	804.54
426.123	821.49
426.499	819.91
426.875	824.2
427.251	851.32
427.627	867.14
428.003	912.33
428.379	896.52
428.756	886.57
429.132	921.15
429.507	920.02
429.883	906.69
430.259	960.02
430.635	960.02
431.011	958.21
431.387	965.67
431.763	1007.93
432.138	997.53
432.514	1006.12
432.89	1045.89
433.265	1048.6
433.641	1045.66
434.016	1064.65
434.392	1108.26
434.767	1118.43
435.143	1147.36
435.518	1120.46
435.894	1145.1
436.269	1150.29
436.644	1191.42
437.02	1228.94
437.395	1202.95
437.77	1229.39
438.145	1233.23
438.52	1247.02
438.895	1274.36
439.271	1284.98
439.646	1320.01
440.021	1356.84
440.395	1336.96
440.77	1343.06
441.145	1363.62
441.52	1346.45
441.895	1397.75
442.27	1384.19
442.645	1381.25
443.019	1424.19
443.394	1449.04
443.769	1453.56
444.143	1425.54
444.518	1449.72
444.892	1461.25
445.267	1495.37
445.641	1478.65
446.016	1524.52
446.39	1542.83
446.764	1531.98
447.139	1529.27
447.513	1541.92
447.887	1550.06
448.262	1579.44
448.636	1536.73
449.01	1562.49
449.384	1612.2
449.758	1606.78
450.132	1613.11
450.506	1601.58
450.88	1639.77
451.254	1640.45
451.628	1691.52
452.002	1677.29
452.376	1664.63
452.75	1703.27
453.123	1736.95
453.497	1720.9
453.871	1727
454.244	1779.43
454.618	1801.58
454.992	1808.36
455.365	1809.03
455.739	1834.12
456.112	1876.15
456.486	1842.25
456.859	1895.81
457.232	1951.4
457.606	1908.01
457.979	1933.1
458.352	1938.97
458.725	1974.45
459.099	1979.65
459.472	2012.42
459.845	2014.45
460.218	2059.2
460.591	2085.19
460.964	2069.59
461.337	2126.09
461.71	2111.85
462.083	2159.31
462.456	2161.34
462.829	2170.61
463.201	2240.89
463.574	2212.19
463.947	2230.04
464.32	2269.81
464.692	2308.91
465.065	2318.4
465.438	2310.72
465.81	2357.72
466.183	2370.83
466.555	2406.08
466.928	2382.8
467.3	2405.85
467.672	2466.19
468.045	2518.17
468.417	2513.87
468.789	2519.75
469.161	2563.59
469.534	2578.51
469.906	2623.7
470.278	2604.95
470.65	2631.39
471.022	2662.57
471.394	2758.61
471.766	2771.72
472.138	2826.41
472.51	2819.86
472.882	2844.71
473.253	2878.38
473.625	2920.42
473.997	2975.33
474.369	2991.15
474.74	3051.71
475.112	3061.88
475.484	3125.61
475.855	3178.72
476.227	3161.77
476.598	3233.4
476.97	3249.45
477.341	3308.2
477.713	3365.83
478.084	3339.16
478.455	3459.16
478.827	3421.87
479.198	3542.1
479.569	3486.96
479.94	3629.55
480.311	3670.23
480.682	3686.95
481.053	3755.65
481.424	3821.41
481.795	3845.59
482.166	3896.44
482.537	3921.52
482.908	3969.43
483.279	4002.42
483.65	4085.13
484.021	4152.25
484.391	4165.36
484.762	4170.1
485.133	4239.25
485.503	4227.28
485.874	4318.57
486.244	4384.33
486.615	4453.71
486.985	4479.02
487.356	4512.47
487.726	4548.85
488.097	4653.71
488.467	4641.95
488.837	4719.69
489.207	4752.01
489.578	4802.85
489.948	4866.36
490.318	4906.35
490.688	4895.51
491.058	4989.74
491.428	5041.94
491.798	5051.21
492.168	5143.64
492.538	5154.94
492.908	5213.92
493.278	5214.59
493.648	5219.79
494.017	5253.92
494.387	5337.76
494.757	5363.07
495.126	5429.05
495.496	5432.44
495.866	5419.79
496.235	5474.93
496.605	5539.56
496.974	5563.29
497.344	5589.27
497.713	5612.1
498.082	5618.65
498.452	5673.34
498.821	5668.59
499.19	5699.78
499.559	5724.64
499.928	5792.21
500.298	5803.51
500.667	5864.29
501.036	5794.24
501.405	5820.91
501.774	5852.32
502.143	5880.34
502.512	5910.62
502.88	5947.91
503.249	5963.95
503.618	6002.82
503.987	5996.04
504.356	5983.39
504.724	6045.99
505.093	6039.88
505.462	6015.25
505.83	6051.18
506.199	6145.64
506.567	6219.99
506.936	6146.32
507.304	6199.88
507.672	6225.64
508.041	6254.57
508.409	6259.09
508.777	6307.22
509.145	6345.86
509.514	6330.5
509.882	6353.1
510.25	6320.55
510.618	6364.85
510.986	6354.45
511.354	6428.8
511.722	6452.75
512.09	6481.45
512.458	6468.57
512.826	6462.02
513.193	6528.68
513.561	6478.74
513.929	6522.13
514.297	6623.15
514.664	6564.84
515.032	6568.23
515.4	6607.78
515.767	6642.81
516.135	6633.77
516.502	6578.4
516.869	6687.1
517.237	6660.21
517.604	6712.63
517.972	6647.33
518.339	6727.55
518.706	6703.59
519.073	6704.5
519.44	6734.1
519.808	6794.21
520.175	6743.82
520.542	6781.78
520.909	6852.07
521.276	6766.19
521.643	6847.55
522.009	6880.31
522.376	6930.93
522.743	6896.81
523.11	6939.97
523.477	6994.66
523.843	6944.72
524.21	7068.33
524.577	7006.86
524.943	6994.66
525.31	7080.31
525.676	7076.47
526.043	7137.03
526.409	7138.84
526.776	7229.23
527.142	7188.33
527.508	7190.59
527.874	7236.24
528.241	7290.25
528.607	7321.21
528.973	7363.46
529.339	7280.08
529.705	7335.22
530.071	7347.87
530.437	7367.31
530.803	7353.97
531.169	7375.67
531.535	7419.96
531.901	7414.08
532.267	7447.53
532.632	7480.07
532.998	7459.51
533.364	7480.3
533.73	7518.94
534.095	7555.1
534.461	7591.48
534.826	7556.45
535.192	7642.55
535.557	7541.76
535.923	7522.78
536.288	7583.8
536.653	7651.82
537.019	7555.32
537.384	7536.34
537.749	7562.78
538.114	7587.41
538.479	7634.19
538.845	7580.63
539.21	7584.25
539.575	7663.34
539.94	7646.39
540.305	7679.39
540.67	7603.46
541.034	7656.11
541.399	7713.06
541.764	7732.72
542.129	7730.69
542.494	7619.28
542.858	7718.71
543.223	7712.61
543.587	7744.47
543.952	7712.16
544.316	7735.43
544.681	7741.99
545.045	7782.44
545.41	7767.97
545.774	7711.03
546.138	7810.01
546.503	7765.49
546.867	7767.3
547.231	7791.93
547.595	7812.94
547.959	7784.92
548.324	7784.47
548.688	7818.37
549.052	7808.88
549.416	7835.09
549.779	7827.18
550.143	7835.32
550.507	7925.03
550.871	7795.09
551.235	7826.73
551.599	7932.04
551.962	7849.55
552.326	7861.76
552.689	7935.43
553.053	7886.61
553.417	7892.26
553.78	7930.91
554.143	7921.64
554.507	7972.94
554.87	7956.22
555.234	8007.97
555.597	7873.73
555.96	8037.8
556.323	7987.85
556.686	7978.59
557.05	8051.36
557.413	8057.23
557.776	8088.64
558.139	8068.3
558.502	8088.42
558.865	8101.52
559.228	8105.59
559.59	8151.92
559.953	8145.14
560.316	8188.53
560.679	8141.07
561.041	8224.01
561.404	8294.74
561.767	8305.36
562.129	8268.53
562.492	8387.84
562.854	8352.37
563.217	8369.99
563.579	8382.87
563.941	8477.79
564.304	8455.64
564.666	8491.12
565.028	8522.3
565.39	8508.97
565.753	8546.94
566.115	8464.23
566.477	8527.73
566.839	8588.07
567.201	8668.06
567.563	8654.96
567.925	8725.91
568.287	8753.94
568.648	8816.99
569.01	8808.62
569.372	8815.63
569.734	8785.12
570.095	8847.04
570.457	8926.36
570.819	8847.72
571.18	8855.18
571.542	9000.03
571.903	8951.9
572.265	8999.81
572.626	8996.19
572.987	9073.48
573.349	9075.51
573.71	9129.97
574.071	9053.59
574.432	9167.48
574.794	9229.63
575.155	9198.44
575.516	9266.01
575.877	9257.2
576.238	9317.31
576.599	9317.54
576.96	9379.23
577.32	9401.6
577.681	9388.5
578.042	9455.16
578.403	9461.94
578.763	9488.83
579.124	9508.49
579.485	9584.42
579.845	9594.14
580.206	9599.34
580.566	9622.16
580.927	9630.07
581.287	9700.8
581.648	9674.36
582.008	9739
582.368	9750.52
582.728	9834.13
583.089	9790.75
583.449	9889.5
583.809	9870.07
584.169	9898.09
584.529	9883.62
584.889	9955.49
585.249	9929.05
585.609	9919.78
585.969	10025.54
586.329	9960.23
586.688	10035.03
587.048	10073.45
587.408	10101.47
587.768	10011.53
588.127	10109.61
588.487	10131.53
588.846	10198.42
589.206	10146.44
589.565	10190.28
589.925	10255.59
590.284	10277.74
590.643	10300.11
591.003	10294.23
591.362	10355.25
591.721	10372.88
592.08	10363.39
592.44	10379.43
592.799	10406.1
593.158	10355.7
593.517	10434.12
593.876	10490.61
594.235	10453.55
594.593	10511.86
594.952	10517.28
595.311	10481.8
595.67	10460.78
596.029	10563.38
596.387	10591.63
596.746	10626.88
597.104	10693.32
597.463	10623.04
597.822	10749.36
598.18	10601.12
598.538	10657.84
598.897	10757.95
599.255	10701
599.613	10820.1
599.972	10754.11
600.33	10790.49
600.688	10875.46
601.046	10785.75
601.404	10873.88
601.762	10871.62
602.12	10840.66
602.478	10901.45
602.836	10902.35
603.194	10837.05
603.552	10908.23
603.91	10898.74
604.268	10916.37
604.625	10899.42
604.983	10919.3
605.341	10909.36
605.698	10990.49
606.056	11014.44
606.413	10968.34
606.771	11042.92
607.128	11007.21
607.485	10975.12
607.843	10941.45
608.2	11009.47
608.557	11100.09
608.914	11031.16
609.272	11095.57
609.629	11162.46
609.986	11112.29
610.343	11065.51
610.7	11140.09
611.057	11181.67
611.414	11216.47
611.771	11176.25
612.127	11239.75
612.484	11216.7
612.841	11250.59
613.198	11253.31
613.554	11222.57
613.911	11275.45
614.267	11292.63
614.624	11267.54
614.98	11306.86
615.337	11333.98
615.693	11332.4
616.05	11364.26
616.406	11350.03
616.762	11345.05
617.118	11331.95
617.475	11308.67
617.831	11279.97
618.187	11406.97
618.543	11345.05
618.899	11432.28
619.255	11367.43
619.611	11345.28
619.967	11496.46
620.323	11440.42
620.678	11473.86
621.034	11391.38
621.39	11412.62
621.746	11428.44
622.101	11501.66
622.457	11465.73
622.812	11433.19
623.168	11461.66
623.523	11460.31
623.879	11522
624.234	11394.32
624.589	11489.91
624.945	11523.58
625.3	11571.04
625.655	11460.53
626.01	11383.7
626.365	11537.14
626.72	11422.11
627.075	11401.55
627.43	11467.09
627.785	11371.49
628.14	11466.63
628.495	11444.04
628.85	11409.23
629.205	11344.6
629.559	11472.96
629.914	11382.34
630.269	11385.73
630.623	11385.28
630.978	11353.19
631.332	11403.13
631.687	11309.8
632.041	11346.64
632.396	11331.04
632.75	11332.4
633.104	11335.34
633.459	11231.39
633.813	11290.82
634.167	11197.49
634.521	11197.94
634.875	11287.66
635.229	11149.58
635.583	11122.91
635.937	11206.53
636.291	11280.2
636.645	11264.6
636.999	11164.95
637.352	11258.05
637.706	11077.94
638.06	11170.82
638.413	11175.34
638.767	11111.84
639.121	11110.94
639.474	10997.27
639.828	11037.27
640.181	11049.02
640.534	11016.7
640.888	11045.18
641.241	10917.04
641.594	10978.28
641.947	10977.83
642.301	10990.94
642.654	11006.31
643.007	10966.08
643.36	10971.05
643.713	10943.26
644.066	10974.22
644.419	10881.34
644.771	10873.88
645.124	10745.97
645.477	10721.57
645.83	10643.38
646.182	10612.64
646.535	10641.57
646.888	10627.79
647.24	10465.3
647.593	10625.3
647.945	10567.9
648.298	10482.48
648.65	10522.03
649.002	10517.28
649.355	10535.81
649.707	10563.83
650.059	10595.24
650.411	10816.48
650.763	10763.15
651.115	10809.7
651.467	10784.17
651.819	10748.69
652.171	10749.36
652.523	10744.84
652.875	10683.15
653.227	10772.41
653.578	10838.18
653.93	10704.39
654.282	10721.12
654.633	10722.7
654.985	10786.65
655.337	10830.04
655.688	10742.58
656.039	10821.45
656.391	10724.96
656.742	10703.94
657.094	10698.97
657.445	10787.33
657.796	10750.27
658.147	10758.18
658.498	10830.49
658.849	10836.14
659.2	10791.85
659.551	10774
659.902	10827.1
660.253	10765.86
660.604	10774.45
660.955	10730.16
661.306	10818.51
661.656	10749.14
662.007	10747.1
662.358	10813.54
662.708	10807.44
663.059	10797.5
663.409	10747.33
663.76	10799.31
664.11	10802.7
664.461	10742.13
664.811	10753.66
665.161	10783.04
665.511	10725.41
665.862	10777.16
666.212	10794.56
666.562	10706.65
666.912	10799.53
667.262	10758.18
667.612	10755.01
667.962	10714.56
668.312	10742.81
668.662	10809.93
669.011	10694.22
669.361	10797.05
669.711	10688.8
670.06	10705.3
670.41	10685.41
670.76	10630.5
671.109	10815.35
671.459	10734.22
671.808	10686.99
672.157	10662.59
672.507	10677.28
672.856	10724.96
673.205	10720.21
673.554	10650.61
673.904	10643.15
674.253	10713.66
674.602	10695.58
674.951	10550.5
675.3	10483.38
675.649	10650.16
675.998	10626.2
676.346	10585.75
676.695	10773.54
677.044	10577.39
677.393	10579.65
677.741	10620.1
678.09	10549.37
678.438	10551.18
678.787	10509.82
679.135	10594.57
679.484	10444.97
679.832	10469.82
680.181	10444.97
680.529	10493.33
680.877	10349.83
681.225	10487.9
681.573	10444.51
681.922	10337.17
682.27	10333.56
682.618	10322.93
682.966	10369.71
683.314	10384.63
683.661	10383.27
684.009	10282.94
684.357	10285.42
684.705	10273.67
685.053	10280.22
685.4	10202.03
685.748	10163.84
686.095	10245.2
686.443	10187.8
686.79	10057.18
687.138	10101.92
687.485	10136.95
687.832	10049.5
688.18	10087.91
688.527	9939.89
688.874	10053.11
689.221	9978.09
689.568	10031.87
689.915	9915.49
690.262	9911.65
690.609	9891.76
690.956	9854.25
691.303	9803.4
691.65	9768.83
691.997	9763.63
692.344	9681.82
692.69	9750.75
693.037	9696.74
693.383	9656.29
693.73	9611.77
694.077	9488.83
694.423	9583.07
694.769	9482.73
695.116	9463.97
695.462	9470.08
695.808	9435.27
696.155	9461.04
696.501	9347.59
696.847	9348.05
697.193	9280.93
697.539	9229.4
697.885	9179.91
698.231	9207.94
698.577	9203.64
698.923	9188.73
699.269	9103.53
699.614	9078
699.96	8995.51
700.306	8999.58
700.651	8962.97
700.997	8928.4
701.342	8911.22
701.688	8848.17
702.033	8858.11
702.379	8833.48
702.724	8781.28
703.069	8826.48
703.415	8672.36
703.76	8693.83
704.105	8678.23
704.45	8600.04
704.795	8645.01
705.14	8574.51
705.485	8562.98
705.83	8540.16
706.175	8533.6
706.52	8497.67
706.865	8505.13
707.209	8417.9
707.554	8464.23
707.899	8473.04
708.243	8403.66
708.588	8354.85
708.932	8324.57
709.277	8360.95
709.621	8298.81
709.966	8313.04
710.31	8285.02
710.654	8160.73
710.998	8245.48
711.342	8224.68
711.687	8158.02
712.031	8162.54
712.375	8103.78
712.719	8140.62
713.063	8109.21
713.407	8114.63
713.75	8084.12
714.094	8103.11
714.438	8033.5
714.782	8049.55
715.125	8026.05
715.469	7941.53
715.812	8005.93
716.156	7955.54
716.499	7930.91
716.843	7910.57
717.186	7896.78
717.53	8019.49
717.873	7897.24
718.216	7927.29
718.559	7824.24
718.902	7841.87
719.246	7866.95
719.589	7802.1
719.932	7757.35
720.275	7803.45
720.617	7763.45
720.96	7779.72
721.303	7787.86
721.646	7766.39
721.989	7713.06
722.331	7738.82
722.674	7734.3
723.016	7714.42
723.359	7699.95
723.701	7694.76
724.044	7696.34
724.386	7701.99
724.729	7640.52
725.071	7717.81
725.413	7662.89
725.755	7689.11
726.097	7624.25
726.439	7580.63
726.782	7603.68
727.124	7630.58
727.465	7606.62
727.807	7628.99
728.149	7609.56
728.491	7563.01
728.833	7647.52
729.175	7632.61
729.516	7543.57
729.858	7620.41
730.199	7556
730.541	7553.29
730.882	7520.3
731.224	7622.21
731.565	7539.28
731.906	7554.87
732.248	7563.69
732.589	7479.39
732.93	7511.94
733.271	7497.47
733.612	7533.4
733.953	7537.47
734.294	7585.83
734.635	7558.26
734.976	7551.26
735.317	7535.66
735.658	7521.88
735.999	7479.85
736.339	7542.44
736.68	7555.1
737.021	7547.41
737.361	7512.16
737.702	7646.62
738.042	7563.01
738.383	7550.8
738.723	7567.53
739.063	7532.95
739.404	7623.12
739.744	7579.73
740.084	7584.25
740.424	7613.85
740.764	7608.66
741.104	7628.99
741.444	7634.42
741.784	7657.47
742.124	7630.12
742.464	7689.11
742.804	7557.81
743.143	7610.92
743.483	7650.01
743.823	7671.71
744.162	7708.09
744.502	7771.36
744.841	7742.66
745.181	7811.59
745.52	7807.97
745.86	7860.4
746.199	7883.68
746.538	7918.7
746.877	7928.87
747.216	8016.55
747.556	8040.73
747.895	8035.76
748.234	8053.16
748.573	8088.42
748.911	8150.11
749.25	8223.1
749.589	8204.35
749.928	8337.45
750.267	8372.48
750.605	8457.9
750.944	8459.71
751.283	8537.22
751.621	8671
751.96	8671.23
752.298	8727.04
752.636	8842.3
752.975	8934.04
753.313	8968.17
753.651	9068.05
753.989	9182.17
754.327	9277.31
754.666	9393.24
755.004	9539.68
755.342	9663.74
755.679	9723.63
756.017	9809.73
756.355	9922.49
756.693	10026.45
757.031	10201.58
757.368	10313.67
757.706	10412.2
758.044	10525.87
758.381	10713.21
758.719	10824.84
759.056	11037.27
759.394	11159.52
759.731	11208.34
760.068	11395
760.405	11501.43
760.743	11710.24
761.08	11891.48
761.417	11993.85
761.754	12140.29
762.091	12281.08
762.428	12469.32
762.765	12469.77
763.102	12755.41
763.438	12899.36
