Data from hue_28_FLMS001491_00100.txt Node
Date: Tue Feb 07 17:18:05 GMT 2017
User: dcchb
Spectrometer: FLMS00149
Trigger mode: 0
Integration Time (sec): 2.000000E-2
Scans to average: 10
Electric dark correction enabled: true
Nonlinearity correction enabled: false
Boxcar width: 0
XAxis mode: Wavelengths
Number of Pixels in Spectrum: 2048
>>>>>Begin Spectral Data<<<<<
341.393	-15.23
341.776	-15.23
342.16	-15.23
342.543	-62.68
342.927	-55.22
343.31	-78.73
343.693	-58.61
344.077	-67.65
344.46	-58.84
344.843	-56.58
345.226	-70.37
345.61	-19.52
345.993	-15.9
346.376	11.21
346.759	5.79
347.142	38.33
347.525	36.3
347.908	70.87
348.291	75.85
348.674	93.47
349.057	94.38
349.44	140.48
349.823	162.4
350.206	145.22
350.588	183.64
350.971	220.47
351.354	228.38
351.737	230.64
352.119	256.18
352.502	249.63
352.884	282.39
353.267	300.25
353.65	302.73
354.032	290.08
354.414	296.4
354.797	313.35
355.179	325.78
355.562	345.67
355.944	326.91
356.326	336.18
356.709	339.79
357.091	330.98
357.473	348.38
357.855	314.48
358.238	356.29
358.62	340.47
359.002	333.69
359.384	332.79
359.766	342.51
360.148	367.36
360.53	356.97
360.912	342.05
361.294	337.76
361.676	341.38
362.057	327.82
362.439	344.31
362.821	316.07
363.203	328.27
363.584	354.26
363.966	330.3
364.348	345.22
364.729	319.91
365.111	313.58
365.493	318.55
365.874	296.4
366.256	310.87
366.637	319
367.019	316.97
367.4	315.61
367.781	309.51
368.163	321.49
368.544	309.29
368.925	312
369.306	296.86
369.688	299.79
370.069	316.97
370.45	309.29
370.831	302.05
371.212	301.83
371.593	292.79
371.974	314.48
372.355	298.44
372.736	301.15
373.117	328.95
373.498	326.23
373.879	304.54
374.26	317.2
374.641	316.74
375.021	310.87
375.402	305.67
375.783	340.47
376.163	340.25
376.544	328.04
376.925	355.61
377.305	330.98
377.686	335.5
378.066	314.94
378.447	307.7
378.827	338.66
379.208	319.45
379.588	333.69
379.968	313.35
380.349	340.92
380.729	352.22
381.109	327.36
381.489	350.64
381.87	330.08
382.25	309.29
382.63	319.91
383.01	360.58
383.39	333.47
383.77	335.5
384.15	342.28
384.53	349.28
384.91	358.55
385.29	356.74
385.67	354.48
386.049	344.54
386.429	359.68
386.809	369.85
387.189	351.09
387.568	350.19
387.948	365.33
388.328	362.84
388.707	375.72
389.087	366.01
389.466	343.86
389.846	365.78
390.225	370.98
390.605	371.43
390.984	363.75
391.363	370.75
391.743	356.29
392.122	370.3
392.501	370.3
392.881	391.77
393.26	378.66
393.639	378.66
394.018	376.63
394.397	389.96
394.776	394.71
395.155	399
395.534	390.19
395.913	381.83
396.292	367.36
396.671	384.54
397.05	407.36
397.429	409.17
397.808	393.13
398.186	385.44
398.565	399.45
398.944	405.33
399.323	403.75
399.701	410.07
400.08	396.06
400.458	410.98
400.837	408.04
401.215	396.97
401.594	386.12
401.972	405.55
402.351	418.21
402.729	422.95
403.107	410.98
403.486	410.07
403.864	409.62
404.242	421.83
404.62	408.49
404.999	420.92
405.377	432.22
405.755	428.15
406.133	408.04
406.511	437.64
406.889	432.22
407.267	424.31
407.645	434.93
408.023	434.93
408.401	421.83
408.779	445.1
409.156	436.74
409.534	463.18
409.912	450.98
410.29	452.56
410.667	449.17
411.045	459.34
411.422	463.18
411.8	467.25
412.178	455.72
412.555	464.54
412.933	468.83
413.31	464.99
413.687	466.8
414.065	473.35
414.442	476.96
414.819	486.68
415.197	481.71
415.574	509.28
415.951	469.06
416.328	488.49
416.705	493.69
417.082	493.69
417.46	510.18
417.837	485.1
418.214	507.92
418.591	504.76
418.967	505.21
419.344	518.09
419.721	517.19
420.098	522.84
420.475	521.48
420.852	536.4
421.228	529.39
421.605	528.94
421.982	535.49
422.358	526.91
422.735	537.98
423.111	527.81
423.488	566.91
423.864	569.17
424.241	550.86
424.617	549.51
424.994	581.82
425.37	575.95
425.746	547.7
426.123	574.36
426.499	580.92
426.875	572.1
427.251	603.52
427.627	589.96
428.003	609.84
428.379	591.54
428.756	584.08
429.132	586.79
429.507	598.54
429.883	622.95
430.259	635.38
430.635	622.05
431.011	629.96
431.387	623.63
431.763	612.1
432.138	625.89
432.514	657.98
432.89	685.32
433.265	674.25
433.641	664.98
434.016	690.07
434.392	673.57
434.767	667.02
435.143	683.29
435.518	695.72
435.894	697.3
436.269	710.63
436.644	712.44
437.02	721.7
437.395	711.31
437.77	738.2
438.145	688.26
438.52	721.03
438.895	693.68
439.271	741.82
439.646	747.47
440.021	728.94
440.395	744.75
440.77	757.86
441.145	752.89
441.52	762.38
441.895	756.73
442.27	786.11
442.645	774.81
443.019	782.49
443.394	764.64
443.769	765.09
444.143	789.5
444.518	807.8
444.892	808.03
445.267	801.25
445.641	822.27
446.016	817.52
446.39	807.58
446.764	839.44
447.139	845.77
447.513	851.19
447.887	840.8
448.262	833.34
448.636	861.14
449.01	843.73
449.384	846.9
449.758	844.64
450.132	859.78
450.506	849.84
450.88	866.56
451.254	888.93
451.628	895.48
452.002	919.89
452.376	901.36
452.75	896.84
453.123	925.09
453.497	930.06
453.871	923.28
454.244	939.1
454.618	954.92
454.992	963.05
455.365	947.01
455.739	981.81
456.112	993.34
456.486	975.93
456.859	1018.19
457.232	1025.2
457.606	1027.23
457.979	1041.92
458.352	1050.51
458.725	1051.41
459.099	1072.2
459.472	1083.05
459.845	1095.03
460.218	1098.64
460.591	1104.74
460.964	1120.34
461.337	1121.47
461.71	1148.13
462.083	1182.03
462.456	1148.81
462.829	1152.88
463.201	1170.05
463.574	1224.97
463.947	1211.41
464.32	1228.36
464.692	1227.45
465.065	1246.21
465.438	1268.36
465.81	1276.04
466.183	1291.41
466.555	1308.36
466.928	1304.06
467.3	1338.19
467.672	1340.44
468.045	1376.38
468.417	1399.88
468.789	1396.94
469.161	1428.58
469.534	1413.44
469.906	1486.43
470.278	1477.16
470.65	1496.6
471.022	1487.56
471.394	1547.22
471.766	1596.03
472.138	1586.99
472.51	1611.62
472.882	1627.22
473.253	1649.59
473.625	1677.39
473.997	1728.01
474.369	1753.54
474.74	1756.48
475.112	1807.78
475.484	1822.01
475.855	1859.3
476.227	1887.78
476.598	1941.33
476.97	1942.46
477.341	2009.58
477.713	2038.73
478.084	2043.7
478.455	2121.67
478.827	2133.64
479.198	2215.22
479.569	2195.56
479.94	2288.22
480.311	2308.56
480.682	2367.08
481.053	2442.34
481.424	2468.32
481.795	2520.75
482.166	2560.75
482.537	2596.46
482.908	2674.65
483.279	2674.87
483.65	2758.49
484.021	2814.98
484.391	2890.23
484.762	2879.84
485.133	2916.45
485.503	2995.32
485.874	3055.43
486.244	3055.2
486.615	3166.84
486.985	3246.84
487.356	3300.39
487.726	3337
488.097	3406.38
488.467	3430.56
488.837	3534.51
489.207	3584.45
489.578	3647.5
489.948	3677.56
490.318	3787.84
490.688	3785.8
491.058	3900.6
491.428	3945.8
491.798	3945.8
492.168	4068.73
492.538	4051.11
492.908	4167.26
493.278	4196.64
493.648	4212.46
494.017	4345.34
494.387	4326.58
494.757	4435.73
495.126	4475.05
495.496	4466.92
495.866	4507.59
496.235	4585.11
496.605	4661.04
496.974	4673.24
497.344	4724.76
497.713	4750.07
498.082	4782.39
498.452	4829.62
498.821	4866.68
499.19	4885.89
499.559	5016.51
499.928	5030.29
500.298	5029.84
500.667	5113
501.036	5065.09
501.405	5177.63
501.774	5129.72
502.143	5223.28
502.512	5270.96
502.88	5307.8
503.249	5325.88
503.618	5347.35
503.987	5408.59
504.356	5489.26
504.724	5491.97
505.093	5519.09
505.462	5515.25
505.83	5549.6
506.199	5595.02
506.567	5695.58
506.936	5668.47
507.304	5752.98
507.672	5756.37
508.041	5740.78
508.409	5825.52
508.777	5885.18
509.145	5885.86
509.514	5911.17
509.882	5941.45
510.25	5964.5
510.618	6024.84
510.986	6033.2
511.354	6080.66
511.722	6137.61
512.09	6168.79
512.458	6210.6
512.826	6234.78
513.193	6197.04
513.561	6271.61
513.929	6266.19
514.297	6373.53
514.664	6369.92
515.032	6398.84
515.4	6418.05
515.767	6456.92
516.135	6518.61
516.502	6452.85
516.869	6557.03
517.237	6582.79
517.604	6547.31
517.972	6568.1
518.339	6601.32
518.706	6626.86
519.073	6698.5
519.44	6707.54
519.808	6760.64
520.175	6776.69
520.542	6807.19
520.909	6841.32
521.276	6868.21
521.643	6967.42
522.009	6912.05
522.376	6997.02
522.743	6988.43
523.11	7053.06
523.477	7122.21
523.843	7081.99
524.21	7268.88
524.577	7217.8
524.943	7272.72
525.31	7307.75
525.676	7362.43
526.043	7398.82
526.409	7461.87
526.776	7528.3
527.142	7491.92
527.508	7540.51
527.874	7592.48
528.241	7596.1
528.607	7684.01
528.973	7790.22
529.339	7743.21
529.705	7816.43
530.071	7882.87
530.437	7941.4
530.803	7980.04
531.169	7995.64
531.535	7987.05
531.901	7981.63
532.267	8054.62
532.632	8132.36
532.998	8163.77
533.364	8185.91
533.73	8215.29
534.095	8260.49
534.461	8297.55
534.826	8285.35
535.192	8345.01
535.557	8397.43
535.923	8367.6
536.288	8439.24
536.653	8535.06
537.019	8488.96
537.384	8615.96
537.749	8561.5
538.114	8557.43
538.479	8624.1
538.845	8639.24
539.21	8700.48
539.575	8726.01
539.94	8807.14
540.305	8779.12
540.67	8780.93
541.034	8836.29
541.399	8890.3
541.764	8890.75
542.129	8952.45
542.494	9007.59
542.858	9044.65
543.223	9076.74
543.587	9207.81
543.952	9115.61
544.316	9170.97
544.681	9169.17
545.045	9246.45
545.41	9283.74
545.774	9296.62
546.138	9306.11
546.503	9345.66
546.867	9403.96
547.231	9469.27
547.595	9510.85
547.959	9528.03
548.324	9566.67
548.688	9527.57
549.052	9622.49
549.416	9614.58
549.779	9648.48
550.143	9620.45
550.507	9737.29
550.871	9785.19
551.235	9778.64
551.599	9798.08
551.962	9853.67
552.326	9928.92
552.689	9934.8
553.053	9918.07
553.417	9956.94
553.78	10063.38
554.143	10082.81
554.507	10091.4
554.87	10038.75
555.234	10109.93
555.597	10138.63
555.96	10155.81
556.323	10188.8
556.686	10141.12
557.05	10243.26
557.413	10356.71
557.776	10407.1
558.139	10412.97
558.502	10466.31
558.865	10445.97
559.228	10547.43
559.59	10620.43
559.953	10566.19
560.316	10686.41
560.679	10690.03
561.041	10728.45
561.404	10777.48
561.767	10760.99
562.129	10820.65
562.492	10911.04
562.854	10850.03
563.217	10910.36
563.579	10914.66
563.941	10990.81
564.304	10996.46
564.666	11057.93
565.028	11127.53
565.39	11136.12
565.753	11255.89
566.115	11211.15
566.477	11236.91
566.839	11304.93
567.201	11390.58
567.563	11446.85
567.925	11427.41
568.287	11393.29
568.648	11454.98
569.01	11559.39
569.372	11620.63
569.734	11635.77
570.095	11690
570.457	11819.94
570.819	11823.79
571.18	11823.56
571.542	11934.06
571.903	12002.09
572.265	11998.02
572.626	11914.18
572.987	12092.93
573.349	12117.56
573.71	12161.4
574.071	12387.84
574.432	12421.74
574.794	12543.54
575.155	12520.26
575.516	12492.47
575.877	12603.88
576.238	12761.16
576.599	12762.97
576.96	12828.96
577.32	12948.28
577.681	13023.3
578.042	13142.62
578.403	13323.86
578.763	13337.87
579.124	13457.41
579.485	13563.63
579.845	13693.79
580.206	13835.03
580.566	14000.9
580.927	14048.36
581.287	14285.87
581.648	14295.13
582.008	14581
582.368	14654.45
582.728	14835.01
583.089	15016.92
583.449	15144.15
583.809	15359.29
584.169	15519.51
584.529	15731.7
584.889	16033.84
585.249	16054.18
585.609	16272.93
585.969	16529.2
586.329	16698.69
586.688	17015.97
587.048	17206.02
587.408	17333.02
587.768	17782.72
588.127	17907.92
588.487	18049.84
588.846	18468.81
589.206	18613.44
589.565	18866.76
589.925	19234.89
590.284	19422.91
590.643	19707.65
591.003	20022.21
591.362	20345.37
591.721	20571.58
592.08	20883.43
592.44	21157.78
592.799	21356.42
593.158	21644.09
593.517	21996.85
593.876	22311.19
594.235	22505.54
594.593	22857.62
594.952	23307.55
595.311	23444.04
595.67	23697.6
596.029	24177.36
596.387	24398.37
596.746	24786.16
597.104	24925.36
597.463	25158.8
597.822	25601.95
598.18	25767.83
598.538	26006.24
598.897	26500.01
599.255	26626.56
599.613	27201.23
599.972	27292.98
600.33	27624.73
600.688	27784.72
601.046	28231.04
601.404	28570.69
601.762	28752.38
602.12	29142.65
602.478	29485.47
602.836	29695.63
603.194	29832.13
603.552	30178.78
603.91	30116.86
604.268	30658.32
604.625	30733.34
604.983	31224.86
605.341	31167.23
605.698	31637.05
606.056	32034.78
606.413	32029.36
606.771	32379.18
607.128	32717.7
607.485	32807.19
607.843	33015.32
608.2	33326.27
608.557	33757.67
608.914	33732.59
609.272	34129.64
609.629	34251.22
609.986	34534.15
610.343	34492.12
610.7	35067.47
611.057	35251.64
611.414	35368.02
611.771	35438.08
612.127	35807.79
612.484	35933.43
612.841	36185.4
613.198	36193.77
613.554	36401.44
613.911	36728.44
614.267	36857.03
614.624	36968.43
614.98	37154.64
615.337	37546.05
615.693	37595.54
616.05	37756.89
616.406	37937.9
616.762	37955.98
617.118	38059.71
617.475	38331.11
617.831	38437.55
618.187	38590.99
618.543	38755.51
618.899	39036.4
619.255	39069.17
619.611	39047.48
619.967	39243.86
620.323	39474.58
620.678	39514.58
621.034	39576.73
621.39	39583.73
621.746	39615.82
622.101	40172.64
622.457	39797.96
622.812	40078.86
623.168	40261.23
623.523	40332.64
623.879	40502.58
624.234	40223.49
624.589	40542.8
624.945	40622.12
625.3	40835
625.655	40819.41
626.01	41043.58
626.365	41062.34
626.72	41003.58
627.075	40977.82
627.43	41030.7
627.785	41048.33
628.14	41234.09
628.495	41343.69
628.85	41346.85
629.205	41241.54
629.559	41501.2
629.914	41333.29
630.269	41396.34
630.623	41280.41
630.978	41501.2
631.332	41552.72
631.687	41744.13
632.041	41690.8
632.396	41722.66
632.75	41593.62
633.104	41756.11
633.459	41565.83
633.813	41636.11
634.167	41628.2
634.521	41722.43
634.875	41715.2
635.229	41709.1
635.583	41556.34
635.937	41722.21
636.291	41764.01
636.645	41723.34
636.999	41636.11
637.352	41742.32
637.706	41576.22
638.06	41785.71
638.413	41641.53
638.767	41514.98
639.121	41741.64
639.474	41557.69
639.828	41508.65
640.181	41644.92
640.534	41619.16
640.888	41557.47
641.241	41343.46
641.594	41508.43
641.947	41603.79
642.301	41440.41
642.654	41496.68
643.007	41527.41
643.36	41512.27
643.713	41517.24
644.066	41641.08
644.419	41310.24
644.771	41139.4
645.124	40795.68
645.477	40762.91
645.83	40540.77
646.182	40418.74
646.535	40268.46
646.888	40385.07
647.24	39985.08
647.593	40468.46
647.945	40318.86
648.298	40284.51
648.65	40216.26
649.002	40063.04
649.355	40211.29
649.707	40108.01
650.059	40311.85
650.411	40778.05
650.763	40887.88
651.115	41284.71
651.467	41058.95
651.819	41034.09
652.171	41052.4
652.523	40966.07
652.875	40946.41
653.227	40842.23
653.578	41059.85
653.93	41159.51
654.282	40826.41
654.633	40710.48
654.985	40884.49
655.337	40860.08
655.688	40772.85
656.039	40909.35
656.391	40688.56
656.742	40746.41
657.094	40794.77
657.445	40984.37
657.796	40720.43
658.147	40732.4
658.498	40802.68
658.849	40705.06
659.2	40811.27
659.551	40626.42
659.902	40758.17
660.253	40766.53
660.604	40797.03
660.955	40549.81
661.306	40734.89
661.656	40658.06
662.007	40629.36
662.358	40863.47
662.708	40691.5
663.059	40643.59
663.409	40635.23
663.76	40897.82
664.11	40846.52
664.461	40817.6
664.811	40797.26
665.161	40723.14
665.511	40729.47
665.862	40642.91
666.212	40604.05
666.562	40659.19
666.912	40682.91
667.262	40643.37
667.612	40532.41
667.962	40699.86
668.312	40624.61
668.662	40780.76
669.011	40496.48
669.361	40501.22
669.711	40533.09
670.06	40632.29
670.41	40656.02
670.76	40433.43
671.109	40553.88
671.459	40485.4
671.808	40336.48
672.157	40469.13
672.507	40334.45
672.856	40427.33
673.205	40343.26
673.554	40554.1
673.904	40524.73
674.253	40514.78
674.602	40381.45
674.951	39874.57
675.3	39568.82
675.649	40329.02
675.998	40258.97
676.346	40376.93
676.695	40444.5
677.044	39931.97
677.393	40230.27
677.741	40215.13
678.09	40216.03
678.438	39956.6
678.787	40199.31
679.135	40156.37
679.484	39816.95
679.832	40029.82
680.181	39795.93
680.529	39907.11
680.877	39757.74
681.225	39870.96
681.573	39984.17
681.922	39804.74
682.27	39709.61
682.618	39597.74
682.966	39552.32
683.314	39668.02
683.661	39519.1
684.009	39357.98
684.357	39223.06
684.705	39185.1
685.053	39206.34
685.4	39134.93
685.748	39020.58
686.095	39048.15
686.443	39030.75
686.79	38820.14
687.138	38903.75
687.485	38798.9
687.832	38673.47
688.18	38757.54
688.527	38562.52
688.874	38675.96
689.221	38527.49
689.568	38427.83
689.915	38299.02
690.262	38348.74
690.609	38196.2
690.956	38053.6
691.303	37965.92
691.65	37814.97
691.997	37858.13
692.344	37626.04
692.69	37692.26
693.037	37550.11
693.383	37330.91
693.73	37451.13
694.077	37250.69
694.423	37323
694.769	37200.07
695.116	37178.6
695.462	37074.42
695.808	36964.59
696.155	37043.46
696.501	36749.91
696.847	36772.28
697.193	36488
697.539	36618.16
697.885	36325.51
698.231	36269.47
698.577	36359.64
698.923	36139.98
699.269	36135.69
699.614	36156.93
699.96	35842.14
700.306	35767.34
700.651	35805.75
700.997	35644.18
701.342	35511.07
701.688	35323.96
702.033	35336.61
702.379	35306.33
702.724	35252.1
703.069	35418.19
703.415	34940.92
703.76	34949.05
704.105	35050.75
704.45	34972.33
704.795	34610.08
705.14	34569.63
705.485	34433.59
705.83	34384.32
706.175	34409.86
706.52	34384.77
706.865	34210.09
707.209	34136.64
707.554	33962.41
707.899	34137.77
708.243	33895.52
708.588	33909.08
708.932	33801.06
709.277	33789.76
709.621	33808.07
709.966	33473.39
710.31	33483.78
710.654	33182.55
710.998	33326.27
711.342	33398.59
711.687	33167.4
712.031	33198.36
712.375	32969.44
712.719	33190.23
713.063	33063.45
713.407	33138.7
713.75	32933.96
714.094	32925.15
714.438	32837.24
714.782	32864.81
715.125	32777.13
715.469	32743.91
715.812	32611.71
716.156	32357.93
716.499	32334.43
716.843	32438.38
717.186	32070.26
717.53	32290.14
717.873	32348.44
718.216	32193.87
718.559	32060.77
718.902	31818.97
719.246	31973.54
719.589	31805.63
719.932	31724.05
720.275	31677.05
720.617	31644.05
720.96	31656.26
721.303	31722.92
721.646	31589.59
721.989	31411.07
722.331	31437.28
722.674	31518.41
723.016	31504.85
723.359	31386.66
723.701	31453.33
724.044	31123.16
724.386	30925.43
724.729	31256.72
725.071	30998.42
725.413	31107.8
725.755	31076.39
726.097	30936.28
726.439	30871.65
726.782	30694.02
727.124	30986.45
727.465	30679.33
727.807	30725.89
728.149	30628.49
728.491	30574.48
728.833	30541.26
729.175	30526.34
729.516	30417.42
729.858	30439.79
730.199	30364.09
730.541	30392.11
730.882	30242.74
731.224	30401.38
731.565	30146.24
731.906	30189.18
732.248	30179.91
732.589	30017.21
732.93	29939.24
733.271	29926.36
733.612	30034.61
733.953	29991.22
734.294	29845.46
734.635	29876.19
734.976	29914.38
735.317	29692.02
735.658	29699.02
735.999	29676.88
736.339	29619.25
736.68	29689.53
737.021	29575.86
737.361	29369.31
737.702	29631.68
738.042	29522.3
738.383	29362.76
738.723	29475.07
739.063	29287.73
739.404	29293.38
739.744	29276.43
740.084	29138.36
740.424	29315.3
740.764	29176.1
741.104	29271.24
741.444	29023.78
741.784	28823.11
742.124	29030.79
742.464	28997.57
742.804	28968.87
743.143	28836.22
743.483	28817.46
743.823	28828.54
744.162	28640.52
744.502	28684.13
744.841	28499.5
745.181	28701.53
745.52	28524.59
745.86	28625.83
746.199	28487.98
746.538	28471.03
746.877	28526.4
747.216	28513.74
747.556	28445.49
747.895	28383.12
748.234	28350.36
748.573	28212.51
748.911	28070.59
749.25	28208.44
749.589	28180.42
749.928	28112.17
750.267	28151.27
750.605	28042.34
750.944	28094.77
751.283	27899.52
751.621	28014.55
751.96	27738.85
752.298	27753.31
752.636	27812.97
752.975	27659.75
753.313	27520.77
753.651	27648.23
753.989	27602.58
754.327	27434.22
754.666	27349.25
755.004	27367.11
755.342	27274.68
755.679	27392.42
756.017	27242.36
756.355	27226.54
756.693	27141.35
757.031	27185.19
757.368	27022.48
757.706	26922.37
758.044	26812.54
758.381	27007.79
758.719	26657.75
759.056	26836.05
