Data from hue_320_FLMS001491_17.txt Node
Date: Mon Feb 06 15:46:48 GMT 2017
User: dcchb
Spectrometer: FLMS00149
Trigger mode: 0
Integration Time (sec): 2.000000E-2
Scans to average: 10
Electric dark correction enabled: true
Nonlinearity correction enabled: false
Boxcar width: 0
XAxis mode: Wavelengths
Number of Pixels in Spectrum: 2048
>>>>>Begin Spectral Data<<<<<
341.393	-17.17
341.776	-17.17
342.16	-17.17
342.543	-72.09
342.927	-66.44
343.31	-68.7
343.693	-69.38
344.077	-68.25
344.46	-50.85
344.843	-59.89
345.226	-33.9
345.61	-42.03
345.993	-31.41
346.376	-9.04
346.759	11.75
347.142	23.73
347.525	39.77
347.908	67.79
348.291	89.04
348.674	101.47
349.057	99.88
349.44	108.7
349.823	157.96
350.206	169.94
350.588	183.05
350.971	199.54
351.354	211.52
351.737	217.17
352.119	247.23
352.502	254.46
352.884	275.92
353.267	289.71
353.65	274.8
354.032	275.47
354.414	318.18
354.797	313.66
355.179	326.77
355.562	315.92
355.944	327.22
356.326	321.35
356.709	339.65
357.091	337.84
357.473	329.93
357.855	338.75
358.238	330.39
358.62	352.99
359.002	338.3
359.384	336.71
359.766	363.83
360.148	341.01
360.53	315.7
360.912	331.74
361.294	317.28
361.676	331.29
362.057	315.02
362.439	318.18
362.821	329.93
363.203	309.6
363.584	314.34
363.966	324.51
364.348	322.7
364.729	315.92
365.111	326.55
365.493	321.12
365.874	298.75
366.256	312.31
366.637	317.51
367.019	300.56
367.4	310.05
367.781	314.57
368.163	310.5
368.544	321.35
368.925	307.11
369.306	319.54
369.688	326.09
370.069	305.75
370.45	315.92
370.831	318.18
371.212	318.18
371.593	289.71
371.974	299.88
372.355	314.12
372.736	299.2
373.117	322.03
373.498	312.08
373.879	308.01
374.26	329.93
374.641	317.05
375.021	326.32
375.402	316.38
375.783	299.65
376.163	331.06
376.544	328.13
376.925	319.09
377.305	315.25
377.686	312.31
378.066	330.61
378.447	323.61
378.827	321.35
379.208	346.43
379.588	335.58
379.968	335.81
380.349	321.57
380.729	320.44
381.109	315.47
381.489	329.03
381.87	314.34
382.25	348.24
382.63	337.39
383.01	349.82
383.39	354.57
383.77	318.64
384.15	336.49
384.53	339.65
384.91	341.69
385.29	351.18
385.67	358.86
386.049	359.31
386.429	350.05
386.809	344.17
387.189	363.83
387.568	343.04
387.948	339.2
388.328	348.92
388.707	321.35
389.087	354.57
389.466	348.47
389.846	355.02
390.225	352.76
390.605	345.08
390.984	344.62
391.363	354.57
391.743	358.41
392.122	358.18
392.501	387.11
392.881	362.02
393.26	352.99
393.639	382.14
394.018	367.67
394.397	396.37
394.776	364.96
395.155	370.84
395.534	361.12
395.913	363.61
396.292	370.61
396.671	389.59
397.05	386.43
397.429	392.76
397.808	397.28
398.186	390.27
398.565	375.13
398.944	389.82
399.323	390.05
399.701	402.25
400.08	396.15
400.458	398.63
400.837	398.18
401.215	428.01
401.594	414.68
401.972	408.58
402.351	411.97
402.729	375.58
403.107	412.19
403.486	410.38
403.864	394.11
404.242	397.28
404.62	416.94
404.999	428.46
405.377	436.37
405.755	417.16
406.133	424.85
406.511	432.31
406.889	448.35
407.267	419.65
407.645	447.67
408.023	440.21
408.401	451.06
408.779	458.29
409.156	470.5
409.534	479.76
409.912	481.12
410.29	494.45
410.667	480.21
411.045	489.7
411.422	492.64
411.8	510.04
412.178	494.9
412.555	515.24
412.933	500.55
413.31	539.65
413.687	528.57
414.065	542.58
414.442	545.97
414.819	566.76
415.197	555.47
415.574	565.18
415.951	558.18
416.328	578.06
416.705	568.35
417.082	592.75
417.46	584.39
417.837	576.48
418.214	580.1
418.591	604.73
418.967	616.48
419.344	611.51
419.721	623.26
420.098	592.98
420.475	648.8
420.852	654.9
421.228	627.33
421.605	658.97
421.982	693.09
422.358	670.26
422.735	661.68
423.111	711.62
423.488	690.38
423.864	685.86
424.241	712.75
424.617	728.12
424.994	706.42
425.37	745.52
425.746	719.53
426.123	717.27
426.499	750.26
426.875	724.5
427.251	753.65
427.627	763.6
428.003	782.35
428.379	775.57
428.756	775.8
429.132	774.67
429.507	789.58
429.883	825.52
430.259	825.06
430.635	832.52
431.011	828.45
431.387	831.16
431.763	868
432.138	868
432.514	870.26
432.89	870.26
433.265	893.76
433.641	903.71
434.016	898.96
434.392	914.78
434.767	920.43
435.143	950.48
435.518	966.98
435.894	980.54
436.269	956.81
436.644	971.05
437.02	987.09
437.395	967.66
437.77	1019.18
438.145	1018.28
438.52	1045.17
438.895	1031.39
439.271	1052.4
439.646	1045.17
440.021	1072.29
440.395	1061.89
440.77	1041.55
441.145	1067.54
441.52	1091.04
441.895	1065.73
442.27	1082.23
442.645	1107.09
443.019	1093.76
443.394	1116.35
443.769	1116.58
444.143	1086.07
444.518	1117.71
444.892	1119.07
445.267	1150.03
445.641	1122.23
446.016	1167.2
446.39	1126.75
446.764	1141.89
447.139	1157.48
447.513	1173.08
447.887	1171.49
448.262	1174.88
448.636	1146.18
449.01	1163.81
449.384	1193.41
449.758	1190.25
450.132	1202.45
450.506	1204.26
450.88	1211.95
451.254	1188.22
451.628	1203.81
452.002	1195.9
452.376	1231.15
452.75	1232.96
453.123	1255.79
453.497	1239.06
453.871	1255.56
454.244	1277.03
454.618	1288.33
454.992	1310.47
455.365	1293.75
455.739	1306.86
456.112	1305.05
456.486	1351.6
456.859	1324.94
457.232	1355.9
457.606	1338.27
457.979	1371.94
458.352	1371.04
458.725	1388.44
459.099	1396.12
459.472	1395.44
459.845	1425.05
460.218	1438.38
460.591	1434.09
460.964	1446.97
461.337	1441.54
461.71	1477.25
462.083	1482.9
462.456	1501.43
462.829	1476.12
463.201	1506.18
463.574	1509.56
463.947	1513.18
464.32	1557.02
464.692	1585.5
465.065	1571.03
465.438	1597.92
465.81	1606.96
466.183	1635.66
466.555	1674.76
466.928	1647.41
467.3	1667.07
467.672	1650.58
468.045	1706.62
468.417	1725.38
468.789	1727.19
469.161	1733.06
469.534	1747.3
469.906	1774.64
470.278	1832.95
470.65	1766.51
471.022	1801.76
471.394	1834.3
471.766	1865.26
472.138	1871.14
472.51	1921.08
472.882	1920.4
473.253	1925.37
473.625	1944.58
473.997	1968.08
474.369	2020.29
474.74	2022.09
475.112	2026.84
475.484	2047.63
475.855	2087.4
476.227	2079.04
476.598	2149.55
476.97	2130.34
477.341	2178.7
477.713	2181.41
478.084	2211.47
478.455	2245.36
478.827	2318.36
479.198	2320.39
479.569	2331.69
479.94	2367.17
480.311	2393.38
480.682	2448.3
481.053	2488.07
481.424	2474.96
481.795	2491.69
482.166	2569.2
482.537	2563.55
482.908	2613.49
483.279	2626.82
483.65	2651.91
484.021	2693.94
484.391	2738.69
484.762	2732.81
485.133	2756.99
485.503	2758.57
485.874	2841.73
486.244	2815.97
486.615	2891.9
486.985	2902.52
487.356	2967.15
487.726	2957.21
488.097	3016.42
488.467	3036.98
488.837	3104.55
489.207	3082.18
489.578	3126.47
489.948	3145.68
490.318	3185.68
490.688	3214.83
491.058	3236.75
491.428	3308.61
491.798	3299.57
492.168	3338.67
492.538	3372.34
492.908	3364.88
493.278	3414.37
493.648	3409.18
494.017	3496.86
494.387	3494.37
494.757	3496.41
495.126	3519.68
495.496	3573.92
495.866	3555.39
496.235	3613.92
496.605	3612.33
496.974	3650.07
497.344	3628.61
497.713	3683.07
498.082	3690.3
498.452	3771.2
498.821	3742.95
499.19	3736.62
499.559	3769.84
499.928	3780.92
500.298	3818.43
500.667	3843.06
501.036	3792.67
501.405	3854.59
501.774	3877.64
502.143	3868.37
502.512	3939.78
502.88	3900.46
503.249	3927.35
503.618	3922.61
503.987	3919.22
504.356	3971.65
504.724	3969.16
505.093	3975.26
505.462	4015.04
505.83	4055.26
506.199	4079.44
506.567	4105.88
506.936	4067.92
507.304	4111.3
507.672	4124.64
508.041	4121.02
508.409	4137.74
508.777	4158.99
509.145	4141.81
509.514	4190.17
509.882	4173.68
510.25	4220.68
510.618	4246.44
510.986	4231.53
511.354	4265.42
511.722	4270.62
512.09	4309.72
512.458	4305.88
512.826	4340.68
513.193	4296.84
513.561	4389.04
513.929	4353.11
514.297	4367.57
514.664	4390.39
515.032	4416.16
515.4	4445.76
515.767	4456.61
516.135	4417.74
516.502	4478.3
516.869	4490.73
517.237	4522.37
517.604	4445.53
517.972	4499.99
518.339	4478.75
518.706	4537.51
519.073	4538.64
519.44	4486.66
519.808	4598.07
520.175	4565.76
520.542	4608.92
520.909	4612.31
521.276	4583.61
521.643	4643.49
522.009	4641.01
522.376	4688.92
522.743	4706.32
523.11	4782.47
523.477	4744.28
523.843	4766.65
524.21	4851.17
524.577	4852.3
524.943	4925.29
525.31	4843.49
525.676	4901.79
526.043	4962.36
526.409	4942.47
526.776	5003.48
527.142	5027.89
527.508	4980.89
527.874	5040.77
528.241	5046.2
528.607	5066.76
528.973	5142.24
529.339	5108.79
529.705	5176.59
530.071	5160.32
530.437	5187.21
530.803	5252.74
531.169	5266.3
531.535	5259.75
531.901	5267.43
532.267	5340.42
532.632	5322.35
532.998	5356.24
533.364	5354.44
533.73	5423.81
534.095	5417.71
534.461	5421.33
534.826	5446.64
535.192	5504.49
535.557	5521.66
535.923	5473.08
536.288	5551.72
536.653	5601.66
537.019	5583.81
537.384	5633.52
537.749	5645.5
538.114	5580.87
538.479	5690.02
538.845	5697.7
539.21	5714.88
539.575	5729.79
539.94	5756.91
540.305	5760.75
540.67	5784.93
541.034	5799.85
541.399	5849.34
541.764	5920.52
542.129	5931.14
542.494	5927.53
542.858	5923.69
543.223	5974.53
543.587	6027.86
543.952	6043.46
544.316	6058.82
544.681	6041.88
545.045	6112.38
545.41	6105.6
545.774	6118.26
546.138	6162.78
546.503	6207.75
546.867	6191.7
547.231	6212.04
547.595	6274.64
547.959	6263.34
548.324	6259.5
548.688	6386.27
549.052	6350.12
549.416	6380.4
549.779	6419.72
550.143	6481.86
550.507	6459.49
550.871	6412.49
551.235	6473.05
551.599	6505.14
551.962	6474.86
552.326	6530.22
552.689	6555.31
553.053	6556.44
553.417	6561.41
553.78	6638.02
554.143	6579.94
554.507	6675.08
554.87	6667.62
555.234	6708.07
555.597	6683.67
555.96	6696.55
556.323	6781.29
556.686	6732.93
557.05	6814.28
557.413	6787.39
557.776	6784.45
558.139	6880.5
558.502	6906.94
558.865	6873.04
559.228	6918.46
559.59	6905.58
559.953	6958.01
560.316	7006.6
560.679	7017.67
561.041	7057.22
561.404	7030.32
561.767	7100.83
562.129	7095.86
562.492	7154.84
562.854	7156.2
563.217	7151.22
563.579	7146.48
563.941	7152.81
564.304	7247.72
564.666	7305.57
565.028	7306.7
565.39	7283.2
565.753	7377.89
566.115	7403.42
566.477	7360.48
566.839	7450.2
567.201	7436.19
567.563	7401.39
567.925	7536.07
568.287	7511.21
568.648	7521.61
569.01	7588.28
569.372	7654.71
569.734	7589.86
570.095	7628.5
570.457	7735.16
570.819	7723.86
571.18	7756.86
571.542	7816.52
571.903	7763.19
572.265	7858.55
572.626	7876.4
572.987	7963.41
573.349	8030.3
573.71	8101.93
574.071	8080.24
574.432	8117.75
574.794	8256.96
575.155	8297.41
575.516	8306
575.877	8367.24
576.238	8402.04
576.599	8590.96
576.96	8584.41
577.32	8672.54
577.681	8700.34
578.042	8731.07
578.403	8858.07
578.763	8891.29
579.124	9018.97
579.485	9193.88
579.845	9286.08
580.206	9399.07
580.566	9456.25
580.927	9600.2
581.287	9752.51
581.648	9830.25
582.008	9985.05
582.368	10083.12
582.728	10345.04
583.089	10448.31
583.449	10598.82
583.809	10703
584.169	10946.38
584.529	11123.1
584.889	11326.93
585.249	11487.38
585.609	11590.66
585.969	11942.06
586.329	12039.68
586.688	12317.19
587.048	12518.54
587.408	12687.58
587.768	13029.94
588.127	13236.26
588.487	13504.05
588.846	13829.69
589.206	13981.1
589.565	14209.12
589.925	14642.1
590.284	14675.55
590.643	15050.9
591.003	15369.09
591.362	15708.97
591.721	15967.49
592.08	16169.07
592.44	16516.63
592.799	16701.71
593.158	17058.08
593.517	17342.14
593.876	17704.85
594.235	17882.47
594.593	18256.02
594.952	18623.92
595.311	18670.92
595.67	19047.63
596.029	19633.83
596.387	19882.64
596.746	20061.17
597.104	20315.4
597.463	20590.19
597.822	21085.77
598.18	21156.28
598.538	21442.37
598.897	21895.7
599.255	22047.56
599.613	22564.38
599.972	22873.52
600.33	23115.32
600.688	23389.89
601.046	23714.63
601.404	24031.68
601.762	24301.06
602.12	24720.25
602.478	24916.86
602.836	25152.11
603.194	25302.61
603.552	25671.87
603.91	25862.14
604.268	26368.57
604.625	26443.82
604.983	26896.02
605.341	26934.21
605.698	27267.53
606.056	27583.23
606.413	27737.8
606.771	28132.14
607.128	28382.98
607.485	28382.76
607.843	28700.04
608.2	29149.74
608.557	29433.12
608.914	29467.7
609.272	29877.86
609.629	30102.71
609.986	30372.99
610.343	30377.28
610.7	30790.6
611.057	30762.81
611.414	31162.34
611.771	31389.91
612.127	31551.49
612.484	31815.21
612.841	32115.09
613.198	32125.93
613.554	32344.23
613.911	32579.71
614.267	32781.51
614.624	33010.21
614.98	32888.85
615.337	33379.46
615.693	33456.97
616.05	33602.96
616.406	33920.92
616.762	33898.09
617.118	34086.34
617.475	34134.47
617.831	34407.68
618.187	34518.87
618.543	34802.7
618.899	35074.11
619.255	35095.12
619.611	35129.47
619.967	35304.83
620.323	35580.76
620.678	35575.79
621.034	35524.49
621.39	35755.67
621.746	35939.39
622.101	36282.21
622.457	36093.74
622.812	36394.52
623.168	36579.38
623.523	36516.78
623.879	36600.62
624.234	36620.05
624.589	36743.44
624.945	36844.91
625.3	36979.14
625.655	36891.01
626.01	37128.52
626.365	37252.13
626.72	37187.04
627.075	37307.49
627.43	37431.78
627.785	37259.81
628.14	37452.35
628.495	37639.46
628.85	37556.07
629.205	37502.74
629.559	37870.42
629.914	37773.7
630.269	37654.15
630.623	37696.18
630.978	37669.74
631.332	37831.77
631.687	38106.57
632.041	37811.89
632.396	38045.78
632.75	37942.73
633.104	37943.64
633.459	37744.77
633.813	37893.92
634.167	37837.65
634.521	37972.33
634.875	38102.95
635.229	38100.02
635.583	37898.66
635.937	37897.53
636.291	37930.08
636.645	38092.33
636.999	38011.43
637.352	38061.82
637.706	38011.88
638.06	38134.14
638.413	38087.36
638.767	37976.85
639.121	38057.76
639.474	37912.68
639.828	37870.87
640.181	37912.45
640.534	38091.43
640.888	38007.36
641.241	37966.01
641.594	37932.11
641.947	37943.18
642.301	37944.54
642.654	37963.97
643.007	38000.58
643.36	37950.64
643.713	37990.19
644.066	38111.54
644.419	37801.27
644.771	37600.82
645.124	37464.55
645.477	37335.97
645.83	37113.37
646.182	37062.75
646.535	36772.14
646.888	36946.37
647.24	36840.84
647.593	37029.76
647.945	36891.01
648.298	36777.56
648.65	36651.69
649.002	36541.19
649.355	36917.22
649.707	36768.75
650.059	36747.73
650.411	37236.76
650.763	37330.09
651.115	37783.19
651.467	37578.67
651.819	37581.61
652.171	37528.73
652.523	37404.44
652.875	37407.6
653.227	37388.62
653.578	37566.7
653.93	37533.02
654.282	37293.71
654.633	37324.44
654.985	37389.75
655.337	37438.56
655.688	37311.79
656.039	37556.53
656.391	37051.91
656.742	37189.08
657.094	37237.89
657.445	37455.74
657.796	37279.47
658.147	37265.01
658.498	37199.47
658.849	37300.71
659.2	37181.62
659.551	37084
659.902	37400.15
660.253	37296.42
660.604	37185.01
660.955	37049.87
661.306	37250.55
661.656	37198.34
662.007	37175.52
662.358	37148.85
662.708	37263.65
663.059	37209.19
663.409	37002.87
663.76	37163.77
664.11	37140.94
664.461	37227.72
664.811	36982.53
665.161	37195.63
665.511	37043.09
665.862	37174.62
666.212	37282.18
666.562	37215.29
666.912	37074.05
667.262	37126.93
667.612	37245.12
667.962	37116.76
668.312	37022.98
668.662	37100.95
669.011	37074.05
669.361	36965.13
669.711	36951.8
670.06	36960.38
670.41	36996.32
670.76	36864.79
671.109	36948.18
671.459	36956.32
671.808	36912.48
672.157	37065.01
672.507	36768.75
672.856	36769.2
673.205	36837.68
673.554	36980.72
673.904	36865.7
674.253	37072.02
674.602	36861.63
674.951	36267.75
675.3	36107.98
675.649	36769.88
675.998	36723.1
676.346	36681.97
676.695	36885.13
677.044	36520.62
677.393	36686.94
677.741	36704.35
678.09	36761.07
678.438	36481.07
678.787	36616.44
679.135	36544.8
679.484	36467.52
679.832	36536.21
680.181	36218.71
680.529	36514.29
680.877	36301.42
681.225	36302.32
681.573	36516.33
681.922	36222.1
682.27	36175.09
682.618	36030.24
682.966	36061.88
683.314	36140.97
683.661	36016
684.009	35868.89
684.357	35802
684.705	35717.93
685.053	35823.69
685.4	35666.86
685.748	35542.12
686.095	35484.04
686.443	35536.47
686.79	35342.57
687.138	35567.88
687.485	35467.32
687.832	35355.23
688.18	35249.47
688.527	35194.33
688.874	35113.65
689.221	35100.77
689.568	34987.78
689.915	34991.4
690.262	35027.55
690.609	34807.45
690.956	34783.04
691.303	34661.46
691.65	34492.2
691.997	34483.16
692.344	34437.29
692.69	34274.35
693.037	34324.07
693.383	34047.92
693.73	34155.26
694.077	34046.34
694.423	33963.17
694.769	33941.93
695.116	33856.74
695.462	33967.92
695.808	33588.5
696.155	33642.96
696.501	33424.88
696.847	33517.31
697.193	33272.35
697.539	33341.27
697.885	33184.21
698.231	32979.47
698.577	33115.06
698.923	32918
699.269	32890.66
699.614	32721.63
699.96	32674.85
700.306	32634.17
700.651	32584.45
700.997	32452.25
701.342	32424.23
701.688	32371.35
702.033	32225.82
702.379	32147.86
702.724	32109.21
703.069	32170.23
703.415	31873.96
703.76	31826.06
704.105	31888.2
704.45	31718.26
704.795	31555.33
705.14	31452.73
705.485	31469.91
705.83	31464.03
706.175	31357.59
706.52	31327.99
706.865	31289.8
707.209	31217.03
707.554	31093.42
707.899	31198.05
708.243	30932.75
708.588	30970.26
708.932	30721.68
709.277	30826.08
709.621	30725.07
709.966	30502.47
710.31	30636.03
710.654	30360.78
710.998	30386.09
711.342	30419.31
711.687	30200.34
712.031	30215.93
712.375	30058.42
712.719	29995.37
713.063	29935.26
713.407	30178.19
713.75	29961.02
714.094	29879.44
714.438	29834.47
714.782	29742.49
715.125	29694.59
715.469	29747.92
715.812	29354.71
716.156	29321.04
716.499	29507.02
716.843	29398.55
717.186	29224.32
717.53	29418.89
717.873	29342.73
718.216	29373.69
718.559	29180.93
718.902	28922.4
719.246	29106.58
719.589	28920.14
719.932	28883.08
720.275	28977.09
720.617	28818.68
720.96	28742.75
721.303	28736.42
721.646	28803.54
721.989	28619.59
722.331	28735.29
722.674	28567.38
723.016	28672.47
723.359	28556.54
723.701	28550.44
724.044	28287.17
724.386	28194.06
724.729	28353.6
725.071	28182.31
725.413	28185.7
725.755	28228.18
726.097	28084.46
726.439	27907.06
726.782	28020.05
727.124	28173.72
727.465	27927.85
727.807	27898.7
728.149	27821.87
728.491	27646.96
728.833	27836.33
729.175	27699.38
729.516	27560.18
729.858	27625.26
730.199	27574.19
730.541	27623.23
730.882	27489.67
731.224	27580.97
731.565	27392.5
731.906	27422.56
732.248	27441.76
732.589	27220.98
732.93	27212.62
733.271	27121.77
733.612	27156.12
733.953	27307.98
734.294	27176.91
734.635	27177.82
734.976	27056.46
735.317	26982.12
735.658	26902.12
735.999	27017.82
736.339	26842.23
736.68	26968.33
737.021	26833.19
737.361	26774.89
737.702	26962
738.042	26708.22
738.383	26616.7
738.723	26534.9
739.063	26521.56
739.404	26638.62
739.744	26552.52
740.084	26479.08
740.424	26461.9
740.764	26378.52
741.104	26499.42
741.444	26336.48
741.784	26185.07
742.124	26228.46
742.464	26210.16
742.804	26120.9
743.143	26147.11
743.483	26242.25
743.823	26009.49
744.162	25948.02
744.502	26201.12
744.841	25897.17
745.181	26006.1
745.52	25833.22
745.86	25882.71
746.199	25767.46
746.538	25777.85
746.877	25896.95
747.216	25770.17
747.556	25795.93
747.895	25651.3
748.234	25534.24
748.573	25483.17
748.911	25438.65
749.25	25427.13
749.589	25392.1
749.928	25283.18
750.267	25320.92
750.605	25341.25
750.944	25281.6
751.283	25172.9
751.621	25231.2
751.96	24937.2
752.298	25000.25
752.636	25103.75
752.975	24829.63
753.313	24835.51
753.651	24869.4
753.989	24748.5
754.327	24720.03
754.666	24642.06
755.004	24599.13
755.342	24630.09
755.679	24632.12
756.017	24412.01
756.355	24603.87
756.693	24277.78
757.031	24364.78
757.368	24241.62
757.706	24199.59
758.044	24057.45
758.381	24190.32
758.719	24020.39
759.056	24079.14
759.394	23903.1
759.731	23761.18
