Data from hue_340_FLMS001491_73.txt Node
Date: Mon Feb 06 15:43:34 GMT 2017
User: dcchb
Spectrometer: FLMS00149
Trigger mode: 0
Integration Time (sec): 2.000000E-2
Scans to average: 10
Electric dark correction enabled: true
Nonlinearity correction enabled: false
Boxcar width: 0
XAxis mode: Wavelengths
Number of Pixels in Spectrum: 2048
>>>>>Begin Spectral Data<<<<<
341.393	-37.32
341.776	-37.32
342.16	-37.32
342.543	-52
342.927	-49.07
343.31	-71.66
343.693	-71.66
344.077	-58.11
344.46	-74.6
344.843	-48.84
345.226	-36.64
345.61	-24.43
345.993	-28.5
346.376	-8.84
346.759	27.32
347.142	21.21
347.525	32.29
347.908	68.44
348.291	88.56
348.674	79.52
349.057	105.96
349.44	135.11
349.823	148.44
350.206	184.15
350.588	178.05
350.971	202.23
351.354	221.66
351.737	242.68
352.119	260.53
352.502	263.02
352.884	278.16
353.267	292.17
353.65	305.27
354.032	306.4
354.414	305.05
354.797	315.22
355.179	351.37
355.562	311.38
355.944	320.42
356.326	311.83
356.709	319.06
357.091	341.88
357.473	326.74
357.855	335.78
358.238	346.4
358.62	349.79
359.002	341.21
359.384	340.3
359.766	323.58
360.148	328.1
360.53	361.09
360.912	340.08
361.294	358.61
361.676	323.13
362.057	328.32
362.439	331.04
362.821	332.84
363.203	354.76
363.584	319.74
363.966	329
364.348	318.83
364.729	330.58
365.111	325.84
365.493	313.86
365.874	317.7
366.256	333.52
366.637	312.73
367.019	314.99
367.4	320.87
367.781	322
368.163	319.96
368.544	318.16
368.925	295.11
369.306	313.41
369.688	295.78
370.069	299.62
370.45	303.69
370.831	298.72
371.212	317.03
371.593	320.19
371.974	341.21
372.355	338.27
372.736	323.35
373.117	326.74
373.498	334.88
373.879	306.4
374.26	316.12
374.641	318.16
375.021	311.6
375.402	335.78
375.783	335.78
376.163	332.84
376.544	324.93
376.925	332.17
377.305	331.04
377.686	332.39
378.066	332.39
378.447	331.71
378.827	324.26
379.208	331.94
379.588	334.2
379.968	310.25
380.349	348.89
380.729	337.59
381.109	342.56
381.489	322.22
381.87	350.92
382.25	358.61
382.63	333.3
383.01	345.73
383.39	351.37
383.77	358.15
384.15	343.01
384.53	336.69
384.91	340.3
385.29	346.63
385.67	315.44
386.049	358.61
386.429	348.66
386.809	356.35
387.189	344.37
387.568	340.75
387.948	356.35
388.328	336.23
388.707	324.26
389.087	358.61
389.466	355.89
389.846	353.86
390.225	362.67
390.605	339.62
390.984	356.35
391.363	362.67
391.743	364.71
392.122	371.49
392.501	379.17
392.881	371.71
393.26	370.36
393.639	365.61
394.018	382.79
394.397	371.71
394.776	395.67
395.155	400.19
395.534	385.27
395.913	399.28
396.292	371.04
396.671	393.63
397.05	406.51
397.429	395.89
397.808	397.02
398.186	401.09
398.565	379.17
398.944	384.59
399.323	379.4
399.701	390.02
400.08	396.12
400.458	420.53
400.837	415.55
401.215	406.06
401.594	420.07
401.972	413.52
402.351	420.53
402.729	409.9
403.107	396.12
403.486	422.33
403.864	420.75
404.242	411.26
404.62	419.62
404.999	431.82
405.377	427.98
405.755	439.28
406.133	410.58
406.511	441.54
406.889	437.47
407.267	424.59
407.645	458.72
408.023	455.55
408.401	428.66
408.779	461.43
409.156	449
409.534	472.28
409.912	456.46
410.29	461.65
410.667	455.1
411.045	460.3
411.422	483.35
411.8	492.61
412.178	467.76
412.555	474.76
412.933	486.74
413.31	499.17
413.687	516.12
414.065	505.5
414.442	517.02
414.819	535.55
415.197	515.21
415.574	540.07
415.951	529.68
416.328	539.62
416.705	545.49
417.082	532.84
417.46	555.21
417.837	546.62
418.214	561.31
418.591	577.13
418.967	563.12
419.344	555.66
419.721	586.62
420.098	574.42
420.475	571.93
420.852	558.6
421.228	582.56
421.605	606.74
421.982	595.44
422.358	597.7
422.735	613.06
423.111	628.66
423.488	616.23
423.864	628.2
424.241	616.9
424.617	606.96
424.994	635.89
425.37	650.35
425.746	638.37
426.123	667.3
426.499	645.83
426.875	652.84
427.251	668.65
427.627	658.71
428.003	694.64
428.379	721.76
428.756	682.89
429.132	710.46
429.507	697.35
429.883	712.72
430.259	726.51
430.635	761.76
431.011	727.18
431.387	756.79
431.763	752.95
432.138	768.09
432.514	781.87
432.89	766.28
433.265	764.25
433.641	780.06
434.016	795.21
434.392	797.01
434.767	818.03
435.143	805.37
435.518	832.04
435.894	834.53
436.269	816.45
436.644	845.37
437.02	849.44
437.395	851.02
437.77	862.32
438.145	879.04
438.52	850.8
438.895	876.11
439.271	912.94
439.646	891.7
440.021	907.74
440.395	877.46
440.77	915.88
441.145	915.88
441.52	893.73
441.895	922.43
442.27	930.12
442.645	941.64
443.019	940.06
443.394	942.09
443.769	943.9
444.143	934.41
444.518	988.65
444.892	957.01
445.267	970.34
445.641	945.71
446.016	968.76
446.39	993.62
446.764	992.71
447.139	973.73
447.513	1003.34
447.887	989.1
448.262	983
448.636	1026.61
449.01	1000.85
449.384	1009.66
449.758	1001.98
450.132	1055.09
450.506	1032.49
450.88	1044.46
451.254	1051.24
451.628	1062.32
452.002	1058.93
452.376	1078.14
452.75	1066.61
453.123	1077.91
453.497	1086.72
453.871	1075.65
454.244	1095.99
454.618	1114.74
454.992	1122.2
455.365	1125.82
455.739	1139.15
456.112	1149.77
456.486	1157.68
456.859	1182.54
457.232	1168.75
457.606	1189.09
457.979	1209.66
458.352	1175.99
458.725	1228.19
459.099	1208.08
459.472	1256.66
459.845	1246.04
460.218	1301.63
460.591	1276.55
460.964	1264.8
461.337	1328.3
461.71	1312.03
462.083	1334.17
462.456	1319.26
462.829	1341.41
463.201	1397.9
463.574	1363.55
463.947	1374.85
464.32	1398.81
464.692	1406.71
465.065	1414.17
465.438	1421.4
465.81	1451.46
466.183	1443.55
466.555	1487.39
466.928	1505.69
467.3	1514.28
467.672	1475.41
468.045	1547.73
468.417	1537.11
468.789	1562.42
469.161	1561.29
469.534	1583.21
469.906	1611
470.278	1632.7
470.65	1622.98
471.022	1665.46
471.394	1699.36
471.766	1698.91
472.138	1702.07
472.51	1764.45
472.882	1773.26
473.253	1796.99
473.625	1811.45
473.997	1844.44
474.369	1866.59
474.74	1852.13
475.112	1898.23
475.484	1938.68
475.855	1979.81
476.227	1992.24
476.598	2022.29
476.97	2049.41
477.341	2087.6
477.713	2119.69
478.084	2108.62
478.455	2174.83
478.827	2161.72
479.198	2243.75
479.569	2243.75
479.94	2313.58
480.311	2345.67
480.682	2359.23
481.053	2382.06
481.424	2448.27
481.795	2438.33
482.166	2479.23
482.537	2491.66
482.908	2562.16
483.279	2606.91
483.65	2639.68
484.021	2695.27
484.391	2694.14
484.762	2708.6
485.133	2776.4
485.503	2808.49
485.874	2838.09
486.244	2874.02
486.615	2935.94
486.985	2950.85
487.356	3015.94
487.726	3020.23
488.097	3116.27
488.467	3059.1
488.837	3159.89
489.207	3188.36
489.578	3223.39
489.948	3251.86
490.318	3290.73
490.688	3322.37
491.058	3347.68
491.428	3387.68
491.798	3421.12
492.168	3506.55
492.538	3503.16
492.908	3519.2
493.278	3582.02
493.648	3549.26
494.017	3642.14
494.387	3678.97
494.757	3677.16
495.126	3732.08
495.496	3751.29
495.866	3759.19
496.235	3836.71
496.605	3842.81
496.974	3876.03
497.344	3869.02
497.713	3919.64
498.082	3956.25
498.452	3997.83
498.821	3970.04
499.19	4025.18
499.559	4035.35
499.928	4048
500.298	4056.59
500.667	4123.48
501.036	4116.02
501.405	4138.17
501.774	4133.2
502.143	4150.82
502.512	4184.95
502.88	4230.82
503.249	4231.27
503.618	4258.39
503.987	4273.08
504.356	4340.42
504.724	4316.92
505.093	4340.87
505.462	4358.5
505.83	4350.59
506.199	4405.96
506.567	4432.4
506.936	4463.81
507.304	4463.36
507.672	4512.4
508.041	4523.47
508.409	4531.15
508.777	4570.25
509.145	4577.7
509.514	4564.15
509.882	4616.57
510.25	4666.97
510.618	4655.44
510.986	4667.42
511.354	4712.16
511.722	4707.42
512.09	4761.65
512.458	4726.85
512.826	4765.27
513.193	4789.9
513.561	4821.54
513.929	4837.58
514.297	4875.32
514.664	4848.88
515.032	4860.18
515.4	4902.44
515.767	4942.67
516.135	4951.25
516.502	4934.08
516.869	5012.72
517.237	5016.79
517.604	4983.8
517.972	5026.96
518.339	5018.37
518.706	5055.66
519.073	5055.43
519.44	5123.9
519.808	5111.7
520.175	5077.58
520.542	5147.18
520.909	5197.58
521.276	5126.39
521.643	5210
522.009	5225.6
522.376	5278.03
522.743	5272.83
523.11	5357.57
523.477	5331.81
523.843	5347.85
524.21	5398.47
524.577	5453.39
524.943	5451.58
525.31	5472.37
525.676	5528.87
526.043	5534.97
526.409	5572.93
526.776	5605.25
527.142	5653.16
527.508	5688.64
527.874	5673.49
528.241	5684.79
528.607	5744.23
528.973	5776.99
529.339	5742.19
529.705	5795.07
530.071	5789.2
530.437	5872.59
530.803	5939.7
531.169	5934.73
531.535	5949.19
531.901	5984.45
532.267	6007.72
532.632	6063.09
532.998	6048.4
533.364	6126.59
533.73	6115.07
534.095	6157.32
534.461	6155.97
534.826	6228.96
535.192	6236.87
535.557	6246.59
535.923	6234.38
536.288	6327.94
536.653	6320.26
537.019	6312.12
537.384	6379.47
537.749	6400.93
538.114	6409.29
538.479	6437.09
538.845	6527.26
539.21	6493.81
539.575	6506.69
539.94	6467.6
540.305	6541.04
540.67	6553.47
541.034	6610.19
541.399	6669.63
541.764	6642.51
542.129	6706.24
542.494	6701.72
542.858	6722.51
543.223	6815.16
543.587	6848.83
543.952	6817.42
544.316	6862.84
544.681	6826.01
545.045	6922.73
545.41	6918.21
545.774	6978.55
546.138	6971.99
546.503	6974.03
546.867	6999.34
547.231	7029.84
547.595	7087.24
547.959	7073.23
548.324	7101.93
548.688	7138.54
549.052	7204.53
549.416	7209.05
549.779	7195.26
550.143	7277.75
550.507	7275.26
550.871	7313.68
551.235	7301.93
551.599	7317.97
551.962	7355.26
552.326	7410.62
552.689	7379.44
553.053	7384.64
553.417	7420.57
553.78	7478.87
554.143	7440.68
554.507	7490.17
554.87	7509.38
555.234	7619.21
555.597	7529.49
555.96	7573.33
556.323	7657.4
556.686	7665.98
557.05	7695.36
557.413	7647.68
557.776	7747.79
558.139	7803.61
558.502	7769.94
558.865	7804.06
559.228	7875.7
559.59	7878.41
559.953	7920.67
560.316	7981
560.679	7954.56
561.041	8034.56
561.404	8053.09
561.767	8075.69
562.129	8055.35
562.492	8119.98
562.854	8076.82
563.217	8116.37
563.579	8182.81
563.941	8228.23
564.304	8266.65
564.666	8334.22
565.028	8301.67
565.39	8378.28
565.753	8379.86
566.115	8376.02
566.477	8390.94
566.839	8374.21
567.201	8530.59
567.563	8442.24
567.925	8561.55
568.287	8544.83
568.648	8610.59
569.01	8619.41
569.372	8671.16
569.734	8694.43
570.095	8739.18
570.457	8812.85
570.819	8832.96
571.18	8882.9
571.542	8896.91
571.903	8918.61
572.265	8982.11
572.626	9088.09
572.987	8996.57
573.349	9052.39
573.71	9182.56
574.071	9227.53
574.432	9267.52
574.794	9349.1
575.155	9337.58
575.516	9414.19
575.877	9489.21
576.238	9531.7
576.599	9594.52
576.96	9678.81
577.32	9743.67
577.681	9851.24
578.042	9969.43
578.403	9974.62
578.763	10067.28
579.124	10194.96
579.485	10315.18
579.845	10350.21
580.206	10416.65
580.566	10540.26
580.927	10665.68
581.287	10791.33
581.648	10913.13
582.008	11068.16
582.368	11158.55
582.728	11382.05
583.089	11463.4
583.449	11589.95
583.809	11761.92
584.169	11888.25
584.529	12144.74
584.889	12342.92
585.249	12411.4
585.609	12670.83
585.969	12842.57
586.329	13069.46
586.688	13219.06
587.048	13468.54
587.408	13640.52
587.768	13837.8
588.127	14097
588.487	14235.98
588.846	14557.33
589.206	14691.11
589.565	14962.29
589.925	15228.72
590.284	15523.86
590.643	15784.64
591.003	16037.74
591.362	16371.29
591.721	16514.57
592.08	16740.77
592.44	17200.65
592.799	17415.79
593.158	17655.78
593.517	17944.81
593.876	18231.58
594.235	18517
594.593	18762.87
594.952	19058.45
595.311	19243.99
595.67	19622.05
596.029	19883.06
596.387	20299.78
596.746	20613.67
597.104	20690.28
597.463	21016.82
597.822	21410.26
598.18	21606.86
598.538	21865.39
598.897	22339.27
599.255	22361.42
599.613	23000.5
599.972	23067.16
600.33	23347.15
600.688	23618.79
601.046	23934.03
601.404	24289.73
601.762	24554.35
602.12	24835.25
602.478	25118.41
602.836	25350.94
603.194	25448.12
603.552	25856.47
603.91	25947.54
604.268	26351.37
604.625	26535.32
604.983	26797.91
605.341	26923.78
605.698	27334.17
606.056	27549.53
606.413	27819.13
606.771	28112
607.128	28284.65
607.485	28462.73
607.843	28808.03
608.2	28991.3
608.557	29303.16
608.914	29341.57
609.272	29613.88
609.629	29983.82
609.986	30095.9
610.343	30261.55
610.7	30676
611.057	30782.44
611.414	30904.92
611.771	31181.98
612.127	31432.14
612.484	31597.78
612.841	31879.13
613.198	31945.12
613.554	32101.95
613.911	32387.82
614.267	32482.73
614.624	32616.52
614.98	32706.23
615.337	33100.12
615.693	33099.67
616.05	33215.6
616.406	33509.83
616.762	33515.7
617.118	33734.9
617.475	33935.8
617.831	34102.58
618.187	34213.76
618.543	34443.13
618.899	34745.27
619.255	34734.2
619.611	34901.43
619.967	35079.5
620.323	35196.33
620.678	35069.11
621.034	35180.97
621.39	35299.61
621.746	35300.96
622.101	35783.21
622.457	35603.78
622.812	35797.67
623.168	35935.3
623.523	36023.43
623.879	36158.57
624.234	35957.22
624.589	36302.97
624.945	36225.01
625.3	36441.73
625.655	36484.21
626.01	36601.72
626.365	36691.21
626.72	36589.29
627.075	36871.54
627.43	36788.16
627.785	36797.42
628.14	36999
628.495	37067.02
628.85	37069.51
629.205	37088.49
629.559	37289.39
629.914	37140.46
630.269	37185.89
630.623	37170.97
630.978	37153.12
631.332	37419.33
631.687	37423.39
632.041	37386.33
632.396	37525.99
632.75	37440.34
633.104	37471.53
633.459	37221.59
633.813	37335.26
634.167	37436.28
634.521	37383.17
634.875	37464.3
635.229	37460.46
635.583	37140.92
635.937	37283.06
636.291	37361.25
636.645	37315.15
636.999	37296.62
637.352	37440.8
637.706	37241.93
638.06	37554.92
638.413	37319.67
638.767	37378.42
639.121	37560.79
639.474	37377.29
639.828	37325.54
640.181	37395.15
640.534	37440.57
640.888	37257.07
641.241	37190.63
641.594	37408.93
641.947	37377.97
642.301	37280.57
642.654	37349.72
643.007	37284.19
643.36	37402.38
643.713	37319.67
644.066	37382.27
644.419	37187.02
644.771	36943.63
645.124	36662.51
645.477	36581.61
645.83	36362.18
646.182	36319.92
646.535	36334.38
646.888	36264.33
647.24	36025.92
647.593	36255.29
647.945	36319.69
648.298	36150.43
648.65	36098.68
649.002	36129.42
649.355	36154.95
649.707	36172.35
650.059	36179.81
650.411	36598.33
650.763	36607.14
651.115	36934.82
651.467	37003.07
651.819	36949.96
652.171	36839.91
652.523	36667.48
652.875	36703.41
653.227	36658.67
653.578	36960.13
653.93	36833.35
654.282	36713.58
654.633	36666.8
654.985	36850.3
655.337	36756.97
655.688	36697.99
656.039	36812.34
656.391	36479.24
656.742	36552.23
657.094	36555.39
657.445	36751.55
657.796	36520.37
658.147	36745.22
658.498	36589.74
658.849	36615.73
659.2	36668.16
659.551	36484.21
659.902	36622.74
660.253	36569.63
660.604	36648.27
660.955	36488.96
661.306	36600.37
661.656	36570.08
662.007	36576.41
662.358	36550.42
662.708	36479.24
663.059	36552.68
663.409	36377.77
663.76	36467.71
664.11	36443.08
664.461	36466.58
664.811	36594.94
665.161	36436.3
665.511	36386.59
665.862	36452.8
666.212	36546.36
666.562	36568.05
666.912	36387.49
667.262	36443.99
667.612	36395.62
667.962	36467.71
668.312	36377.77
668.662	36535.06
669.011	36477.66
669.361	36380.03
669.711	36294.84
670.06	36294.84
670.41	36286.48
670.76	36222.07
671.109	36352.46
671.459	36419.13
671.808	36386.13
672.157	36426.36
672.507	36153.82
672.856	36107.5
673.205	36072.7
673.554	36285.35
673.904	36090.55
674.253	36269.98
674.602	36111.34
674.951	35696.43
675.3	35505.25
675.649	36085.12
675.998	36010.1
676.346	36096.88
676.695	36179.36
677.044	35939.82
677.393	35990.21
677.741	36110.43
678.09	36032.02
678.438	35816.88
678.787	35959.93
679.135	35910.21
679.484	35795.64
679.832	35911.12
680.181	35666.38
680.529	35728.07
680.877	35647.17
681.225	35679.94
681.573	35757.9
681.922	35582.09
682.27	35543.44
682.618	35501.41
682.966	35405.59
683.314	35351.36
683.661	35384.35
684.009	35191.36
684.357	35169.89
684.705	35186.62
685.053	35140.29
685.4	35144.13
685.748	34984.36
686.095	34957.02
686.443	34764.26
686.79	34810.13
687.138	34823.46
687.485	34801.32
687.832	34638.38
688.18	34661.89
688.527	34406.75
688.874	34517.03
689.221	34486.75
689.568	34377.82
689.915	34267.55
690.262	34354.1
690.609	34024.16
690.956	34096.7
691.303	34071.84
691.65	33892.87
691.997	33964.5
692.344	33686.54
692.69	33577.85
693.037	33585.98
693.383	33477.74
693.73	33402.71
694.077	33229.61
694.423	33412.65
694.769	33261.7
695.116	33070.74
695.462	33122.26
695.808	33040.23
696.155	32962.27
696.501	32768.6
696.847	32831.42
697.193	32474.6
697.539	32705.1
697.885	32419.23
698.231	32435.96
698.577	32513.47
698.923	32321.61
699.269	32216.3
699.614	32090.2
699.96	32049.52
700.306	32063.31
700.651	31961.84
700.997	31782.19
701.342	31646.82
701.688	31744
702.033	31567.5
702.379	31580.16
702.724	31473.72
703.069	31555.53
703.415	31118.7
703.76	31247.06
704.105	31172.71
704.45	31180.62
704.795	30954.64
705.14	30929.1
705.485	30828.09
705.83	30737.02
706.175	30813.62
706.52	30754.42
706.865	30440.75
707.209	30478.49
707.554	30450.24
707.899	30471.71
708.243	30282.11
708.588	30341.55
708.932	30056.36
709.277	30041.22
709.621	30043.93
709.966	29928.45
710.31	29998.73
710.654	29707.89
710.998	29781.79
711.342	29809.13
711.687	29609.59
712.031	29571.17
712.375	29464.51
712.719	29474.9
713.063	29486.2
713.407	29465.19
713.75	29444.4
714.094	29346.54
714.438	29239.65
714.782	29123.05
715.125	29004.41
715.469	29026.78
715.812	28874.01
716.156	28756.96
716.499	28945.65
716.843	28872.43
717.186	28656.62
717.53	28791.08
717.873	28833.11
718.216	28696.84
718.559	28483.06
718.902	28366.01
719.246	28434.25
719.589	28405.55
719.932	28288.72
720.275	28346.8
720.617	28219.34
720.96	28201.49
721.303	28224.99
721.646	28134.37
721.989	27952.68
722.331	28073.36
722.674	27958.56
723.016	27977.09
723.359	27906.58
723.701	27879.24
724.044	27742.75
724.386	27588.17
724.729	27700.03
725.071	27674.72
725.413	27551.34
725.755	27588.4
726.097	27454.84
726.439	27374.39
726.782	27239.93
727.124	27494.16
727.465	27324.9
727.807	27210.33
728.149	27311.34
728.491	27190.22
728.833	27291.23
729.175	27118.81
729.516	27097.79
729.858	27155.64
730.199	27137.79
730.541	26967.85
730.882	27039.26
731.224	27053.5
731.565	26847.4
731.906	26871.81
732.248	26874.97
732.589	26751.13
732.93	26664.81
733.271	26683.56
733.612	26728.08
733.953	26648.99
734.294	26554.75
734.635	26551.14
734.976	26493.06
735.317	26450.58
735.658	26417.13
735.999	26458.94
736.339	26270.47
736.68	26351.82
737.021	26317.7
737.361	26065.73
737.702	26378.04
738.042	26267.53
738.383	26119.28
738.723	26209.23
739.063	26140.53
739.404	26114.77
739.744	26063.92
740.084	25902.57
740.424	25996.58
740.764	25946.63
741.104	25984.37
741.444	25802.68
741.784	25769.69
742.124	25867.99
742.464	25788.67
742.804	25720.2
743.143	25567.89
743.483	25645.63
743.823	25439.53
744.162	25468.91
744.502	25503.71
744.841	25343.49
745.181	25468.68
745.52	25328.57
745.86	25341.9
746.199	25248.8
746.538	25374.22
746.877	25352.53
747.216	25328.8
747.556	25162.93
747.895	25244.73
748.234	25114.57
748.573	25132.87
748.911	25180.33
749.25	25036.83
749.589	24897.62
749.928	24879.77
750.267	24910.73
750.605	24836.38
750.944	24828.47
751.283	24651.53
751.621	24822.37
751.96	24560.23
752.298	24713.67
752.636	24630.96
752.975	24476.39
753.313	24391.87
753.651	24439.78
753.989	24298.09
754.327	24316.39
754.666	24214.93
755.004	24332.21
755.342	24273.91
755.679	24128.15
756.017	24122.95
756.355	24127.02
756.693	24051.77
757.031	24042.05
757.368	23879.12
757.706	23861.94
758.044	23717.99
758.381	23762.28
758.719	23666.92
759.056	23715.51
759.394	23582.4
759.731	23378.11
760.068	23511.44
760.405	23253.37
