Data from hue_350_FLMS001491_7.txt Node
Date: Mon Feb 06 15:37:29 GMT 2017
User: dcchb
Spectrometer: FLMS00149
Trigger mode: 0
Integration Time (sec): 2.000000E-2
Scans to average: 10
Electric dark correction enabled: true
Nonlinearity correction enabled: false
Boxcar width: 0
XAxis mode: Wavelengths
Number of Pixels in Spectrum: 2048
>>>>>Begin Spectral Data<<<<<
341.393	-23.52
341.776	-23.52
342.16	-23.52
342.543	-69.16
342.927	-69.84
343.31	-84.53
343.693	-67.58
344.077	-68.49
344.46	-59.45
344.843	-55.61
345.226	-62.16
345.61	-19
345.993	-12.67
346.376	2.92
346.759	12.64
347.142	35.92
347.525	51.06
347.908	58.29
348.291	56.48
348.674	102.13
349.057	110.04
349.44	133.99
349.823	133.32
350.206	162.69
350.588	194.56
350.971	217.61
351.354	223.48
351.737	224.84
352.119	238.17
352.502	257.83
352.884	282.01
353.267	258.96
353.65	277.72
354.032	306.42
354.414	301.22
354.797	318.4
355.179	317.49
355.562	315.91
355.944	345.29
356.326	331.05
356.709	340.32
357.091	332.86
357.473	329.92
357.855	331.28
358.238	340.09
358.62	330.37
359.002	351.84
359.384	362.46
359.766	346.64
360.148	332.86
360.53	338.96
360.912	333.76
361.294	306.42
361.676	325.18
362.057	325.63
362.439	331.5
362.821	326.3
363.203	336.93
363.584	337.15
363.966	319.98
364.348	329.47
364.729	316.14
365.111	317.04
365.493	324.95
365.874	297.38
366.256	331.05
366.637	317.94
367.019	319.3
367.4	305.97
367.781	305.51
368.163	296.7
368.544	295.35
368.925	294.89
369.306	309.13
369.688	325.4
370.069	307.32
370.45	306.64
370.831	310.94
371.212	308.23
371.593	316.14
371.974	341.67
372.355	311.16
372.736	300.99
373.117	317.27
373.498	313.2
373.879	312.97
374.26	303.25
374.641	330.15
375.021	296.93
375.402	329.92
375.783	304.16
376.163	313.2
376.544	322.46
376.925	322.24
377.305	314.55
377.686	336.25
378.066	349.81
378.447	335.8
378.827	324.5
379.208	315.23
379.588	336.02
379.968	333.31
380.349	317.49
380.729	336.25
381.109	328.56
381.489	329.24
381.87	343.48
382.25	334.89
382.63	314.78
383.01	339.86
383.39	320.88
383.77	319.75
384.15	354.78
384.53	343.25
384.91	353.87
385.29	356.36
385.67	353.2
386.049	343.48
386.429	351.84
386.809	333.76
387.189	337.38
387.568	366.98
387.948	326.3
388.328	354.78
388.707	358.17
389.087	354.78
389.466	319.07
389.846	353.65
390.225	341.9
390.605	365.85
390.984	346.87
391.363	372.63
391.743	369.47
392.122	379.41
392.501	331.5
392.881	347.55
393.26	375.12
393.639	361.56
394.018	378.51
394.397	374.44
394.776	374.89
395.155	387.09
395.534	390.03
395.913	376.93
396.292	374.21
396.671	395.91
397.05	366.98
397.429	385.29
397.808	396.13
398.186	390.71
398.565	385.96
398.944	404.5
399.323	369.92
399.701	403.82
400.08	391.16
400.458	407.43
400.837	390.71
401.215	390.94
401.594	380.99
401.972	383.25
402.351	398.62
402.729	399.07
403.107	403.59
403.486	402.91
403.864	402.24
404.242	383.7
404.62	421.67
404.999	395.68
405.377	417.83
405.755	418.05
406.133	428
406.511	432.06
406.889	417.6
407.267	420.31
407.645	421.9
408.023	419.86
408.401	418.51
408.779	416.47
409.156	439.52
409.534	457.37
409.912	452.4
410.29	467.32
410.667	468.45
411.045	449.01
411.422	474.32
411.8	467.32
412.178	461.67
412.555	468.45
412.933	468.22
413.31	478.62
413.687	483.14
414.065	483.36
414.442	480.43
414.819	494.89
415.197	479.75
415.574	507.77
415.951	484.04
416.328	509.58
416.705	501.44
417.082	496.92
417.46	513.42
417.837	509.58
418.214	525.17
418.591	543.25
418.967	535.57
419.344	539.63
419.721	542.34
420.098	541.44
420.475	522.68
420.852	534.89
421.228	546.19
421.605	566.75
421.982	559.97
422.358	557.26
422.735	575.11
423.111	567.88
423.488	572.85
423.864	547.77
424.241	622.57
424.617	557.03
424.994	563.81
425.37	580.31
425.746	574.43
426.123	577.82
426.499	586.19
426.875	586.86
427.251	603.81
427.627	609.91
428.003	629.35
428.379	623.47
428.756	639.07
429.132	630.48
429.507	636.35
429.883	649.91
430.259	639.07
430.635	647.2
431.011	647.2
431.387	645.84
431.763	659.86
432.138	677.03
432.514	670.02
432.89	662.34
433.265	669.8
433.641	691.49
434.016	677.03
434.392	708.44
434.767	730.59
435.143	700.53
435.518	703.7
435.894	732.62
436.269	736.01
436.644	742.11
437.02	750.7
437.395	753.86
437.77	757.48
438.145	749.57
438.52	761.77
438.895	794.32
439.271	802
439.646	792.96
440.021	792.96
440.395	796.58
440.77	780.53
441.145	805.84
441.52	805.61
441.895	827.08
442.27	824.82
442.645	793.64
443.019	830.7
443.394	833.18
443.769	821.66
444.143	842.45
444.518	840.64
444.892	838.16
445.267	839.96
445.641	837.03
446.016	858.49
446.39	863.69
446.764	879.51
447.139	856.91
447.513	863.92
447.887	873.41
448.262	886.52
448.636	870.25
449.01	892.17
449.384	906.63
449.758	904.14
450.132	905.5
450.506	902.34
450.88	920.19
451.254	918.61
451.628	936.01
452.002	935.33
452.376	932.62
452.75	964.93
453.123	926.97
453.497	979.4
453.871	965.16
454.244	983.69
454.618	976.68
454.992	976.01
455.365	963.58
455.739	1034.53
456.112	1017.36
456.486	1025.04
456.859	1029.79
457.232	1047.64
457.606	1049
457.979	1044.25
458.352	1063.01
458.725	1103.69
459.099	1095.55
459.472	1107.98
459.845	1128.54
460.218	1109.11
460.591	1140.07
460.964	1146.4
461.337	1171.48
461.71	1182.78
462.083	1169.22
462.456	1167.86
462.829	1188.88
463.201	1189.79
463.574	1186.85
463.947	1205.15
464.32	1218.94
464.692	1269.78
465.065	1274.08
465.438	1278.37
465.81	1264.81
466.183	1265.26
466.555	1319.05
466.928	1349.78
467.3	1326.05
467.672	1347.75
468.045	1370.57
468.417	1359.27
468.789	1383.23
469.161	1417.8
469.534	1441.53
469.906	1435.88
470.278	1443.56
470.65	1493.05
471.022	1514.07
471.394	1544.8
471.766	1535.99
472.138	1600.62
472.51	1583.22
472.882	1618.93
473.253	1612.15
473.625	1635.2
473.997	1664.35
474.369	1688.08
474.74	1731.24
475.112	1740.73
475.484	1715.2
475.855	1802.42
476.227	1832.03
476.598	1879.26
476.97	1887.85
477.341	1911.8
477.713	1956.77
478.084	1960.61
478.455	2003.32
478.827	2025.02
479.198	2087.84
479.569	2076.54
479.94	2124.9
480.311	2147.27
480.682	2183.21
481.053	2220.49
481.424	2249.42
481.795	2351.34
482.166	2321.28
482.537	2396.53
482.908	2427.04
483.279	2431.33
483.65	2481.05
484.021	2552.69
484.391	2567.83
484.762	2609.86
485.133	2642.85
485.503	2676.98
485.874	2708.16
486.244	2727.82
486.615	2806.24
486.985	2837.65
487.356	2849.18
487.726	2882.4
488.097	2984.54
488.467	2966.69
488.837	3036.97
489.207	3069.74
489.578	3129.62
489.948	3146.34
490.318	3194.7
490.688	3226.57
491.058	3297.98
491.428	3287.13
491.798	3356.96
492.168	3382.72
492.538	3415.72
492.908	3455.94
493.278	3564.19
493.648	3522.15
494.017	3581.36
494.387	3575.71
494.757	3664.75
495.126	3674.01
495.496	3696.16
495.866	3758.08
496.235	3794.01
496.605	3763.73
496.974	3829.26
497.344	3862.94
497.713	3867.91
498.082	3884.86
498.452	3952.42
498.821	3965.98
499.19	3966.44
499.559	4018.41
499.928	4043.72
500.298	4056.38
500.667	4115.58
501.036	4098.18
501.405	4092.53
501.774	4150.84
502.143	4192.87
502.512	4215.47
502.88	4268.8
503.249	4275.81
503.618	4291.4
503.987	4293.66
504.356	4332.53
504.724	4371.85
505.093	4348.8
505.462	4377.27
505.83	4392.19
506.199	4411.85
506.567	4472.41
506.936	4480.55
507.304	4508.79
507.672	4527.1
508.041	4538.85
508.409	4599.41
508.777	4593.99
509.145	4652.97
509.514	4640.09
509.882	4629.69
510.25	4722.12
510.618	4702.91
510.986	4746.75
511.354	4761.44
511.722	4822.68
512.09	4810.48
512.458	4824.27
512.826	4846.19
513.193	4868.78
513.561	4883.7
513.929	4877.37
514.297	4926.86
514.664	4937.26
515.032	4967.09
515.4	4986.52
515.767	4955.11
516.135	5018.38
516.502	5004.6
516.869	5092.96
517.237	5113.98
517.604	5078.95
517.972	5103.35
518.339	5192.39
518.706	5162.11
519.073	5223.58
519.44	5150.81
519.808	5229
520.175	5229
520.542	5279.62
520.909	5289.56
521.276	5262.9
521.643	5366.62
522.009	5374.53
522.376	5408.66
522.743	5414.08
523.11	5458.37
523.477	5455.44
523.843	5518.03
524.21	5533.4
524.577	5595.54
524.943	5569.78
525.31	5612.49
525.676	5650.91
526.043	5719.84
526.409	5770.23
526.776	5771.36
527.142	5787.18
527.508	5767.29
527.874	5844.58
528.241	5884.35
528.607	5888.42
528.973	5909.66
529.339	5938.13
529.705	5951.92
530.071	5985.59
530.437	6116.89
530.803	6065.59
531.169	6092.48
531.535	6088.41
531.901	6152.37
532.267	6192.59
532.632	6200.27
532.998	6214.51
533.364	6246.38
533.73	6197.34
534.095	6336.32
534.461	6331.8
534.826	6389.42
535.192	6373.83
535.557	6465.8
535.923	6468.29
536.288	6496.76
536.653	6509.87
537.019	6471.91
537.384	6494.05
537.749	6520.94
538.114	6593.94
538.479	6604.11
538.845	6622.18
539.21	6618.12
539.575	6688.4
539.94	6706.02
540.305	6749.64
540.67	6743.31
541.034	6783.54
541.399	6781.05
541.764	6840.48
542.129	6894.27
542.494	6874.61
542.858	6883.19
543.223	6932.01
543.587	6959.35
543.952	6995.96
544.316	7070.31
544.681	6972.91
545.045	7059.01
545.41	7058.56
545.774	7093.13
546.138	7153.92
546.503	7183.07
546.867	7153.47
547.231	7246.8
547.595	7319.57
547.959	7292.9
548.324	7300.36
548.688	7273.92
549.052	7383.75
549.416	7349.4
549.779	7400.24
550.143	7392.56
550.507	7504.2
550.871	7501.26
551.235	7474.59
551.599	7530.64
551.962	7560.47
552.326	7561.59
552.689	7657.41
553.053	7579.45
553.417	7599.11
553.78	7770.4
554.143	7636.17
554.507	7715.04
554.87	7722.72
555.234	7926.11
555.597	7707.58
555.96	7840.68
556.323	7824.86
556.686	7884.75
557.05	7901.02
557.413	7951.87
557.776	7930.17
558.139	7972.21
558.502	8029.15
558.865	8008.81
559.228	8036.84
559.59	8093.78
559.953	8109.38
560.316	8217.62
560.679	8142.14
561.041	8221.92
561.404	8230.96
561.767	8281.12
562.129	8299.88
562.492	8382.59
562.854	8407.9
563.217	8365.42
563.579	8338.3
563.941	8437.96
564.304	8481.8
564.666	8511.63
565.028	8501.46
565.39	8529.25
565.753	8590.95
566.115	8651.06
566.477	8656.71
566.839	8659.87
567.201	8691.51
567.563	8768.34
567.925	8734.67
568.287	8763.82
568.648	8821.22
569.01	8860.09
569.372	8918.62
569.734	8882.92
570.095	8980.09
570.457	9078.62
570.819	9052.86
571.18	9047.21
571.542	9084.72
571.903	9201.55
572.265	9190.7
572.626	9270.7
572.987	9258.5
573.349	9377.59
573.71	9442.45
574.071	9436.35
574.432	9531.71
574.794	9592.05
575.155	9584.37
575.516	9622.11
575.877	9779.62
576.238	9762.67
576.599	9908.2
576.96	9856.9
577.32	9938.26
577.681	9999.27
578.042	10080.62
578.403	10190.68
578.763	10266.61
579.124	10323.78
579.485	10511.8
579.845	10501.18
580.206	10665.92
580.566	10703.89
580.927	10861.4
581.287	10980.49
581.648	11049.86
582.008	11216.41
582.368	11365.34
582.728	11509.97
583.089	11652.11
583.449	11812.78
583.809	11921.71
584.169	12094.13
584.529	12245.77
584.889	12476.27
585.249	12604.85
585.609	12735.92
585.969	13073.77
586.329	13158.96
586.688	13292.74
587.048	13516.24
587.408	13711.72
587.768	13956.46
588.127	14103.34
588.487	14302.21
588.846	14660.17
589.206	14821.97
589.565	15044.11
589.925	15315.29
590.284	15560.71
590.643	15757.99
591.003	16103.29
591.362	16392.1
591.721	16535.82
592.08	16883.84
592.44	17145.98
592.799	17357.04
593.158	17684.27
593.517	17920.87
593.876	18227.08
594.235	18373.51
594.593	18767.63
594.952	19038.81
595.311	19231.34
595.67	19582.75
596.029	20029.06
596.387	20159.91
596.746	20549.73
597.104	20718.31
597.463	21021.81
597.822	21313.32
598.18	21560.55
598.538	21945.17
598.897	22224.03
599.255	22256.58
599.613	22877.35
599.972	22890.46
600.33	23277.34
600.688	23431.01
601.046	23812.92
601.404	24289.97
601.762	24423.52
602.12	24643.18
602.478	24954.81
602.836	25272.77
603.194	25366.78
603.552	25546.43
603.91	25816.03
604.268	26203.59
604.625	26304.38
604.983	26691.94
605.341	26784.14
605.698	27125.15
606.056	27483.56
606.413	27646.04
606.771	28062.3
607.128	28207.38
607.485	28208.06
607.843	28562.4
608.2	28822.73
608.557	29126.68
608.914	29275.83
609.272	29665.19
609.629	29825.87
609.986	30125.97
610.343	30235.35
610.7	30525.51
611.057	30712.62
611.414	30785.84
611.771	31006.4
612.127	31346.05
612.484	31456.11
612.841	31767.06
613.198	31734.74
613.554	31919.37
613.911	32171.34
614.267	32353.26
614.624	32374.73
614.98	32711.89
615.337	32877.77
615.693	32955.96
616.05	33163.86
616.406	33349.17
616.762	33477.52
617.118	33601.14
617.475	33715.03
617.831	33841.58
618.187	34029.83
618.543	34138.52
618.899	34346.88
619.255	34463.03
619.611	34536.25
619.967	34769.24
620.323	34955.68
620.678	34886.07
621.034	34890.59
621.39	35063.7
621.746	35134.88
622.101	35656.9
622.457	35431.37
622.812	35701.42
623.168	35777.12
623.523	35900.28
623.879	36003.33
624.234	35843.34
624.589	36203.1
624.945	35975.54
625.3	36246.26
625.655	36291.46
626.01	36455.07
626.365	36508.63
626.72	36425.92
627.075	36615.52
627.43	36574.17
627.785	36580.27
628.14	36760.38
628.495	36812.8
628.85	36823.88
629.205	36840.83
629.559	37122.17
629.914	36883.08
630.269	37079.24
630.623	36970.77
630.978	36928.05
631.332	37072.91
631.687	37229.06
632.041	37069.75
632.396	37221.83
632.75	37016.87
633.104	37199.91
633.459	36951.78
633.813	37174.83
634.167	37164.21
634.521	37115.85
634.875	37283.3
635.229	37207.82
635.583	37136.64
635.937	37282.17
636.291	37272.45
636.645	37223.64
636.999	37116.52
637.352	37191.32
637.706	37183.41
638.06	37291.66
638.413	37216.86
638.767	37037.66
639.121	37248.95
639.474	36969.86
639.828	37114.49
640.181	37143.87
640.534	37236.52
640.888	37090.31
641.241	36884.44
641.594	37035.4
641.947	37159.46
642.301	37076.3
642.654	37127.82
643.007	37057.99
643.36	37088.5
643.713	36969.86
644.066	37073.14
644.419	36788.17
644.771	36726.7
645.124	36462.76
645.477	36279.03
645.83	36196.1
646.182	36002.66
646.535	35885.6
646.888	36067.74
647.24	35834.98
647.593	36131.69
647.945	35990
648.298	35791.36
648.65	35700.74
649.002	35734.41
649.355	35893.05
649.707	35846.5
650.059	35951.13
650.411	36504.34
650.763	36489.42
651.115	36737.78
651.467	36652.58
651.819	36723.09
652.171	36623.2
652.523	36631.11
652.875	36590.21
653.227	36537.78
653.578	36666.82
653.93	36502.75
654.282	36441.97
654.633	36458.91
654.985	36565.13
655.337	36389.09
655.688	36440.38
656.039	36630.89
656.391	36184.8
656.742	36281.52
657.094	36481.51
657.445	36564.45
657.796	36492.13
658.147	36485.35
658.498	36423.89
658.849	36325.36
659.2	36384.79
659.551	36273.61
659.902	36560.83
660.253	36300.05
660.604	36399.25
660.955	36111.35
661.306	36391.57
661.656	36189.77
662.007	36265.47
662.358	36266.38
662.708	36290.33
663.059	36093.27
663.409	36056.66
663.76	36262.54
664.11	36269.54
664.461	36300.95
664.811	36277.45
665.161	36193.61
665.511	36104.57
665.862	36205.14
666.212	36218.02
666.562	36332.82
666.912	35980.96
667.262	36212.37
667.612	36078.81
667.962	36187.51
668.312	36181.41
668.662	36222.76
669.011	36115.65
669.361	36176.21
669.711	35977.12
670.06	36081.07
670.41	35966.05
670.76	35859.61
671.109	36170.56
671.459	36022.09
671.808	35843.34
672.157	36135.53
672.507	35861.87
672.856	35946.84
673.205	35839.04
673.554	35898.93
673.904	35841.08
674.253	36068.87
674.602	36009.66
674.951	35469.34
675.3	35205.61
675.649	35827.97
675.998	35814.19
676.346	35734.64
676.695	35842.89
677.044	35685.38
677.393	35790.23
677.741	35868.42
678.09	35650.8
678.438	35644.47
678.787	35650.35
679.135	35703.68
679.484	35392.73
679.832	35594.98
680.181	35336.91
680.529	35509.33
680.877	35358.83
681.225	35279.28
681.573	35630.46
681.922	35269.57
682.27	35202.9
682.618	35044.49
682.966	35008.56
683.314	35244.48
683.661	35061.44
684.009	34801.33
684.357	34854.44
684.705	34834.1
685.053	34744.16
685.4	34839.3
685.748	34639.53
686.095	34765.63
686.443	34456.93
686.79	34484.28
687.138	34678.17
687.485	34489.47
687.832	34408.57
688.18	34501.9
688.527	34263.94
688.874	34147.34
689.221	34236.15
689.568	34045.64
689.915	33878.64
690.262	33932.65
690.609	33743.73
690.956	33612.44
691.303	33692.66
691.65	33692.66
691.997	33750.74
692.344	33371.99
692.69	33336.51
693.037	33373.57
693.383	33194.59
693.73	33231.2
694.077	33015.84
694.423	33006.58
694.769	32914.37
695.116	32904.21
695.462	32979.01
695.808	32670.99
696.155	32766.36
696.501	32520.03
696.847	32445.01
697.193	32247.5
697.539	32428.51
697.885	32220.61
698.231	32069.88
698.577	32040.05
698.923	32077.11
699.269	31717.8
699.614	31744.01
699.96	31678.7
700.306	31742.2
700.651	31462.66
700.997	31505.6
701.342	31325.49
701.688	31439.16
702.033	31333.63
702.379	31308.32
702.724	31236.45
703.069	31146.96
703.415	30828.55
703.76	30787.2
704.105	30900.42
704.45	30739.74
704.795	30653.87
705.14	30605.28
705.485	30480.09
705.83	30464.5
706.175	30425.4
706.52	30361.67
706.865	30194.67
707.209	30194.22
707.554	30095.47
707.899	30243.94
708.243	29923.72
708.588	29967.79
708.932	29786.1
709.277	29740.9
709.621	29779.54
709.966	29538.87
710.31	29682.37
710.654	29381.13
710.998	29406.22
711.342	29349.95
711.687	29419.33
712.031	29304.07
712.375	29209.84
712.719	29223.85
713.063	29174.81
713.407	29270.85
713.75	29053.91
714.094	29032.67
714.438	28865.89
714.782	28985.89
715.125	28723.98
715.469	28838.78
715.812	28712.9
716.156	28550.65
716.499	28546.81
716.843	28655.5
717.186	28351.33
717.53	28585.67
717.873	28464.77
718.216	28394.72
718.559	28244.67
718.902	28111.79
719.246	28251.45
719.589	28041.06
719.932	28113.82
720.275	28010.55
720.617	27853.94
720.96	27842.64
721.303	27826.82
721.646	27799.48
721.989	27700.27
722.331	27807.62
722.674	27732.36
723.016	27649.65
723.359	27581.86
723.701	27533.27
724.044	27377.57
724.386	27321.53
724.729	27430.45
725.071	27396.55
725.413	27252.83
725.755	27306.16
726.097	27185.71
726.439	27092.38
726.782	27041.76
727.124	27166.73
727.465	26974.19
727.807	26949.56
728.149	27021.42
728.491	26937.36
728.833	27045.15
729.175	26800.19
729.516	26953.18
729.858	26821.88
730.199	26820.52
730.541	26703.24
730.882	26777.59
731.224	26737.81
731.565	26636.8
731.906	26653.52
732.248	26634.77
732.589	26463.24
732.93	26227.32
733.271	26367.88
733.612	26325.62
733.953	26404.49
734.294	26302.8
734.635	26267.54
734.976	26272.74
735.317	26111.62
735.658	26087.89
735.999	26079.3
736.339	25952.75
736.68	26122.24
737.021	26042.46
737.361	25921.34
737.702	26095.34
738.042	25978.29
738.383	25822.81
738.723	25863.03
739.063	25729.25
739.404	25860.55
739.744	25717.5
740.084	25609.48
740.424	25676.82
740.764	25689.71
741.104	25616.04
741.444	25523.16
741.784	25408.81
742.124	25558.64
742.464	25475.47
742.804	25425.08
743.143	25364.29
743.483	25466.21
743.823	25214.24
744.162	25301.69
744.502	25220.11
744.841	25181.24
745.181	25248.14
745.52	25057.63
745.86	25137.63
746.199	25030.51
746.538	25127.69
746.877	25016.73
747.216	25022.38
747.556	24966.34
747.895	24998.65
748.234	24906.45
748.573	24828.26
748.911	24730.41
749.25	24828.26
749.589	24696.96
749.928	24693.12
750.267	24753.91
750.605	24659.45
750.944	24623.97
751.283	24507.36
751.621	24579.23
751.96	24444.54
752.298	24413.13
752.636	24418.78
752.975	24219.46
753.313	24139.92
753.651	24198.22
753.989	24208.84
754.327	24213.59
754.666	23987.38
755.004	24060.6
755.342	24046.59
755.679	23949.19
756.017	23886.36
756.355	23871
756.693	23869.41
757.031	23836.65
757.368	23554.62
757.706	23673.94
758.044	23556.2
758.381	23630.32
758.719	23408.18
759.056	23489.54
759.394	23430.56
759.731	23235.99
760.068	23106.5
760.405	23141.75
