Data from hue_90_FLMS001491_55.txt Node
Date: Mon Feb 06 15:25:20 GMT 2017
User: dcchb
Spectrometer: FLMS00149
Trigger mode: 0
Integration Time (sec): 2.000000E-2
Scans to average: 10
Electric dark correction enabled: true
Nonlinearity correction enabled: false
Boxcar width: 0
XAxis mode: Wavelengths
Number of Pixels in Spectrum: 2048
>>>>>Begin Spectral Data<<<<<
341.393	-3.01
341.776	-3.01
342.16	-3.01
342.543	-61.99
342.927	-81.88
343.31	-62.44
343.693	-83.01
344.077	-59.73
344.46	-71.03
344.843	-48.66
345.226	-40.97
345.61	-17.25
345.993	-27.87
346.376	-1.65
346.759	-1.88
347.142	22.53
347.525	48.97
347.908	67.95
348.291	73.6
348.674	83.99
349.057	117.44
349.44	136.2
349.823	151.79
350.206	167.61
350.588	189.98
350.971	209.19
351.354	238.34
351.737	212.58
352.119	248.51
352.502	247.83
352.884	251.9
353.267	278.11
353.65	291
354.032	284.44
354.414	310.66
354.797	315.18
355.179	293.48
355.562	329.41
355.944	319.24
356.326	310.43
356.709	317.89
357.091	349.75
357.473	361.95
357.855	352.46
358.238	353.14
358.62	335.51
359.002	346.81
359.384	324.21
359.766	333.48
360.148	342.75
360.53	367.15
360.912	344.1
361.294	342.29
361.676	350.65
362.057	325.34
362.439	330.54
362.821	320.15
363.203	325.34
363.584	309.3
363.966	327.15
364.348	344.1
364.729	319.02
365.111	298.68
365.493	319.02
365.874	315.18
366.256	325.8
366.637	314.05
367.019	319.02
367.4	320.82
367.781	323.76
368.163	331.22
368.544	316.53
368.925	306.14
369.306	289.19
369.688	297.1
370.069	303.65
370.45	311.79
370.831	302.52
371.212	310.43
371.593	312.46
371.974	293.93
372.355	308.62
372.736	299.13
373.117	333.48
373.498	316.08
373.879	300.03
374.26	319.02
374.641	269.07
375.021	327.38
375.402	322.63
375.783	303.42
376.163	312.24
376.544	316.98
376.925	319.92
377.305	330.99
377.686	326.47
378.066	308.85
378.447	327.15
378.827	314.27
379.208	318.79
379.588	323.76
379.968	326.25
380.349	311.56
380.729	331.9
381.109	338
381.489	325.8
381.87	349.75
382.25	330.09
382.63	347.26
383.01	343.65
383.39	340.26
383.77	333.71
384.15	347.26
384.53	324.89
384.91	333.03
385.29	326.25
385.67	339.36
386.049	342.75
386.429	366.93
386.809	331.67
387.189	344.1
387.568	342.75
387.948	370.99
388.328	347.94
388.707	342.29
389.087	336.87
389.466	363.54
389.846	362.41
390.225	368.73
390.605	368.73
390.984	362.86
391.363	364.21
391.743	342.52
392.122	359.92
392.501	389.75
392.881	380.71
393.26	375.96
393.639	375.96
394.018	368.06
394.397	389.07
394.776	384.78
395.155	360.82
395.534	360.82
395.913	355.17
396.292	388.39
396.671	396.3
397.05	382.52
397.429	377.77
397.808	388.17
398.186	367.38
398.565	396.3
398.944	401.73
399.323	387.94
399.701	398.34
400.08	388.85
400.458	385.91
400.837	404.89
401.215	410.77
401.594	421.61
401.972	388.17
402.351	394.72
402.729	392.91
403.107	401.73
403.486	401.5
403.864	386.81
404.242	401.73
404.62	413.25
404.999	423.42
405.377	395.85
405.755	424.33
406.133	420.48
406.511	424.78
406.889	421.84
407.267	416.42
407.645	439.69
408.023	442.4
408.401	436.08
408.779	411.67
409.156	434.27
409.534	429.75
409.912	443.99
410.29	434.49
410.667	444.21
411.045	427.49
411.422	457.54
411.8	445.34
412.178	456.41
412.555	440.82
412.933	438.11
413.31	487.37
413.687	462.52
414.065	480.37
414.442	467.26
414.819	468.39
415.197	470.88
415.574	494.15
415.951	498.67
416.328	506.13
416.705	472.69
417.082	499.58
417.46	495.06
417.837	466.13
418.214	478.56
418.591	495.28
418.967	488.28
419.344	496.19
419.721	513.59
420.098	530.54
420.475	471.56
420.852	496.87
421.228	530.31
421.605	553.14
421.982	526.24
422.358	520.14
422.735	530.54
423.111	521.72
423.488	539.35
423.864	525.11
424.241	535.73
424.617	534.38
424.994	543.19
425.37	559.69
425.746	549.07
426.123	561.27
426.499	562.63
426.875	562.63
427.251	586.35
427.627	603.98
428.003	565.79
428.379	592.46
428.756	577.99
429.132	581.38
429.507	598.33
429.883	593.36
430.259	622.96
430.635	626.35
431.011	591.33
431.387	655.51
431.763	654.38
432.138	636.52
432.514	618.44
432.89	627.94
433.265	641.95
433.641	651.89
434.016	656.18
434.392	657.77
434.767	688.27
435.143	670.42
435.518	673.36
435.894	673.36
436.269	668.61
436.644	705
437.02	714.94
437.395	706.35
437.77	688.5
438.145	694.37
438.52	707.93
438.895	715.16
439.271	724.88
439.646	733.7
440.021	746.8
440.395	736.86
440.77	754.94
441.145	753.36
441.52	741.38
441.895	762.62
442.27	761.94
442.645	745.9
443.019	777.76
443.394	767.37
443.769	769.63
444.143	802.85
444.518	813.69
444.892	793.81
445.267	781.6
445.641	775.05
446.016	808.95
446.39	831.09
446.764	823.41
447.139	801.04
447.513	837.87
447.887	825.44
448.262	840.36
448.636	832.9
449.01	848.49
449.384	855.05
449.758	855.27
450.132	884.65
450.506	886.46
450.88	890.08
451.254	869.51
451.628	899.57
452.002	900.7
452.376	902.96
452.75	910.64
453.123	918.78
453.497	918.55
453.871	935.5
454.244	968.49
454.618	955.38
454.992	972.79
455.365	951.32
455.739	1014.82
456.112	959.45
456.486	976.85
456.859	1015.72
457.232	999.45
457.606	999.68
457.979	1027.25
458.352	1031.99
458.725	1038.55
459.099	1094.36
459.472	1081.48
459.845	1066.34
460.218	1101.82
460.591	1104.31
460.964	1115.83
461.337	1127.81
461.71	1172.33
462.083	1168.94
462.456	1166.23
462.829	1184.08
463.201	1195.38
463.574	1191.99
463.947	1216.62
464.32	1271.31
464.692	1268.14
465.065	1269.27
465.438	1299.78
465.81	1306.11
466.183	1359.44
466.555	1366
466.928	1369.16
467.3	1380.23
467.672	1430.4
468.045	1471.08
468.417	1464.75
468.789	1469.72
469.161	1472.43
469.534	1525.31
469.906	1553.79
470.278	1544.75
470.65	1608.7
471.022	1621.81
471.394	1655.93
471.766	1704.97
472.138	1737.51
472.51	1756.04
472.882	1812.76
473.253	1855.25
473.625	1875.36
473.997	1923.72
474.369	1948.8
474.74	1973.21
475.112	2019.31
475.484	2062.93
475.855	2110.61
476.227	2188.8
476.598	2203.94
476.97	2223.83
477.341	2330.04
477.713	2401.45
478.084	2426.76
478.455	2514.44
478.827	2528.22
479.198	2627.2
479.569	2666.75
479.94	2758.95
480.311	2800.53
480.682	2905.16
481.053	3026.29
481.424	3068.32
481.795	3116.46
482.166	3231.93
482.537	3306.74
482.908	3406.85
483.279	3478.71
483.65	3598.48
484.021	3671.92
484.391	3768.64
484.762	3886.15
485.133	3964.12
485.503	4040.05
485.874	4189.88
486.244	4268.97
486.615	4420.83
486.985	4514.16
487.356	4665.57
487.726	4723.2
488.097	4898.78
488.467	4887.94
488.837	5077.76
489.207	5185.78
489.578	5373.35
489.948	5428.49
490.318	5528.15
490.688	5704.64
491.058	5837.52
491.428	5912.77
491.798	6022.37
492.168	6242.03
492.538	6324.28
492.908	6415.58
493.278	6564.73
493.648	6647.89
494.017	6773.76
494.387	6916.81
494.757	7007.2
495.126	7177.59
495.496	7220.08
495.866	7354.09
496.235	7421.43
496.605	7549.34
496.974	7743.45
497.344	7821.42
497.713	7968.31
498.082	7996.78
498.452	8095.99
498.821	8246.27
499.19	8326.26
499.559	8465.47
499.928	8535.52
500.298	8603.77
500.667	8742.3
501.036	8801.28
501.405	8984.33
501.774	8965.34
502.143	9113.81
502.512	9182.74
502.88	9299.8
503.249	9304.54
503.618	9389.74
503.987	9508.83
504.356	9535.5
504.724	9594.71
505.093	9686.91
505.462	9752.67
505.83	9848.48
506.199	9925.09
506.567	10045.77
506.936	10092.09
507.304	10281.47
507.672	10263.61
508.041	10271.52
508.409	10321.69
508.777	10450.28
509.145	10608.24
509.514	10544.96
509.882	10608.46
510.25	10585.87
510.618	10750.61
510.986	10734.34
511.354	10886.2
511.722	10913.77
512.09	10943.37
512.458	10961.22
512.826	11008
513.193	11128.45
513.561	11125.06
513.929	11238.5
514.297	11366.18
514.664	11305.39
515.032	11376.58
515.4	11424.26
515.767	11474.66
516.135	11586.29
516.502	11528.89
516.869	11585.84
517.237	11647.31
517.604	11648.66
517.972	11674.88
518.339	11737.93
518.706	11676.68
519.073	11770.47
519.44	11752.39
519.808	11844.82
520.175	11852.27
520.542	12018.37
520.909	11995.09
521.276	11920.07
521.643	12028.99
522.009	12082.55
522.376	12196.9
522.743	12172.04
523.11	12226.5
523.477	12336.78
523.843	12280.74
524.21	12388.98
524.577	12431.24
524.943	12509.66
525.31	12508.75
525.676	12564.34
526.043	12558.47
526.409	12549.2
526.776	12606.83
527.142	12695.19
527.508	12666.04
527.874	12674.62
528.241	12728.86
528.607	12703.32
528.973	12759.37
529.339	12710.78
529.705	12805.92
530.071	12857.44
530.437	12825.35
530.803	12824
531.169	12884.11
531.535	12828.97
531.901	12823.55
532.267	12873.72
532.632	12889.76
532.998	12818.58
533.364	12849.08
533.73	12810.44
534.095	12931.79
534.461	12791.91
534.826	12837.78
535.192	12812.25
535.557	12883.66
535.923	12818.35
536.288	12744
536.653	12724.57
537.019	12720.05
537.384	12780.38
537.749	12772.25
538.114	12717.11
538.479	12702.42
538.845	12754.17
539.21	12654.74
539.575	12620.39
539.94	12595.98
540.305	12615.42
540.67	12568.64
541.034	12537.23
541.399	12535.19
541.764	12474.18
542.129	12480.51
542.494	12438.02
542.858	12431.69
543.223	12440.73
543.587	12425.14
543.952	12447.74
544.316	12332.94
544.681	12328.87
545.045	12355.76
545.41	12287.97
545.774	12262.21
546.138	12250
546.503	12176.33
546.867	12125.94
547.231	12225.37
547.595	12151.02
547.959	12108.76
548.324	12129.55
548.688	12140.18
549.052	12035.55
549.416	11976.11
549.779	12011.14
550.143	11988.77
550.507	11989.9
550.871	11959.61
551.235	11890.46
551.599	11929.11
551.962	11948.09
552.326	11878.94
552.689	11905.38
553.053	11780.41
553.417	11796.68
553.78	11833.29
554.143	11800.07
554.507	11801.88
554.87	11707.64
555.234	11841.43
555.597	11698.83
555.96	11652.73
556.323	11747.64
556.686	11763.46
557.05	11725.95
557.413	11632.17
557.776	11653.86
558.139	11689.57
558.502	11675.55
558.865	11661.32
559.228	11732.5
559.59	11685.05
559.953	11643.47
560.316	11742.45
560.679	11690.47
561.041	11745.84
561.404	11802.78
561.767	11797.59
562.129	11695.44
562.492	11771.37
562.854	11725.04
563.217	11692.73
563.579	11783.8
563.941	11759.62
564.304	11738.83
564.666	11810.92
565.028	11772.5
565.39	11745.61
565.753	11817.02
566.115	11776.34
566.477	11838.04
566.839	11835.1
567.201	11896.34
567.563	11882.33
567.925	11967.07
568.287	11888.2
568.648	11854.31
569.01	11892.5
569.372	12025.38
569.734	11948.32
570.095	12030.35
570.457	11905.61
570.819	11936.34
571.18	11978.15
571.542	12041.19
571.903	11948.99
572.265	12017.47
572.626	11959.61
572.987	12025.83
573.349	12048.65
573.71	12059.27
574.071	12047.97
574.432	12114.87
574.794	12107.41
575.155	12143.79
575.516	12044.58
575.877	12158.03
576.238	12152.15
576.599	12172.49
576.96	12104.7
577.32	12141.53
577.681	12203.68
578.042	12241.19
578.403	12150.8
578.763	12154.19
579.124	12204.35
579.485	12205.48
579.845	12292.26
580.206	12182.89
580.566	12196.22
580.927	12190.12
581.287	12231.25
581.648	12186.28
582.008	12185.6
582.368	12184.92
582.728	12208.87
583.089	12111.02
583.449	12160.06
583.809	12121.87
584.169	12105.83
584.529	12157.58
584.889	12231.25
585.249	12083.68
585.609	12066.28
585.969	12186.95
586.329	12111.7
586.688	12048.88
587.048	12111.7
587.408	12046.84
587.768	12121.64
588.127	12082.78
588.487	12076
588.846	12063.57
589.206	11970.46
589.565	11970.91
589.925	12046.39
590.284	12017.24
590.643	12073.96
591.003	12056.79
591.362	12039.61
591.721	11971.59
592.08	11986.51
592.44	12083.68
592.799	11936.56
593.158	11937.92
593.517	11932.95
593.876	11983.57
594.235	11984.02
594.593	11904.7
594.952	11939.05
595.311	11904.7
595.67	11927.98
596.029	11955.55
596.387	11929.11
596.746	11991.93
597.104	11883.46
597.463	11919.16
597.822	11996.22
598.18	11816.12
598.538	11932.05
598.897	11966.85
599.255	11822.44
599.613	11917.36
599.972	11861.76
600.33	11919.62
600.688	11892.5
601.046	11934.08
601.404	12000.97
601.762	11940.18
602.12	11945.15
602.478	11982.89
602.836	11906.06
603.194	11827.42
603.552	11913.74
603.91	11760.52
604.268	11899.5
604.625	11870.8
604.983	11937.69
605.341	11816.34
605.698	11887.98
606.056	11829.45
606.413	11924.14
606.771	11981.31
607.128	11928.88
607.485	11854.53
607.843	11861.76
608.2	11925.27
608.557	11997.13
608.914	11906.28
609.272	11997.58
609.629	11987.41
609.986	11961.65
610.343	11984.47
610.7	12051.14
611.057	12019.05
611.414	11974.53
611.771	12109.67
612.127	12043.45
612.484	12040.97
612.841	12113.74
613.198	12021.99
613.554	12061.76
613.911	12180.4
614.267	12044.81
614.624	12087.75
614.98	12079.84
615.337	12177.46
615.693	12116.67
616.05	12145.82
616.406	12155.09
616.762	12058.82
617.118	12202.77
617.475	12110.35
617.831	12166.39
618.187	12275.54
618.543	12137.24
618.899	12226.27
619.255	12279.61
619.611	12152.83
619.967	12234.86
620.323	12266.05
620.678	12278.7
621.034	12203.9
621.39	12184.24
621.746	12284.8
622.101	12400.51
622.457	12230.57
622.812	12197.57
623.168	12278.93
623.523	12271.92
623.879	12249.78
624.234	12249.1
624.589	12262.43
624.945	12293.17
625.3	12300.85
625.655	12265.6
626.01	12318.02
626.365	12253.17
626.72	12217.91
627.075	12250.23
627.43	12217.01
627.785	12176.56
628.14	12115.09
628.495	12278.48
628.85	12155.09
629.205	12148.08
629.559	12241.87
629.914	12170.23
630.269	12199.83
630.623	12116.9
630.978	12155.32
631.332	12197.57
631.687	12192.15
632.041	12126.84
632.396	12141.76
632.75	12151.25
633.104	12172.72
633.459	12103.34
633.813	12016.11
634.167	12039.39
634.521	12026.28
634.875	11975.89
635.229	12042.32
635.583	11870.35
635.937	11917.13
636.291	11941.99
636.645	11880.75
636.999	11889.56
637.352	11904.48
637.706	11819.28
638.06	11870.35
638.413	11770.02
638.767	11898.15
639.121	11888.66
639.474	11868.54
639.828	11810.47
640.181	11768.21
640.534	11758.26
640.888	11710.81
641.241	11716.01
641.594	11719.62
641.947	11840.3
642.301	11771.82
642.654	11731.82
643.007	11729.34
643.36	11730.02
643.713	11702.45
644.066	11732.28
644.419	11632.84
644.771	11571.38
645.124	11558.27
645.477	11466.97
645.83	11454.54
646.182	11309.91
646.535	11321.21
646.888	11354.21
647.24	11278.5
647.593	11357.6
647.945	11377.26
648.298	11214.78
648.65	11248.45
649.002	11244.83
649.355	11286.41
649.707	11260.2
650.059	11315.79
650.411	11396.47
650.763	11444.15
651.115	11568.89
651.467	11523.47
651.819	11510.14
652.171	11529.8
652.523	11469.68
652.875	11563.24
653.227	11447.09
653.578	11503.81
653.93	11542.22
654.282	11524.15
654.633	11525.28
654.985	11497.48
655.337	11539.96
655.688	11462.9
656.039	11574.09
656.391	11477.14
656.742	11454.32
657.094	11478.95
657.445	11495.45
657.796	11486.41
658.147	11470.36
658.498	11509.91
658.849	11548.33
659.2	11420.42
659.551	11453.41
659.902	11618.61
660.253	11471.94
660.604	11539.96
660.955	11539.29
661.306	11607.76
661.656	11545.39
662.007	11633.52
662.358	11526.86
662.708	11619.74
663.059	11553.75
663.409	11555.11
663.76	11583.35
664.11	11582.22
664.461	11572.28
664.811	11659.28
665.161	11570.7
665.511	11579.06
665.862	11550.13
666.212	11669.91
666.562	11626.97
666.912	11597.36
667.262	11579.06
667.612	11629.45
667.962	11636.01
668.312	11562.11
668.662	11617.7
669.011	11594.65
669.361	11575.44
669.711	11580.64
670.06	11535.22
670.41	11514.65
670.76	11484.83
671.109	11567.99
671.459	11509.23
671.808	11572.28
672.157	11636.46
672.507	11437.14
672.856	11460.42
673.205	11457.93
673.554	11544.03
673.904	11471.27
674.253	11504.03
674.602	11499.74
674.951	11411.38
675.3	11213.65
675.649	11445.5
675.998	11432.85
676.346	11415.9
676.695	11483.47
677.044	11366.86
677.393	11405.96
677.741	11403.92
678.09	11368.67
678.438	11360.31
678.787	11440.98
679.135	11312.4
679.484	11190.6
679.832	11275.11
680.181	11262.46
680.529	11294.1
680.877	11219.75
681.225	11177.49
681.573	11311.95
681.922	11137.04
682.27	11133.42
682.618	11128.68
682.966	11071.28
683.314	11071.95
683.661	11084.84
684.009	10998.51
684.357	11006.42
684.705	10937.27
685.053	10969.81
685.4	10940.43
685.748	10918.74
686.095	10892.98
686.443	10853.66
686.79	10836.71
687.138	10848.91
687.485	10826.54
687.832	10824.05
688.18	10828.8
688.527	10743.6
688.874	10762.81
689.221	10768.01
689.568	10629.48
689.915	10645.53
690.262	10612.98
690.609	10596.71
690.956	10497.96
691.303	10498.86
691.65	10559.88
691.997	10529.14
692.344	10436.72
692.69	10330.05
693.037	10372.76
693.383	10320.34
693.73	10313.1
694.077	10297.74
694.423	10238.3
694.769	10203.95
695.116	10200.11
695.462	10144.07
695.808	10097.29
696.155	10143.84
696.501	10027.69
696.847	10015.49
697.193	9904.3
697.539	9895.26
697.885	9875.15
698.231	9867.69
698.577	9809.39
698.923	9761.03
699.269	9774.59
699.614	9717.87
699.96	9676.06
700.306	9657.08
700.651	9594.93
700.997	9640.35
701.342	9571.2
701.688	9532.11
702.033	9514.26
702.379	9479
702.724	9418.21
703.069	9523.75
703.415	9297.54
703.76	9361.94
704.105	9322.17
704.45	9288.95
704.795	9234.71
705.14	9240.14
705.485	9219.12
705.83	9166.02
706.175	9218.44
706.52	9158.56
706.865	9120.37
707.209	9086.7
707.554	9045.79
707.899	9019.13
708.243	8963.08
708.588	8968.06
708.932	8898
709.277	8879.92
709.621	8935.06
709.966	8879.47
710.31	8857.78
710.654	8735.29
710.998	8730.1
711.342	8792.01
711.687	8709.98
712.031	8646.26
712.375	8707.5
712.719	8654.17
713.063	8707.05
713.407	8661.62
713.75	8618.69
714.094	8638.57
714.438	8552.7
714.782	8543.89
715.125	8484.23
715.469	8531.46
715.812	8466.6
716.156	8470.44
716.499	8419.82
716.843	8448.29
717.186	8444.68
717.53	8470.44
717.873	8473.15
718.216	8431.12
718.559	8419.14
718.902	8337.34
719.246	8377.79
719.589	8339.15
719.932	8356.09
720.275	8279.03
720.617	8322.87
720.96	8301.18
721.303	8304.34
721.646	8309.77
721.989	8267.51
722.331	8258.7
722.674	8233.84
723.016	8263.44
723.359	8267.06
723.701	8262.76
724.044	8201.97
724.386	8169.66
724.729	8189.77
725.071	8206.95
725.413	8180.28
725.755	8201.52
726.097	8147.06
726.439	8119.04
726.782	8156.78
727.124	8160.39
727.465	8145.25
727.807	8132.6
728.149	8035.65
728.491	8138.92
728.833	8144.57
729.175	8148.64
729.516	8110
729.858	8116.55
730.199	8169.88
730.541	8135.99
730.882	8087.4
731.224	8109.32
731.565	8092.15
731.906	8088.3
732.248	8126.72
732.589	8051.92
732.93	8034.52
733.271	8054.18
733.612	8095.08
733.953	8076.55
734.294	8015.76
734.635	8074.29
734.976	8091.24
735.317	8084.69
735.658	8044.24
735.999	8037.01
736.339	8047.18
736.68	8066.38
737.021	8061.86
737.361	8107.06
737.702	8124.24
738.042	8084.69
738.383	8099.6
738.723	8143.22
739.063	8079.04
739.404	8179.38
739.744	8152.48
740.084	8086.27
740.424	8145.93
740.764	8162.88
741.104	8148.87
741.444	8159.94
741.784	8089.89
742.124	8163.1
742.464	8191.8
742.804	8206.27
743.143	8208.08
743.483	8264.8
743.823	8211.92
744.162	8274.29
744.502	8292.82
744.841	8253.72
745.181	8357.9
745.52	8389.77
745.86	8412.36
746.199	8430.22
746.538	8405.58
746.877	8538.01
747.216	8531.23
747.556	8549.99
747.895	8633.6
748.234	8651.68
748.573	8630.21
748.911	8779.13
749.25	8731.45
749.589	8917.21
749.928	8957.43
750.267	8968.28
750.605	8946.59
750.944	9043.76
751.283	9150.42
751.621	9256.18
751.96	9264.54
752.298	9380.47
752.636	9465.67
752.975	9519.68
753.313	9569.62
753.651	9774.36
753.989	9810.07
754.327	9917.63
754.666	10000.57
755.004	10083.28
755.342	10104.52
755.679	10304.29
756.017	10393.33
756.355	10540.44
756.693	10529.82
757.031	10759.65
757.368	10801
757.706	10909.7
758.044	11068.79
758.381	11188.11
758.719	11369.8
759.056	11460.19
759.394	11583.35
759.731	11739.96
760.068	11850.47
