Data from hue_190_FLMS001491_00034.txt Node
Date: Tue Feb 07 16:45:12 GMT 2017
User: dcchb
Spectrometer: FLMS00149
Trigger mode: 0
Integration Time (sec): 2.000000E-2
Scans to average: 10
Electric dark correction enabled: true
Nonlinearity correction enabled: false
Boxcar width: 0
XAxis mode: Wavelengths
Number of Pixels in Spectrum: 2048
>>>>>Begin Spectral Data<<<<<
341.393	10.61
341.776	10.61
342.16	10.61
342.543	-61.71
342.927	-78.88
343.31	-73.68
343.693	-70.07
344.077	-44.76
344.46	-56.28
344.843	-47.92
345.226	-51.09
345.61	-25.78
345.993	-21.48
346.376	-6.12
346.759	8.12
347.142	15.35
347.525	25.07
347.908	56.03
348.291	81.79
348.674	84.96
349.057	125.86
349.44	144.84
349.823	138.29
350.206	183.94
350.588	208.12
350.971	216.7
351.354	212.64
351.737	228.45
352.119	247.66
352.502	282.92
352.884	270.71
353.267	273.65
353.65	300.32
354.032	293.31
354.414	313.2
354.797	298.74
355.179	324.72
355.562	334.89
355.944	331.05
356.326	322.92
356.709	321.11
357.091	338.51
357.473	362.91
357.855	318.62
358.238	341.9
358.62	336.7
359.002	328.34
359.384	353.42
359.766	334.89
360.148	332.41
360.53	315.46
360.912	330.82
361.294	337.6
361.676	331.73
362.057	324.5
362.439	324.27
362.821	330.37
363.203	306.87
363.584	322.69
363.966	312.07
364.348	322.69
364.729	300.77
365.111	319.98
365.493	303.71
365.874	322.69
366.256	322.24
366.637	303.71
367.019	309.36
367.4	304.16
367.781	316.36
368.163	303.93
368.544	291.28
368.925	312.97
369.306	324.27
369.688	316.81
370.069	321.56
370.45	323.37
370.831	322.69
371.212	325.63
371.593	303.03
371.974	295.12
372.355	329.47
372.736	316.14
373.117	303.25
373.498	328.56
373.879	310.71
374.26	320.88
374.641	312.07
375.021	310.26
375.402	319.07
375.783	316.14
376.163	326.98
376.544	339.64
376.925	306.42
377.305	316.81
377.686	326.08
378.066	310.49
378.447	329.24
378.827	326.53
379.208	304.38
379.588	327.43
379.968	328.79
380.349	329.69
380.729	329.92
381.109	322.92
381.489	331.5
381.87	347.32
382.25	334.67
382.63	317.49
383.01	366.08
383.39	340.09
383.77	347.77
384.15	323.82
384.53	377.15
384.91	355.68
385.29	338.51
385.67	347.55
386.049	364.04
386.429	340.54
386.809	341.67
387.189	349.58
387.568	357.04
387.948	349.13
388.328	373.08
388.707	353.65
389.087	358.85
389.466	339.64
389.846	343.25
390.225	359.3
390.605	373.08
390.984	367.21
391.363	360.65
391.743	366.76
392.122	370.37
392.501	372.41
392.881	366.3
393.26	384.16
393.639	361.11
394.018	347.55
394.397	365.17
394.776	383.25
395.155	381.22
395.534	383.48
395.913	365.63
396.292	379.64
396.671	375.34
397.05	374.21
397.429	386.87
397.808	381.67
398.186	388.9
398.565	391.16
398.944	384.83
399.323	402.01
399.701	392.07
400.08	385.74
400.458	401.11
400.837	402.91
401.215	399.3
401.594	427.55
401.972	406.08
402.351	416.7
402.729	391.16
403.107	414.66
403.486	409.47
403.864	416.25
404.242	405.62
404.62	446.98
404.999	417.38
405.377	442.69
405.755	419.18
406.133	438.17
406.511	464.61
406.889	442.91
407.267	426.42
407.645	447.21
408.023	461.67
408.401	456.7
408.779	471.16
409.156	499.63
409.534	480.2
409.912	486.3
410.29	476.13
410.667	504.38
411.045	536.92
411.422	517.71
411.8	511.84
412.178	542.34
412.555	534.89
412.933	536.24
413.31	545.06
413.687	554.77
414.065	573.53
414.442	584.6
414.819	585.28
415.197	577.15
415.574	600.42
415.951	589.35
416.328	606.98
416.705	605.39
417.082	652.4
417.46	651.49
417.837	630.25
418.214	648.1
418.591	653.3
418.967	668.89
419.344	685.84
419.721	690.36
420.098	659.4
420.475	710.7
420.852	696.69
421.228	705.73
421.605	733.75
421.982	731.49
422.358	791.38
422.735	768.78
423.111	772.85
423.488	786.18
423.864	802.45
424.241	810.59
424.617	820.98
424.994	822.79
425.37	855.56
425.746	869.57
426.123	904.14
426.499	878.61
426.875	910.92
427.251	912.05
427.627	925.16
428.003	939.4
428.379	943.92
428.756	935.78
429.132	945.72
429.507	965.84
429.883	990.02
430.259	1011.26
430.635	1002.9
431.011	1009.22
431.387	1028.66
431.763	1048.55
432.138	1077.47
432.514	1073.86
432.89	1073.18
433.265	1119.28
433.641	1141.2
434.016	1163.8
434.392	1177.58
434.767	1170.8
435.143	1205.38
435.518	1233.4
435.894	1245.38
436.269	1257.13
436.644	1288.09
437.02	1296.22
437.395	1313.62
437.77	1358.14
438.145	1381.42
438.52	1411.7
438.895	1423.9
439.271	1434.52
439.646	1463
440.021	1484.47
440.395	1498.93
440.77	1478.59
441.145	1507.74
441.52	1548.42
441.895	1581.64
442.27	1568.76
442.645	1624.58
443.019	1607.18
443.394	1638.13
443.769	1657.34
444.143	1644.91
444.518	1698.02
444.892	1695.99
445.267	1724.69
445.641	1744.35
446.016	1738.92
446.39	1766.72
446.764	1780.96
447.139	1769.43
447.513	1826.83
447.887	1805.59
448.262	1822.08
448.636	1838.58
449.01	1854.4
449.384	1882.42
449.758	1898.24
450.132	1907.51
450.506	1888.52
450.88	1917.22
451.254	1938.47
451.628	1957.45
452.002	1994.06
452.376	2013.49
452.75	2032.02
453.123	2052.81
453.497	2060.5
453.871	2096.65
454.244	2161.06
454.618	2142.53
454.992	2185.47
455.365	2150.89
455.739	2257.78
456.112	2245.8
456.486	2264.79
456.859	2303.88
457.232	2349.53
457.606	2376.87
457.979	2373.48
458.352	2426.59
458.725	2422.52
459.099	2461.62
459.472	2475.85
459.845	2554.95
460.218	2556.53
460.591	2534.83
460.964	2592.69
461.337	2665
461.71	2686.69
462.083	2736.41
462.456	2701.84
462.829	2747.48
463.201	2834.71
463.574	2833.81
463.947	2859.35
464.32	2912
464.692	2911.77
465.065	2968.72
465.438	2989.74
465.81	3092.11
466.183	3123.75
466.555	3201.71
466.928	3209.62
467.3	3167.59
467.672	3211.43
468.045	3327.58
468.417	3356.06
468.789	3393.34
469.161	3408.26
469.534	3458.2
469.906	3508.82
470.278	3566.67
470.65	3640.12
471.022	3678.08
471.394	3794.69
471.766	3788.13
472.138	3850.28
472.51	3889.83
472.882	4053.66
473.253	4024.51
473.625	4069.26
473.997	4156.49
474.369	4190.38
474.74	4230.61
475.112	4344.96
475.484	4429.47
475.855	4469.47
476.227	4506.31
476.598	4648.23
476.97	4699.07
477.341	4800.31
477.713	4862.46
478.084	4912.85
478.455	5063.81
478.827	5106.74
479.198	5227.87
479.569	5241.88
479.94	5379.73
480.311	5494.3
480.682	5576.34
481.053	5662.66
481.424	5812.26
481.795	5812.49
482.166	5927.51
482.537	6033.95
482.908	6137.9
483.279	6204.34
483.65	6281.63
484.021	6424.22
484.391	6511.68
484.762	6585.8
485.133	6683.43
485.503	6757.77
485.874	6928.84
486.244	6912.57
486.615	7115.96
486.985	7211.55
487.356	7304.43
487.726	7350.53
488.097	7480.24
488.467	7527.47
488.837	7732.44
489.207	7826.45
489.578	7955.93
489.948	7961.81
490.318	8057.85
490.688	8117.29
491.058	8220.11
491.428	8327.45
491.798	8482.25
492.168	8632.08
492.538	8621.45
492.908	8695.58
493.278	8782.13
493.648	8797.95
494.017	8934.21
494.387	9000.65
494.757	8997.72
495.126	9103.48
495.496	9154.77
495.866	9156.58
496.235	9319.06
496.605	9276.58
496.974	9440.42
497.344	9531.26
497.713	9467.08
498.082	9593.86
498.452	9700.75
498.821	9636.12
499.19	9699.17
499.559	9760.63
499.928	9876.79
500.298	9853.29
500.667	9922.44
501.036	9870.69
501.405	10018.03
501.774	9941.42
502.143	10068.65
502.512	10101.42
502.88	10182.09
503.249	10159.72
503.618	10226.38
503.987	10223.9
504.356	10253.5
504.724	10309.32
505.093	10344.8
505.462	10335.08
505.83	10364.91
506.199	10373.05
506.567	10543.21
506.936	10451.91
507.304	10535.98
507.672	10570.1
508.041	10622.98
508.409	10623.66
508.777	10700.04
509.145	10712.92
509.514	10618.46
509.882	10733.94
510.25	10704.11
510.618	10735.97
510.986	10763.09
511.354	10869.3
511.722	10946.59
512.09	10982.3
512.458	10901.85
512.826	10948.4
513.193	10887.84
513.561	10947.95
513.929	11021.84
514.297	10982.3
514.664	11085.8
515.032	11065.46
515.4	11097.1
515.767	11087.15
516.135	11089.86
516.502	11048.51
516.869	11110.2
517.237	11154.72
517.604	11040.15
517.972	11103.65
518.339	11193.36
518.706	11171.9
519.073	11133.25
519.44	11175.29
519.808	11198.56
520.175	11161.95
520.542	11275.85
520.909	11290.31
521.276	11078.79
521.643	11256.87
522.009	11189.3
522.376	11274.49
522.743	11294.38
523.11	11328.5
523.477	11399.69
523.843	11339.57
524.21	11324.66
524.577	11386.81
524.943	11387.48
525.31	11272.01
525.676	11287.37
526.043	11422.51
526.409	11372.34
526.776	11383.64
527.142	11450.53
527.508	11406.92
527.874	11445.79
528.241	11409.4
528.607	11374.6
528.973	11387.48
529.339	11222.06
529.705	11319.24
530.071	11272.91
530.437	11330.08
530.803	11269.52
531.169	11260.48
531.535	11219.35
531.901	11153.82
532.267	11167.6
532.632	11119.24
532.998	11093.71
533.364	11137.77
533.73	11066.14
534.095	11067.27
534.461	11040.37
534.826	11033.59
535.192	10916.08
535.557	10950.66
535.923	10924.44
536.288	10892.58
536.653	10764
537.019	10772.81
537.384	10750.44
537.749	10659.14
538.114	10666.37
538.479	10607.39
538.845	10564.45
539.21	10477.45
539.575	10441.97
539.94	10441.07
540.305	10471.12
540.67	10326.04
541.034	10292.37
541.399	10226.38
541.764	10198.14
542.129	10091.47
542.494	10168.31
542.858	10035.2
543.223	10012.83
543.587	9998.82
543.952	9872.72
544.316	9889.22
544.681	9818.26
545.045	9816.22
545.41	9769.67
545.774	9698.04
546.138	9744.81
546.503	9647.64
546.867	9587.53
547.231	9539.85
547.595	9460.3
547.959	9441.77
548.324	9307.09
548.688	9333.53
549.052	9284.04
549.416	9267.54
549.779	9234.77
550.143	9146.86
550.507	9133.76
550.871	9108.45
551.235	9030.48
551.599	9024.16
551.962	8976.92
552.326	8895.57
552.689	8930.82
553.053	8851.5
553.417	8748.23
553.78	8858.74
554.143	8723.6
554.507	8699.19
554.87	8730.6
555.234	8682.24
555.597	8557.5
555.96	8549.82
556.323	8562.25
556.686	8510.04
557.05	8570.38
557.413	8507.78
557.776	8454
558.139	8424.17
558.502	8409.03
558.865	8341.91
559.228	8405.19
559.59	8311.18
559.953	8381.01
560.316	8286.77
560.679	8343.72
561.041	8298.98
561.404	8264.4
561.767	8320.67
562.129	8152.77
562.492	8284.97
562.854	8180.11
563.217	8154.35
563.579	8167.45
563.941	8137.85
564.304	8188.25
564.666	8119.77
565.028	8154.8
565.39	8160.68
565.753	8169.94
566.115	8105.08
566.477	8129.04
566.839	8070.06
567.201	8110.28
567.563	8156.16
567.925	8182.37
568.287	8141.92
568.648	8117.51
569.01	8160.22
569.372	8186.89
569.734	8133.33
570.095	8105.08
570.457	8121.81
570.819	8105.76
571.18	8068.47
571.542	8075.93
571.903	8137.17
572.265	8091.75
572.626	8081.13
572.987	8121.81
573.349	8057.4
573.71	8111.19
574.071	8122.48
574.432	8118.42
574.794	8141.92
575.155	8127.23
575.516	8083.62
575.877	8054.46
576.238	8060.11
576.599	8100.11
576.96	8110.28
577.32	7998.42
577.681	8056.5
578.042	8102.6
578.403	8004.07
578.763	8052.43
579.124	8057.4
579.485	8027.8
579.845	8054.01
580.206	8091.07
580.566	8013.33
580.927	8046.1
581.287	8096.27
581.648	8004.75
582.008	7976.73
582.368	8009.04
582.728	8031.19
583.089	8031.41
583.449	7978.31
583.809	7996.16
584.169	8004.75
584.529	7941.02
584.889	7999.78
585.249	7968.14
585.609	7906.67
585.969	7977.86
586.329	7941.47
586.688	7896.5
587.048	7911.42
587.408	7877.29
587.768	7864.19
588.127	7828.03
588.487	7872.1
588.846	7927.46
589.206	7880.46
589.565	7901.47
589.925	7862.83
590.284	7821.02
590.643	7856.95
591.003	7879.78
591.362	7841.81
591.721	7850.63
592.08	7801.14
592.44	7881.36
592.799	7835.03
593.158	7786.67
593.517	7758.65
593.876	7816.28
594.235	7794.81
594.593	7742.16
594.952	7739.67
595.311	7645.21
595.67	7685.66
596.029	7778.31
596.387	7733.57
596.746	7767.69
597.104	7684.53
597.463	7718.43
597.822	7688.15
598.18	7659.9
598.538	7696.05
598.897	7649.5
599.255	7661.48
599.613	7718.43
599.972	7694.02
600.33	7694.7
600.688	7696.96
601.046	7672.78
601.404	7632.78
601.762	7727.24
602.12	7723.4
602.478	7711.42
602.836	7679.33
603.194	7588.26
603.552	7623.06
603.91	7586.23
604.268	7649.05
604.625	7557.75
604.983	7644.98
605.341	7588.49
605.698	7651.99
606.056	7641.37
606.413	7630.52
606.771	7587.58
607.128	7673.46
607.485	7604.76
607.843	7589.84
608.2	7690.18
608.557	7681.59
608.914	7614.93
609.272	7660.12
609.629	7684.98
609.986	7712.1
610.343	7647.02
610.7	7664.64
611.057	7647.47
611.414	7626
611.771	7697.18
612.127	7756.62
612.484	7677.98
612.841	7704.87
613.198	7704.87
613.554	7654.93
613.911	7718.43
614.267	7744.64
614.624	7728.6
614.98	7689.95
615.337	7747.35
615.693	7675.94
616.05	7774.92
616.406	7829.61
616.762	7728.14
617.118	7741.7
617.475	7721.82
617.831	7746.9
618.187	7740.57
618.543	7783.06
618.899	7802.04
619.255	7732.21
619.611	7750.06
619.967	7820.8
620.323	7713
620.678	7762.72
621.034	7707.81
621.39	7728.37
621.746	7761.82
622.101	7790.29
622.457	7807.92
622.812	7718.43
623.168	7780.8
623.523	7815.83
623.879	7712.1
624.234	7746.9
624.589	7760.69
624.945	7828.93
625.3	7773.79
625.655	7773.34
626.01	7737.64
626.365	7790.52
626.72	7773.57
627.075	7720.01
627.43	7783.51
627.785	7754.36
628.14	7794.58
628.495	7773.57
628.85	7673.68
629.205	7707.13
629.559	7665.55
629.914	7697.86
630.269	7718.88
630.623	7641.59
630.978	7602.27
631.332	7661.25
631.687	7667.35
632.041	7643.85
632.396	7635.72
632.75	7691.54
633.104	7592.55
633.459	7624.42
633.813	7644.3
634.167	7632.1
634.521	7633.23
634.875	7560.24
635.229	7539.67
635.583	7603.85
635.937	7557.53
636.291	7564.76
636.645	7546.91
636.999	7565.89
637.352	7565.66
637.706	7466.91
638.06	7442.73
638.413	7559.34
638.767	7444.31
639.121	7456.51
639.474	7423.75
639.828	7420.58
640.181	7414.93
640.534	7443.86
640.888	7395.5
641.241	7402.5
641.594	7459.68
641.947	7481.82
642.301	7361.15
642.654	7405.67
643.007	7432.11
643.36	7374.03
643.713	7339.68
644.066	7405.44
644.419	7344.65
644.771	7340.36
645.124	7298.55
645.477	7219.91
645.83	7195.73
646.182	7194.6
646.535	7133.13
646.888	7178.55
647.24	7112.34
647.593	7156.41
647.945	7191.44
648.298	7170.42
648.65	7121.61
649.002	7135.17
649.355	7115.96
649.707	7144.43
650.059	7154.15
650.411	7214.26
650.763	7227.14
651.115	7299.68
651.467	7290.42
651.819	7288.61
652.171	7334.26
652.523	7248.16
652.875	7296.52
653.227	7230.76
653.578	7273.69
653.93	7286.8
654.282	7283.18
654.633	7247.48
654.985	7251.55
655.337	7322.28
655.688	7272.56
656.039	7369.74
656.391	7299
656.742	7262.17
657.094	7251.77
657.445	7327.7
657.796	7332
658.147	7254.48
658.498	7281.38
658.849	7263.75
659.2	7324.09
659.551	7363.18
659.902	7304.65
660.253	7417.19
660.604	7368.38
660.955	7314.37
661.306	7372
661.656	7339.45
662.007	7337.87
662.358	7379.45
662.708	7317.99
663.059	7341.26
663.409	7326.8
663.76	7390.07
664.11	7400.02
664.461	7369.06
664.811	7351.88
665.161	7431.2
665.511	7367.48
665.862	7382.62
666.212	7423.07
666.562	7379.9
666.912	7357.31
667.262	7391.2
667.612	7394.14
667.962	7346.46
668.312	7313.69
668.662	7432.11
669.011	7367.25
669.361	7337.42
669.711	7367.25
670.06	7362.05
670.41	7312.34
670.76	7347.14
671.109	7388.27
671.459	7353.46
671.808	7306.23
672.157	7380.58
672.507	7326.35
672.856	7309.85
673.205	7283.41
673.554	7346.01
673.904	7319.79
674.253	7320.92
674.602	7304.88
674.951	7223.3
675.3	7189.4
675.649	7242.51
675.998	7287.03
676.346	7285.44
676.695	7332.9
677.044	7266.69
677.393	7232.34
677.741	7212.45
678.09	7201.6
678.438	7192.57
678.787	7215.39
679.135	7209.97
679.484	7146.46
679.832	7135.39
680.181	7167.03
680.529	7144.88
680.877	7161.61
681.225	7133.81
681.573	7186.92
681.922	7060.82
682.27	7124.09
682.618	7137.88
682.966	7073.02
683.314	7036.41
683.661	6985.34
684.009	6985.11
684.357	6940.59
684.705	6932.01
685.053	6986.92
685.4	6957.09
685.748	6893.14
686.095	6891.78
686.443	6903.31
686.79	6882.52
687.138	6879.13
687.485	6885.91
687.832	6835.29
688.18	6838.22
688.527	6771.56
688.874	6802.52
689.221	6735.85
689.568	6745.8
689.915	6710.77
690.262	6688.17
690.609	6743.54
690.956	6649.53
691.303	6678.23
691.65	6640.26
691.997	6612.92
692.344	6594.84
692.69	6580.38
693.037	6590.55
693.383	6471.91
693.73	6509.65
694.077	6466.48
694.423	6418.8
694.769	6459.25
695.116	6466.71
695.462	6349.2
695.808	6337.45
696.155	6328.63
696.501	6319.82
696.847	6334.73
697.193	6274.85
697.539	6274.85
697.885	6237.56
698.231	6225.13
698.577	6217.22
698.923	6197.56
699.269	6140.84
699.614	6159.6
699.96	6132.25
700.306	6063.1
700.651	6057.68
700.997	6011.81
701.342	6050
701.688	5991.24
702.033	5983.11
702.379	6024.69
702.724	5924.35
703.069	5950.79
703.415	5851.58
703.76	5867.4
704.105	5885.71
704.45	5846.39
704.795	5778.59
705.14	5797.8
705.485	5791.7
705.83	5758.7
706.175	5792.38
706.52	5744.47
706.865	5755.31
707.209	5689.33
707.554	5667.18
707.899	5657.46
708.243	5646.84
708.588	5631.02
708.932	5590.12
709.277	5568.88
709.621	5621.98
709.966	5556.22
710.31	5549.9
710.654	5455.21
710.998	5495.66
711.342	5492.5
711.687	5540.86
712.031	5457.92
712.375	5453.4
712.719	5441.2
713.063	5450.01
713.407	5476.68
713.75	5436.45
714.094	5434.42
714.438	5415.44
714.782	5402.1
715.125	5377.25
715.469	5385.16
715.812	5318.49
716.156	5369.11
716.499	5340.18
716.843	5299.28
717.186	5366.4
717.53	5297.25
717.873	5307.19
718.216	5283.69
718.559	5262.45
718.902	5263.8
719.246	5281.65
719.589	5313.74
719.932	5246.85
720.275	5269
720.617	5264.48
720.96	5292.95
721.303	5276.23
721.646	5304.71
721.989	5287.98
722.331	5233.52
722.674	5215.67
723.016	5221.32
723.359	5186.06
723.701	5216.8
724.044	5174.54
724.386	5170.92
724.729	5210.02
725.071	5176.12
725.413	5192.17
725.755	5160.3
726.097	5204.59
726.439	5160.75
726.782	5160.53
727.124	5208.44
727.465	5119.85
727.807	5189.68
728.149	5141.32
728.491	5158.04
728.833	5137.25
729.175	5173.41
729.516	5168.44
729.858	5184.03
730.199	5163.01
730.541	5189.45
730.882	5167.53
731.224	5109.46
731.565	5114.88
731.906	5157.36
732.248	5164.82
732.589	5156.91
732.93	5153.97
733.271	5129.12
733.612	5146.29
733.953	5175.44
734.294	5156.01
734.635	5174.99
734.976	5186.29
735.317	5135.67
735.658	5163.69
735.999	5156.01
736.339	5177.93
736.68	5196.91
737.021	5206.4
737.361	5164.6
737.702	5237.59
738.042	5204.82
738.383	5222.9
738.723	5248.66
739.063	5219.06
739.404	5230.13
739.744	5249.57
740.084	5257.02
740.424	5259.96
740.764	5297.7
741.104	5255.89
741.444	5278.04
741.784	5331.82
742.124	5354.42
742.464	5312.16
742.804	5367.75
743.143	5351.03
743.483	5339.28
743.823	5418.15
744.162	5404.59
744.502	5509.9
744.841	5471.93
745.181	5536.79
745.52	5541.99
745.86	5574.3
746.199	5584.92
746.538	5640.52
746.877	5673.73
747.216	5731.59
747.556	5826.5
747.895	5757.35
748.234	5795.54
748.573	5884.12
748.911	5944.46
749.25	5963.22
749.589	6017.68
749.928	6037.79
750.267	6164.34
750.605	6248.41
750.944	6298.8
751.283	6295.41
751.621	6438.23
751.96	6490.66
752.298	6554.16
752.636	6689.08
752.975	6734.05
753.313	6806.13
753.651	6928.17
753.989	7053.59
754.327	7078.44
754.666	7204.32
755.004	7352.11
755.342	7522.27
755.679	7640.91
756.017	7693.34
756.355	7855.37
756.693	7985.09
757.031	8124.52
757.368	8244.29
757.706	8383.72
758.044	8533.55
758.381	8696.71
758.719	8786.42
759.056	8983.93
759.394	9157.71
759.731	9297.82
760.068	9409.68
760.405	9605.61
760.743	9752.95
761.08	9951.14
761.417	10113.84
761.754	10234.75
762.091	10423.89
762.428	10614.85
762.765	10711.79
763.102	10998.34
763.438	11118.56
763.775	11175.96
764.112	11490.31
764.449	11656.85
764.785	11805.33
765.122	11899.11
765.458	12003.06
765.795	12280.11
766.131	12422.03
766.467	12536.15
766.804	12735.24
767.14	12828.12
767.476	12992.41
