Data from hue_210_FLMS001491_00070.txt Node
Date: Tue Feb 07 16:41:33 GMT 2017
User: dcchb
Spectrometer: FLMS00149
Trigger mode: 0
Integration Time (sec): 2.000000E-2
Scans to average: 10
Electric dark correction enabled: true
Nonlinearity correction enabled: false
Boxcar width: 0
XAxis mode: Wavelengths
Number of Pixels in Spectrum: 2048
>>>>>Begin Spectral Data<<<<<
341.393	-33.46
341.776	-33.46
342.16	-33.46
342.543	-42.72
342.927	-68.94
343.31	-74.36
343.693	-52.44
344.077	-59.9
344.46	-89.96
344.843	-62.84
345.226	-41.37
345.61	-31.88
345.993	-10.18
346.376	-2.5
346.759	25.3
347.142	22.13
347.525	37.05
347.908	48.57
348.291	79.53
348.674	101.9
349.057	110.94
349.44	141
349.823	152.3
350.206	181
350.588	203.82
350.971	217.38
351.354	207.44
351.737	234.33
352.119	262.58
352.502	242.47
352.884	258.96
353.267	282.24
353.65	291.73
354.032	289.7
354.414	315.91
354.797	322.01
355.179	319.07
355.562	328.11
355.944	311.84
356.326	326.76
356.709	335.12
357.091	328.56
357.473	329.24
357.855	325.18
358.238	352.97
358.62	319.3
359.002	336.93
359.384	335.57
359.766	329.92
360.148	340.77
360.53	340.09
360.912	339.41
361.294	324.95
361.676	311.39
362.057	348.23
362.439	337.38
362.821	314.1
363.203	323.37
363.584	316.14
363.966	341.9
364.348	320.88
364.729	316.59
365.111	296.02
365.493	308.45
365.874	314.1
366.256	336.02
366.637	312.52
367.019	304.38
367.4	317.49
367.781	300.09
368.163	304.61
368.544	307.32
368.925	299.86
369.306	315.23
369.688	313.88
370.069	308.68
370.45	297.83
370.831	321.79
371.212	308.45
371.593	312.97
371.974	318.85
372.355	326.76
372.736	314.1
373.117	306.19
373.498	316.36
373.879	305.51
374.26	320.43
374.641	329.02
375.021	309.81
375.402	310.49
375.783	347.77
376.163	346.19
376.544	313.2
376.925	330.37
377.305	310.49
377.686	300.99
378.066	305.06
378.447	343.48
378.827	318.62
379.208	326.76
379.588	320.43
379.968	321.33
380.349	328.11
380.729	327.66
381.109	347.55
381.489	357.26
381.87	316.14
382.25	334.21
382.63	343.93
383.01	343.25
383.39	353.42
383.77	341.9
384.15	333.08
384.53	314.1
384.91	340.99
385.29	342.12
385.67	352.74
386.049	354.55
386.429	339.64
386.809	356.81
387.189	356.36
387.568	345.97
387.948	346.87
388.328	336.02
388.707	356.36
389.087	348.68
389.466	343.25
389.846	361.56
390.225	354.78
390.605	360.2
390.984	366.53
391.363	373.54
391.743	356.13
392.122	362.01
392.501	348.9
392.881	391.16
393.26	376.7
393.639	380.77
394.018	388.22
394.397	393.42
394.776	381.44
395.155	386.19
395.534	365.85
395.913	398.39
396.292	394.33
396.671	420.09
397.05	383.93
397.429	400.65
397.808	381.22
398.186	393.2
398.565	405.85
398.944	383.25
399.323	402.01
399.701	397.72
400.08	404.27
400.458	421.44
400.837	414.89
401.215	448.34
401.594	405.85
401.972	437.04
402.351	429.81
402.729	433.19
403.107	427.55
403.486	449.69
403.864	451.27
404.242	469.13
404.62	459.41
404.999	452.18
405.377	430.48
405.755	468
406.133	467.54
406.511	469.13
406.889	473.65
407.267	474.55
407.645	469.13
408.023	477.49
408.401	498.5
408.779	515.45
409.156	508.22
409.534	515.68
409.912	496.7
410.29	503.7
410.667	525.85
411.045	544.15
411.422	552.51
411.8	557.94
412.178	541.67
412.555	580.99
412.933	585.28
413.31	586.41
413.687	609.24
414.065	604.49
414.442	615.79
414.819	624.6
415.197	634.55
415.574	631.83
415.951	681.78
416.328	647.2
416.705	662.79
417.082	692.85
417.46	692.17
417.837	702.57
418.214	695.56
418.591	699.4
418.967	710.48
419.344	722
419.721	734.2
420.098	744.15
420.475	771.49
420.852	745.5
421.228	793.64
421.605	799.74
421.982	812.62
422.358	812.62
422.735	810.59
423.111	827.31
423.488	823.47
423.864	847.42
424.241	877.25
424.617	894.65
424.994	905.27
425.37	906.18
425.746	932.39
426.123	932.16
426.499	945.27
426.875	964.25
427.251	996.12
427.627	1001.09
428.003	1021.65
428.379	999.28
428.756	1029.56
429.132	1052.84
429.507	1064.36
429.883	1072.05
430.259	1096
430.635	1062.33
431.011	1130.13
431.387	1129.9
431.763	1162.67
432.138	1154.31
432.514	1176
432.89	1165.6
433.265	1216.45
433.641	1251.25
434.016	1256.45
434.392	1321.53
434.767	1299.39
435.143	1347.3
435.518	1321.08
435.894	1362.21
436.269	1401.3
436.644	1418.93
437.02	1428.87
437.395	1443.79
437.77	1477.24
438.145	1528.76
438.52	1521.3
438.895	1577.35
439.271	1559.72
439.646	1599.72
440.021	1636.78
440.395	1668.19
440.77	1639.94
441.145	1678.13
441.52	1694.4
441.895	1718.36
442.27	1720.84
442.645	1756.32
443.019	1764.91
443.394	1766.95
443.769	1794.06
444.143	1820.28
444.518	1844.91
444.892	1840.39
445.267	1875.64
445.641	1875.87
446.016	1899.37
446.39	1893.5
446.764	1956.09
447.139	1960.61
447.513	1950.22
447.887	1980.05
448.262	1966.94
448.636	2027.73
449.01	2008.29
449.384	2025.24
449.758	2052.59
450.132	2077.22
450.506	2088.52
450.88	2112.25
451.254	2115.41
451.628	2160.16
452.002	2179.82
452.376	2189.76
452.75	2196.09
453.123	2244.9
453.497	2258.46
453.871	2277.44
454.244	2332.13
454.618	2335.74
454.992	2363.77
455.365	2356.99
455.739	2444.22
456.112	2411
456.486	2452.12
456.859	2467.27
457.232	2503.87
457.606	2538
457.979	2559.69
458.352	2565.34
458.725	2586.81
459.099	2617.09
459.472	2703.64
459.845	2725.34
460.218	2727.15
460.591	2740.25
460.964	2772.34
461.337	2799.23
461.71	2873.36
462.083	2919.46
462.456	2894.15
462.829	2896.86
463.201	2962.85
463.574	2967.37
463.947	3046.01
464.32	3060.24
464.692	3105.44
465.065	3117.87
465.438	3150.64
465.81	3196.06
466.183	3236.96
466.555	3305.44
466.928	3343.85
467.3	3302.72
467.672	3347.47
468.045	3411.42
468.417	3439.9
468.789	3502.94
469.161	3536.39
469.534	3576.39
469.906	3673.11
470.278	3691.19
470.65	3723.96
471.022	3779.55
471.394	3853.67
471.766	3847.34
472.138	3938.64
472.51	4007.11
472.882	4038.3
473.253	4048.92
473.625	4087.34
473.997	4189.71
474.369	4172.53
474.74	4253.89
475.112	4315.58
475.484	4423.37
475.855	4481.9
476.227	4500.66
476.598	4619.07
476.97	4652.29
477.341	4705.4
477.713	4751.27
478.084	4873.08
478.455	4939.07
478.827	5015
479.198	5022.68
479.569	5103.58
479.94	5255.21
480.311	5261.54
480.682	5347.64
481.053	5485.49
481.424	5530.91
481.795	5579.5
482.166	5653.85
482.537	5712.83
482.908	5812.26
483.279	5844.35
483.65	5971.13
484.021	6089.32
484.391	6143.1
484.762	6153.72
485.133	6190.33
485.503	6300.16
485.874	6394.85
486.244	6511
486.615	6556.42
486.985	6610.43
487.356	6732.24
487.726	6825.34
488.097	6892.91
488.467	6859.01
488.837	7023.3
489.207	7034.83
489.578	7142.17
489.948	7201.38
490.318	7345.78
490.688	7291.55
491.058	7435.5
491.428	7506.68
491.798	7602.05
492.168	7682.72
492.538	7652.44
492.908	7767.24
493.278	7899.44
493.648	7847.46
494.017	7989.83
494.387	7980.34
494.757	8061.47
495.126	8132.88
495.496	8102.37
495.866	8202.48
496.235	8262.59
496.605	8302.59
496.974	8360.22
497.344	8456.49
497.713	8482.47
498.082	8503.49
498.452	8599.31
498.821	8561.12
499.19	8618.74
499.559	8700.1
499.928	8706.88
500.298	8733.09
500.667	8802.92
501.036	8815.57
501.405	8851.73
501.774	8831.84
502.143	8912.75
502.512	8930.15
502.88	8933.99
503.249	8961.56
503.618	9015.12
503.987	9011.95
504.356	9068.45
504.724	9104.61
505.093	9106.87
505.462	9144.83
505.83	9147.54
506.199	9216.69
506.567	9298.95
506.936	9308.44
507.304	9356.35
507.672	9332.4
508.041	9407.65
508.409	9412.39
508.777	9488.55
509.145	9504.82
509.514	9504.37
509.882	9458.49
510.25	9551.6
510.618	9583.46
510.986	9571.49
511.354	9583.24
511.722	9689.45
512.09	9680.64
512.458	9595.67
512.826	9707.53
513.193	9766.73
513.561	9722.89
513.929	9761.76
514.297	9834.53
514.664	9819.61
515.032	9870.69
515.4	9973.28
515.767	9857.58
516.135	9898.03
516.502	9816.45
516.869	9953.17
517.237	9952.94
517.604	9876.79
517.972	10010.12
518.339	9973.51
518.706	9912.27
519.073	9965.15
519.44	9998.59
519.808	9942.32
520.175	9963.11
520.542	10078.36
520.909	10127.4
521.276	10024.58
521.643	10118.59
522.009	10116.56
522.376	10101.19
522.743	10143.67
523.11	10151.36
523.477	10232.71
523.843	10257.12
524.21	10296.21
524.577	10335.76
524.943	10274.07
525.31	10232.03
525.676	10325.59
526.043	10324.91
526.409	10313.39
526.776	10406.94
527.142	10323.33
527.508	10399.71
527.874	10473.38
528.241	10399.26
528.607	10361.75
528.973	10448.98
529.339	10369.2
529.705	10471.8
530.071	10475.87
530.437	10428.64
530.803	10411.92
531.169	10473.61
531.535	10399.94
531.901	10354.74
532.267	10392.03
532.632	10387.74
532.998	10314.74
533.364	10396.32
533.73	10401.52
534.095	10400.16
534.461	10351.58
534.826	10317.68
535.192	10338.7
535.557	10365.59
535.923	10319.04
536.288	10322.2
536.653	10253.95
537.019	10176.67
537.384	10222.99
537.749	10147.06
538.114	10136.22
538.479	10135.31
538.845	10079.72
539.21	10103.9
539.575	10090.12
539.94	10012.38
540.305	10064.81
540.67	9993.17
541.034	9983.9
541.399	9974.86
541.764	9951.36
542.129	9907.75
542.494	9962.44
542.858	9852.38
543.223	9882.44
543.587	9870.23
543.952	9774.42
544.316	9779.16
544.681	9705.72
545.045	9678.6
545.41	9733.97
545.774	9707.75
546.138	9644.03
546.503	9640.64
546.867	9582.78
547.231	9714.08
547.595	9572.84
547.959	9607.19
548.324	9544.14
548.688	9499.4
549.052	9460.3
549.416	9519.51
549.779	9356.12
550.143	9392.28
550.507	9432.05
550.871	9431.83
551.235	9368.55
551.599	9341.89
551.962	9330.81
552.326	9275.67
552.689	9292.62
553.053	9209.01
553.417	9211.72
553.78	9260.31
554.143	9178.95
554.507	9176.69
554.87	9153.19
555.234	9231.16
555.597	9140.76
555.96	9161.55
556.323	9136.24
556.686	9036.13
557.05	9089.24
557.413	9157.71
557.776	9043.14
558.139	9108.45
558.502	9077.26
558.865	9068.67
559.228	9051.5
559.59	8992.74
559.953	9067.77
560.316	9106.64
560.679	9079.75
561.041	9075.45
561.404	9070.93
561.767	9145.06
562.129	9082.68
562.492	9130.14
562.854	9063.02
563.217	9022.12
563.579	9049.69
563.941	9098.5
564.304	9151.16
564.666	9121.1
565.028	9108.22
565.39	9114.32
565.753	9120.65
566.115	9084.04
566.477	9191.38
566.839	9095.79
567.201	9132.18
567.563	9122.68
567.925	9226.64
568.287	9150.25
568.648	9190.25
569.01	9197.26
569.372	9279.97
569.734	9202.91
570.095	9249.23
570.457	9283.13
570.819	9190.25
571.18	9294.88
571.542	9308.44
571.903	9265.28
572.265	9334.43
572.626	9332.85
572.987	9363.81
573.349	9290.14
573.71	9341.89
574.071	9397.7
574.432	9389.12
574.794	9482.9
575.155	9407.2
575.516	9330.59
575.877	9429.34
576.238	9420.08
576.599	9458.72
576.96	9435.44
577.32	9434.54
577.681	9415.11
578.042	9509.57
578.403	9422.34
578.763	9563.8
579.124	9530.81
579.485	9518.15
579.845	9543.46
580.206	9561.77
580.566	9526.29
580.927	9602.22
581.287	9645.61
581.648	9499.17
582.008	9593.18
582.368	9660.07
582.728	9624.82
583.089	9618.94
583.449	9644.03
583.809	9634.53
584.169	9693.29
584.529	9667.98
584.889	9658.04
585.249	9616.23
585.609	9639.05
585.969	9660.97
586.329	9687.19
586.688	9678.6
587.048	9664.59
587.408	9696.68
587.768	9657.36
588.127	9675.66
588.487	9768.99
588.846	9726.51
589.206	9656.68
589.565	9731.03
589.925	9721.54
590.284	9648.77
590.643	9698.49
591.003	9713.4
591.362	9737.13
591.721	9739.39
592.08	9713.63
592.44	9723.35
592.799	9825.04
593.158	9715.89
593.517	9803.34
593.876	9733.97
594.235	9790.24
594.593	9768.32
594.952	9726.96
595.311	9725.61
595.67	9744.59
596.029	9838.82
596.387	9854.87
596.746	9804.25
597.104	9794.3
597.463	9735.1
597.822	9758.15
598.18	9744.36
598.538	9767.64
598.897	9777.58
599.255	9715.89
599.613	9807.64
599.972	9747.53
600.33	9810.35
600.688	9717.24
601.046	9750.92
601.404	9800.63
601.762	9832.04
602.12	9845.15
602.478	9848.77
602.836	9764.25
603.194	9750.01
603.552	9800.41
603.91	9756.11
604.268	9832.27
604.625	9801.54
604.983	9800.86
605.341	9768.99
605.698	9844.92
606.056	9834.76
606.413	9808.32
606.771	9851.25
607.128	9905.49
607.485	9804.47
607.843	9793.17
608.2	9867.07
608.557	9871.14
608.914	9901.65
609.272	9955.88
609.629	9879.73
609.986	9950.91
610.343	9935.54
610.7	9985.03
611.057	9927.86
611.414	9918.6
611.771	9966.5
612.127	10039.72
612.484	9957.69
612.841	10028.87
613.198	10027.07
613.554	9997.24
613.911	10006.28
614.267	10003.11
614.624	10044.69
614.98	10014.64
615.337	10050.34
615.693	10106.39
616.05	9987.75
616.406	10069.78
616.762	10062.77
617.118	10021.87
617.475	10038.82
617.831	10083.56
618.187	10051.02
618.543	10097.57
618.899	10132.37
619.255	10120.85
619.611	10152.26
619.967	10217.12
620.323	10125.82
620.678	10162.66
621.034	10154.97
621.39	10028.2
621.746	10018.48
622.101	10175.76
622.457	10117.01
622.812	10097.35
623.168	10127.18
623.523	10140.74
623.879	10152.49
624.234	10048.31
624.589	10125.82
624.945	10133.5
625.3	10137.12
625.655	10085.82
626.01	10160.17
626.365	10125.6
626.72	10083.11
627.075	10087.86
627.43	10171.7
627.785	10130.34
628.14	10149.55
628.495	10149.55
628.85	10086.5
629.205	10100.74
629.559	10111.58
629.914	10050.57
630.269	10088.31
630.623	10022.77
630.978	9993.85
631.332	10020.97
631.687	10032.49
632.041	9919.73
632.396	10041.98
632.75	10013.96
633.104	10039.95
633.459	9932.38
633.813	10010.34
634.167	9935.54
634.521	9885.6
634.875	9936.67
635.229	9887.86
635.583	9876.79
635.937	9890.8
636.291	9890.12
636.645	9834.08
636.999	9816
637.352	9933.51
637.706	9804.93
638.06	9833.85
638.413	9801.31
638.767	9824.81
639.121	9834.53
639.474	9760.18
639.828	9767.64
640.181	9741.65
640.534	9750.92
640.888	9717.47
641.241	9744.81
641.594	9673.63
641.947	9759.96
642.301	9738.49
642.654	9672.27
643.007	9655.78
643.36	9656.23
643.713	9660.75
644.066	9688.09
644.419	9689.22
644.771	9541.88
645.124	9478.38
645.477	9481.77
645.83	9426.18
646.182	9451.49
646.535	9406.07
646.888	9371.49
647.24	9360.87
647.593	9356.58
647.945	9413.07
648.298	9270.7
648.65	9307.54
649.002	9353.19
649.355	9321.1
649.707	9358.16
650.059	9424.14
650.411	9528.55
650.763	9517.48
651.115	9632.95
651.467	9482.67
651.819	9503.01
652.171	9533.07
652.523	9525.39
652.875	9535.33
653.227	9448.1
653.578	9574.65
653.93	9574.42
654.282	9461.88
654.633	9526.29
654.985	9487.65
655.337	9539.17
655.688	9514.54
656.039	9537.36
656.391	9511.15
656.742	9518.83
657.094	9475.44
657.445	9537.59
657.796	9543.01
658.147	9511.37
658.498	9516.57
658.849	9532.16
659.2	9613.29
659.551	9555.21
659.902	9593.63
660.253	9508.89
660.604	9573.07
660.955	9508.21
661.306	9585.95
661.656	9518.83
662.007	9533.29
662.358	9529.45
662.708	9561.09
663.059	9546.63
663.409	9522.67
663.76	9576.91
664.11	9598.15
664.461	9625.04
664.811	9645.16
665.161	9541.43
665.511	9562.67
665.862	9496.69
666.212	9561.32
666.562	9575.1
666.912	9602.45
667.262	9635.89
667.612	9542.11
667.962	9517.7
668.312	9507.08
668.662	9579.17
669.011	9614.2
669.361	9585.04
669.711	9522.9
670.06	9496.46
670.41	9558.15
670.76	9515.22
671.109	9544.82
671.459	9543.46
671.808	9491.04
672.157	9483.13
672.507	9489.23
672.856	9469.12
673.205	9459.4
673.554	9472.28
673.904	9511.83
674.253	9547.31
674.602	9437.7
674.951	9336.01
675.3	9280.87
675.649	9425.73
675.998	9381.66
676.346	9440.42
676.695	9409.91
677.044	9311.38
677.393	9385.05
677.741	9421.66
678.09	9348.44
678.438	9380.76
678.787	9381.66
679.135	9299.18
679.484	9244.04
679.832	9241.78
680.181	9283.58
680.529	9209.69
680.877	9290.14
681.225	9179.41
681.573	9264.83
681.922	9193.42
682.27	9159.07
682.618	9242.91
682.966	9192.51
683.314	9151.84
683.661	9142.57
684.009	9078.84
684.357	9116.81
684.705	9075.45
685.053	9088.11
685.4	9008.34
685.748	8972.18
686.095	9057.83
686.443	8925.4
686.79	8942.35
687.138	8959.3
687.485	8907.32
687.832	8893.76
688.18	8928.79
688.527	8866.87
688.874	8814.22
689.221	8792.75
689.568	8740.32
689.915	8730.83
690.262	8734.22
690.609	8689.7
690.956	8720.43
691.303	8712.75
691.65	8649.7
691.997	8546.65
692.344	8544.39
692.69	8540.33
693.037	8549.14
693.383	8477.96
693.73	8526.09
694.077	8438.63
694.423	8408.13
694.769	8418.52
695.116	8380.56
695.462	8320.67
695.808	8345.98
696.155	8356.38
696.501	8269.37
696.847	8264.85
697.193	8263.5
697.539	8225.31
697.885	8103.28
698.231	8108.47
698.577	8069.6
698.923	8122.26
699.269	8032.32
699.614	8051.3
699.96	7994.8
700.306	7982.83
700.651	7931.98
700.997	7837.75
701.342	7863.28
701.688	7831.19
702.033	7820.8
702.379	7829.61
702.724	7754.81
703.069	7721.36
703.415	7678.88
703.76	7673
704.105	7612.44
704.45	7666.68
704.795	7632.78
705.14	7533.8
705.485	7570.86
705.83	7520.01
706.175	7467.81
706.52	7483.86
706.865	7459.68
707.209	7434.37
707.554	7407.93
707.899	7440.69
708.243	7399.34
708.588	7341.71
708.932	7285.67
709.277	7273.69
709.621	7270.3
709.966	7241.38
710.31	7224.43
710.654	7139.91
710.998	7206.58
711.342	7252.45
711.687	7174.71
712.031	7134.49
712.375	7123.64
712.719	7109.63
713.063	7080.25
713.407	7150.53
713.75	7055.85
714.094	7054.26
714.438	7056.52
714.782	7040.48
715.125	7012
715.469	7040.93
715.812	6978.33
716.156	7004.1
716.499	6973.59
716.843	6913.48
717.186	6953.7
717.53	6977.66
717.873	6921.61
718.216	6928.62
718.559	6924.32
718.902	6837.09
719.246	6889.52
719.589	6892.91
719.932	6847.94
720.275	6845.68
720.617	6810.88
720.96	6816.98
721.303	6844.78
721.646	6854.04
721.989	6828.05
722.331	6840.26
722.674	6771.33
723.016	6821.95
723.359	6818.79
723.701	6836.42
724.044	6742.63
724.386	6720.26
724.729	6788.06
725.071	6741.28
725.413	6799.58
725.755	6738.34
726.097	6716.87
726.439	6684.33
726.782	6700.37
727.124	6725.68
727.465	6644.1
727.807	6662.18
728.149	6636.65
728.491	6685.91
728.833	6659.02
729.175	6653.82
729.516	6612.69
729.858	6651.79
730.199	6678
730.541	6667.38
730.882	6665.12
731.224	6652.69
731.565	6599.13
731.906	6646.36
732.248	6703.31
732.589	6642.3
732.93	6608.17
733.271	6635.52
733.612	6649.53
733.953	6672.58
734.294	6674.84
734.635	6642.98
734.976	6692.92
735.317	6630.32
735.658	6664.44
735.999	6697.66
736.339	6624.22
736.68	6711.9
737.021	6701.5
737.361	6673.48
737.702	6657.89
738.042	6656.76
738.383	6659.7
738.723	6693.82
739.063	6708.74
739.404	6710.77
739.744	6697.44
740.084	6713.93
740.424	6713.03
740.764	6700.15
741.104	6814.5
741.444	6729.75
741.784	6805.46
742.124	6798
742.464	6773.37
742.804	6850.88
743.143	6827.83
743.483	6889.3
743.823	6799.81
744.162	6823.54
744.502	6934.49
744.841	6909.41
745.181	6926.81
745.52	6912.57
745.86	6982.85
746.199	7060.59
746.538	7082.06
746.877	7028.28
747.216	7202.28
747.556	7235.95
747.895	7257.87
748.234	7210.87
748.573	7278.89
748.911	7363.63
749.25	7397.53
749.589	7490.41
749.928	7541.93
750.267	7569.5
750.605	7678.65
750.944	7660.8
751.283	7760.46
751.621	7860.57
751.96	7887.91
752.298	7991.19
752.636	8113.67
752.975	8121.35
753.313	8232.54
753.651	8418.97
753.989	8493.55
754.327	8544.85
754.666	8625.75
755.004	8782.13
755.342	8892.18
755.679	8985.29
756.017	9035.91
756.355	9199.52
756.693	9341.89
757.031	9488.32
757.368	9557.25
757.706	9777.81
758.044	9891.7
758.381	10091.7
758.719	10171.47
759.056	10350
759.394	10452.59
759.731	10607.62
760.068	10724.9
760.405	10886.03
760.743	11112.69
761.08	11195.17
761.417	11430.65
761.754	11560.59
762.091	11762.84
762.428	11910.18
762.765	12012.33
763.102	12276.27
763.438	12382.49
763.775	12510.17
764.112	12656.15
764.449	12852.3
764.785	13058.63
765.122	13206.87
765.458	13358.28
765.795	13506.98
766.131	13681.21
766.467	13841.66
766.804	13895.21
767.14	14079.84
