Data from hue_230_FLMS001491_00015.txt Node
Date: Tue Feb 07 16:36:52 GMT 2017
User: dcchb
Spectrometer: FLMS00149
Trigger mode: 0
Integration Time (sec): 2.000000E-2
Scans to average: 10
Electric dark correction enabled: true
Nonlinearity correction enabled: false
Boxcar width: 0
XAxis mode: Wavelengths
Number of Pixels in Spectrum: 2048
>>>>>Begin Spectral Data<<<<<
341.393	-7.64
341.776	-7.64
342.16	-7.64
342.543	-62.78
342.927	-55.1
343.31	-69.11
343.693	-52.84
344.077	-58.94
344.46	-43.57
344.843	-42.67
345.226	-31.37
345.61	-32.5
345.993	-29.11
346.376	-23.01
346.759	3.21
347.142	-4.03
347.525	41.4
347.908	67.39
348.291	65.8
348.674	100.15
349.057	109.19
349.44	135.63
349.823	152.13
350.206	165.46
350.588	194.39
350.971	188.96
351.354	244.1
351.737	257.66
352.119	264.89
352.502	261.96
352.884	289.07
353.267	276.42
353.65	317.77
354.032	285.46
354.414	306.47
354.797	322.52
355.179	298.79
355.562	332.01
355.944	326.59
356.326	324.1
356.709	326.14
357.091	338.11
357.473	354.16
357.855	325.68
358.238	335.85
358.62	341.5
359.002	326.36
359.384	332.91
359.766	337.66
360.148	328.62
360.53	352.12
360.912	323.42
361.294	360.48
361.676	342.86
362.057	333.37
362.439	316.87
362.821	324.33
363.203	319.36
363.584	339.24
363.966	309.86
364.348	310.99
364.729	314.61
365.111	330.88
365.493	328.4
365.874	329.3
366.256	321.39
366.637	319.58
367.019	309.19
367.4	339.69
367.781	326.59
368.163	319.36
368.544	323.65
368.925	295.4
369.306	333.37
369.688	305.8
370.069	322.07
370.45	311.45
370.831	313.03
371.212	308.28
371.593	314.61
371.974	310.32
372.355	325.46
372.736	325.23
373.117	327.49
373.498	299.92
373.879	315.74
374.26	299.47
374.641	301.5
375.021	318.9
375.402	327.94
375.783	320.71
376.163	314.38
376.544	318.9
376.925	339.24
377.305	319.58
377.686	331.79
378.066	333.37
378.447	329.07
378.827	336.98
379.208	325.01
379.588	319.81
379.968	352.58
380.349	331.79
380.729	325.46
381.109	359.13
381.489	339.02
381.87	346.93
382.25	340.82
382.63	338.56
383.01	349.19
383.39	331.33
383.77	325.01
384.15	332.01
384.53	343.08
384.91	355.74
385.29	340.82
385.67	351.9
386.049	346.93
386.429	346.7
386.809	366.13
387.189	353.25
387.568	349.19
387.948	338.79
388.328	342.86
388.707	363.87
389.087	363.2
389.466	373.59
389.846	364.78
390.225	384.89
390.605	358.23
390.984	346.25
391.363	367.04
391.743	370.2
392.122	378.79
392.501	380.6
392.881	381.95
393.26	368.39
393.639	363.2
394.018	373.14
394.397	374.95
394.776	392.8
395.155	384.44
395.534	386.92
395.913	398.9
396.292	371.78
396.671	392.8
397.05	398
397.429	388.28
397.808	391.44
398.186	378.79
398.565	423.08
398.944	402.74
399.323	405.91
399.701	422.86
400.08	395.29
400.458	421.27
400.837	401.84
401.215	397.32
401.594	427.6
401.972	432.8
402.351	420.6
402.729	432.35
403.107	438.67
403.486	426.7
403.864	417.43
404.242	426.47
404.62	414.95
404.999	434.83
405.377	440.26
405.755	452.69
406.133	459.69
406.511	452.23
406.889	454.27
407.267	483.19
407.645	466.92
408.023	488.84
408.401	471.67
408.779	486.81
409.156	505.11
409.534	491.1
409.912	490.88
410.29	502.85
410.667	494.27
411.045	520.93
411.422	514.38
411.8	530.88
412.178	545.11
412.555	526.58
412.933	572.68
413.31	599.57
413.687	573.36
414.065	544.43
414.442	561.84
414.819	578.33
415.197	596.86
415.574	603.87
415.951	593.25
416.328	621.72
416.705	599.12
417.082	619.24
417.46	644.55
417.837	641.38
418.214	640.03
418.591	651.78
418.967	683.41
419.344	647.93
419.721	680.48
420.098	663.53
420.475	684.09
420.852	700.59
421.228	698.56
421.605	714.83
421.982	695.39
422.358	747.37
422.735	744.66
423.111	750.31
423.488	762.06
423.864	759.8
424.241	801.38
424.617	813.13
424.994	797.99
425.37	812.45
425.746	814.71
426.123	808.83
426.499	841.15
426.875	854.71
427.251	871.88
427.627	874.82
428.003	888.38
428.379	917.98
428.756	898.1
429.132	915.95
429.507	912.33
429.883	945.1
430.259	937.64
430.635	965.44
431.011	956.4
431.387	997.3
431.763	992.78
432.138	987.81
432.514	1016.06
432.89	1020.58
433.265	1030.3
433.641	1059.22
434.016	1042.95
434.392	1101.03
434.767	1117.98
435.143	1151.42
435.518	1120.69
435.894	1178.99
436.269	1130.63
436.644	1217.64
437.02	1213.8
437.395	1210.86
437.77	1258.09
438.145	1264.19
438.52	1270.52
438.895	1291.99
439.271	1296.28
439.646	1327.47
440.021	1343.96
440.395	1365.2
440.77	1360.68
441.145	1392.77
441.52	1411.08
441.895	1407.69
442.27	1430.29
442.645	1424.41
443.019	1457.63
443.394	1461.25
443.769	1481.81
444.143	1467.12
444.518	1496.05
444.892	1486.33
445.267	1520
445.641	1525.65
446.016	1541.92
446.39	1547.35
446.764	1537.18
447.139	1580.57
447.513	1571.07
447.887	1581.47
448.262	1599.1
448.636	1580.79
449.01	1635.03
449.384	1635.71
449.758	1651.3
450.132	1680
450.506	1658.76
450.88	1668.02
451.254	1678.87
451.628	1723.61
452.002	1737.4
452.376	1717.96
452.75	1779.88
453.123	1777.17
453.497	1789.37
453.871	1832.99
454.244	1836.83
454.618	1828.02
454.992	1899.88
455.365	1843.38
455.739	1935.13
456.112	1919.09
456.486	1932.65
456.859	1949.6
457.232	1970.84
457.606	1977.39
457.979	2030.27
458.352	2054.9
458.725	2056.94
459.099	2081.8
459.472	2086.99
459.845	2103.72
460.218	2132.64
460.591	2134
460.964	2198.63
461.337	2244.96
461.71	2251.28
462.083	2266.88
462.456	2272.07
462.829	2297.16
463.201	2333.99
463.574	2320.66
463.947	2365.18
464.32	2442.69
464.692	2416.93
465.065	2424.39
465.438	2485.63
465.81	2480.43
466.183	2552.97
466.555	2571.73
466.928	2574.44
467.3	2599.75
467.672	2617.83
468.045	2721.55
468.417	2707.54
468.789	2691.95
469.161	2773.75
469.534	2798.84
469.906	2872.06
470.278	2844.26
470.65	2881.77
471.022	2974.2
471.394	2990.02
471.766	2988.21
472.138	3021.21
472.51	3103.01
472.882	3086.51
473.253	3143.91
473.625	3177.36
473.997	3258.49
474.369	3271.14
474.74	3281.99
475.112	3350.91
475.484	3415.32
475.855	3444.92
476.227	3439.73
476.598	3530.12
476.97	3567.41
477.341	3665.26
477.713	3648.31
478.084	3677.01
478.455	3833.16
478.827	3811.69
479.198	3915.87
479.569	3950.45
479.94	4024.57
480.311	4069.54
480.682	4123.78
481.053	4186.82
481.424	4271.34
481.795	4269.99
482.166	4343.21
482.537	4412.81
482.908	4491.45
483.279	4518.57
483.65	4601.05
484.021	4620.26
484.391	4705.68
484.762	4750.2
485.133	4762.4
485.503	4806.24
485.874	4947.48
486.244	4961.49
486.615	5021.61
486.985	5059.12
487.356	5151.32
487.726	5178.89
488.097	5255.5
488.467	5307.02
488.837	5401.71
489.207	5444.42
489.578	5502.5
489.948	5549.5
490.318	5642.83
490.688	5632.89
491.058	5710.63
491.428	5772.55
491.798	5851.41
492.168	5880.57
492.538	5968.25
492.908	5974.57
493.278	6077.85
493.648	6038.08
494.017	6132.08
494.387	6161.01
494.757	6181.8
495.126	6230.39
495.496	6323.49
495.866	6325.75
496.235	6333.21
496.605	6394.68
496.974	6429.25
497.344	6509.7
497.713	6494.11
498.082	6540.44
498.452	6568.46
498.821	6559.64
499.19	6600.32
499.559	6685.06
499.928	6680.77
500.298	6742.46
500.667	6860.88
501.036	6761.67
501.405	6838.05
501.774	6814.55
502.143	6904.95
502.512	6923.25
502.88	6952.18
503.249	6944.72
503.618	6977.26
503.987	7010.71
504.356	7067.65
504.724	7001.21
505.093	7105.84
505.462	7019.29
505.83	7118.95
506.199	7099.52
506.567	7273.52
506.936	7151.04
507.304	7278.27
507.672	7298.38
508.041	7269.46
508.409	7340.19
508.777	7325.5
509.145	7396.01
509.514	7374.54
509.882	7439.62
510.25	7482.33
510.618	7427.42
510.986	7441.88
511.354	7540.18
511.722	7617.24
512.09	7558.94
512.458	7584.02
512.826	7596.68
513.193	7605.04
513.561	7637.81
513.929	7727.07
514.297	7687.98
514.664	7740.18
515.032	7751.7
515.4	7797.58
515.767	7830.34
516.135	7811.81
516.502	7730.91
516.869	7833.06
517.237	7878.25
517.604	7837.58
517.972	7884.81
518.339	7894.07
518.706	7881.87
519.073	7935.2
519.44	7957.35
519.808	7946.05
520.175	7935.2
520.542	8035.09
520.909	8011.81
521.276	7907.63
521.643	8045.93
522.009	8053.84
522.376	8051.58
522.743	8135.65
523.11	8111.24
523.477	8216.55
523.843	8221.97
524.21	8284.57
524.577	8287.51
524.943	8293.16
525.31	8301.29
525.676	8367.28
526.043	8328.18
526.409	8392.59
526.776	8452.25
527.142	8399.14
527.508	8406.6
527.874	8412.48
528.241	8415.19
528.607	8405.25
528.973	8424
529.339	8503.77
529.705	8425.13
530.071	8517.33
530.437	8549.2
530.803	8560.95
531.169	8499.25
531.535	8494.73
531.901	8466.71
532.267	8487.28
532.632	8543.55
532.998	8541.96
533.364	8558.46
533.73	8503.1
534.095	8561.4
534.461	8569.76
534.826	8487.5
535.192	8513.26
535.557	8647.95
535.923	8501.06
536.288	8630.1
536.653	8544.45
537.019	8471.46
537.384	8525.92
537.749	8561.63
538.114	8547.39
538.479	8475.53
538.845	8496.77
539.21	8461.74
539.575	8443.89
539.94	8491.8
540.305	8465.13
540.67	8478.01
541.034	8493.6
541.399	8431.23
541.764	8434.4
542.129	8512.36
542.494	8463.1
542.858	8433.94
543.223	8391.01
543.587	8435.07
543.952	8467.62
544.316	8405.92
544.681	8399.82
545.045	8434.4
545.41	8387.39
545.774	8435.53
546.138	8378.58
546.503	8287.96
546.867	8353.04
547.231	8362.99
547.595	8289.54
547.959	8298.58
548.324	8230.11
548.688	8226.94
549.052	8248.87
549.416	8249.32
549.779	8267.17
550.143	8242.31
550.507	8254.51
550.871	8267.4
551.235	8253.16
551.599	8264.68
551.962	8247.28
552.326	8193.73
552.689	8301.74
553.053	8146.04
553.417	8208.64
553.78	8288.64
554.143	8192.14
554.507	8169.77
554.87	8211.58
555.234	8343.55
555.597	8169.55
555.96	8186.27
556.323	8215.87
556.686	8152.82
557.05	8215.87
557.413	8198.47
557.776	8188.3
558.139	8198.92
558.502	8155.08
558.865	8181.75
559.228	8256.1
559.59	8246.83
559.953	8206.61
560.316	8291.12
560.679	8298.13
561.041	8232.59
561.404	8313.5
561.767	8346.49
562.129	8244.35
562.492	8334.29
562.854	8292.03
563.217	8285.02
563.579	8287.51
563.941	8458.13
564.304	8394.17
564.666	8387.62
565.028	8375.19
565.39	8404.12
565.753	8458.8
566.115	8479.14
566.477	8473.49
566.839	8452.93
567.201	8548.74
567.563	8508.75
567.925	8580.16
568.287	8571.34
568.648	8590.32
569.01	8619.7
569.372	8645.01
569.734	8618.57
570.095	8638.01
570.457	8674.16
570.819	8693.37
571.18	8685.46
571.542	8754.84
571.903	8729.08
572.265	8772.47
572.626	8799.13
572.987	8718.68
573.349	8773.15
573.71	8851.11
574.071	8816.53
574.432	8852.92
574.794	8860.83
575.155	8923.2
575.516	8938.56
575.877	8944.67
576.238	8926.36
576.599	8960.94
576.96	8967.26
577.32	9015.4
577.681	9028.28
578.042	9049.97
578.403	9046.81
578.763	9045.91
579.124	8998.68
579.485	9079.8
579.845	9188.95
580.206	9095.17
580.566	9111.22
580.927	9147.82
581.287	9159.8
581.648	9147.37
582.008	9226.24
582.368	9256.52
582.728	9243.42
583.089	9243.64
583.449	9294.94
583.809	9215.39
584.169	9263.53
584.529	9305.79
584.889	9359.8
585.249	9262.62
585.609	9266.24
585.969	9390.53
586.329	9300.36
586.688	9377.42
587.048	9420.13
587.408	9304.2
587.768	9345.56
588.127	9349.63
588.487	9366.35
588.846	9452
589.206	9406.35
589.565	9400.02
589.925	9396.63
590.284	9422.17
590.643	9459.45
591.003	9487.93
591.362	9541.49
591.721	9447.93
592.08	9521.6
592.44	9543.29
592.799	9509.17
593.158	9548.27
593.517	9529.06
593.876	9558.66
594.235	9515.05
594.593	9567.25
594.952	9624.87
595.311	9550.75
595.67	9534.03
596.029	9641.37
596.387	9584.2
596.746	9633.01
597.104	9557.53
597.463	9574.71
597.822	9539.9
598.18	9602.05
598.538	9666
598.897	9671.65
599.255	9599.79
599.613	9741.03
599.972	9697.19
600.33	9671.65
600.688	9680.47
601.046	9693.8
601.404	9747.36
601.762	9680.01
602.12	9770.86
602.478	9689.05
602.836	9701.71
603.194	9712.33
603.552	9724.76
603.91	9654.7
604.268	9777.41
604.625	9765.21
604.983	9774.47
605.341	9666.68
605.698	9742.61
606.056	9785.77
606.413	9760.69
606.771	9800.24
607.128	9853.34
607.485	9757.07
607.843	9830.97
608.2	9871.87
608.557	9916.62
608.914	9823.74
609.272	9864.87
609.629	9902.61
609.986	9911.42
610.343	9875.49
610.7	9941.93
611.057	9959.78
611.414	9977.18
611.771	9898.99
612.127	9952.32
612.484	9979.22
612.841	9955.94
613.198	9917.52
613.554	9884.98
613.911	9944.64
614.267	9939.67
614.624	9997.75
614.98	9933.57
615.337	10012.89
615.693	10046.78
616.05	9959.1
616.406	10096.05
616.762	9969.95
617.118	10078.65
617.475	10011.98
617.831	10110.51
618.187	10087.69
618.543	10104.18
618.899	10084.3
619.255	10110.96
619.611	10181.02
619.967	10154.58
620.323	10157.74
620.678	10114.13
621.034	10047.69
621.39	10090.85
621.746	10092.43
622.101	10275.93
622.457	10127.91
622.812	10128.82
623.168	10125.43
623.523	10155.48
623.879	10157.74
624.234	10081.13
624.589	10122.26
624.945	10116.16
625.3	10131.3
625.655	10091.53
626.01	10204.97
626.365	10115.93
626.72	10092.88
627.075	10144.18
627.43	10105.99
627.785	10042.94
628.14	10082.72
628.495	10097.86
628.85	10122.94
629.205	10172.88
629.559	10096.95
629.914	10025.99
630.269	10002.49
630.623	10078.2
630.978	10069.38
631.332	10106.9
631.687	10040
632.041	9996.16
632.396	10065.54
632.75	9979.89
633.104	9967.69
633.459	9939.67
633.813	9946.67
634.167	9974.02
634.521	9954.13
634.875	9925.43
635.229	9894.02
635.583	9836.39
635.937	9902.15
636.291	9914.81
636.645	9917.07
636.999	9829.61
637.352	9876.39
637.706	9792.55
638.06	9871.42
638.413	9838.2
638.767	9699.22
639.121	9865.09
639.474	9732.89
639.828	9811.76
640.181	9710.3
640.534	9761.14
640.888	9687.92
641.241	9677.3
641.594	9702.61
641.947	9719.56
642.301	9726.79
642.654	9639.56
643.007	9720.46
643.36	9685.89
643.713	9701.71
644.066	9714.59
644.419	9675.49
644.771	9600.02
645.124	9486.35
645.477	9499.23
645.83	9451.32
646.182	9348.72
646.535	9312.57
646.888	9358.44
647.24	9302.85
647.593	9400.47
647.945	9339.23
648.298	9276.86
648.65	9276.63
649.002	9287.03
649.355	9296.3
649.707	9329.51
650.059	9348.72
650.411	9447.7
650.763	9468.27
651.115	9540.36
651.467	9508.72
651.819	9455.16
652.171	9518.44
652.523	9496.74
652.875	9537.42
653.227	9419.46
653.578	9520.7
653.93	9547.14
654.282	9506.23
654.633	9488.38
654.985	9440.92
655.337	9501.49
655.688	9532.22
656.039	9541.71
656.391	9496.29
656.742	9540.36
657.094	9521.15
657.445	9539.23
657.796	9516.4
658.147	9496.74
658.498	9429.4
658.849	9551.88
659.2	9486.8
659.551	9446.12
659.902	9456.29
660.253	9443.18
660.604	9488.15
660.955	9487.25
661.306	9459.68
661.656	9462.62
662.007	9461.94
662.358	9461.71
662.708	9496.29
663.059	9496.06
663.409	9436.18
663.76	9466.91
664.11	9524.99
664.461	9482.73
664.811	9504.65
665.161	9500.36
665.511	9407.7
665.862	9497.19
666.212	9481.37
666.562	9421.94
666.912	9482.73
667.262	9475.05
667.612	9457.65
667.962	9509.17
668.312	9435.73
668.662	9594.59
669.011	9472.56
669.361	9502.84
669.711	9428.95
670.06	9482.96
670.41	9510.53
670.76	9435.5
671.109	9408.38
671.459	9459.23
671.808	9447.48
672.157	9426.69
672.507	9349.63
672.856	9397.99
673.205	9406.35
673.554	9383.98
673.904	9343.07
674.253	9444.09
674.602	9387.82
674.951	9261.27
675.3	9277.09
675.649	9300.36
675.998	9367.03
676.346	9319.57
676.695	9370.19
677.044	9354.15
677.393	9326.58
677.741	9332.23
678.09	9343.53
678.438	9315.28
678.787	9303.3
679.135	9267.37
679.484	9246.58
679.832	9264.66
680.181	9211.78
680.529	9183.76
680.877	9178.11
681.225	9234.6
681.573	9261.95
681.922	9137.66
682.27	9083.87
682.618	9124.77
682.966	9152.12
683.314	9098.79
683.661	9066.47
684.009	9066.47
684.357	8999.81
684.705	9054.04
685.053	8973.14
685.4	9021.27
685.748	8898.57
686.095	8901.96
686.443	8881.16
686.79	8907.6
687.138	8930.43
687.485	8875.97
687.832	8847.72
688.18	8873.93
688.527	8784.22
688.874	8774.73
689.221	8742.41
689.568	8758
689.915	8751.68
690.262	8706.93
690.609	8678.23
690.956	8676.42
691.303	8583.77
691.65	8575.86
691.997	8624.9
692.344	8551.91
692.69	8562.3
693.037	8562.3
693.383	8454.06
693.73	8483.66
694.077	8449.09
694.423	8465.36
694.769	8384.45
695.116	8367.96
695.462	8337.68
695.808	8282.76
696.155	8291.35
696.501	8163.67
696.847	8235.76
697.193	8189.21
697.539	8209.54
697.885	8137.91
698.231	8138.36
698.577	8077.34
698.923	8059.27
699.269	8071.47
699.614	8011.13
699.96	7964.8
700.306	7985.37
700.651	7958.03
700.997	7903.34
701.342	7891.81
701.688	7878.93
702.033	7852.49
702.379	7840.06
702.724	7780.4
703.069	7831.02
703.415	7696.56
703.76	7689.11
704.105	7692.5
704.45	7718.71
704.795	7632.38
705.14	7582.89
705.485	7575.66
705.83	7515.1
706.175	7573.4
706.52	7565.49
706.865	7486.85
707.209	7485.72
707.554	7427.64
707.899	7401.2
708.243	7473.07
708.588	7363.46
708.932	7302.9
709.277	7353.52
709.621	7357.82
709.966	7253.41
710.31	7358.94
710.654	7242.56
710.998	7298.61
711.342	7218.84
711.687	7191.94
712.031	7183.58
712.375	7172.51
712.719	7176.58
713.063	7145.39
713.407	7184.26
713.75	7162.34
714.094	7037.37
714.438	7103.36
714.782	7110.82
715.125	7057.48
715.469	7140.87
715.812	7010.93
716.156	6996.47
716.499	7058.16
716.843	7024.72
717.186	6942.46
717.53	6994.43
717.873	6998.28
718.216	6975.23
718.559	6949.46
718.902	6855.91
719.246	6910.6
719.589	6899.97
719.932	6924.83
720.275	6870.37
720.617	6854.33
720.96	6870.37
721.303	6857.49
721.646	6892.52
721.989	6798.96
722.331	6841.44
722.674	6823.14
723.016	6825.63
723.359	6878.96
723.701	6863.59
724.044	6801.67
724.386	6724.16
724.729	6805.51
725.071	6801.22
725.413	6744.05
725.755	6755.8
726.097	6696.14
726.439	6681
726.782	6707.21
727.124	6777.94
727.465	6724.61
727.807	6761.9
728.149	6708.57
728.491	6726.87
728.833	6692.52
729.175	6696.59
729.516	6725.29
729.858	6741.79
730.199	6635.12
730.541	6672.41
730.882	6740.2
731.224	6669.92
731.565	6674.22
731.906	6633.31
732.248	6680.32
732.589	6671.96
732.93	6656.14
733.271	6682.35
733.612	6697.49
733.953	6655.01
734.294	6702.92
734.635	6658.4
734.976	6683.93
735.317	6708.57
735.658	6687.1
735.999	6712.18
736.339	6679.41
736.68	6747.21
737.021	6617.04
737.361	6681.9
737.702	6659.3
738.042	6657.04
738.383	6715.12
738.723	6737.49
739.063	6675.57
739.404	6656.82
739.744	6693.65
740.084	6681.45
740.424	6753.99
740.764	6740.88
741.104	6773.88
741.444	6705.18
741.784	6711.5
742.124	6752.63
742.464	6754.67
742.804	6736.36
743.143	6743.14
743.483	6748.11
743.823	6845.29
744.162	6803.03
744.502	6840.31
744.841	6862.91
745.181	6890.93
745.52	6879.64
745.86	6918.05
746.199	6860.43
746.538	6974.32
746.877	7041.21
747.216	7037.15
747.556	7043.92
747.895	7064.72
748.234	7058.61
748.573	7180.19
748.911	7201.21
749.25	7257.25
749.589	7273.52
749.928	7374.09
750.267	7408.66
750.605	7440.3
750.944	7451.37
751.283	7485.95
751.621	7597.81
751.96	7585.83
752.298	7706.96
752.636	7741.53
752.975	7806.84
753.313	7876.45
753.651	7986.5
753.989	8016.33
754.327	8088.19
754.666	8127.74
755.004	8318.92
755.342	8340.61
755.679	8479.59
756.017	8476.88
756.355	8637.1
756.693	8712.81
757.031	8842.07
757.368	8851.11
757.706	8981.5
758.044	9088.16
758.381	9174.04
758.719	9271.21
759.056	9401.6
759.394	9548.94
759.731	9583.07
760.068	9771.08
760.405	9820.35
760.743	9933.34
761.08	10106.9
761.417	10233.22
761.754	10317.74
762.091	10449.26
762.428	10578.07
762.765	10658.97
763.102	10882.69
763.438	10927.44
763.775	10948.46
764.112	11177.6
764.449	11225.06
764.785	11337.82
765.122	11346.86
765.458	11493.3
765.795	11648.32
766.131	11760.19
766.467	11851.26
766.804	11958.37
767.14	11964.02
767.476	12132.38
767.812	12151.81
768.148	12246.05
768.485	12326.95
768.821	12354.75
