Data from hue_110_FLMS001491_00046.txt Node
Date: Tue Feb 07 17:01:22 GMT 2017
User: dcchb
Spectrometer: FLMS00149
Trigger mode: 0
Integration Time (sec): 2.000000E-2
Scans to average: 10
Electric dark correction enabled: true
Nonlinearity correction enabled: false
Boxcar width: 0
XAxis mode: Wavelengths
Number of Pixels in Spectrum: 2048
>>>>>Begin Spectral Data<<<<<
341.393	-17.01
341.776	-17.01
342.16	-17.01
342.543	-50.9
342.927	-59.26
343.31	-80.05
343.693	-72.37
344.077	-45.93
344.46	-62.2
344.843	-51.58
345.226	-47.96
345.61	-26.04
345.993	-4.58
346.376	-6.84
346.759	-6.38
347.142	26.84
347.525	41.98
347.908	63.44
348.291	79.72
348.674	82.43
349.057	109.55
349.44	108.87
349.823	149.54
350.206	175.98
350.588	216.43
350.971	190.22
351.354	216.89
351.737	240.39
352.119	243.33
352.502	237.45
352.884	257.79
353.267	283.33
353.65	296.66
354.032	313.16
354.414	307.73
354.797	327.62
355.179	324.23
355.562	349.99
355.944	330.33
356.326	347.28
356.709	340.27
357.091	335.08
357.473	338.92
357.855	340.05
358.238	331.91
358.62	353.83
359.002	362.42
359.384	337.11
359.766	354.96
360.148	320.84
360.53	324.68
360.912	334.17
361.294	349.54
361.676	345.02
362.057	339.37
362.439	353.15
362.821	319.03
363.203	317.9
363.584	318.81
363.966	321.07
364.348	313.16
364.729	315.87
365.111	317.45
365.493	331.46
365.874	307.05
366.256	312.93
366.637	331.23
367.019	328.07
367.4	319.71
367.781	324.68
368.163	331.46
368.544	308.18
368.925	310.22
369.306	329.43
369.688	310.67
370.069	317.68
370.45	335.53
370.831	318.58
371.212	315.64
371.593	324.23
371.974	319.94
372.355	312.93
372.736	312.48
373.117	330.56
373.498	321.29
373.879	314.74
374.26	341.86
374.641	321.29
375.021	335.53
375.402	321.97
375.783	311.8
376.163	327.84
376.544	339.14
376.925	321.07
377.305	324.91
377.686	317.45
378.066	340.05
378.447	341.86
378.827	339.6
379.208	354.96
379.588	333.27
379.968	347.96
380.349	338.92
380.729	349.76
381.109	361.52
381.489	355.41
381.87	369.88
382.25	338.92
382.63	336.21
383.01	366.49
383.39	330.33
383.77	348.41
384.15	355.64
384.53	361.52
384.91	374.62
385.29	340.05
385.67	360.39
386.049	368.3
386.429	354.28
386.809	372.59
387.189	362.42
387.568	369.2
387.948	355.64
388.328	360.84
388.707	343.21
389.087	362.19
389.466	374.17
389.846	378.46
390.225	391.12
390.605	362.42
390.984	416.88
391.363	384.79
391.743	388.18
392.122	395.87
392.501	383.66
392.881	394.06
393.26	399.48
393.639	402.42
394.018	386.6
394.397	388.18
394.776	372.59
395.155	389.54
395.534	410.33
395.913	392.25
396.292	394.28
396.671	411.01
397.05	400.16
397.429	414.62
397.808	395.19
398.186	416.2
398.565	404
398.944	404.9
399.323	429.31
399.701	408.97
400.08	416.2
400.458	439.93
400.837	418.24
401.215	418.01
401.594	418.92
401.972	420.95
402.351	434.06
402.729	427.95
403.107	412.14
403.486	434.51
403.864	455.52
404.242	430.44
404.62	429.99
404.999	455.3
405.377	462.08
405.755	458.24
406.133	457.33
406.511	438.58
406.889	459.37
407.267	454.85
407.645	472.25
408.023	463.21
408.401	446.94
408.779	452.59
409.156	480.16
409.534	485.81
409.912	465.24
410.29	487.16
410.667	462.98
411.045	469.54
411.422	493.26
411.8	491.68
412.178	486.26
412.555	501.85
412.933	515.18
413.31	503.21
413.687	506.14
414.065	499.14
414.442	532.13
414.819	511.12
415.197	538.91
415.574	539.36
415.951	540.72
416.328	567.39
416.705	542.08
417.082	548.4
417.46	566.03
417.837	539.59
418.214	552.7
418.591	560.61
418.967	568.74
419.344	567.39
419.721	577.78
420.098	597.67
420.475	578.91
420.852	589.76
421.228	595.63
421.605	573.71
421.982	573.71
422.358	618.91
422.735	597.89
423.111	613.26
423.488	626.82
423.864	609.64
424.241	619.36
424.617	611.45
424.994	615.07
425.37	625.01
425.746	631.79
426.123	654.16
426.499	636.08
426.875	656.2
427.251	675.41
427.627	643.32
428.003	692.35
428.379	680.6
428.756	682.19
429.132	700.72
429.507	711.56
429.883	719.25
430.259	696.65
430.635	695.74
431.011	721.96
431.387	734.61
431.763	738.23
432.138	742.52
432.514	731.9
432.89	755.63
433.265	746.59
433.641	756.31
434.016	773.71
434.392	769.87
434.767	815.52
435.143	786.82
435.518	788.62
435.894	811.22
436.269	804.44
436.644	817.78
437.02	822.52
437.395	849.41
437.77	855.29
438.145	866.81
438.52	880.37
438.895	866.81
439.271	836.53
439.646	889.41
440.021	898
440.395	877.43
440.77	910.65
441.145	905.91
441.52	901.61
441.895	898.45
442.27	918.34
442.645	929.41
443.019	963.08
443.394	929.18
443.769	944.78
444.143	952.01
444.518	960.82
444.892	992.23
445.267	966.25
445.641	965.12
446.016	962.63
446.39	992.01
446.764	980.48
447.139	989.97
447.513	1008.28
447.887	1027.26
448.262	1006.02
448.636	1035.17
449.01	1041.27
449.384	1041.95
449.758	1051.44
450.132	1062.06
450.506	1077.2
450.88	1043.31
451.254	1091.89
451.628	1103.64
452.002	1104.55
452.376	1110.65
452.75	1123.98
453.123	1123.98
453.497	1168.5
453.871	1158.11
454.244	1164.88
454.618	1170.53
454.992	1190.42
455.365	1181.16
455.739	1239.68
456.112	1248.5
456.486	1256.63
456.859	1253.47
457.232	1291.66
457.606	1297.76
457.979	1330.08
458.352	1330.53
458.725	1312
459.099	1384.31
459.472	1377.08
459.845	1382.73
460.218	1403.52
460.591	1408.49
460.964	1430.41
461.337	1453.92
461.71	1461.15
462.083	1531.88
462.456	1521.03
462.829	1543.63
463.201	1545.44
463.574	1561.03
463.947	1589.96
464.32	1607.36
464.692	1636.06
465.065	1670.18
465.438	1687.81
465.81	1710.18
466.183	1767.81
466.555	1771.2
466.928	1788.6
467.3	1815.04
467.672	1818.65
468.045	1881.25
468.417	1884.41
468.789	1916.96
469.161	1931.42
469.534	1992.43
469.906	2007.35
470.278	2085.09
470.65	2086.89
471.022	2142.49
471.394	2223.16
471.766	2217.06
472.138	2283.95
472.51	2340.22
472.882	2371.86
473.253	2443.04
473.625	2429.71
473.997	2543.15
474.369	2577.95
474.74	2631.06
475.112	2665.86
475.484	2760.77
475.855	2810.72
476.227	2848.68
476.598	2966.42
476.97	2990.83
477.341	3146.98
477.713	3216.58
478.084	3246.86
478.455	3367.99
478.827	3420.87
479.198	3519.4
479.569	3600.98
479.94	3757.13
480.311	3841.2
480.682	3922.55
481.053	4076.9
481.424	4169.78
481.795	4290.45
482.166	4396.66
482.537	4519.37
482.908	4663.55
483.279	4752.13
483.65	4819.48
484.021	5041.84
484.391	5132.69
484.762	5249.52
485.133	5373.59
485.503	5518.44
485.874	5707.59
486.244	5747.81
486.615	5935.15
486.985	6096.96
487.356	6242.04
487.726	6392.77
488.097	6637.51
488.467	6691.74
488.837	6905.3
489.207	7053.54
489.578	7242.69
489.948	7349.35
490.318	7571.5
490.688	7698.5
491.058	7885.61
491.428	8053.29
491.798	8256
492.168	8438.59
492.538	8505.93
492.908	8734.4
493.278	8880.61
493.648	8998.8
494.017	9223.88
494.387	9338.91
494.757	9530.09
495.126	9701.61
495.496	9800.59
495.866	9975.95
496.235	10123.07
496.605	10302.95
496.974	10425.43
497.344	10521.47
497.713	10715.14
498.082	10876.72
498.452	11060.44
498.821	11156.03
499.19	11234.68
499.559	11408.91
499.928	11536.14
500.298	11617.49
500.667	11810.03
501.036	11744.95
501.405	11957.14
501.774	12090.7
502.143	12252.28
502.512	12324.14
502.88	12538.14
503.249	12557.81
503.618	12665.6
503.987	12739.72
504.356	12959.38
504.724	12977.91
505.093	13050.67
505.462	13237.34
505.83	13242.53
506.199	13335.41
506.567	13606.59
506.936	13532.02
507.304	13752.8
507.672	13830.99
508.041	13908.73
508.409	13962.51
508.777	14057.65
509.145	14210.19
509.514	14221.26
509.882	14333.58
510.25	14492.9
510.618	14465.1
510.986	14524.31
511.354	14614.25
511.722	14789.39
512.09	14928.82
512.458	14783.06
512.826	15012.88
513.193	14994.8
513.561	15030.06
513.929	15164.97
514.297	15277.73
514.664	15414.23
515.032	15525.64
515.4	15507.11
515.767	15432.53
516.135	15492.19
516.502	15543.94
516.869	15732.19
517.237	15759.98
517.604	15650.38
517.972	15825.29
518.339	15858.28
518.706	15945.51
519.073	15918.17
519.44	16051.27
519.808	16119.52
520.175	16098.5
520.542	16217.14
520.909	16307.99
521.276	16291.49
521.643	16342.79
522.009	16372.62
522.376	16464.6
522.743	16512.5
523.11	16642.67
523.477	16711.14
523.843	16705.72
524.21	16898.03
524.577	16883.34
524.943	16926.96
525.31	16994.98
525.676	17068.2
526.043	17100.96
526.409	17093.05
526.776	17316.55
527.142	17300.96
527.508	17258.7
527.874	17305.7
528.241	17273.16
528.607	17310.67
528.973	17505.47
529.339	17364.01
529.705	17394.74
530.071	17482.42
530.437	17478.81
530.803	17487.62
531.169	17536.43
531.535	17362.42
531.901	17429.77
532.267	17387.06
532.632	17496.43
532.998	17473.16
533.364	17506.6
533.73	17509.54
534.095	17608.97
534.461	17490.11
534.826	17662.08
535.192	17573.04
535.557	17553.61
535.923	17490.56
536.288	17564.91
536.653	17724.68
537.019	17477.45
537.384	17408.75
537.749	17417.34
538.114	17444.91
538.479	17414.63
538.845	17333.5
539.21	17284.69
539.575	17209.21
539.94	17344.12
540.305	17351.13
540.67	17168.98
541.034	17306.61
541.399	17192.49
541.764	17155.65
542.129	17221.86
542.494	17126.95
542.858	17160.85
543.223	17074.97
543.587	17090.79
543.952	16911.82
544.316	17008.31
544.681	16832.72
545.045	16913.85
545.41	17023
545.774	16960.4
546.138	16733.97
546.503	16851.03
546.867	16775.32
547.231	16856.68
547.595	16717.02
547.959	16716.57
548.324	16638.15
548.688	16630.01
549.052	16658.49
549.416	16595.67
549.779	16495.1
550.143	16450.36
550.507	16598.83
550.871	16418.72
551.235	16398.61
551.599	16372.39
551.962	16366.52
552.326	16364.48
552.689	16409.46
553.053	16305.73
553.417	16298.95
553.78	16393.86
554.143	16244.04
554.507	16238.39
554.87	16320.19
555.234	16298.5
555.597	16151.16
555.96	16095.79
556.323	16242.45
556.686	16119.97
557.05	16201.33
557.413	16084.04
557.776	16175.56
558.139	16147.99
558.502	16135.11
558.865	16085.4
559.228	16136.69
559.59	16172.17
559.953	16100.54
560.316	16190.48
560.679	16242.68
561.041	16318.84
561.404	16212.4
561.767	16269.12
562.129	16172.85
562.492	16322.23
562.854	16186.64
563.217	16203.13
563.579	16175.34
563.941	16233.41
564.304	16333.53
564.666	16366.97
565.028	16271.38
565.39	16284.49
565.753	16278.39
566.115	16398.16
566.477	16433.41
566.839	16422.34
567.201	16443.8
567.563	16359.29
567.925	16360.87
568.287	16466.4
568.648	16465.5
569.01	16476.8
569.372	16590.92
569.734	16428.66
570.095	16601.99
570.457	16630.47
570.819	16586.85
571.18	16637.7
571.542	16559.06
571.903	16670.92
572.265	16604.03
572.626	16707.3
572.987	16669.79
573.349	16772.61
573.71	16749.79
574.071	16762.21
574.432	16739.16
574.794	16879.27
575.155	16747.98
575.516	16770.12
575.877	16877.24
576.238	16734.87
576.599	16835.66
576.96	16825.04
577.32	16846.28
577.681	16848.99
578.042	16831.14
578.403	16799.28
578.763	16929.22
579.124	16862.78
579.485	16888.09
579.845	16965.83
580.206	16837.24
580.566	16808.09
580.927	16863.91
581.287	16865.94
581.648	16931.02
582.008	16926.73
582.368	16789.56
582.728	16861.65
583.089	16852.16
583.449	16746.85
583.809	16787.98
584.169	16873.62
584.529	16828.88
584.889	16831.37
585.249	16756.34
585.609	16690.35
585.969	16798.82
586.329	16807.64
586.688	16805.6
587.048	16810.8
587.408	16695.78
587.768	16711.37
588.127	16736.45
588.487	16601.99
588.846	16753.18
589.206	16664.14
589.565	16589.79
589.925	16718.6
590.284	16594.76
590.643	16719.28
591.003	16581.2
591.362	16684.93
591.721	16581.2
592.08	16580.52
592.44	16613.97
592.799	16613.29
593.158	16517.7
593.517	16484.26
593.876	16460.53
594.235	16581.88
594.593	16484.03
594.952	16470.7
595.311	16470.7
595.67	16476.12
596.029	16587.3
596.387	16535.33
596.746	16497.81
597.104	16561.32
597.463	16436.12
597.822	16562.9
598.18	16379.4
598.538	16384.37
598.897	16523.35
599.255	16357.71
599.613	16565.16
599.972	16441.77
600.33	16449.68
600.688	16382.79
601.046	16507.08
601.404	16521.09
601.762	16462.79
602.12	16530.13
602.478	16440.42
602.836	16534.88
603.194	16442
603.552	16507.76
603.91	16359.29
604.268	16412.17
604.625	16458.72
604.983	16568.32
605.341	16406.97
605.698	16476.35
606.056	16506.4
606.413	16439.96
606.771	16490.58
607.128	16505.27
607.485	16432.05
607.843	16407.42
608.2	16503.24
608.557	16633.86
608.914	16423.24
609.272	16505.72
609.629	16522.9
609.986	16647.64
610.343	16562.9
610.7	16657.81
611.057	16542.33
611.414	16618.72
611.771	16586.85
612.127	16737.58
612.484	16678.6
612.841	16738.71
613.198	16666.85
613.554	16672.05
613.911	16754.76
614.267	16707.75
614.624	16712.5
614.98	16787.52
615.337	16849.9
615.693	16709.11
616.05	16726.96
616.406	16892.38
616.762	16842.44
617.118	16832.72
617.475	16782.55
617.831	16943.45
618.187	16769.9
618.543	16856.68
618.899	16924.7
619.255	16897.8
619.611	16846.05
619.967	16917.46
620.323	16919.5
620.678	16911.59
621.034	16810.12
621.39	16918.14
621.746	16874.75
622.101	16993.17
622.457	16937.13
622.812	16862.1
623.168	16878.82
623.523	17027.52
623.879	17047.63
624.234	16847.41
624.589	16864.13
624.945	16967.18
625.3	16949.1
625.655	16990.46
626.01	16941.87
626.365	16992.94
626.72	16938.48
627.075	16909.78
627.43	16952.49
627.785	16840.18
628.14	16890.8
628.495	16954.53
628.85	16937.13
629.205	16866.84
629.559	16906.39
629.914	16869.1
630.269	16807.64
630.623	16879.95
630.978	16718.6
631.332	16832.5
631.687	16839.95
632.041	16819.61
632.396	16827.75
632.75	16806.28
633.104	16736.23
633.459	16608.09
633.813	16715.89
634.167	16744.36
634.521	16691.93
634.875	16646.29
635.229	16544.37
635.583	16561.09
635.937	16565.84
636.291	16576.91
636.645	16579.62
636.999	16399.06
637.352	16561.99
637.706	16480.19
638.06	16510.24
638.413	16421.88
638.767	16406.74
639.121	16443.35
639.474	16377.59
639.828	16363.13
640.181	16434.09
640.534	16305.73
640.888	16271.38
641.241	16211.49
641.594	16267.99
641.947	16300.53
642.301	16246.97
642.654	16244.94
643.007	16327.88
643.36	16232.96
643.713	16150.48
644.066	16214.21
644.419	16088.56
644.771	16140.54
645.124	15953.42
645.477	15878.4
645.83	15830.04
646.182	15789.81
646.535	15732.19
646.888	15819.19
647.24	15696.25
647.593	15675.69
647.945	15762.01
648.298	15606.31
648.65	15620.78
649.002	15634.56
649.355	15655.8
649.707	15651.74
650.059	15831.17
650.411	15977.83
650.763	15924.27
651.115	16125.17
651.467	16055.57
651.819	16057.15
652.171	16081.55
652.523	15997.71
652.875	15947.09
653.227	15950.71
653.578	16050.59
653.93	16056.92
654.282	15946.87
654.633	15910.94
654.985	15921.33
655.337	15980.09
655.688	16035
656.039	16032.52
656.391	15934.67
656.742	15940.77
657.094	16036.36
657.445	15984.38
657.796	16016.7
658.147	16024.61
658.498	15924.95
658.849	16031.39
659.2	15948.45
659.551	15972.4
659.902	16021.9
660.253	15985.51
660.604	15994.33
660.955	15973.99
661.306	16129.69
661.656	16068.67
662.007	16010.14
662.358	16081.33
662.708	16129.69
663.059	16099.18
663.409	15957.72
663.76	16176.69
664.11	16168.78
664.461	16124.04
664.811	16084.27
665.161	16050.14
665.511	16022.12
665.862	16104.83
666.212	16123.59
666.562	16182.34
666.912	16077.94
667.262	16180.76
667.612	16101.67
667.962	16170.37
668.312	16128.56
668.662	16292.85
669.011	16150.03
669.361	16030.48
669.711	16084.49
670.06	16091.27
670.41	16027.09
670.76	16028.45
671.109	16045.4
671.459	16043.82
671.808	15928.56
672.157	16054.66
672.507	15995.23
672.856	15876.36
673.205	15927.89
673.554	15991.61
673.904	15894.89
674.253	15917.49
674.602	15964.5
674.951	15635.92
675.3	15569.93
675.649	15863.26
675.998	15743.03
676.346	15766.76
676.695	15896.93
677.044	15828.68
677.393	15741
677.741	15821.9
678.09	15768.79
678.438	15787.1
678.787	15720.89
679.135	15728.34
679.484	15610.83
679.832	15684.73
680.181	15569.03
680.529	15681.57
680.877	15476.37
681.225	15538.52
681.573	15587.33
681.922	15430.5
682.27	15435.47
682.618	15381.69
682.966	15374
683.314	15383.95
683.661	15365.87
684.009	15288.36
684.357	15251.29
684.705	15296.94
685.053	15317.96
685.4	15267.79
685.748	15164.06
686.095	15182.82
686.443	15073.67
686.79	15049.72
687.138	15087.91
687.485	15083.84
687.832	15035.25
688.18	15072.77
688.527	14829.38
688.874	14915.03
689.221	14894.69
689.568	14802.94
689.915	14781.02
690.262	14803.62
690.609	14775.6
690.956	14649.95
691.303	14727.69
691.65	14526.34
691.997	14570.63
692.344	14481.6
692.69	14400.24
693.037	14431.88
693.383	14236.86
693.73	14207.48
694.077	14161.61
694.423	14128.84
694.769	14123.41
695.116	14167.93
695.462	14029.41
695.808	13994.38
696.155	14089.52
696.501	13788.96
696.847	13955.28
697.193	13826.7
697.539	13804.1
697.885	13639.13
698.231	13738.11
698.577	13626.7
698.923	13512.36
699.269	13499.02
699.614	13474.62
699.96	13436.65
700.306	13330.67
700.651	13322.98
700.997	13209.77
701.342	13271.23
701.688	13180.16
702.033	13114.63
702.379	13129.99
702.724	13020.62
703.069	13039.6
703.415	12934.07
703.76	12948.08
704.105	12952.37
704.45	12868.53
704.795	12840.06
705.14	12736.56
705.485	12724.35
705.83	12771.59
706.175	12700.85
706.52	12639.84
706.865	12620.18
707.209	12565.71
707.554	12503.8
707.899	12516
708.243	12457.24
708.588	12404.59
708.932	12338.83
709.277	12293.41
709.621	12281.43
709.966	12214.99
710.31	12309.22
710.654	12103.13
710.998	12205.95
711.342	12128.21
711.687	12118.49
712.031	12031.27
712.375	11940.87
712.719	12022.45
713.063	11907.43
713.407	12003.02
713.75	11880.76
714.094	11916.47
714.438	11825.62
714.782	11855
715.125	11846.41
715.469	11829.91
715.812	11714.89
716.156	11744.04
716.499	11691.39
716.843	11730.48
717.186	11713.76
717.53	11713.99
717.873	11738.39
718.216	11639.64
718.559	11591.96
718.902	11553.76
719.246	11601.9
719.589	11526.19
719.932	11542.46
720.275	11492.75
720.617	11510.6
720.96	11481
721.303	11536.59
721.646	11545.4
721.989	11433.54
722.331	11470.83
722.674	11376.37
723.016	11388.34
723.359	11356.48
723.701	11433.99
724.044	11318.29
724.386	11312.41
724.729	11394.9
725.071	11314.45
725.413	11310.15
725.755	11273.32
726.097	11252.53
726.439	11209.37
726.782	11230.16
727.124	11261.79
727.465	11154.9
727.807	11175.47
728.149	11190.84
728.491	11116.94
728.833	11162.59
729.175	11163.94
729.516	11143.61
729.858	11154.68
730.199	11123.72
730.541	11203.26
730.882	11111.52
731.224	11154.23
731.565	11092.99
731.906	11112.19
732.248	11113.55
732.589	11115.36
732.93	11065.87
733.271	11081.69
733.612	11132.76
733.953	11169.82
734.294	11113.55
734.635	11107.67
734.976	11132.08
735.317	11083.04
735.658	11073.55
735.999	11175.24
736.339	11104.96
736.68	11163.27
737.021	11123.72
737.361	11165.53
737.702	11171.18
738.042	11134.11
738.383	11142.93
738.723	11196.26
739.063	11069.48
739.404	11228.35
739.744	11160.33
740.084	11256.37
740.424	11240.55
740.764	11225.19
741.104	11302.47
741.444	11234
741.784	11242.81
742.124	11324.62
742.464	11395.58
742.804	11360.32
743.143	11356.71
743.483	11374.33
743.823	11297.05
744.162	11438.06
744.502	11444.16
744.841	11503.82
745.181	11504.05
745.52	11552.18
745.86	11666.53
746.199	11663.59
746.538	11672.4
746.877	11773.65
747.216	11811.84
747.556	11812.74
747.895	11919.63
748.234	11940.65
748.573	11926.41
748.911	12053.19
749.25	12193.07
749.589	12285.72
749.928	12270.58
750.267	12445.27
750.605	12465.6
750.944	12528.88
751.283	12730.46
751.621	12844.8
751.96	12864.46
752.298	12968.87
752.636	13072.14
752.975	13185.13
753.313	13269.2
753.651	13404.34
753.989	13571.56
754.327	13664.67
754.666	13789.41
755.004	13999.8
755.342	14134.71
755.679	14221.49
756.017	14409.73
