Data from hue_300_FLMS001491_00061.txt Node
Date: Tue Feb 07 15:51:02 GMT 2017
User: dcchb
Spectrometer: FLMS00149
Trigger mode: 0
Integration Time (sec): 2.000000E-2
Scans to average: 10
Electric dark correction enabled: true
Nonlinearity correction enabled: false
Boxcar width: 0
XAxis mode: Wavelengths
Number of Pixels in Spectrum: 2048
>>>>>Begin Spectral Data<<<<<
341.393	-7.6
341.776	-7.6
342.16	-7.6
342.543	-71.1
342.927	-53.47
343.31	-70.65
343.693	-55.73
344.077	-59.35
344.46	-66.35
344.843	-68.16
345.226	-41.5
345.61	-45.34
345.993	-25.45
346.376	-13.93
346.759	23.36
347.142	22.01
347.525	41.89
347.908	60.2
348.291	73.3
348.674	105.62
349.057	120.08
349.44	120.31
349.823	120.53
350.206	157.82
350.588	182.45
350.971	166.86
351.354	200.98
351.737	212.96
352.119	215.9
352.502	262.45
352.884	266.74
353.267	274.88
353.65	295.22
354.032	287.99
354.414	311.49
354.797	290.02
355.179	300.42
355.562	311.26
355.944	304.26
356.326	317.82
356.709	310.13
357.091	332.05
357.473	322.34
357.855	323.47
358.238	325.73
358.62	334.54
359.002	330.92
359.384	330.92
359.766	324.6
360.148	319.17
360.53	330.47
360.912	328.44
361.294	325.27
361.676	323.69
362.057	334.09
362.439	322.56
362.821	323.47
363.203	331.83
363.584	290.25
363.966	321.43
364.348	334.54
364.729	305.16
365.111	306.07
365.493	343.58
365.874	325.27
366.256	313.3
366.637	313.97
367.019	300.87
367.4	312.84
367.781	307.87
368.163	306.29
368.544	295.9
368.925	314.43
369.306	306.07
369.688	300.19
370.069	311.71
370.45	316.91
370.831	298.61
371.212	318.72
371.593	315.33
371.974	300.19
372.355	311.49
372.736	310.36
373.117	313.07
373.498	309.46
373.879	308.1
374.26	301.55
374.641	299.06
375.021	314.65
375.402	331.15
375.783	315.33
376.163	293.86
376.544	325.73
376.925	306.07
377.305	355.78
377.686	326.4
378.066	316.91
378.447	304.03
378.827	324.82
379.208	334.99
379.588	331.38
379.968	316.01
380.349	329.57
380.729	336.12
381.109	332.51
381.489	338.61
381.87	335.44
382.25	366.85
382.63	327.31
383.01	331.6
383.39	349
383.77	323.69
384.15	351.04
384.53	334.77
384.91	321.21
385.29	355.33
385.67	348.78
386.049	355.33
386.429	345.61
386.809	348.1
387.189	350.36
387.568	345.16
387.948	353.07
388.328	371.6
388.707	369.11
389.087	346.74
389.466	334.99
389.846	351.94
390.225	352.62
390.605	376.35
390.984	349.68
391.363	372.5
391.743	385.61
392.122	373.63
392.501	369.57
392.881	392.84
393.26	375.67
393.639	376.12
394.018	360.53
394.397	383.8
394.776	373.41
395.155	381.09
395.534	383.58
395.913	383.58
396.292	386.29
396.671	395.33
397.05	403.92
397.429	400.3
397.808	404.37
398.186	397.14
398.565	396.23
398.944	421.77
399.323	418.83
399.701	418.38
400.08	396.46
400.458	405.72
400.837	418.15
401.215	405.72
401.594	425.38
401.972	417.7
402.351	446.17
402.729	406.63
403.107	442.33
403.486	435.33
403.864	457.02
404.242	428.55
404.62	417.7
404.999	438.27
405.377	450.02
405.755	481.65
406.133	483.01
406.511	481.2
406.889	471.71
407.267	491.37
407.645	482.56
408.023	469.9
408.401	486.17
408.779	489.79
409.156	531.6
409.534	500.41
409.912	524.36
410.29	537.7
410.667	543.8
411.045	544.7
411.422	546.51
411.8	545.38
412.178	567.75
412.555	565.95
412.933	573.4
413.31	571.82
413.687	581.76
414.065	616.11
414.442	605.04
414.819	606.4
415.197	645.72
415.574	622.89
415.951	641.65
416.328	654.76
416.705	648.66
417.082	653.85
417.46	669.9
417.837	678.03
418.214	687.52
418.591	717.35
418.967	690.01
419.344	719.39
419.721	710.57
420.098	716.9
420.475	741.08
420.852	756
421.228	756
421.605	761.87
421.982	804.81
422.358	767.97
422.735	810.01
423.111	797.35
423.488	791.02
423.864	826.73
424.241	830.12
424.617	824.7
424.994	848.2
425.37	843.23
425.746	854.3
426.123	897.01
426.499	860.18
426.875	892.04
427.251	895.43
427.627	905.37
428.003	926.39
428.379	928.42
428.756	934.98
429.132	934.75
429.507	984.01
429.883	960.29
430.259	994.63
430.635	976.78
431.011	977.23
431.387	1023.79
431.763	1033.5
432.138	1045.26
432.514	1059.04
432.89	1051.81
433.265	1105.14
433.641	1098.13
434.016	1119.6
434.392	1090
434.767	1145.37
435.143	1153.95
435.518	1138.59
435.894	1148.76
436.269	1166.38
436.644	1203.89
437.02	1194.63
437.395	1203.67
437.77	1226.95
438.145	1243.67
438.52	1259.71
438.895	1236.44
439.271	1255.19
439.646	1294.51
440.021	1343.33
440.395	1299.03
440.77	1298.36
441.145	1310.33
441.52	1333.83
441.895	1307.17
442.27	1344.91
442.645	1358.24
443.019	1352.37
443.394	1307.4
443.769	1349.2
444.143	1339.26
444.518	1366.38
444.892	1332.48
445.267	1372.7
445.641	1397.56
446.016	1379.26
446.39	1428.75
446.764	1425.81
447.139	1393.72
447.513	1412.48
447.887	1400.05
448.262	1427.39
448.636	1427.17
449.01	1434.17
449.384	1474.62
449.758	1449.31
450.132	1477.11
450.506	1464.9
450.88	1464.68
451.254	1475.98
451.628	1480.05
452.002	1497.22
452.376	1521.17
452.75	1508.75
453.123	1539.71
453.497	1535.19
453.871	1536.54
454.244	1566.6
454.618	1558.69
454.992	1583.32
455.365	1570.89
455.739	1621.96
456.112	1642.3
456.486	1621.29
456.859	1652.47
457.232	1661.06
457.606	1657.44
457.979	1675.75
458.352	1695.63
458.725	1718.46
459.099	1725.46
459.472	1727.04
459.845	1744.22
460.218	1763.88
460.591	1778.8
460.964	1790.32
461.337	1822.64
461.71	1830.32
462.083	1849.08
462.456	1881.62
462.829	1864.22
463.201	1874.39
463.574	1867.15
463.947	1881.84
464.32	1930.43
464.692	1944.44
465.065	1939.02
465.438	1983.76
465.81	1969.52
466.183	1990.54
466.555	2020.82
466.928	2028.73
467.3	2020.14
467.672	2047.49
468.045	2116.41
468.417	2088.84
468.789	2127.94
469.161	2138.56
469.534	2129.52
469.906	2182.85
470.278	2200.03
470.65	2204.32
471.022	2239.8
471.394	2284.54
471.766	2277.31
472.138	2300.82
472.51	2331.55
472.882	2360.47
473.253	2396.86
473.625	2369.06
473.997	2433.02
474.369	2427.82
474.74	2464.88
475.112	2469.4
475.484	2520.24
475.855	2535.84
476.227	2526.8
476.598	2590.98
476.97	2618.55
477.341	2664.65
477.713	2653.8
478.084	2681.14
478.455	2750.52
478.827	2801.82
479.198	2812.89
479.569	2797.98
479.94	2861.48
480.311	2923.17
480.682	2959.33
481.053	3005.43
481.424	3035.49
481.795	3049.27
482.166	3063.51
482.537	3115.03
482.908	3160.45
483.279	3155.71
483.65	3195.48
484.021	3284.74
484.391	3277.96
484.762	3291.3
485.133	3303.27
485.503	3326.32
485.874	3389.15
486.244	3420.56
486.615	3455.59
486.985	3495.13
487.356	3552.53
487.726	3551.4
488.097	3598.86
488.467	3610.16
488.837	3615.58
489.207	3707.11
489.578	3697.16
489.948	3784.17
490.318	3779.87
490.688	3784.17
491.058	3856.93
491.428	3889.47
491.798	3920.21
492.168	3940.09
492.538	3987.78
492.908	3999.75
493.278	4047.21
493.648	4086.08
494.017	4103.93
494.387	4127.89
494.757	4127.21
495.126	4193.42
495.496	4182.8
495.866	4180.54
496.235	4249.01
496.605	4209.24
496.974	4267.77
497.344	4312.74
497.713	4327.2
498.082	4356.81
498.452	4395.68
498.821	4383.25
499.19	4396.58
499.559	4422.57
499.928	4417.37
500.298	4486.97
500.667	4493.07
501.036	4504.6
501.405	4492.85
501.774	4525.62
502.143	4572.17
502.512	4586.63
502.88	4615.33
503.249	4577.37
503.618	4624.14
503.987	4632.51
504.356	4664.14
504.724	4682.9
505.093	4709.34
505.462	4665.5
505.83	4783.46
506.199	4774.87
506.567	4811.26
506.936	4839.96
507.304	4874.31
507.672	4821.2
508.041	4863.23
508.409	4859.39
508.777	4899.16
509.145	4998.15
509.514	4937.13
509.882	4984.13
510.25	4980.74
510.618	4958.6
510.986	4998.82
511.354	5032.72
511.722	5039.27
512.09	5067.75
512.458	5030.69
512.826	5064.58
513.193	5084.92
513.561	5169.89
513.929	5137.58
514.297	5199.72
514.664	5204.47
515.032	5209.21
515.4	5201.98
515.767	5251.7
516.135	5232.49
516.502	5189.78
516.869	5272.26
517.237	5316.1
517.604	5250.79
517.972	5332.15
518.339	5371.24
518.706	5348.64
519.073	5363.56
519.44	5394.97
519.808	5422.77
520.175	5387.97
520.542	5414.63
520.909	5497.57
521.276	5533.72
521.643	5488.98
522.009	5544.8
522.376	5532.37
522.743	5583.21
523.11	5592.25
523.477	5605.14
523.843	5633.38
524.21	5754.06
524.577	5730.33
524.943	5792.93
525.31	5765.13
525.676	5832.93
526.043	5849.42
526.409	5871.34
526.776	5980.94
527.142	5952.47
527.508	5935.75
527.874	6016.88
528.241	6039.47
528.607	6054.16
528.973	6060.49
529.339	6098.46
529.705	6113.82
530.071	6192.46
530.437	6158.34
530.803	6165.8
531.169	6255.06
531.535	6248.28
531.901	6226.14
532.267	6303.42
532.632	6368.96
532.998	6363.08
533.364	6390.43
533.73	6415.06
534.095	6500.93
534.461	6435.85
534.826	6533.7
535.192	6556.97
535.557	6582.06
535.923	6579.35
536.288	6582.96
536.653	6651.89
537.019	6623.19
537.384	6663.86
537.749	6693.02
538.114	6724.2
538.479	6756.52
538.845	6725.11
539.21	6730.3
539.575	6787.48
539.94	6846.01
540.305	6882.39
540.67	6845.33
541.034	6897.3
541.399	6921.94
541.764	6947.92
542.129	6982.73
542.494	7000.58
542.858	7025.44
543.223	7092.55
543.587	7059.79
543.952	7107.02
544.316	7148.37
544.681	7142.95
545.045	7179.33
545.41	7231.76
545.774	7266.11
546.138	7261.81
546.503	7265.66
546.867	7288.25
547.231	7374.81
547.595	7375.26
547.959	7388.82
548.324	7438.99
548.688	7500.23
549.052	7468.36
549.416	7481.92
549.779	7532.32
550.143	7541.81
550.507	7581.13
550.871	7589.49
551.235	7674.69
551.599	7605.08
551.962	7672.65
552.326	7743.16
552.689	7724.4
553.053	7643.5
553.417	7742.25
553.78	7833.1
554.143	7829.03
554.507	7829.26
554.87	7826.55
555.234	7888.46
555.597	7869.26
555.96	7944.28
556.323	7962.14
556.686	7945.19
557.05	8016.37
557.413	8018.18
557.776	8041.68
558.139	8051.85
558.502	8045.52
558.865	8105.18
559.228	8135.69
559.59	8138.85
559.953	8167.78
560.316	8270.6
560.679	8206.2
561.041	8254.78
561.404	8251.85
561.767	8355.57
562.129	8297.27
562.492	8393.54
562.854	8360.54
563.217	8424.72
563.579	8469.92
563.941	8437.38
564.304	8523.48
564.666	8508.56
565.028	8520.09
565.39	8594.44
565.753	8581.55
566.115	8655.22
566.477	8681.89
566.839	8701.78
567.201	8774.54
567.563	8832.39
567.925	8858.61
568.287	8861.77
568.648	8871.04
569.01	8905.16
569.372	8988.77
569.734	8982.9
570.095	8995.33
570.457	9081.43
570.819	9015.21
571.18	9096.12
571.542	9101.99
571.903	9182.89
572.265	9264.47
572.626	9366.62
572.987	9363.68
573.349	9341.53
573.71	9424.92
574.071	9449.55
574.432	9539.27
574.794	9600.96
575.155	9666.5
575.516	9666.95
575.877	9765.48
576.238	9863.55
576.599	9895.87
576.96	9915.53
577.32	10052.48
577.681	10124.56
578.042	10308.97
578.403	10320.04
578.763	10431.45
579.124	10546.02
579.485	10673.25
579.845	10768.39
580.206	10765
580.566	10924.09
580.927	11072.56
581.287	11263.52
581.648	11341.93
582.008	11526.34
582.368	11618.76
582.728	11760.23
583.089	11990.05
583.449	12072.08
583.809	12249.48
584.169	12467.33
584.529	12655.12
584.889	12877.71
585.249	12946.41
585.609	13206.29
585.969	13470.47
586.329	13741.42
586.688	13812.38
587.048	14016.44
587.408	14321.52
587.768	14606.71
588.127	14792.01
588.487	15020.93
588.846	15368.49
589.206	15564.2
589.565	15758.77
589.925	16091.64
590.284	16341.12
590.643	16614.79
591.003	16905.63
591.362	17256.81
591.721	17481.21
592.08	17792.39
592.44	18143.56
592.799	18366.38
593.158	18607.28
593.517	18948.74
593.876	19268.28
594.235	19584.43
594.593	19819.45
594.952	20137.63
595.311	20295.14
595.67	20700.56
596.029	21123.82
596.387	21396.13
596.746	21674.54
597.104	21913.63
597.463	22191.14
597.822	22646.49
598.18	22800.62
598.538	23058.69
598.897	23540.03
599.255	23553.59
599.613	24152.9
599.972	24271.76
600.33	24599.44
600.688	24770.05
601.046	25175.24
601.404	25465.63
601.762	25773.42
602.12	26162.33
602.478	26376.79
602.836	26671.93
603.194	26915.54
603.552	27090.9
603.91	27273.72
604.268	27531.79
604.625	27682.75
604.983	28205.9
605.341	28210.19
605.698	28648.82
606.056	28808.82
606.413	29037.51
606.771	29333.78
607.128	29622.58
607.485	29675.46
607.843	29933.53
608.2	30204.71
608.557	30716.11
608.914	30652.16
609.272	31055.54
609.629	31309.77
609.986	31461.63
610.343	31580.95
610.7	31938.91
611.057	32102.74
611.414	32350.65
611.771	32574.6
612.127	32725.55
612.484	32963.74
612.841	33043.74
613.198	33248.7
613.554	33408.92
613.911	33784.73
614.267	33823.38
614.624	33895.24
614.98	34130.26
615.337	34402.8
615.693	34558.5
616.05	34548.55
616.406	34819.96
616.762	34900.64
617.118	35036.45
617.475	35170.69
617.831	35409.1
618.187	35558.92
618.543	35595.76
618.899	35922.76
619.255	36059.93
619.611	35983.32
619.967	36201.84
620.323	36453.82
620.678	36429.64
621.034	36464.66
621.39	36717.54
621.746	36597.54
622.101	37145.77
622.457	36909.17
622.812	37130.41
623.168	37305.09
623.523	37346
623.879	37590.51
624.234	37417.18
624.589	37586.67
624.945	37538.53
625.3	37741.69
625.655	37709.15
626.01	37987.56
626.365	37891.97
626.72	37935.36
627.075	37979.65
627.43	38086.31
627.785	38018.52
628.14	38168.57
628.495	38251.73
628.85	38223.71
629.205	38218.74
629.559	38442.92
629.914	38424.61
630.269	38428.23
630.623	38318.4
630.978	38385.06
631.332	38448.34
631.687	38722.46
632.041	38558.84
632.396	38613.76
632.75	38496.02
633.104	38573.76
633.459	38385.29
633.813	38543.7
634.167	38580.31
634.521	38522.46
634.875	38695.56
635.229	38628.45
635.583	38635.23
635.937	38553.42
636.291	38682.23
636.645	38539.86
636.999	38661.44
637.352	38791.61
637.706	38528.34
638.06	38681.1
638.413	38611.05
638.767	38437.49
639.121	38708.67
639.474	38413.76
639.828	38501.22
640.181	38653.76
640.534	38506.87
640.888	38493.31
641.241	38209.25
641.594	38329.02
641.947	38502.58
642.301	38447.44
642.654	38418.74
643.007	38639.97
643.36	38341.22
643.713	38504.84
644.066	38649.24
644.419	38217.61
644.771	38078.41
645.124	37829.82
645.477	37716.16
645.83	37474.81
646.182	37407.91
646.535	37389.61
646.888	37384.19
647.24	37160.24
647.593	37542.37
647.945	37422.83
648.298	37240.91
648.65	37188.71
649.002	37093.35
649.355	37322.95
649.707	37300.8
650.059	37436.61
650.411	37854.91
650.763	37912.53
651.115	38172.87
651.467	38055.13
651.819	38168.12
652.171	38078.18
652.523	38025.75
652.875	37916.15
653.227	37936.71
653.578	38139.65
653.93	38024.85
654.282	37849.49
654.633	37976.04
654.985	37929.26
655.337	37978.97
655.688	38001.8
656.039	38047.9
656.391	37820.11
656.742	37877.28
657.094	37862.14
657.445	38032.76
657.796	37999.54
658.147	37890.84
658.498	37870.73
658.849	37850.16
659.2	37832.54
659.551	37738.75
659.902	37783.05
660.253	37860.56
660.604	37819.2
660.955	37666.21
661.306	37814.01
661.656	37828.69
662.007	37832.99
662.358	37799.99
662.708	37784.4
663.059	37772.65
663.409	37616.95
663.76	37872.54
664.11	37750.5
664.461	37822.37
664.811	37832.99
665.161	37764.52
665.511	37691.3
665.862	37739.66
666.212	37771.75
666.562	37846.77
666.912	37673.44
667.262	37678.87
667.612	37723.84
667.962	37721.35
668.312	37688.36
668.662	37853.1
669.011	37749.37
669.361	37839.77
669.711	37641.81
670.06	37793.22
670.41	37551.87
670.76	37560.68
671.109	37786.89
671.459	37556.39
671.808	37482.72
672.157	37548.93
672.507	37367.24
672.856	37508.93
673.205	37406.78
673.554	37496.5
673.904	37399.55
674.253	37655.37
674.602	37446.78
674.951	36933.35
675.3	36777.65
675.649	37472.77
675.998	37334.47
676.346	37447.91
676.695	37445.65
677.044	37236.85
677.393	37399.33
677.741	37312.78
678.09	37223.74
678.438	37180.12
678.787	37192.55
679.135	37169.5
679.484	36979.45
679.832	37029.62
680.181	36951.43
680.529	37019.45
680.877	36920.24
681.225	36943.97
681.573	37089.05
681.922	36814.71
682.27	36722.06
682.618	36686.58
682.966	36640.25
683.314	36663.08
683.661	36516.64
684.009	36510.54
684.357	36465.79
684.705	36225.8
685.053	36383.31
685.4	36356.42
685.748	36190.55
686.095	36238
686.443	36079.36
686.79	35944.68
687.138	35967.27
687.485	35992.81
687.832	35794.4
688.18	35877.56
688.527	35641.86
688.874	35540.39
689.221	35580.39
689.568	35532.26
689.915	35376.56
690.262	35350.57
690.609	35240.06
690.956	35017.92
691.303	35037.13
691.65	34952.61
691.997	34985.38
692.344	34831.71
692.69	34724.6
693.037	34862.22
693.383	34562.11
693.73	34738.61
694.077	34512.4
694.423	34446.86
694.769	34310.37
695.116	34189.47
695.462	34277.15
695.808	34153.31
696.155	34112.18
696.501	33962.81
696.847	33853.21
697.193	33629.48
697.539	33820.21
697.885	33527.79
698.231	33468.13
698.577	33444.18
698.923	33443.73
699.269	33203.51
699.614	33003.74
699.96	33084.86
700.306	32963.29
700.651	32907.24
700.997	32793.35
701.342	32850.97
701.688	32842.84
702.033	32671.09
702.379	32483.3
702.724	32495.5
703.069	32561.49
703.415	32070.65
703.76	32295.51
704.105	32182.29
704.45	32074.5
704.795	31803.32
705.14	31758.8
705.485	31964.22
705.83	31589.99
706.175	31641.51
706.52	31726.03
706.865	31447.85
707.209	31464.12
707.554	31343.22
707.899	31406.26
708.243	31238.59
708.588	31286.27
708.932	31009.89
709.277	30869.33
709.621	31018.93
709.966	30841.76
710.31	30962.89
710.654	30706.17
710.998	30643.12
711.342	30711.59
711.687	30501.2
712.031	30538.04
712.375	30369.23
712.719	30455.56
713.063	30452.39
713.407	30535.55
713.75	30287.2
714.094	30096.69
714.438	30152.06
714.782	30246.07
715.125	29837.72
715.469	30055.11
715.812	29879.3
716.156	29632.53
716.499	29728.34
716.843	29792.52
717.186	29607.89
717.53	29764.05
717.873	29773.09
718.216	29577.84
718.559	29475.47
718.902	29364.96
719.246	29382.81
719.589	29319.99
719.932	29185.76
720.275	29230.73
720.617	29098.53
720.96	29178.3
721.303	29074.12
721.646	29177.4
721.989	29005.88
722.331	28991.19
722.674	28765.66
723.016	28967.91
723.359	28818.31
723.701	28894.01
724.044	28609.73
724.386	28526.57
724.729	28581.03
725.071	28501.71
725.413	28459.68
725.755	28457.64
726.097	28253.81
726.439	28254.94
726.782	28284.99
727.124	28372.9
727.465	28250.64
727.807	28258.78
728.149	28040.7
728.491	28162.06
728.833	28162.06
729.175	27945.56
729.516	27991.67
729.858	28130.87
730.199	27969.74
730.541	27883.42
730.882	27861.5
731.224	27934.94
731.565	27718.68
731.906	27743.99
732.248	27751.22
732.589	27675.06
732.93	27464.45
733.271	27660.6
733.612	27652.24
733.953	27638.91
734.294	27559.36
734.635	27480.49
734.976	27561.85
735.317	27318.91
735.658	27372.7
735.999	27411.12
736.339	27181.97
736.68	27309.65
737.021	27264.23
737.361	27215.87
737.702	27353.49
738.042	27141.52
738.383	27104.23
738.723	27234.85
739.063	27133.38
739.404	27094.74
739.744	27046.15
740.084	26845.48
740.424	26908.76
740.764	26876.21
741.104	26947.62
741.444	26733.62
741.784	26736.78
742.124	26795.09
742.464	26708.99
742.804	26678.48
743.143	26510.12
743.483	26709.44
743.823	26522.1
744.162	26491.59
744.502	26414.08
744.841	26403.23
745.181	26480.97
745.52	26274.2
745.86	26534.75
746.199	26329.34
746.538	26342.67
746.877	26473.74
747.216	26396.23
747.556	26276.68
747.895	26263.35
748.234	26310.13
748.573	26141.54
748.911	26209.57
749.25	26225.38
749.589	25979.51
749.928	26119.62
750.267	26050.25
750.605	25946.07
750.944	26020.87
751.283	25923.24
751.621	25971.61
751.96	25843.47
752.298	25823.36
752.636	25923.02
752.975	25784.72
753.313	25756.02
753.651	25916.24
753.989	25575.46
754.327	25572.52
754.666	25509.24
755.004	25680.54
755.342	25583.59
755.679	25531.62
756.017	25420.21
756.355	25615.46
756.693	25478.74
757.031	25433.09
757.368	25351.96
757.706	25189.93
758.044	25244.39
758.381	25264.51
758.719	25062.7
759.056	25298.4
