Data from hue_00_FLMS001491_92.txt Node
Date: Mon Feb 06 15:30:41 GMT 2017
User: dcchb
Spectrometer: FLMS00149
Trigger mode: 0
Integration Time (sec): 2.000000E-2
Scans to average: 10
Electric dark correction enabled: true
Nonlinearity correction enabled: false
Boxcar width: 0
XAxis mode: Wavelengths
Number of Pixels in Spectrum: 2048
>>>>>Begin Spectral Data<<<<<
341.393	-20.17
341.776	-20.17
342.16	-20.17
342.543	-61.52
342.927	-75.53
343.31	-74.18
343.693	-60.85
344.077	-46.83
344.46	-74.86
344.843	-46.83
345.226	-46.61
345.61	-54.07
345.993	1.98
346.376	12.6
346.759	-10.45
347.142	44.91
347.525	36.55
347.908	54.63
348.291	79.04
348.674	81.3
349.057	103.67
349.44	124.69
349.823	132.37
350.206	149.09
350.588	189.77
350.971	191.8
351.354	216.66
351.737	242.2
352.119	245.13
352.502	239.26
352.884	251.46
353.267	266.6
353.65	293.04
354.032	303.66
354.414	289.2
354.797	328.97
355.179	308.86
355.562	313.61
355.944	301.86
356.326	329.43
356.709	340.5
357.091	328.52
357.473	319.26
357.855	334.85
358.238	332.14
358.62	334.17
359.002	345.7
359.384	333.72
359.766	317.9
360.148	322.19
360.53	313.16
360.912	338.01
361.294	335.53
361.676	316.09
362.057	326.71
362.439	340.95
362.821	316.77
363.203	311.57
363.584	323.78
363.966	312.7
364.348	324
364.729	310.67
365.111	307.05
365.493	319.03
365.874	318.81
366.256	312.48
366.637	303.66
367.019	314.06
367.4	300.05
367.781	296.21
368.163	326.26
368.544	306.38
368.925	288.52
369.306	307.96
369.688	296.21
370.069	322.42
370.45	310.44
370.831	289.65
371.212	299.37
371.593	310.22
371.974	299.6
372.355	326.71
372.736	321.07
373.117	326.26
373.498	299.82
373.879	308.18
374.26	308.64
374.641	315.87
375.021	304.12
375.402	314.29
375.783	333.27
376.163	297.56
376.544	310.9
376.925	320.84
377.305	329.88
377.686	312.93
378.066	321.07
378.447	328.97
378.827	315.19
379.208	314.29
379.588	291.01
379.968	323.32
380.349	321.74
380.729	310.22
381.109	313.61
381.489	335.75
381.87	322.42
382.25	314.74
382.63	327.62
383.01	322.87
383.39	335.3
383.77	332.82
384.15	324.23
384.53	327.84
384.91	320.16
385.29	308.41
385.67	324.68
386.049	348.18
386.429	321.07
386.809	349.76
387.189	345.7
387.568	327.17
387.948	336.21
388.328	343.44
388.707	346.38
389.087	342.76
389.466	340.95
389.846	327.17
390.225	351.57
390.605	344.12
390.984	339.37
391.363	357.45
391.743	333.27
392.122	342.31
392.501	335.3
392.881	371.23
393.26	363.32
393.639	328.97
394.018	361.06
394.397	360.61
394.776	350.67
395.155	355.41
395.534	368.07
395.913	354.96
396.292	373.27
396.671	389.54
397.05	352.25
397.429	386.6
397.808	348.63
398.186	343.66
398.565	372.14
398.944	359.71
399.323	376.88
399.701	355.19
400.08	388.63
400.458	382.53
400.837	385.47
401.215	369.2
401.594	392.48
401.972	384.11
402.351	374.85
402.729	371.01
403.107	373.27
403.486	396.54
403.864	387.5
404.242	386.6
404.62	389.76
404.999	412.36
405.377	371.01
405.755	392.93
406.133	406.49
406.511	410.78
406.889	408.07
407.267	410.55
407.645	394.28
408.023	429.54
408.401	416.2
408.779	411.91
409.156	441.51
409.534	420.27
409.912	416.2
410.29	427.05
410.667	417.79
411.045	442.64
411.422	434.73
411.8	428.41
412.178	427.73
412.555	448.07
412.933	446.49
413.31	459.14
413.687	445.81
414.065	442.42
414.442	455.07
414.819	460.04
415.197	452.14
415.574	461.85
415.951	473.83
416.328	461.17
416.705	466.15
417.082	480.38
417.46	472.02
417.837	468.63
418.214	461.63
418.591	502.08
418.967	488.74
419.344	482.42
419.721	467.28
420.098	488.74
420.475	498.01
420.852	501.85
421.228	504.34
421.605	502.3
421.982	502.98
422.358	500.27
422.735	501.63
423.111	518.57
423.488	525.35
423.864	504.34
424.241	548.4
424.617	532.36
424.994	523.09
425.37	544.34
425.746	525.58
426.123	570.55
426.499	566.93
426.875	549.31
427.251	546.6
427.627	567.61
428.003	549.08
428.379	570.32
428.756	575.07
429.132	572.81
429.507	581.4
429.883	573.71
430.259	579.14
430.635	588.85
431.011	628.85
431.387	610.32
431.763	607.61
432.138	619.14
432.514	620.49
432.89	634.28
433.265	627.05
433.641	627.27
434.016	626.37
434.392	639.93
434.767	657.55
435.143	652.36
435.518	644.45
435.894	651.45
436.269	666.82
436.644	674.5
437.02	669.53
437.395	653.26
437.77	698.91
438.145	670.66
438.52	695.52
438.895	702.98
439.271	680.6
439.646	704.56
440.021	708.4
440.395	721.51
440.77	714.73
441.145	733.03
441.52	754.5
441.895	742.97
442.27	741.84
442.645	723.77
443.019	735.29
443.394	755.4
443.769	734.84
444.143	725.57
444.518	779.13
444.892	757.21
445.267	744.78
445.641	772.8
446.016	768.28
446.39	779.36
446.764	786.59
447.139	773.71
447.513	795.4
447.887	792.69
448.262	772.8
448.636	805.57
449.01	820.94
449.384	826.81
449.758	820.71
450.132	813.71
450.506	822.75
450.88	808.06
451.254	855.06
451.628	810.77
452.002	832.69
452.376	869.3
452.75	860.71
453.123	829.98
453.497	875.17
453.871	865.01
454.244	880.6
454.618	872.91
454.992	906.81
455.365	897.55
455.739	900.48
456.112	911.33
456.486	953.59
456.859	937.09
457.232	953.36
457.606	959.69
457.979	960.6
458.352	972.12
458.725	981.61
459.099	983.42
459.472	1015.74
459.845	1003.53
460.218	1019.8
460.591	1013.93
460.964	1005.34
461.337	1055.73
461.71	1062.51
462.083	1032.01
462.456	1080.59
462.829	1087.37
463.201	1067.71
463.574	1079.46
463.947	1102.29
464.32	1138.9
464.692	1133.02
465.065	1130.31
465.438	1147.03
465.81	1155.39
466.183	1170.99
466.555	1210.99
466.928	1181.16
467.3	1194.71
467.672	1210.99
468.045	1229.97
468.417	1234.94
468.789	1285.33
469.161	1277.2
469.534	1298.67
469.906	1307.71
470.278	1331.89
470.65	1323.75
471.022	1365.33
471.394	1422.28
471.766	1387.7
472.138	1395.61
472.51	1443.3
472.882	1474.48
473.253	1473.35
473.625	1501.37
473.997	1506.12
474.369	1517.64
474.74	1529.62
475.112	1590.41
475.484	1602.39
475.855	1637.87
476.227	1620.69
476.598	1688.03
476.97	1711.76
477.341	1728.94
477.713	1772.55
478.084	1780.91
478.455	1808.26
478.827	1844.19
479.198	1878.54
479.569	1918.54
479.94	1965.77
480.311	1953.34
480.682	2005.09
481.053	2047.8
481.424	2090.28
481.795	2091.87
482.166	2134.58
482.537	2125.54
482.908	2224.74
483.279	2246.89
483.65	2249.15
484.021	2297.51
484.391	2355.59
484.762	2358.98
485.133	2398.3
485.503	2437.62
485.874	2512.87
486.244	2507
486.615	2559.65
486.985	2603.04
487.356	2648.46
487.726	2699.53
488.097	2721.23
488.467	2721.91
488.837	2788.8
489.207	2829.93
489.578	2869.92
489.948	2916.03
490.318	2908.79
490.688	2922.8
491.058	2970.26
491.428	3045.51
491.798	3059.07
492.168	3147.43
492.538	3168
492.908	3176.36
493.278	3262.23
493.648	3250.71
494.017	3308.11
494.387	3321.21
494.757	3366.18
495.126	3369.12
495.496	3409.12
495.866	3384.94
496.235	3470.36
496.605	3484.37
496.974	3544.03
497.344	3582
497.713	3586.06
498.082	3614.99
498.452	3627.19
498.821	3670.36
499.19	3660.86
499.559	3697.25
499.928	3747.42
500.298	3763.46
500.667	3801.88
501.036	3754.65
501.405	3811.82
501.774	3847.07
502.143	3859.96
502.512	3902.44
502.88	3949.9
503.249	3921.2
503.618	3949.9
503.987	3944.47
504.356	4000.29
504.724	3995.09
505.093	4009.78
505.462	4040.06
505.83	4059.5
506.199	4137.24
506.567	4144.92
506.936	4140.17
507.304	4162.77
507.672	4186.05
508.041	4239.61
508.409	4226.73
508.777	4198.93
509.145	4313.95
509.514	4317.57
509.882	4330.23
510.25	4299.49
510.618	4325.48
510.986	4426.72
511.354	4389.21
511.722	4445.48
512.09	4411.58
512.458	4435.99
512.826	4472.59
513.193	4469.2
513.561	4499.26
513.929	4559.15
514.297	4550.78
514.664	4596.88
515.032	4594.85
515.4	4598.01
515.767	4592.82
516.135	4698.13
516.502	4628.3
516.869	4668.52
517.237	4705.58
517.604	4717.11
517.972	4731.8
518.339	4812.92
518.706	4766.15
519.073	4796.43
519.44	4818.57
519.808	4835.3
520.175	4854.28
520.542	4899.93
520.909	4868.06
521.276	4892.7
521.643	4882.98
522.009	4946.03
522.376	4982.64
522.743	4980.6
523.11	5027.61
523.477	5062.18
523.843	5104.44
524.21	5158
524.577	5162.75
524.943	5163.42
525.31	5177.89
525.676	5225.79
526.043	5246.36
526.409	5322.06
526.776	5355.51
527.142	5361.16
527.508	5400.25
527.874	5434.38
528.241	5418.11
528.607	5420.82
528.973	5508.27
529.339	5424.43
529.705	5548.5
530.071	5543.53
530.437	5579.01
530.803	5610.64
531.169	5660.59
531.535	5647.25
531.901	5684.31
532.267	5698.1
532.632	5729.74
532.998	5728.83
533.364	5760.24
533.73	5815.61
534.095	5829.17
534.461	5791.43
534.826	5888.6
535.192	5867.81
535.557	5922.95
535.923	5986.9
536.288	5973.12
536.653	5962.5
537.019	6026.23
537.384	6040.01
537.749	6026.68
538.114	6045.43
538.479	6080.69
538.845	6139.67
539.21	6144.41
539.575	6124.98
539.94	6109.16
540.305	6182.38
540.67	6174.92
541.034	6270.29
541.399	6283.85
541.764	6308.93
542.129	6342.83
542.494	6328.82
542.858	6380.57
543.223	6404.52
543.587	6440.45
543.952	6524.74
544.316	6510.96
544.681	6456.95
545.045	6503.28
545.41	6516.83
545.774	6552.09
546.138	6577.17
546.503	6624.85
546.867	6616.72
547.231	6652.42
547.595	6723.38
547.959	6735.81
548.324	6765.87
548.688	6790.05
549.052	6757.96
549.416	6815.81
549.779	6828.92
550.143	6851.51
550.507	6921.57
550.871	6972.19
551.235	6889.93
551.599	6955.69
551.962	6933.55
552.326	6947.33
552.689	7025.97
553.053	6923.83
553.417	7021.23
553.78	7070.27
554.143	7063.94
554.507	7171.28
554.87	7116.59
555.234	7199.98
555.597	7162.24
555.96	7256.02
556.323	7206.08
556.686	7274.55
557.05	7237.27
557.413	7324.72
557.776	7342.12
558.139	7374.21
558.502	7430.71
558.865	7380.99
559.228	7421.67
559.59	7436.36
559.953	7447.21
560.316	7525.17
560.679	7571.04
561.041	7570.59
561.404	7637.48
561.767	7630.03
562.129	7682.91
562.492	7653.98
562.854	7717.48
563.217	7657.14
563.579	7698.72
563.941	7748.21
564.304	7854.43
564.666	7778.95
565.028	7878.38
565.39	7888.78
565.753	7899.62
566.115	7907.98
566.477	7952.95
566.839	7976.68
567.201	8084.25
567.563	8017.13
567.925	8026.17
568.287	8094.19
568.648	8154.31
569.01	8166.96
569.372	8222.33
569.734	8175.32
570.095	8257.13
570.457	8293.28
570.819	8339.39
571.18	8307.97
571.542	8383
571.903	8425.03
572.265	8483.11
572.626	8491.7
572.987	8537.57
573.349	8600.85
573.71	8618.93
574.071	8648.98
574.432	8750
574.794	8766.04
575.155	8785.25
575.516	8844.91
575.877	8921.06
576.238	8987.73
576.599	9086.03
576.96	9062.98
577.32	9105.01
577.681	9263.65
578.042	9291.22
578.403	9460.94
578.763	9464.55
579.124	9413.71
579.485	9602.63
579.845	9717.88
580.206	9833.58
580.566	9891.89
580.927	9945.44
581.287	10126.91
581.648	10180.24
582.008	10370.97
582.368	10370.29
582.728	10569.84
583.089	10657.06
583.449	10790.17
583.809	10897.74
584.169	11111.06
584.529	11238.74
584.889	11429.25
585.249	11623.37
585.609	11683.25
585.969	11928.67
586.329	12072.17
586.688	12305.38
587.048	12389.22
587.408	12548.54
587.768	12847.74
588.127	13036.89
588.487	13185.59
588.846	13458.35
589.206	13595.52
589.565	13878.45
589.925	14106.01
590.284	14286.8
590.643	14510.75
591.003	14850.17
591.362	15068.93
591.721	15263.95
592.08	15545.98
592.44	15789.13
592.799	15998.17
593.158	16233.41
593.517	16453.97
593.876	16778.26
594.235	16957.24
594.593	17304.57
594.952	17508.64
595.311	17763.09
595.67	18062.75
596.029	18387.71
596.387	18608.95
596.746	18975.26
597.104	19141.14
597.463	19394.69
597.822	19852.08
598.18	19895.69
598.538	20153.99
598.897	20587.65
599.255	20630.14
599.613	21235.32
599.972	21395.31
600.33	21666.94
600.688	21827.39
601.046	22173.82
601.404	22464.44
601.762	22716.63
602.12	22971.32
602.478	23277.98
602.836	23423.96
603.194	23559.55
603.552	23855.36
603.91	24166.54
604.268	24258.06
604.625	24505.97
604.983	24862.11
605.341	24995.22
605.698	25396.79
606.056	25736.89
606.413	25828.42
606.771	26071.8
607.128	26266.82
607.485	26352.47
607.843	26740.48
608.2	27127.82
608.557	27178.44
608.914	27263.18
609.272	27628.82
609.629	27782.49
609.986	28180.22
610.343	28129.83
610.7	28590.83
611.057	28765.97
611.414	28808.9
611.771	29032.4
612.127	29220.19
612.484	29314.2
612.841	29620.86
613.198	29701.76
613.554	29827.86
613.911	30142.2
614.267	30257
614.624	30379.94
614.98	30490.67
615.337	30835.52
615.693	30973.37
616.05	31082.97
616.406	31319.12
616.762	31353.92
617.118	31511.21
617.475	31625.55
617.831	31768.6
618.187	31890.86
618.543	31958.2
618.899	32264.86
619.255	32438.19
619.611	32501.24
619.967	32721.34
620.323	32899.42
620.678	32736.26
621.034	32885.63
621.39	33076.36
621.746	32994.1
622.101	33627.76
622.457	33261.67
622.812	33484.26
623.168	33540.3
623.523	33626.18
623.879	33723.12
624.234	33579.63
624.589	33834.08
624.945	33933.74
625.3	33979.16
625.655	34047.64
626.01	34229.55
626.365	34272.49
626.72	34170.34
627.075	34273.39
627.43	34251.47
627.785	34349.77
628.14	34535.31
628.495	34487.17
628.85	34567.4
629.205	34524.46
629.559	34823.66
629.914	34747.96
630.269	34731.69
630.623	34712.48
630.978	34702.99
631.332	34942.98
631.687	34938.46
632.041	34845.58
632.396	34973.04
632.75	34836.09
633.104	34957.67
633.459	34796.09
633.813	34939.82
634.167	34923.32
634.521	34995.86
634.875	35100.94
635.229	34939.36
635.583	34896.2
635.937	34930.78
636.291	34914.05
636.645	34964.67
636.999	34940.95
637.352	35094.39
637.706	34890.1
638.06	35011.23
638.413	34962.19
638.767	34937.1
639.121	35021.62
639.474	34878.57
639.828	34819.59
640.181	34912.25
640.534	34879.25
640.888	34705.02
641.241	34755.87
641.594	34827.28
641.947	34910.21
642.301	34901.17
642.654	34861.17
643.007	34953.83
643.36	34904.56
643.713	34868.41
644.066	34875.41
644.419	34829.08
644.771	34495.53
645.124	34272.04
645.477	34266.16
645.83	34010.57
646.182	34004.7
646.535	33786.63
646.888	33849
647.24	33657.36
647.593	33796.12
647.945	33841.31
648.298	33734.88
648.65	33593.41
649.002	33571.94
649.355	33710.24
649.707	33636.57
650.059	33698.72
650.411	34124.24
650.763	34136.67
651.115	34503.22
651.467	34309.55
651.819	34463.44
652.171	34316.78
652.523	34278.36
652.875	34280.17
653.227	34153.85
653.578	34451.02
653.93	34402.88
654.282	34162.66
654.633	34095.09
654.985	34313.84
655.337	34109.78
655.688	34294.18
656.039	34388.87
656.391	34085.15
656.742	34163.11
657.094	34106.39
657.445	34339.61
657.796	34280.4
658.147	34121.53
658.498	34052.16
658.849	34187.97
659.2	33968.32
659.551	34019.84
659.902	34244.69
660.253	34094.41
660.604	34207.63
660.955	33969.45
661.306	34137.8
661.656	34114.07
662.007	34122.66
662.358	33979.39
662.708	34062.78
663.059	33947.07
663.409	33869.11
663.76	34105.71
664.11	34103.23
664.461	34013.96
664.811	34118.37
665.161	34100.74
665.511	34017.81
665.862	33885.83
666.212	33994.53
666.562	34001.54
666.912	34033.85
667.262	34026.39
667.612	33830.69
667.962	33934.42
668.312	33968.99
668.662	33995.89
669.011	33871.14
669.361	33849.45
669.711	33890.13
670.06	33816.23
670.41	33809.45
670.76	33750.69
671.109	33802.44
671.459	33884.25
671.808	33686.52
672.157	33751.6
672.507	33594.99
672.856	33663.47
673.205	33753.86
673.554	33982.1
673.904	33771.71
674.253	33826.4
674.602	33688.32
674.951	33192.97
675.3	33110.94
675.649	33572.85
675.998	33693.52
676.346	33620.08
676.695	33693.97
677.044	33500.31
677.393	33578.72
677.741	33701.43
678.09	33438.84
678.438	33437.93
678.787	33664.37
679.135	33579.85
679.484	33371.27
679.832	33378.27
680.181	33278.16
680.529	33344.15
680.877	33258.73
681.225	33171.73
681.573	33273.42
681.922	33118.39
682.27	33055.35
682.618	33055.57
682.966	32966.31
683.314	32946.2
683.661	32835.01
684.009	32761.79
684.357	32668.46
684.705	32753.21
685.053	32786.2
685.4	32712.08
685.748	32476.38
686.095	32513.21
686.443	32478.19
686.79	32333.1
687.138	32418.3
687.485	32418.98
687.832	32348.25
688.18	32293.33
688.527	32104.18
688.874	32120.45
689.221	32075.71
689.568	32021.47
689.915	31860.12
690.262	32050.63
690.609	31820.35
690.956	31715.95
691.303	31696.74
691.65	31425.78
691.997	31547.36
692.344	31275.51
692.69	31358.22
693.037	31315.05
693.383	31141.05
693.73	31175.17
694.077	30883.88
694.423	30992.12
694.769	30852.92
695.116	30800.04
695.462	30832.81
695.808	30763.65
696.155	30788.51
696.501	30489.54
696.847	30673.26
697.193	30265.36
697.539	30393.27
697.885	30209.09
698.231	30193.05
698.577	30140.62
698.923	30156.44
699.269	29845.49
699.614	29835.09
699.96	29831.93
700.306	29746.73
700.651	29641.65
700.997	29533.4
701.342	29441.88
701.688	29486.17
702.033	29439.85
702.379	29378.61
702.724	29334.54
703.069	29205.73
703.415	29083.7
703.76	29115.34
704.105	29011.84
704.45	28930.71
704.795	28881.22
705.14	28820.88
705.485	28661.79
705.83	28570.94
706.175	28671.28
706.52	28506.99
706.865	28420.44
707.209	28335.47
707.554	28362.59
707.899	28467.22
708.243	28250.95
708.588	28158.98
708.932	27915.37
709.277	28016.83
709.621	27940.45
709.966	27858.19
710.31	27880.11
710.654	27633.12
710.998	27650.97
711.342	27593.34
711.687	27525.55
712.031	27435.83
712.375	27223.18
712.719	27349.96
713.063	27257.98
713.407	27384.76
713.75	27173.01
714.094	27217.53
714.438	27052.79
714.782	27055.96
715.125	27026.8
715.469	27039.46
715.812	26925.79
716.156	26636.31
716.499	26745.91
716.843	26728.28
717.186	26670.2
717.53	26819.8
717.873	26803.53
718.216	26603.99
718.559	26524.22
718.902	26449.19
719.246	26542.52
719.589	26364.45
719.932	26313.83
720.275	26162.19
720.617	26213.72
720.96	26215.07
721.303	26134.62
721.646	26225.92
721.989	25943.44
722.331	26071.57
722.674	26061.63
723.016	26104.79
723.359	26006.49
723.701	25936.89
724.044	25764.01
724.386	25674.3
724.729	25717.69
725.071	25715.2
725.413	25650.12
725.755	25737.35
726.097	25463.23
726.439	25404.47
726.782	25418.03
727.124	25596.33
727.465	25434.08
727.807	25426.85
728.149	25335.55
728.491	25331.48
728.833	25348.43
729.175	25070.02
729.516	25110.7
729.858	25079.28
730.199	25131.26
730.541	25144.59
730.882	25019.4
731.224	25196.57
731.565	24812.4
731.906	24907.76
732.248	25050.13
732.589	24815.56
732.93	24789.12
733.271	24791.38
733.612	24813.53
733.953	24732.17
734.294	24636.81
734.635	24572.63
734.976	24552.29
735.317	24487.66
735.658	24484.72
735.999	24538.96
736.339	24564.95
736.68	24503.93
737.021	24414.89
737.361	24297.84
737.702	24398.62
738.042	24319.76
738.383	24282.92
738.723	24413.54
739.063	24251.06
739.404	24266.42
739.744	24233.88
740.084	24128.12
740.424	24136.94
740.764	23946.66
741.104	24154.11
741.444	23967.67
741.784	23971.29
742.124	23925.19
742.464	23873.67
742.804	23873.21
743.143	23697.17
743.483	23797.06
743.823	23687
744.162	23688.13
744.502	23697.17
744.841	23630.06
745.181	23645.42
745.52	23623.05
745.86	23668.93
746.199	23639.1
746.538	23501.25
746.877	23608.59
747.216	23494.24
747.556	23473.22
747.895	23415.15
748.234	23320.23
748.573	23261.48
748.911	23350.97
749.25	23253.34
749.589	23201.82
749.928	23160.01
750.267	23219.67
750.605	23165.21
750.944	23075.27
751.283	22955.72
751.621	23064.2
751.96	22900.13
752.298	22794.37
752.636	22968.15
752.975	22741.49
753.313	22675.05
753.651	22793.92
753.989	22653.59
754.327	22529.75
754.666	22533.81
755.004	22609.97
755.342	22518.22
755.679	22467.6
756.017	22370.2
756.355	22430.09
756.693	22329.3
757.031	22233.94
757.368	22233.71
757.706	22157.78
758.044	22041.4
758.381	22121.17
758.719	22067.61
759.056	22010.44
759.394	21978.35
759.731	21958.24
760.068	21771.8
760.405	21774.74
760.743	21718.69
