Data from hue_270_FLMS001491_00067.txt Node
Date: Tue Feb 07 15:57:33 GMT 2017
User: dcchb
Spectrometer: FLMS00149
Trigger mode: 0
Integration Time (sec): 2.000000E-2
Scans to average: 10
Electric dark correction enabled: true
Nonlinearity correction enabled: false
Boxcar width: 0
XAxis mode: Wavelengths
Number of Pixels in Spectrum: 2048
>>>>>Begin Spectral Data<<<<<
341.393	-17.68
341.776	-17.68
342.16	-17.68
342.543	-66.72
342.927	-64.24
343.31	-81.64
343.693	-66.95
344.077	-47.74
344.46	-57
344.843	-29.43
345.226	-35.31
345.61	-27.17
345.993	-17.91
346.376	-23.78
346.759	8.53
347.142	25.03
347.525	23.67
347.908	55.08
348.291	78.59
348.674	84.69
349.057	111.35
349.44	123.78
349.823	142.76
350.206	165.14
350.588	178.92
350.971	206.04
351.354	207.62
351.737	222.99
352.119	242.2
352.502	251.69
352.884	261.18
353.267	281.74
353.65	271.12
354.032	268.19
354.414	295.08
354.797	318.58
355.179	303.44
355.562	307.51
355.944	336.43
356.326	326.04
356.709	332.14
357.091	325.58
357.473	340.73
357.855	347.73
358.238	328.97
358.62	346.83
359.002	340.05
359.384	348.18
359.766	317
360.148	358.8
360.53	340.05
360.912	340.27
361.294	342.53
361.676	324
362.057	327.39
362.439	314.51
362.821	307.28
363.203	326.94
363.584	346.83
363.966	298.24
364.348	332.14
364.729	323.78
365.111	321.29
365.493	322.42
365.874	318.58
366.256	314.51
366.637	290.56
367.019	294.17
367.4	297.56
367.781	295.98
368.163	293.95
368.544	291.91
368.925	331.91
369.306	311.35
369.688	302.08
370.069	316.77
370.45	291.46
370.831	320.16
371.212	304.79
371.593	330.56
371.974	298.24
372.355	303.89
372.736	309.99
373.117	317.9
373.498	330.1
373.879	310.9
374.26	278.35
374.641	334.17
375.021	317.22
375.402	317.45
375.783	300.05
376.163	330.56
376.544	338.92
376.925	335.75
377.305	338.92
377.686	329.43
378.066	332.59
378.447	333.49
378.827	326.04
379.208	304.34
379.588	331.69
379.968	322.65
380.349	343.89
380.729	317.45
381.109	344.79
381.489	342.08
381.87	320.16
382.25	317
382.63	339.82
383.01	351.8
383.39	331.01
383.77	333.95
384.15	355.64
384.53	347.5
384.91	361.52
385.29	335.08
385.67	342.99
386.049	354.51
386.429	343.21
386.809	338.69
387.189	378.69
387.568	361.97
387.948	354.96
388.328	354.28
388.707	358.8
389.087	350.67
389.466	347.73
389.846	372.59
390.225	372.59
390.605	385.92
390.984	347.73
391.363	379.37
391.743	387.96
392.122	387.05
392.501	391.8
392.881	381.85
393.26	364.91
393.639	367.39
394.018	400.61
394.397	370.1
394.776	412.81
395.155	377.79
395.534	380.95
395.913	368.75
396.292	392.02
396.671	410.55
397.05	397
397.429	393.61
397.808	394.51
398.186	402.19
398.565	401.74
398.944	391.8
399.323	401.97
399.701	387.05
400.08	408.97
400.458	414.17
400.837	413.49
401.215	433.38
401.594	432.25
401.972	399.26
402.351	412.14
402.729	429.76
403.107	443.32
403.486	426.15
403.864	442.64
404.242	440.61
404.62	463.21
404.999	436.54
405.377	432.47
405.755	469.99
406.133	449.2
406.511	449.2
406.889	485.58
407.267	460.72
407.645	466.82
408.023	475.86
408.401	474.28
408.779	486.48
409.156	475.41
409.534	480.16
409.912	501.4
410.29	502.98
410.667	521.74
411.045	527.84
411.422	526.03
411.8	516.31
412.178	531.91
412.555	547.5
412.933	543.43
413.31	574.39
413.687	564.67
414.065	565.13
414.442	561.06
414.819	573.71
415.197	579.82
415.574	595.18
415.951	599.48
416.328	603.32
416.705	620.72
417.082	618.23
417.46	632.92
417.837	646.03
418.214	626.59
418.591	645.12
418.967	656.42
419.344	640.38
419.721	651.9
420.098	650.55
420.475	669.53
420.852	667.04
421.228	707.95
421.605	702.07
421.982	720.6
422.358	710.21
422.735	719.47
423.111	732.35
423.488	764.22
423.864	747.04
424.241	765.35
424.617	763.99
424.994	771
425.37	790.88
425.746	836.08
426.123	794.72
426.499	808.51
426.875	820.94
427.251	832.24
427.627	876.76
428.003	853.93
428.379	881.05
428.756	881.28
429.132	898.45
429.507	905.46
429.883	933.48
430.259	924.21
430.635	931.22
431.011	956.75
431.387	938.45
431.763	971.22
432.138	975.06
432.514	1001.73
432.89	1019.13
433.265	1016.64
433.641	1019.13
434.016	1059.35
434.392	1090.99
434.767	1084.43
435.143	1101.38
435.518	1125.56
435.894	1130.54
436.269	1136.41
436.644	1166.69
437.02	1170.31
437.395	1158.78
437.77	1215.05
438.145	1232.91
438.52	1232.23
438.895	1258.44
439.271	1255.05
439.646	1302.06
440.021	1322.39
440.395	1282.62
440.77	1299.12
441.145	1313.13
441.52	1339.34
441.895	1329.17
442.27	1371.88
442.645	1378.44
443.019	1389.29
443.394	1395.84
443.769	1411.43
444.143	1373.24
444.518	1445.33
444.892	1441.49
445.267	1443.3
445.641	1448.49
446.016	1486.23
446.39	1487.36
446.764	1478.77
447.139	1469.51
447.513	1520.13
447.887	1502.28
448.262	1499.11
448.636	1498.44
449.01	1526.68
449.384	1561.48
449.758	1578.66
450.132	1587.7
450.506	1541.37
450.88	1608.94
451.254	1614.59
451.628	1605.55
452.002	1634.02
452.376	1631.09
452.75	1646.91
453.123	1627.47
453.497	1688.26
453.871	1678.32
454.244	1729.84
454.618	1732.78
454.992	1710.86
455.365	1736.17
455.739	1782.04
456.112	1811.2
456.486	1825.43
456.859	1831.99
457.232	1872.66
457.606	1852.78
457.979	1853.91
458.352	1877.63
458.725	1918.54
459.099	1918.76
459.472	1965.09
459.845	1970.29
460.218	1961.93
460.591	1989.04
460.964	2009.83
461.337	2044.18
461.71	2083.96
462.083	2114.69
462.456	2086.22
462.829	2101.58
463.201	2132.54
463.574	2148.81
463.947	2146.1
464.32	2238.3
464.692	2227.68
465.065	2214.57
465.438	2246.44
465.81	2274.69
466.183	2295.48
466.555	2322.37
466.928	2363.27
467.3	2342.93
467.672	2381.8
468.045	2427.9
468.417	2442.37
468.789	2431.74
469.161	2484.85
469.534	2497.73
469.906	2536.6
470.278	2566.43
470.65	2555.58
471.022	2612.08
471.394	2655.24
471.766	2698.63
472.138	2676.94
472.51	2751.28
472.882	2764.62
473.253	2787.67
473.625	2790.6
473.997	2879.19
474.369	2842.58
474.74	2881.45
475.112	2938.85
475.484	2987.66
475.855	3009.58
476.227	3040.09
476.598	3090.71
476.97	3130.71
477.341	3181.55
477.713	3233.3
478.084	3218.62
478.455	3332.74
478.827	3347.43
479.198	3428.78
479.569	3409.57
479.94	3478.27
480.311	3489.12
480.682	3565.05
481.053	3613.63
481.424	3681.88
481.795	3655.67
482.166	3736.34
482.537	3756.68
482.908	3854.08
483.279	3875.77
483.65	3921.87
484.021	3956.45
484.391	4000.52
484.762	4046.62
485.133	4070.57
485.503	4090.01
485.874	4171.13
486.244	4188.76
486.615	4272.83
486.985	4293.62
487.356	4388.3
487.726	4347.63
488.097	4469.88
488.467	4424.23
488.837	4550.56
489.207	4596.43
489.578	4614.06
489.948	4689.54
490.318	4671.01
490.688	4653.38
491.058	4765.24
491.428	4808.4
491.798	4894.73
492.168	4972.02
492.538	4996.65
492.908	4963.65
493.278	5026.7
493.648	5061.28
494.017	5146.93
494.387	5114.84
494.757	5134.72
495.126	5223.53
495.496	5224.21
495.866	5280.71
496.235	5237.09
496.605	5332.68
496.974	5318.9
497.344	5383.08
497.713	5393.93
498.082	5433.02
498.452	5454.04
498.821	5428.28
499.19	5467.37
499.559	5515.05
499.928	5529.97
500.298	5525.67
500.667	5613.81
501.036	5614.71
501.405	5634.37
501.774	5664.2
502.143	5677.53
502.512	5717.99
502.88	5730.87
503.249	5732.67
503.618	5760.47
503.987	5781.71
504.356	5779
504.724	5753.69
505.093	5851.09
505.462	5816.97
505.83	5860.13
506.199	5875.95
506.567	5971.09
506.936	5929.05
507.304	5962.5
507.672	5977.41
508.041	6070.07
508.409	6044.3
508.777	6083.85
509.145	6079.78
509.514	6076.17
509.882	6088.37
510.25	6117.07
510.618	6104.42
510.986	6112.33
511.354	6163.62
511.722	6192.55
512.09	6229.84
512.458	6165.66
512.826	6188.03
513.193	6280.46
513.561	6274.35
513.929	6250.17
514.297	6324.97
514.664	6308.7
515.032	6357.29
515.4	6384.41
515.767	6374.69
516.135	6395.48
516.502	6352.54
516.869	6419.66
517.237	6392.54
517.604	6413.79
517.972	6415.82
518.339	6454.92
518.706	6468.47
519.073	6530.17
519.44	6519.32
519.808	6562.71
520.175	6516.61
520.542	6573.33
520.909	6566.78
521.276	6612.43
521.643	6646.55
522.009	6682.25
522.376	6629.37
522.743	6688.36
523.11	6703.27
523.477	6729.26
523.843	6749.37
524.21	6795.7
524.577	6835.02
524.943	6823.27
525.31	6849.48
525.676	6900.55
526.043	6920.89
526.409	6905.3
526.776	7002.92
527.142	6990.72
527.508	6977.84
527.874	6949.37
528.241	6948.24
528.607	7054.22
528.973	7062.13
529.339	7040.44
529.705	7129.93
530.071	7167.66
530.437	7169.02
530.803	7134.67
531.169	7155.91
531.535	7189.58
531.901	7198.17
532.267	7206.53
532.632	7237.95
532.998	7221.45
533.364	7298.06
533.73	7265.97
534.095	7324.27
534.461	7290.15
534.826	7296.02
535.192	7348.9
535.557	7388.22
535.923	7339.41
536.288	7365.4
536.653	7400.65
537.019	7366.08
537.384	7383.48
537.749	7383.25
538.114	7423.03
538.479	7422.57
538.845	7424.83
539.21	7374.89
539.575	7465.06
539.94	7395.91
540.305	7468.9
540.67	7425.06
541.034	7505.28
541.399	7515.23
541.764	7532.17
542.129	7471.39
542.494	7562.23
542.858	7544.15
543.223	7517.03
543.587	7587.31
543.952	7550.71
544.316	7556.81
544.681	7596.58
545.045	7580.54
545.41	7575.56
545.774	7638.61
546.138	7592.29
546.503	7625.96
546.867	7568.33
547.231	7673.87
547.595	7681.78
547.959	7630.7
548.324	7639.29
548.688	7608.33
549.052	7694.43
549.416	7620.99
549.779	7595.9
550.143	7643.81
550.507	7681.78
550.871	7743.02
551.235	7716.12
551.599	7736.24
551.962	7795.44
552.326	7712.51
552.689	7804.03
553.053	7791.15
553.417	7739.4
553.78	7839.51
554.143	7823.24
554.507	7876.35
554.87	7810.36
555.234	7866.4
555.597	7759.74
555.96	7879.28
556.323	7899.4
556.686	7891.71
557.05	7941.2
557.413	7891.71
557.776	7907.53
558.139	7988.21
558.502	7970.36
558.865	7967.19
559.228	8045.61
559.59	8100.97
559.953	8095.32
560.316	8125.61
560.679	8140.07
561.041	8088.32
561.404	8179.16
561.767	8196.34
562.129	8132.84
562.492	8258.94
562.854	8244.25
563.217	8246.51
563.579	8319.95
563.941	8321.53
564.304	8423
564.666	8443.79
565.028	8390.46
565.39	8502.09
565.753	8498.93
566.115	8535.99
566.477	8480.4
566.839	8536.89
567.201	8593.39
567.563	8587.51
567.925	8693.95
568.287	8698.7
568.648	8693.05
569.01	8729.21
569.372	8825.02
569.734	8799.26
570.095	8866.15
570.457	8857.56
570.819	8895.75
571.18	8890.56
571.542	8938.69
571.903	8830.67
572.265	8985.47
572.626	8926.04
572.987	9022.08
573.349	9020.5
573.71	9058.01
574.071	9100.5
574.432	9142.08
574.794	9195.41
575.155	9199.02
575.516	9198.57
575.877	9220.04
576.238	9275.86
576.599	9289.19
576.96	9232.02
577.32	9344.33
577.681	9400.15
578.042	9452.12
578.403	9414.16
578.763	9481.73
579.124	9498.22
579.485	9573.93
579.845	9617.54
580.206	9544.33
580.566	9681.27
580.927	9625.45
581.287	9690.08
581.648	9711.1
582.008	9726.24
582.368	9742.74
582.728	9765.79
583.089	9775.28
583.449	9816.86
583.809	9850.53
584.169	9867.48
584.529	9862.28
584.889	9952.22
585.249	9914.71
585.609	9905.22
585.969	9979.12
586.329	10035.84
586.688	10054.82
587.048	10056.85
587.408	10075.16
587.768	10116.29
588.127	10159
588.487	10136.17
588.846	10264.98
589.206	10164.2
589.565	10260.24
589.925	10245.78
590.284	10321.93
590.643	10318.99
591.003	10348.15
591.362	10409.39
591.721	10418.2
592.08	10395.83
592.44	10385.66
592.799	10376.39
593.158	10465.21
593.517	10507.01
593.876	10543.85
594.235	10499.33
594.593	10477.63
594.952	10555.82
595.311	10548.59
595.67	10592.43
596.029	10665.65
596.387	10691.41
596.746	10689.61
597.104	10658.65
597.463	10783.39
597.822	10688.93
598.18	10761.02
598.538	10715.82
598.897	10733.67
599.255	10707.01
599.613	10838.53
599.972	10823.61
600.33	10809.15
600.688	10815.93
601.046	10875.59
601.404	10824.52
601.762	10900.9
602.12	10955.14
602.478	11031.74
602.836	11010.73
603.194	10900.67
603.552	10940.9
603.91	10932.76
604.268	11017.73
604.625	10936.83
604.983	10995.36
605.341	10961.01
605.698	10989.49
606.056	11085.75
606.413	11019.31
606.771	11000.56
607.128	11053.21
607.485	10965.08
607.843	10993.78
608.2	11139.76
608.557	11147.9
608.914	11118.07
609.272	11161.91
609.629	11183.6
609.986	11205.3
610.343	11174.79
610.7	11324.62
611.057	11164.4
611.414	11236.94
611.771	11221.34
612.127	11318.74
612.484	11266.77
612.841	11274.22
613.198	11259.76
613.554	11313.09
613.911	11345.41
614.267	11349.02
614.624	11295.47
614.98	11337.27
615.337	11421.34
615.693	11395.58
616.05	11341.11
616.406	11475.35
616.762	11353.54
617.118	11372.53
617.475	11350.83
617.831	11429.47
618.187	11481.22
618.543	11448.46
618.899	11404.39
619.255	11425.18
619.611	11417.5
619.967	11506.99
620.323	11540.21
620.678	11481
621.034	11431.96
621.39	11497.49
621.746	11535.01
622.101	11578.85
622.457	11534.78
622.812	11494.1
623.168	11509.47
623.523	11496.14
623.879	11577.04
624.234	11533.65
624.589	11509.47
624.945	11513.31
625.3	11530.94
625.655	11533.88
626.01	11544.5
626.365	11556.93
626.72	11483.48
627.075	11497.72
627.43	11522.35
627.785	11458.4
628.14	11526.87
628.495	11483.48
628.85	11514.44
629.205	11412.07
629.559	11555.35
629.914	11428.57
630.269	11530.04
630.623	11440.55
630.978	11421.56
631.332	11424.73
631.687	11505.18
632.041	11451.39
632.396	11410.26
632.75	11357.61
633.104	11429.47
633.459	11440.32
633.813	11294.79
634.167	11356.93
634.521	11307.67
634.875	11383.6
635.229	11309.93
635.583	11250.27
635.937	11295.92
636.291	11236.48
636.645	11274
636.999	11208.91
637.352	11279.42
637.706	11169.59
638.06	11240.1
638.413	11150.61
638.767	11135.47
639.121	11198.52
639.474	11104.96
639.828	11084.17
640.181	11139.76
640.534	11208.69
640.888	11172.98
641.241	11121.91
641.594	11109.93
641.947	11091.63
642.301	11075.81
642.654	11102.02
643.007	11131.18
643.36	11077.39
643.713	11094.12
644.066	11053.21
644.419	10949.71
644.771	10992.65
645.124	10799.89
645.477	10900.22
645.83	10777.74
646.182	10730.73
646.535	10652.77
646.888	10624.52
647.24	10626.78
647.593	10726.89
647.945	10737.51
648.298	10601.25
648.65	10561.02
649.002	10598.53
649.355	10657.74
649.707	10673.34
650.059	10733.9
650.411	10856.16
650.763	10870.62
651.115	10912.65
651.467	10846.21
651.819	10849.38
652.171	10840.79
652.523	10900.45
652.875	10726.89
653.227	10792.88
653.578	10882.37
653.93	10839.66
654.282	10768.93
654.633	10802.15
654.985	10843.27
655.337	10807.57
655.688	10777.74
656.039	10800.11
656.391	10780.9
656.742	10800.11
657.094	10850.05
657.445	10848.92
657.796	10763.05
658.147	10855.03
658.498	10858.87
658.849	10875.59
659.2	10860.9
659.551	10851.86
659.902	10840.56
660.253	10860.45
660.604	10884.4
660.955	10831.52
661.306	10854.57
661.656	10837.62
662.007	10869.49
662.358	10864.29
662.708	10827.91
663.059	10879.66
663.409	10808.47
663.76	10881.92
664.11	10839.21
664.461	10891.86
664.811	10829.04
665.161	10772.54
665.511	10848.7
665.862	10851.41
666.212	10873.56
666.562	10862.71
666.912	10761.47
667.262	10797.4
667.612	10795.14
667.962	10803.95
668.312	10835.59
668.662	10911.07
669.011	10850.05
669.361	10840.34
669.711	10828.81
670.06	10793.33
670.41	10778.42
670.76	10768.93
671.109	10807.79
671.459	10756.27
671.808	10725.54
672.157	10829.04
672.507	10663.84
672.856	10709.27
673.205	10674.47
673.554	10759.89
673.904	10669.95
674.253	10739.77
674.602	10739.77
674.951	10591.3
675.3	10484.64
675.649	10634.92
675.998	10664.07
676.346	10636.95
676.695	10734.35
677.044	10636.5
677.393	10699.1
677.741	10683.96
678.09	10663.39
678.438	10553.79
678.787	10650.74
679.135	10600.12
679.484	10520.12
679.832	10467.69
680.181	10496.84
680.529	10531.42
680.877	10461.36
681.225	10473.79
681.573	10552.66
681.922	10418.65
682.27	10378.43
682.618	10288.26
682.966	10449.39
683.314	10357.86
683.661	10370.52
684.009	10337.52
684.357	10309.05
684.705	10253.46
685.053	10341.82
685.4	10288.94
685.748	10145.67
686.095	10138.89
686.443	10201.26
686.79	10154.93
687.138	10151.99
687.485	10133.24
687.832	10059.34
688.18	10116.51
688.527	10005.33
688.874	9992.22
689.221	10000.81
689.568	9937.31
689.915	9957.87
690.262	9938.89
690.609	9897.76
690.956	9877.65
691.303	9898.21
691.65	9775.51
691.997	9769.86
692.344	9734.6
692.69	9719.01
693.037	9677.88
693.383	9592.91
693.73	9675.85
694.077	9582.74
694.423	9523.31
694.769	9565.57
695.116	9534.16
695.462	9474.04
695.808	9435.63
696.155	9542.97
696.501	9377.78
696.847	9429.98
697.193	9324.44
697.539	9385.69
697.885	9333.26
698.231	9233.6
698.577	9273.37
698.923	9237.44
699.269	9127.39
699.614	9192.02
699.96	9124.9
700.306	9093.72
700.651	9034.28
700.997	8990.44
701.342	9002.19
701.688	8927.62
702.033	8939.6
702.379	8934.62
702.724	8936.66
703.069	8873.16
703.415	8783.89
703.76	8801.97
704.105	8786.38
704.45	8813.27
704.795	8687.17
705.14	8715.19
705.485	8731.24
705.83	8667.06
706.175	8651.02
706.52	8633.16
706.865	8549.1
707.209	8566.27
707.554	8472.72
707.899	8514.97
708.243	8470.46
708.588	8468.42
708.932	8341.87
709.277	8380.51
709.621	8302.55
709.966	8326.96
710.31	8367.86
710.654	8304.13
710.998	8291.25
711.342	8288.77
711.687	8221.42
712.031	8218.26
712.375	8231.82
712.719	8199.95
713.063	8218.94
713.407	8229.78
713.75	8177.58
714.094	8156.79
714.438	8150.46
714.782	8180.52
715.125	8082.22
715.469	8093.74
715.812	8111.14
716.156	7983.01
716.499	8015.33
716.843	8061.43
717.186	7974.2
717.53	8005.83
717.873	7991.82
718.216	7920.64
718.559	7924.03
718.902	7901.43
719.246	7960.19
719.589	7913.41
719.932	7906.4
720.275	7850.13
720.617	7936.91
720.96	7865.5
721.303	7850.13
721.646	7925.61
721.989	7794.09
722.331	7858.72
722.674	7858.95
723.016	7852.84
723.359	7785.05
723.701	7838.38
724.044	7822.56
724.386	7819.62
724.729	7842.9
725.071	7688.1
725.413	7734.66
725.755	7818.49
726.097	7702.57
726.439	7756.35
726.782	7723.58
727.124	7790.47
727.465	7682.68
727.807	7728.55
728.149	7669.57
728.491	7709.12
728.833	7708.44
729.175	7705.28
729.516	7737.82
729.858	7637.03
730.199	7671.61
730.541	7667.31
730.882	7670.02
731.224	7714.54
731.565	7642.91
731.906	7596.13
732.248	7694.43
732.589	7585.28
732.93	7610.36
733.271	7562.46
733.612	7604.49
733.953	7656.01
734.294	7619.4
734.635	7569.91
734.976	7632.06
735.317	7605.39
735.658	7597.03
735.999	7643.13
736.339	7608.33
736.68	7684.49
737.021	7641.32
737.361	7614.88
737.702	7633.19
738.042	7628.9
738.383	7646.07
738.723	7693.53
739.063	7592.29
739.404	7624.6
739.744	7649.91
740.084	7641.32
740.424	7618.73
740.764	7674.09
741.104	7659.86
741.444	7593.19
741.784	7627.54
742.124	7687.42
742.464	7693.07
742.804	7696.24
743.143	7716.12
743.483	7718.16
743.823	7673.41
744.162	7777.82
744.502	7867.08
744.841	7749.8
745.181	7795.9
745.52	7784.6
745.86	7898.72
746.199	7904.37
746.538	7930.36
746.877	7980.75
747.216	7976.68
747.556	8036.79
747.895	8027.98
748.234	8031.37
748.573	8111.59
748.911	8153.85
749.25	8245.83
749.589	8230.01
749.928	8276.56
750.267	8364.7
750.605	8412.38
750.944	8517.69
751.283	8522.21
751.621	8622.09
751.96	8642.88
752.298	8676.55
752.636	8835.19
752.975	8878.81
753.313	8957.45
753.651	9049.88
753.989	9097.11
754.327	9211.45
754.666	9268.63
755.004	9469.07
755.342	9496.19
755.679	9630.65
756.017	9685.56
756.355	9833.36
756.693	9974.82
757.031	10067.7
757.368	10232.89
757.706	10345.66
758.044	10417.75
758.381	10606.22
758.719	10703.39
759.056	10895.7
759.394	10987.45
759.731	11154.45
760.068	11277.39
760.405	11428.57
760.743	11551.73
761.08	11720.09
761.417	11828.11
761.754	11980.42
762.091	12151.71
762.428	12277.81
762.765	12381.31
763.102	12673.28
