Data from hue_340_FLMS001491_34.txt Node
Date: Mon Feb 06 15:43:01 GMT 2017
User: dcchb
Spectrometer: FLMS00149
Trigger mode: 0
Integration Time (sec): 2.000000E-2
Scans to average: 10
Electric dark correction enabled: true
Nonlinearity correction enabled: false
Boxcar width: 0
XAxis mode: Wavelengths
Number of Pixels in Spectrum: 2048
>>>>>Begin Spectral Data<<<<<
341.393	-19.11
341.776	-19.11
342.16	-19.11
342.543	-53.69
342.927	-58.2
343.31	-77.64
343.693	-62.95
344.077	-64.08
344.46	-56.85
344.843	-48.26
345.226	-44.19
345.61	-36.28
345.993	-18.21
346.376	-5.55
346.759	6.65
347.142	32.64
347.525	55.92
347.908	42.13
348.291	68.8
348.674	92.07
349.057	115.8
349.44	135.91
349.823	159.19
350.206	147.21
350.588	188.79
350.971	219.98
351.354	229.47
351.737	205.74
352.119	262.01
352.502	250.49
352.884	250.94
353.267	261.11
353.65	296.14
354.032	306.31
354.414	310.37
354.797	307.66
355.179	320.54
355.562	317.15
355.944	303.37
356.326	323.48
356.709	316.93
357.091	342.24
357.473	335.46
357.855	333.42
358.238	340.2
358.62	337.49
359.002	318.73
359.384	332.97
359.766	335.01
360.148	351.5
360.53	321.45
360.912	330.71
361.294	317.38
361.676	331.39
362.057	334.1
362.439	322.58
362.821	323.25
363.203	335.23
363.584	312.63
363.966	320.99
364.348	318.96
364.729	312.18
365.111	308.11
365.493	331.84
365.874	310.83
366.256	300.88
366.637	322.58
367.019	314.44
367.4	317.15
367.781	307.89
368.163	311.28
368.544	296.36
368.925	303.14
369.306	304.95
369.688	298.62
370.069	303.82
370.45	290.94
370.831	299.98
371.212	289.81
371.593	316.7
371.974	323.25
372.355	283.03
372.736	318.28
373.117	304.27
373.498	325.29
373.879	306.31
374.26	312.86
374.641	299.75
375.021	320.32
375.402	328.23
375.783	331.39
376.163	308.57
376.544	302.92
376.925	317.83
377.305	313.08
377.686	309.24
378.066	293.42
378.447	317.6
378.827	337.27
379.208	320.54
379.588	329.58
379.968	316.47
380.349	324.84
380.729	306.08
381.109	328
381.489	313.31
381.87	344.72
382.25	332.97
382.63	345.85
383.01	320.77
383.39	330.94
383.77	338.62
384.15	320.54
384.53	325.97
384.91	335.91
385.29	343.14
385.67	347.66
386.049	347.21
386.429	333.65
386.809	336.81
387.189	338.62
387.568	343.59
387.948	336.14
388.328	327.77
388.707	332.07
389.087	344.04
389.466	358.28
389.846	337.04
390.225	358.28
390.605	353.99
390.984	346.76
391.363	362.12
391.743	359.19
392.122	355.8
392.501	355.12
392.881	357.6
393.26	357.6
393.639	348.56
394.018	373.87
394.397	342.24
394.776	360.32
395.155	360.77
395.534	343.14
395.913	369.35
396.292	370.03
396.671	390.6
397.05	370.03
397.429	360.99
397.808	346.08
398.186	365.74
398.565	385.4
398.944	369.58
399.323	364.16
399.701	375.91
400.08	361.9
400.458	362.58
400.837	393.08
401.215	363.25
401.594	372.97
401.972	377.26
402.351	382.01
402.729	400.09
403.107	386.53
403.486	396.02
403.864	392.4
404.242	397.83
404.62	386.3
404.999	387.43
405.377	417.04
405.755	405.06
406.133	416.59
406.511	407.55
406.889	405.51
407.267	419.97
407.645	437.38
408.023	423.14
408.401	429.47
408.779	431.95
409.156	416.36
409.534	450.71
409.912	435.34
410.29	424.49
410.667	436.92
411.045	451.61
411.422	435.12
411.8	456.58
412.178	448.45
412.555	466.98
412.933	454.1
413.31	466.53
413.687	488
414.065	460.88
414.442	475.34
414.819	477.83
415.197	461.1
415.574	499.75
415.951	491.39
416.328	481.89
416.705	494.55
417.082	497.71
417.46	517.6
417.837	512.18
418.214	512.4
418.591	496.36
418.967	518.73
419.344	506.75
419.721	526.41
420.098	523.7
420.475	534.32
420.852	560.31
421.228	542.68
421.605	550.59
421.982	534.55
422.358	553.76
422.735	572.51
423.111	562.57
423.488	584.72
423.864	595.34
424.241	570.03
424.617	606.18
424.994	594.66
425.37	572.74
425.746	590.82
426.123	582.68
426.499	619.52
426.875	583.13
427.251	623.13
427.627	623.59
428.003	624.94
428.379	617.94
428.756	631.95
429.132	651.83
429.507	663.13
429.883	634.21
430.259	665.84
430.635	632.62
431.011	669.23
431.387	671.72
431.763	697.71
432.138	689.57
432.514	702.23
432.89	702.23
433.265	697.26
433.641	726.86
434.016	699.74
434.392	730.25
434.767	746.52
435.143	735.9
435.518	729.35
435.894	740.42
436.269	763.24
436.644	778.16
437.02	783.58
437.395	763.69
437.77	757.14
438.145	791.94
438.52	801.89
438.895	807.99
439.271	827.42
439.646	789.68
440.021	823.58
440.395	805.05
440.77	809.34
441.145	821.77
441.52	852.51
441.895	842.34
442.27	846.86
442.645	828.55
443.019	850.92
443.394	845.27
443.769	877.82
444.143	837.36
444.518	875.78
444.892	854.31
445.267	868.55
445.641	878.72
446.016	853.18
446.39	852.73
446.764	908.32
447.139	889.34
447.513	892.05
447.887	890.02
448.262	880.75
448.636	898.38
449.01	890.24
449.384	893.18
449.758	923.92
450.132	929.34
450.506	942.22
450.88	927.98
451.254	938.83
451.628	934.99
452.002	932.5
452.376	940.19
452.75	952.16
453.123	970.92
453.497	970.02
453.871	972.95
454.244	1014.08
454.618	994.42
454.992	1022.67
455.365	1013.41
455.739	1001.2
456.112	1007.76
456.486	1051.37
456.859	1034.2
457.232	1051.14
457.606	1052.5
457.979	1057.02
458.352	1073.29
458.725	1079.17
459.099	1102.89
459.472	1101.09
459.845	1097.92
460.218	1129.11
460.591	1140.86
460.964	1127.3
461.337	1144.48
461.71	1142.67
462.083	1165.27
462.456	1169.56
462.829	1170.69
463.201	1187.41
463.574	1190.8
463.947	1213.63
464.32	1230.8
464.692	1240.29
465.065	1224.02
465.438	1249.78
465.81	1250.01
466.183	1289.78
466.555	1299.95
466.928	1309.89
467.3	1297.47
467.672	1319.61
468.045	1353.96
468.417	1328.43
468.789	1392.15
469.161	1371.81
469.534	1372.27
469.906	1407.97
470.278	1410.23
470.65	1433.06
471.022	1468.99
471.394	1494.3
471.766	1466.28
472.138	1499.72
472.51	1537.69
472.882	1519.38
473.253	1565.71
473.625	1583.79
473.997	1617.01
474.369	1624.69
474.74	1660.17
475.112	1643.67
475.484	1678.25
475.855	1691.58
476.227	1719.15
476.598	1755.31
476.97	1761.63
477.341	1764.35
477.713	1833.27
478.084	1834.17
478.455	1851.35
478.827	1874.63
479.198	1915.98
479.569	1910.56
479.94	1973.61
480.311	1979.26
480.682	2038.01
481.053	2049.54
481.424	2101.74
481.795	2122.08
482.166	2155.52
482.537	2133.6
482.908	2203.43
483.279	2241.85
483.65	2261.06
484.021	2269.19
484.391	2296.54
484.762	2341.96
485.133	2355.29
485.503	2393.71
485.874	2399.36
486.244	2450.88
486.615	2459.02
486.985	2500.6
487.356	2554.16
487.726	2595.28
488.097	2607.94
488.467	2642.74
488.837	2697.88
489.207	2725.45
489.578	2752.57
489.948	2757.99
490.318	2837.31
490.688	2833.24
491.058	2835.73
491.428	2910.76
491.798	2934.26
492.168	2965.22
492.538	2961.83
492.908	2999.34
493.278	3026.23
493.648	3071.2
494.017	3087.93
494.387	3133.8
494.757	3143.29
495.126	3172.44
495.496	3135.16
495.866	3178.55
496.235	3219.68
496.605	3229.39
496.974	3260.13
497.344	3303.97
497.713	3305.77
498.082	3307.13
498.452	3349.84
498.821	3352.1
499.19	3393.91
499.559	3422.61
499.928	3416.73
500.298	3445.21
500.667	3469.84
501.036	3483.85
501.405	3501.02
501.774	3525.88
502.143	3555.26
502.512	3509.61
502.88	3559.55
503.249	3570.17
503.618	3570.63
503.987	3631.19
504.356	3632.77
504.724	3655.37
505.093	3625.99
505.462	3691.98
505.83	3636.61
506.199	3720.68
506.567	3737.63
506.936	3739.89
507.304	3784.41
507.672	3777.63
508.041	3797.97
508.409	3808.59
508.777	3785.54
509.145	3857.4
509.514	3839.77
509.882	3875.7
510.25	3896.95
510.618	3910.96
510.986	3875.48
511.354	3957.06
511.722	3929.94
512.09	3986.21
512.458	3966.32
512.826	4012.87
513.193	3969.94
513.561	3970.16
513.929	4039.09
514.297	4067.11
514.664	4100.33
515.032	4049.48
515.4	4083.61
515.767	4119.09
516.135	4094.68
516.502	4078.41
516.869	4133.55
517.237	4124.51
517.604	4144.62
517.972	4176.94
518.339	4157.96
518.706	4186.43
519.073	4166.99
519.44	4194.79
519.808	4261.68
520.175	4236.37
520.542	4300.32
520.909	4272.75
521.276	4320.89
521.643	4340.1
522.009	4333.09
522.376	4338.06
522.743	4388.68
523.11	4392.3
523.477	4420.55
523.843	4451.73
524.21	4472.75
524.577	4515.91
524.943	4512.07
525.31	4530.15
525.676	4597.72
526.043	4572.18
526.409	4583.03
526.776	4645.63
527.142	4619.19
527.508	4666.42
527.874	4704.83
528.241	4687.66
528.607	4684.04
528.973	4818.28
529.339	4752.06
529.705	4810.37
530.071	4849.46
530.437	4834.77
530.803	4837.26
531.169	4926.07
531.535	4867.99
531.901	4880.65
532.267	4988.89
532.632	5006.52
532.998	5005.84
533.364	4994.77
533.73	5049.91
534.095	5069.34
534.461	5104.6
534.826	5107.76
535.192	5119.51
535.557	5114.31
535.923	5102.34
536.288	5189.34
536.653	5172.39
537.019	5189.11
537.384	5180.75
537.749	5274.76
538.114	5228.89
538.479	5249.23
538.845	5312.73
539.21	5294.2
539.575	5404.48
539.94	5306.63
540.305	5385.27
540.67	5365.61
541.034	5398.83
541.399	5432.27
541.764	5464.81
542.129	5461.42
542.494	5464.36
542.858	5511.37
543.223	5524.02
543.587	5555.43
543.952	5560.18
544.316	5601.99
544.681	5622.32
545.045	5670.01
545.41	5681.31
545.774	5692.83
546.138	5706.62
546.503	5735.32
546.867	5777.12
547.231	5810.34
547.595	5786.39
547.959	5883.56
548.324	5834.75
548.688	5872.94
549.052	5872.49
549.416	5873.39
549.779	5874.52
550.143	5934.18
550.507	5936.67
550.871	5936.67
551.235	6006.95
551.599	6002.88
551.962	6003.1
552.326	5979.38
552.689	6046.95
553.053	6046.49
553.417	6066.15
553.78	6164.46
554.143	6117.9
554.507	6126.72
554.87	6171.91
555.234	6249.65
555.597	6191.12
555.96	6236.55
556.323	6291.01
556.686	6274.06
557.05	6275.41
557.413	6314.74
557.776	6302.98
558.139	6335.07
558.502	6411.68
558.865	6368.97
559.228	6418.46
559.59	6426.82
559.953	6404
560.316	6517.89
560.679	6489.19
561.041	6527.38
561.404	6568.06
561.767	6541.85
562.129	6528.74
562.492	6611.9
562.854	6585.46
563.217	6593.6
563.579	6603.99
563.941	6684.67
564.304	6724.22
564.666	6725.57
565.028	6681.96
565.39	6710.2
565.753	6828.85
566.115	6792.24
566.477	6825.91
566.839	6869.52
567.201	6884.21
567.563	6942.06
567.925	6952.01
568.287	6945
568.648	7001.5
569.01	7057.54
569.372	7093.25
569.734	6955.17
570.095	7076.97
570.457	7166.92
570.819	7145.9
571.18	7225.9
571.542	7258.44
571.903	7204.66
572.265	7314.71
572.626	7363.97
572.987	7326.91
573.349	7366.68
573.71	7389.96
574.071	7500.47
574.432	7478.32
574.794	7575.49
575.155	7622.72
575.516	7649.16
575.877	7730.29
576.238	7690.97
576.599	7794.92
576.96	7940
577.32	7939.78
577.681	8029.94
578.042	8066.78
578.403	8109.26
578.763	8220.9
579.124	8319.65
579.485	8466.09
579.845	8503.38
580.206	8596.26
580.566	8673.09
580.927	8793.31
581.287	8963.48
581.648	8948.34
582.008	9188.56
582.368	9250.48
582.728	9405.28
583.089	9572.95
583.449	9654.53
583.809	9823.34
584.169	9982.66
584.529	10140.62
584.889	10231.24
585.249	10406.83
585.609	10598.24
585.969	10820.38
586.329	10903.32
586.688	11167.94
587.048	11340.59
587.408	11518.21
587.768	11762.05
588.127	11955.49
588.487	12143.51
588.846	12345.76
589.206	12578.53
589.565	12734.23
589.925	13047.67
590.284	13221.45
590.643	13516.58
591.003	13761.32
591.362	14054.42
591.721	14268.2
592.08	14595.65
592.44	14769.65
592.799	14999.7
593.158	15246.48
593.517	15629.29
593.876	15817.76
594.235	16106.12
594.593	16308.14
594.952	16628.81
595.311	16848.7
595.67	17095.92
596.029	17509.02
596.387	17797.82
596.746	18146.29
597.104	18290.47
597.463	18579.05
597.822	18897.23
598.18	19011.35
598.538	19296.31
598.897	19736.98
599.255	19789.41
599.613	20292.45
599.972	20405.89
600.33	20803.39
600.688	20913.67
601.046	21234.34
601.404	21661.45
601.762	21754.56
602.12	22161.32
602.478	22366.97
602.836	22574.65
603.194	22727.18
603.552	23038.14
603.91	23257.57
604.268	23549.76
604.625	23731.9
604.983	24078.11
605.341	24211.67
605.698	24486.01
606.056	24867.69
606.413	25016.39
606.771	25295.25
607.128	25548.58
607.485	25588.13
607.843	25844.84
608.2	26180.43
608.557	26446.18
608.914	26412.96
609.272	26786.06
609.629	27089.33
609.986	27423.56
610.343	27385.59
610.7	27660.61
611.057	27838.91
611.414	28042.75
611.771	28186.93
612.127	28476.19
612.484	28520.93
612.841	28841.6
613.198	28885.89
613.554	29080.24
613.911	29386.9
614.267	29641.13
614.624	29622.6
614.98	29763.61
615.337	30096.93
615.693	30099.65
616.05	30275.46
616.406	30500.31
616.762	30569.69
617.118	30654.66
617.475	30734.21
617.831	31093.97
618.187	31245.6
618.543	31305.49
618.899	31599.27
619.255	31658.02
619.611	31710.68
619.967	31901.63
620.323	31974.85
620.678	32008.97
621.034	32051.46
621.39	32219.14
621.746	32268.4
622.101	32705.23
622.457	32509.07
622.812	32751.1
623.168	32790.42
623.523	32925.56
623.879	32953.58
624.234	32934.6
624.589	33241.26
624.945	33085.33
625.3	33354.02
625.655	33451.42
626.01	33473.34
626.365	33636.73
626.72	33648.03
627.075	33703.85
627.43	33675.82
627.785	33605.99
628.14	33769.15
628.495	33848.7
628.85	33917.17
629.205	33699.33
629.559	33978.87
629.914	33942.03
630.269	33973.22
630.623	33968.47
630.978	33969.15
631.332	34078.52
631.687	34125.76
632.041	34191.29
632.396	34259.31
632.75	34131.4
633.104	34210.27
633.459	34041.69
633.813	34263.38
634.167	34103.83
634.521	34162.82
634.875	34372.08
635.229	34222.7
635.583	34030.39
635.937	34181.57
636.291	34188.8
636.645	34172.99
636.999	34164.85
637.352	34341.34
637.706	34132.99
638.06	34247.33
638.413	34270.38
638.767	34197.17
639.121	34233.32
639.474	34013.67
639.828	34052.31
640.181	34156.94
640.534	34181.12
640.888	34050.28
641.241	34082.14
641.594	34115.81
641.947	34204.62
642.301	34129.82
642.654	34374.11
643.007	34222.48
643.36	34132.53
643.713	34029.71
644.066	34148.35
644.419	33986.78
644.771	33691.87
645.124	33571.87
645.477	33502.72
645.83	33229.28
646.182	33223.63
646.535	33039.23
646.888	33166.23
647.24	32999.46
647.593	33186.34
647.945	33081.71
648.298	33020.02
648.65	32849.63
649.002	32766.92
649.355	33047.14
649.707	32916.52
650.059	33129.85
650.411	33472.44
650.763	33395.6
651.115	33912.88
651.467	33747.91
651.819	33752.43
652.171	33703.39
652.523	33663.62
652.875	33566
653.227	33549.05
653.578	33801.47
653.93	33915.82
654.282	33424.53
654.633	33448.03
654.985	33558.99
655.337	33417.75
655.688	33462.27
656.039	33702.94
656.391	33419.33
656.742	33596.73
657.094	33452.78
657.445	33635.37
657.796	33436.96
658.147	33511.53
658.498	33403.06
658.849	33566
659.2	33485.09
659.551	33429.5
659.902	33419.11
660.253	33437.64
660.604	33453
660.955	33318.77
661.306	33435.6
661.656	33322.61
662.007	33391.99
662.358	33351.99
662.708	33370.29
663.059	33305.89
663.409	33165.1
663.76	33450.74
664.11	33368.04
664.461	33262.28
664.811	33417.75
665.161	33299.11
665.511	33330.52
665.862	33420.69
666.212	33436.06
666.562	33372.55
666.912	33397.86
667.262	33258.21
667.612	33219.56
667.962	33223.18
668.312	33196.97
668.662	33422.04
669.011	33237.87
669.361	33266.34
669.711	33179.79
670.06	33041.04
670.41	33092.79
670.76	33084.65
671.109	33188.6
671.459	33081.71
671.808	32992
672.157	33140.92
672.507	32977.31
672.856	32977.99
673.205	33094.82
673.554	33208.49
673.904	33033.35
674.253	33211.88
674.602	33017.31
674.951	32618.68
675.3	32447.83
675.649	33020.02
675.998	32947.71
676.346	32936.18
676.695	33074.71
677.044	32738
677.393	32983.64
677.741	32786.81
678.09	32842.17
678.438	32793.13
678.787	32797.65
679.135	32783.19
679.484	32650.54
679.832	32729.41
680.181	32429.98
680.529	32682.18
680.877	32462.07
681.225	32517.44
681.573	32641.27
681.922	32390.21
682.27	32298.46
682.618	32288.74
682.966	32289.65
683.314	32279.02
683.661	32224.79
684.009	31978.69
684.357	32033.15
684.705	31929.2
685.053	32027.73
685.4	32019.6
685.748	31939.37
686.095	31912.71
686.443	31794.07
686.79	31720.62
687.138	31709.77
687.485	31786.38
687.832	31591.36
688.18	31634.07
688.527	31472.94
688.874	31376.22
689.221	31356.79
689.568	31272.95
689.915	31217.58
690.262	31315.43
690.609	31138.49
690.956	31164.03
691.303	30990.7
691.65	30919.06
691.997	30891.94
692.344	30731.95
692.69	30709.57
693.037	30706.64
693.383	30413.99
693.73	30582.57
694.077	30367.21
694.423	30448.11
694.769	30193.66
695.116	30165.18
695.462	30079.76
695.808	30051.96
696.155	30057.84
696.501	29914.34
696.847	29915.47
697.193	29661.01
697.539	29756.6
697.885	29591.41
698.231	29456.73
698.577	29547.57
698.923	29354.58
699.269	29356.39
699.614	29150.07
699.96	29138.99
700.306	29140.8
700.651	28965.66
700.997	28786.91
701.342	28843.63
701.688	28835.95
702.033	28850.19
702.379	28679.34
702.724	28755.95
703.069	28601.38
703.415	28344.89
703.76	28367.49
704.105	28388.96
704.45	28328.39
704.795	28184.67
705.14	28109.64
705.485	28091.11
705.83	28009.76
706.175	27989.19
706.52	27899.93
706.865	27904
707.209	27694.51
707.554	27692.03
707.899	27749.43
708.243	27657.22
708.588	27585.81
708.932	27404.8
709.277	27352.6
709.621	27372.03
709.966	27155.32
710.31	27295.65
710.654	26906.28
710.998	27101.31
711.342	27006.62
711.687	27020.41
712.031	26830.81
712.375	26783.35
712.719	26785.38
713.063	26772.28
713.407	26778.6
713.75	26660.87
714.094	26671.49
714.438	26372.74
714.782	26524.15
715.125	26418.39
715.469	26427.88
715.812	26255.45
716.156	26209.58
716.499	26179.52
716.843	26308.56
717.186	26098.85
717.53	26234.44
717.873	26219.52
718.216	26153.76
718.559	25994.67
718.902	25925.52
719.246	25828.8
719.589	25917.38
719.932	25774.34
720.275	25758.07
720.617	25720.78
720.96	25662.02
721.303	25662.47
721.646	25706.99
721.989	25547.45
722.331	25663.38
722.674	25485.53
723.016	25482.37
723.359	25366.44
723.701	25376.61
724.044	25249.38
724.386	25106.11
724.729	25101.36
725.071	25151.75
725.413	25216.61
725.755	25135.94
726.097	25006.67
726.439	24881.93
726.782	24801.25
727.124	24946.79
727.465	24837.19
727.807	24801.03
728.149	24824.76
728.491	24708.38
728.833	24763.52
729.175	24653.69
729.516	24534.37
729.858	24573.01
730.199	24529.17
730.541	24448.27
730.882	24520.13
731.224	24528.27
731.565	24335.05
731.906	24427.48
732.248	24400.81
732.589	24255.28
732.93	24247.82
733.271	24144.32
733.612	24260.7
733.953	24160.59
734.294	24146.13
734.635	23980.26
734.976	24119.69
735.317	24045.79
735.658	24023.42
735.999	24039.69
736.339	23992.69
736.68	24050.31
737.021	23914.05
737.361	23846.48
737.702	23935.51
738.042	23787.27
738.383	23839.47
738.723	23823.65
739.063	23728.06
739.404	23771.68
739.744	23630.66
740.084	23532.81
740.424	23593.38
740.764	23519.71
741.104	23728.74
741.444	23371.69
741.784	23357.68
742.124	23407.62
742.464	23484.91
742.804	23472.93
743.143	23334.85
743.483	23279.49
743.823	23229.54
744.162	23201.07
744.502	23299.83
744.841	23193.84
745.181	23251.01
745.52	23069.55
745.86	23154.52
746.199	23007.18
746.538	23019.15
746.877	22970.34
747.216	23093.73
747.556	22980.74
747.895	22992.71
748.234	22876.56
748.573	22873.4
748.911	22824.13
749.25	22794.3
749.589	22616.23
749.928	22764.92
750.267	22688.77
750.605	22713.63
750.944	22560.64
751.283	22625.72
751.621	22652.61
751.96	22460.07
752.298	22465.95
752.636	22430.92
752.975	22315.22
753.313	22226.86
753.651	22372.17
753.989	22176.92
754.327	22205.84
754.666	22086.98
755.004	22065.96
755.342	22079.74
755.679	22098.73
756.017	21871.39
756.355	21978.28
756.693	21771.28
757.031	21813.31
757.368	21676.37
757.706	21779.64
758.044	21677.04
758.381	21659.64
758.719	21649.02
759.056	21557.95
759.394	21509.36
759.731	21332.19
760.068	21451.51
760.405	21298.75
