Data from hue_190_FLMS001491_00023.txt Node
Date: Tue Feb 07 16:45:03 GMT 2017
User: dcchb
Spectrometer: FLMS00149
Trigger mode: 0
Integration Time (sec): 2.000000E-2
Scans to average: 10
Electric dark correction enabled: true
Nonlinearity correction enabled: false
Boxcar width: 0
XAxis mode: Wavelengths
Number of Pixels in Spectrum: 2048
>>>>>Begin Spectral Data<<<<<
341.393	-26.86
341.776	-26.86
342.16	-26.86
342.543	-58.5
342.927	-62.79
343.31	-67.31
343.693	-67.54
344.077	-70.03
344.46	-51.04
344.843	-54.43
345.226	-56.47
345.61	-41.1
345.993	-23.47
346.376	1.61
346.759	-0.42
347.142	20.37
347.525	43.87
347.908	66.24
348.291	75.05
348.674	113.7
349.057	110.99
349.44	105.11
349.823	142.4
350.206	152.57
350.588	182.4
350.971	199.35
351.354	204.54
351.737	230.98
352.119	257.2
352.502	244.99
352.884	277.08
353.267	289.74
353.65	283.41
354.032	306.46
354.414	307.14
354.797	298.55
355.179	305.56
355.562	316.4
355.944	322.05
356.326	314.37
356.709	326.8
357.091	308.04
357.473	337.19
357.855	341.94
358.238	337.42
358.62	317.76
359.002	324.09
359.384	323.64
359.766	320.02
360.148	339.23
360.53	319.57
360.912	353.69
361.294	335.84
361.676	322.73
362.057	334.03
362.439	317.31
362.821	314.82
363.203	323.41
363.584	310.08
363.966	308.04
364.348	334.03
364.729	308.04
365.111	317.31
365.493	318.21
365.874	295.39
366.256	303.07
366.637	300.59
367.019	305.1
367.4	289.06
367.781	298.55
368.163	308.72
368.544	300.36
368.925	306.91
369.306	307.59
369.688	315.27
370.069	296.52
370.45	301.26
370.831	283.86
371.212	317.53
371.593	301.72
371.974	301.04
372.355	274.37
372.736	296.29
373.117	307.14
373.498	319.34
373.879	323.18
374.26	287.48
374.641	309.4
375.021	292.45
375.402	305.33
375.783	298.78
376.163	299
376.544	292
376.925	289.74
377.305	305.78
377.686	322.05
378.066	296.97
378.447	318.66
378.827	315.5
379.208	322.05
379.588	324.31
379.968	319.12
380.349	315.5
380.729	289.51
381.109	322.73
381.489	341.49
381.87	331.09
382.25	327.93
382.63	317.08
383.01	310.98
383.39	327.25
383.77	329.29
384.15	335.16
384.53	341.49
384.91	332.45
385.29	340.81
385.67	341.71
386.049	340.13
386.429	339.91
386.809	336.97
387.189	326.57
387.568	332.9
387.948	325.67
388.328	325.44
388.707	327.93
389.087	344.88
389.466	365.22
389.846	360.47
390.225	351.21
390.605	367.25
390.984	351.66
391.363	357.31
391.743	339.23
392.122	353.47
392.501	367.7
392.881	362.28
393.26	358.89
393.639	374.48
394.018	364.99
394.397	372.45
394.776	364.31
395.155	368.15
395.534	359.79
395.913	367.25
396.292	376.06
396.671	371.77
397.05	365.22
397.429	392.56
397.808	368.38
398.186	361.15
398.565	392.33
398.944	383.97
399.323	398.89
399.701	386.23
400.08	383.3
400.458	406.35
400.837	414.93
401.215	382.39
401.594	406.8
401.972	386.91
402.351	423.07
402.729	428.49
403.107	404.76
403.486	396.4
403.864	414.03
404.242	387.59
404.62	440.02
404.999	421.49
405.377	449.96
405.755	432.33
406.133	432.79
406.511	449.73
406.889	435.95
407.267	438.21
407.645	443.63
408.023	449.06
408.401	444.54
408.779	488.83
409.156	462.61
409.534	463.74
409.912	479.11
410.29	494.48
410.667	521.14
411.045	500.35
411.422	525.89
411.8	520.24
412.178	533.8
412.555	527.92
412.933	559.34
413.31	540.35
413.687	560.01
414.065	569.96
414.442	567.7
414.819	593.68
415.197	595.27
415.574	569.96
415.951	618.54
416.328	635.04
416.705	620.12
417.082	644.53
417.46	620.12
417.837	640.69
418.214	631.2
418.591	651.99
418.967	674.36
419.344	679.33
419.721	666.45
420.098	692.44
420.475	719.11
420.852	705.32
421.228	714.81
421.605	756.39
421.982	741.25
422.358	769.95
422.735	760.46
423.111	801.14
423.488	794.13
423.864	814.02
424.241	831.64
424.617	851.53
424.994	860.12
425.37	867.12
425.746	880.91
426.123	888.37
426.499	904.19
426.875	920.46
427.251	920.91
427.627	967.01
428.003	941.02
428.379	969.49
428.756	987.12
429.132	1012.88
429.507	1014.92
429.883	1019.89
430.259	1011.3
430.635	1065.31
431.011	1041.36
431.387	1072.77
431.763	1079.1
432.138	1083.16
432.514	1103.5
432.89	1129.49
433.265	1160.68
433.641	1146.89
434.016	1200.9
434.392	1211.97
434.767	1230.73
435.143	1260.33
435.518	1254.23
435.894	1301.69
436.269	1315.47
436.644	1324.06
437.02	1324.06
437.395	1343.27
437.77	1397.28
438.145	1422.59
438.52	1471.4
438.895	1475.92
439.271	1437.05
439.646	1510.5
440.021	1514.34
440.395	1567.67
440.77	1557.05
441.145	1563.15
441.52	1610.16
441.895	1606.77
442.27	1659.19
442.645	1666.65
443.019	1704.62
443.394	1670.27
443.769	1713.2
444.143	1717.05
444.518	1762.24
444.892	1782.81
445.267	1776.93
445.641	1814.9
446.016	1783.03
446.39	1835.01
446.764	1856.93
447.139	1823.26
447.513	1863.03
447.887	1890.37
448.262	1907.77
448.636	1928.57
449.01	1953.42
449.384	1945.74
449.758	1973.31
450.132	1976.02
450.506	2002.01
450.88	2046.08
451.254	1997.04
451.628	2039.52
452.002	2051.5
452.376	2103.7
452.75	2109.58
453.123	2122.46
453.497	2161.55
453.871	2166.52
454.244	2212.63
454.618	2253.3
454.992	2259.4
455.365	2290.59
455.739	2360.64
456.112	2352.96
456.486	2358.38
456.859	2368.78
457.232	2459.85
457.606	2410.81
457.979	2451.94
458.352	2542.79
458.725	2560.19
459.099	2549.11
459.472	2615.33
459.845	2620.07
460.218	2668.43
460.591	2696.91
460.964	2723.12
461.337	2758.83
461.71	2837.47
462.083	2824.36
462.456	2809.67
462.829	2850.57
463.201	2923.57
463.574	2955.66
463.947	2949.33
464.32	3056.67
464.692	3060.29
465.065	3129.89
465.438	3150.45
465.81	3164.24
466.183	3249.66
466.555	3299.6
466.928	3295.08
467.3	3296.21
467.672	3352.93
468.045	3474.97
468.417	3469.77
468.789	3479.48
469.161	3589.09
469.534	3652.36
469.906	3697.56
470.278	3716.54
470.65	3742.08
471.022	3822.3
471.394	3869.53
471.766	3899.59
472.138	3937.33
472.51	4029.07
472.882	4091.45
473.253	4140.71
473.625	4262.74
473.997	4259.8
474.369	4306.81
474.74	4393.13
475.112	4493.24
475.484	4550.42
475.855	4653.92
476.227	4656.63
476.598	4804.42
476.97	4822.5
477.341	4928.49
477.713	5035.83
478.084	5074.47
478.455	5189.04
478.827	5258.87
479.198	5409.6
479.569	5395.82
479.94	5560.79
480.311	5627.22
480.682	5731.85
481.053	5850.04
481.424	5929.82
481.795	6008.46
482.166	6114.44
482.537	6190.83
482.908	6299.3
483.279	6372.06
483.65	6503.36
484.021	6604.15
484.391	6707.87
484.762	6760.53
485.133	6845.95
485.503	6905.84
485.874	7063.8
486.244	7095.21
486.615	7266.5
486.985	7292.72
487.356	7398.93
487.726	7525.93
488.097	7718.24
488.467	7671.92
488.837	7916.88
489.207	8024.22
489.578	8038.46
489.948	8183.32
490.318	8205.46
490.688	8262.64
491.058	8402.29
491.428	8509.64
491.798	8590.76
492.168	8729.52
492.538	8746.01
492.908	8814.71
493.278	8946.23
493.648	8968.83
494.017	9131.54
494.387	9147.13
494.757	9190.75
495.126	9355.94
495.496	9351.19
495.866	9376.96
496.235	9494.24
496.605	9571.3
496.974	9551.87
497.344	9691.52
497.713	9700.11
498.082	9784.86
498.452	9808.58
498.821	9808.13
499.19	9881.58
499.559	10001.12
499.928	10001.57
500.298	10022.82
500.667	10094.23
501.036	10092.64
501.405	10249.93
501.774	10105.53
502.143	10141.68
502.512	10216.93
502.88	10331.51
503.249	10211.96
503.618	10366.08
503.987	10404.73
504.356	10357.27
504.724	10471.62
505.093	10499.64
505.462	10515.23
505.83	10496.93
506.199	10614.66
506.567	10648.79
506.936	10655.12
507.304	10737.37
507.672	10731.05
508.041	10780.76
508.409	10804.49
508.777	10829.57
509.145	10902.57
509.514	10877.26
509.882	10889.23
510.25	10860.99
510.618	10926.29
510.986	10965.62
511.354	11044.48
511.722	11038.38
512.09	11160.86
512.458	11021.43
512.826	11024.6
513.193	11010.36
513.561	11129.45
513.929	11017.59
514.297	11156.57
514.664	11153.41
515.032	11153.18
515.4	11251.94
515.767	11207.42
516.135	11180.75
516.502	11118.61
516.869	11229.56
517.237	11190.02
517.604	11155.44
517.972	11226.85
518.339	11192.95
518.706	11182.79
519.073	11219.17
519.44	11246.74
519.808	11292.39
520.175	11263.91
520.542	11296
520.909	11267.3
521.276	11205.16
521.643	11281.99
522.009	11243.35
522.376	11262.33
522.743	11310.92
523.11	11320.41
523.477	11367.86
523.843	11374.42
524.21	11413.97
524.577	11372.38
524.943	11355.66
525.31	11394.3
525.676	11475.21
526.043	11393.18
526.409	11419.16
526.776	11346.85
527.142	11379.62
527.508	11335.78
527.874	11364.02
528.241	11357.47
528.607	11229.11
528.973	11325.15
529.339	11243.57
529.705	11254.42
530.071	11342.55
530.437	11253.29
530.803	11295.1
531.169	11225.72
531.535	11124.93
531.901	11110.02
532.267	11102.11
532.632	11075.44
532.998	11089.23
533.364	11073.41
533.73	10959.06
534.095	11021.21
534.461	10940.76
534.826	10964.26
535.192	10924.03
535.557	10847.88
535.923	10792.96
536.288	10749.58
536.653	10721.1
537.019	10583.25
537.384	10624.83
537.749	10559.3
538.114	10536.47
538.479	10426.65
538.845	10455.8
539.21	10286.99
539.575	10327.89
539.94	10252.19
540.305	10289.7
540.67	10102.14
541.034	10077.05
541.399	10097.16
541.764	9986.43
542.129	9980.1
542.494	9945.3
542.858	9894.23
543.223	9806.78
543.587	9819.21
543.952	9651.3
544.316	9676.16
544.681	9617.63
545.045	9606.1
545.41	9596.61
545.774	9428.03
546.138	9419.22
546.503	9364.98
546.867	9337.64
547.231	9379.22
547.595	9279.11
547.959	9203.63
548.324	9087.25
548.688	9013.35
549.052	9060.35
549.416	9016.29
549.779	8906.46
550.143	8890.87
550.507	8908.72
550.871	8881.15
551.235	8761.61
551.599	8680.48
551.962	8728.16
552.326	8605.45
552.689	8624.89
553.053	8548.05
553.417	8495.17
553.78	8572.68
554.143	8411.78
554.507	8401.39
554.87	8397.1
555.234	8392.8
555.597	8286.36
555.96	8297.44
556.323	8207.27
556.686	8216.76
557.05	8198.23
557.413	8080.27
557.776	8155.07
558.139	8070.32
558.502	8079.36
558.865	8058.57
559.228	8050.44
559.59	7963.21
559.953	7946.26
560.316	8030.33
560.679	7947.39
561.041	7950.78
561.404	7891.8
561.767	7903.78
562.129	7836.88
562.492	7836.88
562.854	7775.42
563.217	7860.61
563.579	7793.5
563.941	7797.56
564.304	7731.12
564.666	7803.66
565.028	7770.45
565.39	7702.42
565.753	7709.43
566.115	7692.93
566.477	7785.13
566.839	7734.29
567.201	7729.54
567.563	7686.61
567.925	7733.84
568.287	7630.79
568.648	7633.27
569.01	7688.87
569.372	7644.8
569.734	7592.37
570.095	7653.61
570.457	7657.91
570.819	7603.44
571.18	7618.13
571.542	7588.08
571.903	7628.75
572.265	7594.18
572.626	7624.91
572.987	7629.66
573.349	7582.88
573.71	7644.35
574.071	7550.34
574.432	7599.38
574.794	7600.73
575.155	7611.13
575.516	7515.76
575.877	7551.92
576.238	7559.83
576.599	7547.85
576.96	7542.2
577.32	7559.15
577.681	7526.38
578.042	7555.54
578.403	7504.92
578.763	7481.19
579.124	7454.07
579.485	7556.67
579.845	7547.85
580.206	7508.98
580.566	7491.13
580.927	7490
581.287	7537.01
581.648	7452.04
582.008	7520.06
582.368	7505.14
582.728	7389.44
583.089	7425.14
583.449	7404.13
583.809	7395.54
584.169	7367.29
584.529	7403.22
584.889	7446.39
585.249	7326.16
585.609	7331.59
585.969	7408.42
586.329	7361.19
586.688	7356.22
587.048	7341.53
587.408	7263.34
587.768	7337.91
588.127	7299.5
588.487	7254.07
588.846	7312.38
589.206	7260.4
589.565	7254.75
589.925	7248.43
590.284	7213.17
590.643	7209.1
591.003	7241.42
591.362	7185.6
591.721	7212.27
592.08	7187.18
592.44	7196.68
592.799	7182.89
593.158	7188.09
593.517	7164.81
593.876	7174.08
594.235	7133.63
594.593	7143.12
594.952	7186.73
595.311	7150.35
595.67	7078.49
596.029	7157.35
596.387	7134.53
596.746	7175.21
597.104	7037.81
597.463	7146.73
597.822	7069.45
598.18	7074.87
598.538	7112.61
598.897	7103.34
599.255	6997.36
599.613	7119.84
599.972	7085.49
600.33	7054.98
600.688	7009.11
601.046	7055.66
601.404	6999.84
601.762	7048.66
602.12	7041.43
602.478	7021.31
602.836	7015.44
603.194	7007.75
603.552	7037.58
603.91	6985.61
604.268	6998.71
604.625	6985.16
604.983	6963.23
605.341	6969.34
605.698	7000.07
606.056	6974.76
606.413	6966.85
606.771	7043.01
607.128	7005.27
607.485	6976.12
607.843	6955.55
608.2	7052.27
608.557	7035.78
608.914	6956.68
609.272	7015.89
609.629	7007.08
609.986	6993.97
610.343	7020.18
610.7	7020.18
611.057	6997.13
611.414	7036.23
611.771	7010.47
612.127	6993.29
612.484	6972.95
612.841	7045.04
613.198	7028.54
613.554	7004.59
613.911	7054.53
614.267	7062.22
614.624	6993.29
614.98	7063.12
615.337	7099.73
615.693	7046.4
616.05	7097.69
616.406	7087.3
616.762	7076.23
617.118	7053.63
617.475	7061.31
617.831	7056.34
618.187	7132.27
618.543	7113.51
618.899	7109.9
619.255	7092.95
619.611	7068.99
619.967	7108.32
620.323	7118.49
620.678	7056.34
621.034	7086.85
621.39	7087.3
621.746	7119.39
622.101	7165.72
622.457	7067.87
622.812	7090.46
623.168	7093.63
623.523	7101.99
623.879	7134.08
624.234	7049.11
624.589	7127.52
624.945	7059.5
625.3	7119.16
625.655	7081.42
626.01	7061.99
626.365	7104.7
626.72	7089.79
627.075	7082.78
627.43	7060.86
627.785	7092.95
628.14	7038.26
628.495	7060.63
628.85	7055.44
629.205	7011.82
629.559	7059.5
629.914	7054.98
630.269	6991.93
630.623	6997.81
630.978	6975.89
631.332	7046.85
631.687	7042.78
632.041	6998.49
632.396	7007.53
632.75	6961.65
633.104	6996.91
633.459	6940.41
633.813	6965.95
634.167	6915.1
634.521	6984.93
634.875	6937.25
635.229	6895.21
635.583	6945.83
635.937	6900.86
636.291	6876.91
636.645	6872.16
636.999	6869.23
637.352	6871.94
637.706	6789.91
638.06	6856.35
638.413	6845.27
638.767	6862.67
639.121	6833.97
639.474	6795.1
639.828	6800.75
640.181	6820.19
640.534	6796.01
640.888	6796.46
641.241	6736.8
641.594	6783.35
641.947	6812.96
642.301	6755.33
642.654	6759.4
643.007	6773.64
643.36	6818.15
643.713	6691.15
644.066	6748.55
644.419	6737.93
644.771	6704.94
645.124	6628.1
645.477	6670.59
645.83	6641.44
646.182	6573.87
646.535	6528.22
646.888	6618.84
647.24	6497.48
647.593	6556.69
647.945	6501.78
648.298	6513.76
648.65	6581.78
649.002	6526.18
649.355	6583.81
649.707	6479.18
650.059	6590.14
650.411	6615.9
650.763	6641.21
651.115	6671.04
651.467	6702.68
651.819	6730.02
652.171	6734.09
652.523	6680.3
652.875	6688.89
653.227	6637.59
653.578	6729.12
653.93	6686.41
654.282	6675.11
654.633	6704.94
654.985	6704.48
655.337	6662.45
655.688	6732.96
656.039	6731.6
656.391	6702.9
656.742	6702.68
657.094	6718.5
657.445	6713.98
657.796	6737.7
658.147	6732.05
658.498	6729.12
658.849	6748.33
659.2	6756.46
659.551	6704.71
659.902	6724.6
660.253	6726.41
660.604	6734.31
660.955	6730.92
661.306	6758.27
661.656	6762.11
662.007	6786.29
662.358	6766.18
662.708	6812.5
663.059	6796.69
663.409	6779.96
663.76	6826.06
664.11	6781.54
664.461	6788.55
664.811	6812.05
665.161	6805.95
665.511	6807.76
665.862	6784.93
666.212	6840.75
666.562	6820.87
666.912	6842.33
667.262	6848.21
667.612	6792.39
667.962	6805.5
668.312	6805.5
668.662	6856.8
669.011	6799.62
669.361	6795.56
669.711	6813.63
670.06	6859.28
670.41	6747.65
670.76	6735.22
671.109	6789.68
671.459	6797.14
671.808	6787.42
672.157	6797.14
672.507	6780.87
672.856	6801.66
673.205	6743.58
673.554	6824.26
673.904	6751.94
674.253	6809.34
674.602	6738.38
674.951	6650.47
675.3	6669.68
675.649	6755.33
675.998	6734.54
676.346	6674.43
676.695	6704.03
677.044	6751.49
677.393	6701.55
677.741	6660.64
678.09	6691.83
678.438	6643.7
678.787	6690.47
679.135	6685.28
679.484	6636.92
679.832	6617.48
680.181	6596.01
680.529	6570.93
680.877	6621.55
681.225	6547.2
681.573	6676.01
681.922	6573.19
682.27	6589.23
682.618	6551.04
682.966	6522.79
683.314	6598.95
683.661	6506.07
684.009	6499.52
684.357	6425.4
684.705	6466.98
685.053	6442.34
685.4	6445.06
685.748	6408
686.095	6390.82
686.443	6350.14
686.79	6334.1
687.138	6345.17
687.485	6376.58
687.832	6311.95
688.18	6379.52
688.527	6253.42
688.874	6256.59
689.221	6250.03
689.568	6265.63
689.915	6249.36
690.262	6203.48
690.609	6169.58
690.956	6162.35
691.303	6137.49
691.65	6129.36
691.997	6128.23
692.344	6125.29
692.69	6110.83
693.037	6063.82
693.383	5995.58
693.73	6006.65
694.077	5986.31
694.423	5914.22
694.769	5932.53
695.116	5878.07
695.462	5933.43
695.808	5840.78
696.155	5864.96
696.501	5783.15
696.847	5806.66
697.193	5754.91
697.539	5845.3
697.885	5720.56
698.231	5662.03
698.577	5694.57
698.923	5650.5
699.269	5698.41
699.614	5629.03
699.96	5589.94
700.306	5646.89
700.651	5561.24
700.997	5527.11
701.342	5516.95
701.688	5491.64
702.033	5518.98
702.379	5472.88
702.724	5471.75
703.069	5439.21
703.415	5416.38
703.76	5353.11
704.105	5338.42
704.45	5315.37
704.795	5285.99
705.14	5294.58
705.485	5282.38
705.83	5258.42
706.175	5284.18
706.52	5299.32
706.865	5248.03
707.209	5216.16
707.554	5195.37
707.899	5206.67
708.243	5181.36
708.588	5128.03
708.932	5150.85
709.277	5139.78
709.621	5096.39
709.966	5135.49
710.31	5060.69
710.654	5048.26
710.998	5062.04
711.342	5017.98
711.687	5022.27
712.031	4991.76
712.375	5022.5
712.719	5042.16
713.063	4987.92
713.407	4985.66
713.75	4949.95
714.094	4945.21
714.438	4978.43
714.782	4936.17
715.125	4872.67
715.469	4945.66
715.812	4907.47
716.156	4903.4
716.499	4918.09
716.843	4868.15
717.186	4875.38
717.53	4882.16
717.873	4873.12
718.216	4895.04
718.559	4839.45
718.902	4844.42
719.246	4840.8
719.589	4852.1
719.932	4783.18
720.275	4807.59
720.617	4809.62
720.96	4818.66
721.303	4831.99
721.646	4793.35
721.989	4726.23
722.331	4795.61
722.674	4817.3
723.016	4781.15
723.359	4750.41
723.701	4788.6
724.044	4766
724.386	4725.33
724.729	4742.05
725.071	4778.89
725.413	4728.94
725.755	4688.49
726.097	4708.83
726.439	4734.14
726.782	4704.09
727.124	4757.87
727.465	4730.53
727.807	4756.29
728.149	4728.49
728.491	4687.59
728.833	4771.43
729.175	4737.53
729.516	4746.34
729.858	4757.19
730.199	4742.5
730.541	4802.84
730.882	4729.85
731.224	4735.04
731.565	4722.84
731.906	4766.68
732.248	4760.13
732.589	4693.92
732.93	4724.88
733.271	4729.17
733.612	4765.55
733.953	4737.76
734.294	4724.2
734.635	4746.34
734.976	4767.81
735.317	4745.89
735.658	4775.04
735.999	4743.86
736.339	4777.98
736.68	4769.62
737.021	4800.81
737.361	4834.03
737.702	4852.33
738.042	4821.14
738.383	4777.08
738.723	4832.22
739.063	4811.2
739.404	4836.29
739.744	4841.71
740.084	4873.12
740.424	4909.05
740.764	4930.29
741.104	4930.75
741.444	4947.47
741.784	4955.83
742.124	4956.96
742.464	5036.05
742.804	5041.25
743.143	5050.52
743.483	5074.25
743.823	5074.25
744.162	5096.39
744.502	5132.1
744.841	5114.02
745.181	5213
745.52	5161.47
745.86	5253.68
746.199	5253.45
746.538	5292.09
746.877	5393.33
747.216	5413.67
747.556	5503.16
747.895	5531.63
748.234	5535.25
748.573	5594.68
748.911	5655.92
749.25	5687.79
749.589	5773.44
749.928	5872.87
750.267	5940.66
750.605	5935.24
750.944	6057.5
751.283	6100.21
751.621	6142.01
751.96	6262.46
752.298	6331.61
752.636	6435.57
752.975	6534.09
753.313	6640.31
753.651	6738.16
753.989	6809.34
754.327	6970.69
754.666	7047.3
755.004	7193.51
755.342	7271.7
755.679	7429.44
756.017	7537.68
756.355	7767.96
756.693	7796.66
757.031	8005.92
757.368	8193.26
757.706	8324.56
758.044	8399.36
758.381	8555.06
758.719	8774.49
759.056	8889.96
759.394	9078.43
759.731	9269.39
760.068	9473.45
760.405	9653.11
760.743	9692.88
761.08	9881.12
761.417	10041.35
761.754	10248.8
762.091	10499.64
762.428	10568.34
762.765	10772.63
763.102	10985.73
763.438	11099.17
763.775	11307.3
764.112	11524.02
764.449	11723.56
764.785	11865.03
765.122	12026.83
765.458	12089.88
765.795	12324.9
766.131	12540.04
766.467	12693.25
