Data from hue_310_FLMS001491_72.txt Node
Date: Mon Feb 06 15:50:08 GMT 2017
User: dcchb
Spectrometer: FLMS00149
Trigger mode: 0
Integration Time (sec): 2.000000E-2
Scans to average: 10
Electric dark correction enabled: true
Nonlinearity correction enabled: false
Boxcar width: 0
XAxis mode: Wavelengths
Number of Pixels in Spectrum: 2048
>>>>>Begin Spectral Data<<<<<
341.393	-8.7
341.776	-8.7
342.16	-8.7
342.543	-38.53
342.927	-66.78
343.31	-70.17
343.693	-72.88
344.077	-65.42
344.46	-66.33
344.843	-31.75
345.226	-53.9
345.61	-20
345.993	-34.24
346.376	-19.1
346.759	24.52
347.142	29.49
347.525	40.34
347.908	48.7
348.291	79.43
348.674	110.84
349.057	100.45
349.44	119.88
349.823	146.1
350.206	149.94
350.588	195.81
350.971	223.16
351.354	260.9
351.737	234.68
352.119	253.44
352.502	275.59
352.884	285.3
353.267	287.34
353.65	274.46
354.032	298.41
354.414	306.09
354.797	308.13
355.179	327.79
355.562	328.01
355.944	327.34
356.326	352.19
356.709	349.48
357.091	336.6
357.473	353.55
357.855	358.07
358.238	336.6
358.62	337.73
359.002	359.65
359.384	340.89
359.766	337.73
360.148	356.49
360.53	340.22
360.912	336.83
361.294	327.11
361.676	322.59
362.057	330.5
362.439	320.78
362.821	319.65
363.203	332.31
363.584	322.59
363.966	331.4
364.348	340.89
364.729	300.9
365.111	309.26
365.493	311.97
365.874	312.65
366.256	309.94
366.637	316.71
367.019	320.33
367.4	315.58
367.781	311.07
368.163	311.74
368.544	305.42
368.925	314.68
369.306	319.88
369.688	319.43
370.069	316.26
370.45	313.1
370.831	317.62
371.212	311.07
371.593	309.48
371.974	317.17
372.355	323.04
372.736	323.04
373.117	309.94
373.498	284.17
373.879	319.43
374.26	323.04
374.641	311.52
375.021	308.81
375.402	316.26
375.783	318.75
376.163	333.66
376.544	324.85
376.925	348.58
377.305	338.41
377.686	330.27
378.066	334.34
378.447	331.86
378.827	329.82
379.208	322.59
379.588	349.03
379.968	339.77
380.349	344.28
380.729	332.31
381.109	342.93
381.489	339.31
381.87	324.4
382.25	346.09
382.63	356.49
383.01	349.03
383.39	358.07
383.77	350.61
384.15	322.14
384.53	349.26
384.91	330.73
385.29	355.13
385.67	355.36
386.049	340.22
386.429	358.07
386.809	349.48
387.189	338.41
387.568	347
387.948	356.04
388.328	336.15
388.707	382.7
389.087	384.96
389.466	360.56
389.846	352.87
390.225	354.45
390.605	377.73
390.984	371.85
391.363	365.3
391.743	382.02
392.122	365.98
392.501	381.57
392.881	389.26
393.26	380.44
393.639	386.32
394.018	373.89
394.397	380.44
394.776	386.54
395.155	389.93
395.534	389.03
395.913	408.69
396.292	398.29
396.671	418.86
397.05	400.78
397.429	405.75
397.808	409.37
398.186	401.68
398.565	400.55
398.944	412.98
399.323	420.21
399.701	391.74
400.08	388.8
400.458	411.18
400.837	420.21
401.215	423.38
401.594	427.45
401.972	419.54
402.351	431.06
402.729	412.08
403.107	413.21
403.486	439.42
403.864	433.32
404.242	451.85
404.62	462.93
404.999	427.45
405.377	449.37
405.755	445.75
406.133	440.1
406.511	443.72
406.889	479.65
407.267	454.56
407.645	467.22
408.023	481
408.401	495.47
408.779	491.17
409.156	497.5
409.534	489.59
409.912	523.72
410.29	500.89
410.667	530.95
411.045	525.52
411.422	526.88
411.8	514.9
412.178	532.3
412.555	555.58
412.933	561.23
413.31	561.23
413.687	578.63
414.065	604.16
414.442	574.79
414.819	577.72
415.197	587.89
415.574	606.88
415.951	585.63
416.328	608.68
416.705	626.54
417.082	641.68
417.46	649.59
417.837	652.98
418.214	666.08
418.591	655.01
418.967	677.16
419.344	703.6
419.721	675.35
420.098	691.62
420.475	694.11
420.852	710.15
421.228	729.13
421.605	743.82
421.982	736.14
422.358	723.94
422.735	720.77
423.111	732.98
423.488	768.23
423.864	771.39
424.241	777.49
424.617	767.78
424.994	793.76
425.37	820.2
425.746	790.6
426.123	815.91
426.499	835.12
426.875	833.76
427.251	855.23
427.627	870.37
428.003	847.77
428.379	892.07
428.756	883.48
429.132	885.29
429.507	895.68
429.883	915.57
430.259	928.45
430.635	947.88
431.011	945.85
431.387	962.57
431.763	969.81
432.138	963.03
432.514	999.86
432.89	989.69
433.265	1021.56
433.641	1018.84
434.016	1034.21
434.392	1043.93
434.767	1082.8
435.143	1082.12
435.518	1080.99
435.894	1103.59
436.269	1120.31
436.644	1111.04
437.02	1111.27
437.395	1117.15
437.77	1143.36
438.145	1143.36
438.52	1153.08
438.895	1170.7
439.271	1192.17
439.646	1214.09
440.021	1193.3
440.395	1213.87
440.77	1219.06
441.145	1238.72
441.52	1220.42
441.895	1227.43
442.27	1262.45
442.645	1236.69
443.019	1257.93
443.394	1269.01
443.769	1311.94
444.143	1273.53
444.518	1290.93
444.892	1292.28
445.267	1316.01
445.641	1310.59
446.016	1289.12
446.39	1299.29
446.764	1310.36
447.139	1311.26
447.513	1334.99
447.887	1324.6
448.262	1344.03
448.636	1344.03
449.01	1370.25
449.384	1343.35
449.758	1362.34
450.132	1381.77
450.506	1381.32
450.88	1391.94
451.254	1378.16
451.628	1431.49
452.002	1408.44
452.376	1411.6
452.75	1446.4
453.123	1423.8
453.497	1435.33
453.871	1440.08
454.244	1476.01
454.618	1466.97
454.992	1491.15
455.365	1475.55
455.739	1514.88
456.112	1546.29
456.486	1530.02
456.859	1544.25
457.232	1560.07
457.606	1531.82
457.979	1565.27
458.352	1572.5
458.725	1611.6
459.099	1616.34
459.472	1620.64
459.845	1623.35
460.218	1658.37
460.591	1665.83
460.964	1667.19
461.337	1656.34
461.71	1736.11
462.083	1710.58
462.456	1717.58
462.829	1739.95
463.201	1738.6
463.574	1740.86
463.947	1753.51
464.32	1782.89
464.692	1806.17
465.065	1847.52
465.438	1840.52
465.81	1844.36
466.183	1852.72
466.555	1890.23
466.928	1938.59
467.3	1871.48
467.672	1908.31
468.045	1916.67
468.417	1957.35
468.789	1960.51
469.161	1995.31
469.534	2004.58
469.906	2032.15
470.278	2032.38
470.65	2039.38
471.022	2069.66
471.394	2154.41
471.766	2134.75
472.138	2131.81
472.51	2146.72
472.882	2163.67
473.253	2182.88
473.625	2247.29
473.997	2254.97
474.369	2245.48
474.74	2285.93
475.112	2323.22
475.484	2352.59
475.855	2382.2
476.227	2419.48
476.598	2421.07
476.97	2443.44
477.341	2469.88
477.713	2498.58
478.084	2494.96
478.455	2570.67
478.827	2569.76
479.198	2641.63
479.569	2610.44
479.94	2689.99
480.311	2696.99
480.682	2730.21
481.053	2819.7
481.424	2831.9
481.795	2834.84
482.166	2869.87
482.537	2873.26
482.908	2935.18
483.279	2990.54
483.65	2982.41
484.021	3027.6
484.391	3028.06
484.762	3052.69
485.133	3087.49
485.503	3113.25
485.874	3155.28
486.244	3198.9
486.615	3203.87
486.985	3285.9
487.356	3311.66
487.726	3308.27
488.097	3397.31
488.467	3362.74
488.837	3466.46
489.207	3451.1
489.578	3480.7
489.948	3509.63
490.318	3511.21
490.688	3580.13
491.058	3590.3
491.428	3646.34
491.798	3677.3
492.168	3698.09
492.538	3704.2
492.908	3777.64
493.278	3795.72
493.648	3785.78
494.017	3886.34
494.387	3896.96
494.757	3921.82
495.126	3908.94
495.496	3942.16
495.866	3927.02
496.235	4000.01
496.605	3993.91
496.974	4011.53
497.344	4041.36
497.713	4019.67
498.082	4054.7
498.452	4127.69
498.821	4134.92
499.19	4150.96
499.559	4188.25
499.928	4153.45
500.298	4195.26
500.667	4243.39
501.036	4229.83
501.405	4209.95
501.774	4275.25
502.143	4283.39
502.512	4271.87
502.88	4316.16
503.249	4341.92
503.618	4352.31
503.987	4380.56
504.356	4418.53
504.724	4391.86
505.093	4361.35
505.462	4475.93
505.83	4442.71
506.199	4459.66
506.567	4537.62
506.936	4518.19
507.304	4549.37
507.672	4564.74
508.041	4519.99
508.409	4610.39
508.777	4598.18
509.145	4626.21
509.514	4645.41
509.882	4639.99
510.25	4629.6
510.618	4680.44
510.986	4677.96
511.354	4745.75
511.722	4774
512.09	4823.94
512.458	4762.02
512.826	4789.14
513.193	4793.66
513.561	4793.89
513.929	4826.2
514.297	4862.81
514.664	4886.76
515.032	4885.18
515.4	4912.07
515.767	4940.32
516.135	4955.24
516.502	4909.59
516.869	4981.9
517.237	4962.92
517.604	4959.53
517.972	5041.79
518.339	4996.59
518.706	5057.16
519.073	5066.42
519.44	5055.57
519.808	5136.48
520.175	5101.67
520.542	5160.43
520.909	5165.63
521.276	5173.54
521.643	5216.7
522.009	5202.46
522.376	5226.87
522.743	5281.78
523.11	5282.69
523.477	5256.7
523.843	5344.15
524.21	5416.69
524.577	5420.54
524.943	5465.96
525.31	5456.47
525.676	5423.7
526.043	5483.36
526.409	5543.47
526.776	5535.11
527.142	5525.84
527.508	5617.59
527.874	5638.83
528.241	5690.13
528.607	5676.12
528.973	5736.01
529.339	5741.2
529.705	5795.21
530.071	5820.98
530.437	5813.52
530.803	5820.75
531.169	5868.89
531.535	5922.44
531.901	5935.55
532.267	5919.96
532.632	5968.32
532.998	6003.12
533.364	6001.54
533.73	6039.05
534.095	6099.39
534.461	6076.79
534.826	6126.96
535.192	6126.28
535.557	6200.4
535.923	6201.53
536.288	6199.72
536.653	6297.35
537.019	6225.71
537.384	6310.23
537.749	6328.53
538.114	6302.55
538.479	6331.02
538.845	6347.97
539.21	6337.35
539.575	6370.79
539.94	6466.61
540.305	6497.34
540.67	6507.06
541.034	6484.46
541.399	6547.29
541.764	6587.06
542.129	6581.86
542.494	6594.29
542.858	6646.72
543.223	6670.22
543.587	6708.64
543.952	6749.99
544.316	6720.84
544.681	6740.73
545.045	6768.75
545.41	6859.14
545.774	6858.01
546.138	6824.11
546.503	6905.92
546.867	6975.97
547.231	6971.91
547.595	6981.4
547.959	7020.49
548.324	7012.58
548.688	7067.05
549.052	7124.45
549.416	7037.22
549.779	7085.8
550.143	7149.3
550.507	7233.14
550.871	7178.46
551.235	7213.93
551.599	7235.85
551.962	7285.8
552.326	7298.23
552.689	7266.59
553.053	7269.07
553.417	7284.22
553.78	7414.61
554.143	7378.9
554.507	7398.34
554.87	7429.3
555.234	7477.66
555.597	7446.92
555.96	7473.36
556.323	7524.21
556.686	7547.03
557.05	7606.92
557.413	7648.27
557.776	7584.55
558.139	7633.13
558.502	7661.83
558.865	7705.9
559.228	7700.93
559.59	7855.5
559.953	7765.78
560.316	7870.64
560.679	7868.61
561.041	7905.67
561.404	7957.19
561.767	7964.2
562.129	7904.76
562.492	8022.05
562.854	8018.43
563.217	8047.81
563.579	8039.68
563.941	8072.22
564.304	8102.72
564.666	8168.03
565.028	8168.94
565.39	8238.99
565.753	8274.47
566.115	8284.87
566.477	8291.19
566.839	8320.35
567.201	8276.28
567.563	8383.62
567.925	8403.96
568.287	8422.04
568.648	8401.93
569.01	8457.74
569.372	8493.9
569.734	8558.98
570.095	8603.5
570.457	8615.48
570.819	8683.5
571.18	8709.04
571.542	8710.17
571.903	8795.59
572.265	8828.81
572.626	8826.77
572.987	8914.45
573.349	8978.86
573.71	9008.69
574.071	8988.8
574.432	9066.99
574.794	9194
575.155	9251.17
575.516	9280.32
575.877	9335.23
576.238	9350.38
576.599	9489.13
576.96	9545.85
577.32	9686.86
577.681	9671.27
578.042	9725.06
578.403	9889.8
578.763	9993.07
579.124	10064.48
579.485	10174.31
579.845	10237.81
580.206	10396.45
580.566	10455.66
580.927	10585.82
581.287	10737.23
581.648	10824.24
582.008	11006.83
582.368	11121.85
582.728	11258.8
583.089	11391
583.449	11581.96
583.809	11789.63
584.169	11929.29
584.529	12154.6
584.889	12360.24
585.249	12430.97
585.609	12669.38
585.969	12967.91
586.329	13054.46
586.688	13298.52
587.048	13505.07
587.408	13719.98
587.768	13930.59
588.127	14196.35
588.487	14412.39
588.846	14770.57
589.206	14953.17
589.565	15164.46
589.925	15490.33
590.284	15625.24
590.643	16018.67
591.003	16312.68
591.362	16561.71
591.721	16870.63
592.08	17139.32
592.44	17421.8
592.799	17756.03
593.158	18044.61
593.517	18308.56
593.876	18680.75
594.235	18901.31
594.593	19269.44
594.952	19527.74
595.311	19800.72
595.67	20094.5
596.029	20489.97
596.387	20757.31
596.746	21140.35
597.104	21459.89
597.463	21674.8
597.822	22075.46
598.18	22241.56
598.538	22525.4
598.897	22998.83
599.255	23065.04
599.613	23669.77
599.972	23865.02
600.33	24096.43
600.688	24354.5
601.046	24816.41
601.404	25152.22
601.762	25272.44
602.12	25706.1
602.478	25923.27
602.836	26224.73
603.194	26415.01
603.552	26672.86
603.91	26779.3
604.268	27282.56
604.625	27469.9
604.983	27928.64
605.341	27990.11
605.698	28200.28
606.056	28575.18
606.413	28764.78
606.771	29171.55
607.128	29270.98
607.485	29551.65
607.843	29732.21
608.2	30096.27
608.557	30268.02
608.914	30516.6
609.272	30822.13
609.629	31147.54
609.986	31312.74
610.343	31303.92
610.7	31786.62
611.057	31906.62
611.414	32133.51
611.771	32310.9
612.127	32557.9
612.484	32810.55
612.841	33037.21
613.198	33125.12
613.554	33249.63
613.911	33579.8
614.267	33687.14
614.624	33867.92
614.98	34064.3
615.337	34417.51
615.693	34368.47
616.05	34589.26
616.406	34982.92
616.762	34882.36
617.118	34965.3
617.475	35137.49
617.831	35481.67
618.187	35459.75
618.543	35724.15
618.899	35947.42
619.255	36023.57
619.611	36058.15
619.967	36306.28
620.323	36441.41
620.678	36421.53
621.034	36476.22
621.39	36602.99
621.746	36746.27
622.101	37184.67
622.457	36953.04
622.812	37227.38
623.168	37434.38
623.523	37326.59
623.879	37642.97
624.234	37405.91
624.589	37560.48
624.945	37763.41
625.3	37992.11
625.655	37975.84
626.01	38011.09
626.365	38076.63
626.72	38086.8
627.075	38150.07
627.43	38228.94
627.785	38256.96
628.14	38351.19
628.495	38564.3
628.85	38522.26
629.205	38560
629.559	38792.31
629.914	38614.69
630.269	38683.84
630.623	38597.97
630.978	38574.01
631.332	38708.7
631.687	38818.98
632.041	38725.65
632.396	38825.76
632.75	38753.9
633.104	38966.55
633.459	38764.52
633.813	38676.38
634.167	38858.53
634.521	38957.28
634.875	38893.55
635.229	38962.93
635.583	38819.88
635.937	38834.12
636.291	38888.81
636.645	38876.6
636.999	38688.59
637.352	38962.7
637.706	38748.92
638.06	39016.26
638.413	38869.83
638.767	38817.85
639.121	38939.88
639.474	38707.12
639.828	38761.13
640.181	38902.37
640.534	38870.28
640.888	38749.15
641.241	38653.11
641.594	38858.3
641.947	38935.36
642.301	38750.28
642.654	38917.51
643.007	38957.05
643.36	38808.36
643.713	38741.24
644.066	38912.76
644.419	38562.26
644.771	38475.71
645.124	38094.93
645.477	38113.91
645.83	37787.37
646.182	37648.84
646.535	37623.08
646.888	37748.05
647.24	37560.93
647.593	37841.83
647.945	37624.66
648.298	37569.52
648.65	37355.97
649.002	37355.51
649.355	37584.66
649.707	37530.65
650.059	37623.3
650.411	37961.37
650.763	38108.26
651.115	38442.94
651.467	38475.26
651.819	38350.52
652.171	38267.13
652.523	38207.02
652.875	38171.76
653.227	38060.81
653.578	38432.32
653.93	38241.14
654.282	38152.1
654.633	38011.54
654.985	38123.4
655.337	38135.83
655.688	38125.44
656.039	38325.21
656.391	37907.59
656.742	38016.74
657.094	38061.49
657.445	38230.52
657.796	37969.74
658.147	38126.12
658.498	38107.36
658.849	38067.81
659.2	38116.4
659.551	37875.95
659.902	38162.05
660.253	38023.52
660.604	38104.87
660.955	37847.71
661.306	38016.29
661.656	37953.01
662.007	37811.32
662.358	37782.85
662.708	38070.07
663.059	37902.17
663.409	37509.86
663.76	38022.16
664.11	37953.24
664.461	37876.18
664.811	37850.42
665.161	37786.24
665.511	37817.2
665.862	37812.68
666.212	37887.93
666.562	37922.96
666.912	37859.46
667.262	37792.79
667.612	37847.71
667.962	37769.06
668.312	37773.13
668.662	38000.02
669.011	37801.38
669.361	37781.49
669.711	37828.72
670.06	37729.29
670.41	37618.33
670.76	37685.22
671.109	37923.86
671.459	37685.22
671.808	37749.4
672.157	37659.69
672.507	37389.64
672.856	37527.26
673.205	37666.02
673.554	37633.93
673.904	37668.5
674.253	37704.66
674.602	37521.84
674.951	37111.91
675.3	36933.83
675.649	37438.45
675.998	37494.72
676.346	37432.12
676.695	37515.51
677.044	37146.71
677.393	37375.18
677.741	37491.1
678.09	37348.06
678.438	37181.51
678.787	37270.55
679.135	37400.94
679.484	36986.49
679.832	37157.55
680.181	36932.7
680.529	37170.66
680.877	37030.33
681.225	36906.71
681.573	37279.58
681.922	36913.04
682.27	36848.18
682.618	36953.72
682.966	36767.06
683.314	36756.21
683.661	36682.31
684.009	36496.78
684.357	36527.06
684.705	36381.3
685.053	36455.43
685.4	36429.66
685.748	36247.3
686.095	36326.39
686.443	36059.05
686.79	36050.92
687.138	36189.9
687.485	36098.82
687.832	35974.53
688.18	36027.64
688.527	35861.32
688.874	35780.42
689.221	35777.93
689.568	35811.15
689.915	35663.81
690.262	35551.04
690.609	35605.73
690.956	35355.12
691.303	35450.93
691.65	35260.88
691.997	35247.32
692.344	35010.94
692.69	35063.6
693.037	35042.81
693.383	34777.96
693.73	34848.46
694.077	34742.02
694.423	34694.79
694.769	34597.4
695.116	34507.45
695.462	34515.14
695.808	34353.33
696.155	34309.27
696.501	34162.38
696.847	34242.38
697.193	33923.97
697.539	34178.42
697.885	33877.41
698.231	33739.34
698.577	33663.63
698.923	33650.75
699.269	33554.71
699.614	33371.89
699.96	33217.77
700.306	33302.29
700.651	33173.93
700.997	33026.14
701.342	33048.06
701.688	32906.82
702.033	32776.43
702.379	32767.16
702.724	32745.24
703.069	32896.42
703.415	32493.04
703.76	32469.77
704.105	32433.16
704.45	32307.96
704.795	32124.92
705.14	32058.93
705.485	32111.36
705.83	31909.33
706.175	32040.17
706.52	31929.22
706.865	31836.56
707.209	31699.62
707.554	31643.35
707.899	31696
708.243	31689.9
708.588	31536.23
708.932	31161.78
709.277	31441.32
709.621	31258.05
709.966	31087.21
710.31	31227.77
710.654	30966.98
710.998	30947.1
711.342	30976.93
711.687	30912.07
712.031	30800.66
712.375	30667.56
712.719	30682.47
713.063	30640.44
713.407	30670.72
713.75	30453.55
714.094	30441.12
714.438	30340.78
714.782	30301.69
715.125	30182.82
715.469	30312.76
715.812	30092.88
716.156	29994.13
716.499	29939.89
716.843	30001.36
717.186	29813.11
717.53	29976.5
717.873	29892.21
718.216	29864.41
718.559	29722.95
718.902	29600.01
719.246	29692.44
719.589	29484.76
719.932	29350.75
720.275	29407.02
720.617	29351.21
720.96	29344.65
721.303	29282.51
721.646	29289.51
721.989	29164.77
722.331	29224.88
722.674	29152.34
723.016	29228.95
723.359	29070.76
723.701	29061.5
724.044	28835.74
724.386	28805.23
724.729	28862.18
725.071	28726.82
725.413	28673.71
725.755	28775.4
726.097	28564.56
726.439	28434.17
726.782	28450.89
727.124	28595.75
727.465	28372.25
727.807	28559.36
728.149	28407.95
728.491	28345.58
728.833	28347.84
729.175	28195.08
729.516	28186.72
729.858	28023.33
730.199	28262.87
730.541	28068.75
730.882	28069.66
731.224	28099.94
731.565	27935.88
731.906	27987.17
732.248	27983.33
732.589	27707.63
732.93	27701.31
733.271	27766.84
733.612	27763.68
733.953	27648.88
734.294	27619.5
734.635	27563.91
734.976	27657.01
735.317	27473.06
735.658	27464.25
735.999	27527.3
736.339	27388.09
736.68	27447.3
737.021	27295.21
737.361	27241.66
737.702	27313.97
738.042	27207.31
738.383	27064.71
738.723	27268.1
739.063	27104.26
739.404	27228.32
739.744	27018.39
740.084	26971.83
740.424	27035.33
740.764	26881.89
741.104	27039.63
741.444	26797.37
741.784	26676.25
742.124	26838.96
742.464	26737.26
742.804	26618.4
743.143	26644.38
743.483	26667.66
743.823	26530.26
744.162	26508.79
744.502	26549.47
744.841	26321.45
745.181	26493.2
745.52	26319.87
745.86	26319.42
746.199	26311.74
746.538	26211.18
746.877	26355.8
747.216	26282.81
747.556	26341.79
747.895	26160.1
748.234	25978.86
748.573	26055.7
748.911	25984.97
749.25	25927.34
749.589	25891.64
749.928	25789.04
750.267	25771.41
750.605	25842.6
750.944	25787.23
751.283	25668.36
751.621	25749.27
751.96	25535.71
752.298	25488.93
752.636	25581.36
752.975	25295.49
753.313	25246.91
753.651	25409.16
753.989	25151.54
754.327	25148.83
754.666	25004.43
755.004	25057.76
755.342	25059.57
755.679	25004.2
756.017	24857.99
756.355	25021.38
756.693	24741.84
757.031	24856.63
757.368	24648.5
757.706	24733.7
758.044	24559.47
758.381	24537.55
758.719	24556.08
759.056	24549.52
759.394	24450.54
759.731	24202.19
