Data from hue_70_FLMS001491_7.txt Node
Date: Mon Feb 06 15:19:59 GMT 2017
User: dcchb
Spectrometer: FLMS00149
Trigger mode: 0
Integration Time (sec): 2.000000E-2
Scans to average: 10
Electric dark correction enabled: true
Nonlinearity correction enabled: false
Boxcar width: 0
XAxis mode: Wavelengths
Number of Pixels in Spectrum: 2048
>>>>>Begin Spectral Data<<<<<
341.393	-2.16
341.776	-2.16
342.16	-2.16
342.543	-64.76
342.927	-63.85
343.31	-65.66
343.693	-70.63
344.077	-56.4
344.46	-63.4
344.843	-64.08
345.226	-39
345.61	-23.18
345.993	-16.4
346.376	-10.07
346.759	-3.74
347.142	21.57
347.525	36.93
347.908	62.7
348.291	85.29
348.674	88.46
349.057	117.61
349.44	107.67
349.823	132.07
350.206	162.81
350.588	207.78
350.971	215.23
351.354	235.8
351.737	232.64
352.119	232.18
352.502	241
352.884	261.56
353.267	298.4
353.65	283.03
354.032	281.45
354.414	291.16
354.797	299.53
355.179	323.03
355.562	323.93
355.944	314.89
356.326	309.47
356.709	322.58
357.091	334.33
357.473	329.58
357.855	340.43
358.238	353.54
358.62	355.57
359.002	345.85
359.384	342.46
359.766	352.63
360.148	342.46
360.53	346.3
360.912	331.84
361.294	353.76
361.676	332.29
362.057	342.01
362.439	322.58
362.821	331.62
363.203	346.3
363.584	308.57
363.966	322.35
364.348	307.21
364.729	337.94
365.111	314.89
365.493	333.88
365.874	311.5
366.256	329.58
366.637	294.78
367.019	310.6
367.4	306.76
367.781	340.43
368.163	298.4
368.544	313.76
368.925	313.76
369.306	345.17
369.688	324.84
370.069	317.15
370.45	306.08
370.831	315.34
371.212	316.02
371.593	324.61
371.974	319.41
372.355	292.07
372.736	318.28
373.117	326.19
373.498	296.14
373.879	302.69
374.26	316.02
374.641	324.61
375.021	334.1
375.402	308.11
375.783	310.6
376.163	328.9
376.544	327.55
376.925	335.01
377.305	331.62
377.686	314.67
378.066	315.57
378.447	332.29
378.827	330.03
379.208	309.92
379.588	324.16
379.968	330.26
380.349	337.04
380.729	319.86
381.109	332.52
381.489	330.71
381.87	328
382.25	341.78
382.63	338.62
383.01	337.04
383.39	345.85
383.77	333.2
384.15	347.43
384.53	334.1
384.91	355.12
385.29	324.84
385.67	340.65
386.049	352.63
386.429	352.86
386.809	338.62
387.189	360.99
387.568	334.1
387.948	354.21
388.328	356.7
388.707	357.83
389.087	355.8
389.466	365.06
389.846	338.85
390.225	346.98
390.605	364.84
390.984	363.03
391.363	351.95
391.743	365.96
392.122	355.57
392.501	361.9
392.881	365.96
393.26	377.04
393.639	345.63
394.018	358.96
394.397	382.91
394.776	360.99
395.155	354.89
395.534	367.09
395.913	372.52
396.292	379.3
396.671	374.78
397.05	381.56
397.429	376.59
397.808	378.39
398.186	387.66
398.565	372.52
398.944	375.68
399.323	395.12
399.701	400.31
400.08	385.17
400.458	381.11
400.837	392.18
401.215	396.7
401.594	394.66
401.972	370.94
402.351	402.35
402.729	396.25
403.107	398.51
403.486	389.02
403.864	414.78
404.242	374.33
404.62	429.69
404.999	406.64
405.377	409.81
405.755	435.57
406.133	398.05
406.511	418.17
406.889	430.14
407.267	421.1
407.645	420.88
408.023	414.55
408.401	406.64
408.779	429.24
409.156	433.31
409.534	434.44
409.912	425.17
410.29	447.77
410.667	442.12
411.045	441.67
411.422	432.4
411.8	440.77
412.178	431.5
412.555	470.59
412.933	464.95
413.31	466.3
413.687	462.46
414.065	455.91
414.442	479.41
414.819	464.72
415.197	475.79
415.574	470.37
415.951	486.19
416.328	472.85
416.705	491.61
417.082	493.19
417.46	492.29
417.837	495.91
418.214	475.79
418.591	480.31
418.967	491.61
419.344	499.97
419.721	516.92
420.098	510.14
420.475	504.49
420.852	522.57
421.228	516.24
421.605	527.32
421.982	514.21
422.358	507.88
422.735	528.22
423.111	529.58
423.488	520.99
423.864	532.29
424.241	536.13
424.617	560.99
424.994	534.1
425.37	534.32
425.746	525.06
426.123	558.73
426.499	549.69
426.875	568.22
427.251	541.55
427.627	576.81
428.003	567.99
428.379	567.09
428.756	587.88
429.132	593.98
429.507	583.59
429.883	599.41
430.259	593.98
430.635	591.72
431.011	596.92
431.387	605.96
431.763	614.09
432.138	624.49
432.514	616.13
432.89	598.95
433.265	616.35
433.641	636.24
434.016	643.25
434.392	655.9
434.767	652.96
435.143	646.86
435.518	674.66
435.894	670.59
436.269	653.64
436.644	682.57
437.02	682.11
437.395	683.92
437.77	683.02
438.145	679.4
438.52	698.61
438.895	673.75
439.271	705.17
439.646	721.44
440.021	742.68
440.395	734.32
440.77	721.89
441.145	718.72
441.52	718.95
441.895	731.83
442.27	742.45
442.645	731.38
443.019	759.17
443.394	759.63
443.769	771.6
444.143	761.43
444.518	778.61
444.892	787.42
445.267	782.9
445.641	791.72
446.016	779.06
446.39	782.23
446.764	786.52
447.139	797.37
447.513	812.96
447.887	813.18
448.262	831.72
448.636	805.95
449.01	824.26
449.384	832.85
449.758	826.07
450.132	842.79
450.506	830.36
450.88	845.27
451.254	855.22
451.628	866.74
452.002	863.58
452.376	861.32
452.75	878.04
453.123	889.79
453.497	890.47
453.871	890.7
454.244	897.25
454.618	913.97
454.992	927.53
455.365	927.98
455.739	949.9
456.112	961.2
456.486	942.67
456.859	961.88
457.232	1006.17
457.606	989.45
457.979	993.07
458.352	1025.83
458.725	1027.87
459.099	1033.74
459.472	1041.43
459.845	1069.45
460.218	1064.93
460.591	1080.75
460.964	1083.69
461.337	1098.6
461.71	1142.67
462.083	1134.31
462.456	1150.35
462.829	1158.26
463.201	1155.77
463.574	1164.14
463.947	1209.56
464.32	1205.94
464.692	1182.89
465.065	1256.56
465.438	1237.13
465.81	1268.31
466.183	1278.94
466.555	1316.22
466.928	1333.17
467.3	1343.11
467.672	1356.9
468.045	1410.46
468.417	1422.66
468.789	1403.68
469.161	1437.35
469.534	1486.61
469.906	1505.82
470.278	1480.96
470.65	1522.77
471.022	1565.26
471.394	1615.42
471.766	1584.24
472.138	1677.79
472.51	1688.87
472.882	1759.15
473.253	1743.56
473.625	1806.38
473.997	1843.44
474.369	1854.51
474.74	1883.67
475.112	1971.57
475.484	1988.07
475.855	2018.8
476.227	2048.63
476.598	2158.46
476.97	2165.01
477.341	2230.55
477.713	2301.06
478.084	2323.43
478.455	2416.31
478.827	2447.27
479.198	2537.43
479.569	2565.91
479.94	2667.37
480.311	2763.19
480.682	2813.58
481.053	2873.02
481.424	2973.58
481.795	3040.24
482.166	3160.24
482.537	3214.93
482.908	3296.06
483.279	3388.48
483.65	3507.8
484.021	3612.43
484.391	3727.91
484.762	3799.1
485.133	3866.21
485.503	3941.24
485.874	4080.9
486.244	4193.43
486.615	4315.24
486.985	4431.62
487.356	4563.14
487.726	4675
488.097	4770.37
488.467	4907.99
488.837	5065.5
489.207	5154.99
489.578	5353.63
489.948	5407.87
490.318	5560.63
490.688	5677.92
491.058	5796.33
491.428	5923.78
491.798	6088.3
492.168	6232.48
492.538	6365.36
492.908	6473.15
493.278	6628.63
493.648	6712.92
494.017	6906.58
494.387	7030.65
494.757	7160.59
495.126	7358.78
495.496	7476.74
495.866	7613.68
496.235	7730.52
496.605	7887.58
496.974	8008.7
497.344	8144.74
497.713	8321.01
498.082	8458.63
498.452	8586.09
498.821	8685.52
499.19	8733.88
499.559	8921.45
499.928	9035.57
500.298	9160.76
500.667	9327.99
501.036	9464.26
501.405	9561.43
501.774	9614.99
502.143	9837.35
502.512	9909.44
502.88	10082.55
503.249	10163.9
503.618	10341.75
503.987	10355.08
504.356	10575.64
504.724	10654.51
505.093	10802.3
505.462	10915.07
505.83	10972.69
506.199	11129.75
506.567	11334.04
506.936	11433.92
507.304	11486.12
507.672	11665.1
508.041	11704.2
508.409	11806.34
508.777	12004.3
509.145	12128.59
509.514	12176.5
509.882	12305.54
510.25	12404.29
510.618	12544.18
510.986	12593.21
511.354	12767.67
511.722	12803.83
512.09	12989.36
512.458	12955.92
512.826	13079.75
513.193	13202.46
513.561	13400.2
513.929	13496.47
514.297	13507.99
514.664	13641.55
515.032	13694.2
515.4	13959.05
515.767	13950.92
516.135	14108.43
516.502	14017.36
516.869	14210.35
517.237	14326.73
517.604	14352.94
517.972	14493.28
518.339	14608.75
518.706	14576.44
519.073	14773.5
519.44	14828.41
519.808	15018.01
520.175	14966.03
520.542	15217.78
520.909	15293.71
521.276	15306.36
521.643	15427.26
522.009	15538
522.376	15650.53
522.743	15710.65
523.11	15817.08
523.477	15989.96
523.843	16071.99
524.21	16224.31
524.577	16385.43
524.943	16429.27
525.31	16507.91
525.676	16635.59
526.043	16688.7
526.409	16716.27
526.776	16870.62
527.142	16992.42
527.508	17018.63
527.874	17239.19
528.241	17225.18
528.607	17270.15
528.973	17438.96
529.339	17376.14
529.705	17476.7
530.071	17682.35
530.437	17642.12
530.803	17800.99
531.169	17853.64
531.535	17838.95
531.901	17905.62
532.267	17981.32
532.632	18072.62
532.998	18063.35
533.364	18219.28
533.73	18239.17
534.095	18241.65
534.461	18350.12
534.826	18349.67
535.192	18379.05
535.557	18411.59
535.923	18476
536.288	18548.09
536.653	18651.81
537.019	18516
537.384	18680.51
537.749	18786.72
538.114	18729.55
538.479	18802.32
538.845	18811.81
539.21	18762.32
539.575	18887.74
539.94	18828.53
540.305	18942.88
540.67	18880.73
541.034	18908.3
541.399	19040.05
541.764	19055.87
542.129	19181.06
542.494	19061.74
542.858	19146.26
543.223	19198.01
543.587	19249.08
543.952	19134.96
544.316	19203.44
544.681	19196.88
545.045	19254.28
545.41	19331.34
545.774	19398.46
546.138	19379.02
546.503	19302.19
546.867	19293.6
547.231	19486.14
547.595	19453.37
547.959	19521.62
548.324	19408.4
548.688	19365.47
549.052	19564.78
549.416	19577.66
549.779	19569.75
550.143	19557.1
550.507	19645.01
550.871	19628.28
551.235	19654.27
551.599	19776.3
551.962	19771.1
552.326	19701.05
552.689	19826.92
553.053	19779.69
553.417	19870.99
553.78	20024.21
554.143	19906.69
554.507	19948.05
554.87	20003.87
555.234	20180.13
555.597	19973.36
555.96	20024.43
556.323	20153.02
556.686	20111.21
557.05	20253.13
557.413	20195.73
557.776	20296.74
558.139	20355.04
558.502	20378.55
558.865	20317.76
559.228	20500.12
559.59	20542.84
559.953	20579.67
560.316	20748.48
560.679	20696.73
561.041	20687.69
561.404	20906.89
561.767	21017.85
562.129	20869.38
562.492	21063.05
562.854	21046.55
563.217	21078.19
563.579	21125.65
563.941	21232.08
564.304	21449.25
564.666	21442.92
565.028	21391.85
565.39	21368.12
565.753	21514.56
566.115	21634.33
566.477	21594.11
566.839	21695.8
567.201	21809.47
567.563	21845.85
567.925	21994.55
568.287	21951.61
568.648	21966.98
569.01	21999.29
569.372	22240.87
569.734	22110.7
570.095	22269.12
570.457	22267.54
570.819	22308.21
571.18	22296.69
571.542	22435.22
571.903	22479.96
572.265	22535.33
572.626	22512.73
572.987	22638.15
573.349	22642.22
573.71	22796.79
574.071	22714.08
574.432	22830.01
574.794	23020.28
575.155	22987.52
575.516	22879.27
575.877	22970.57
576.238	22989.78
576.599	23166.72
576.96	22999.72
577.32	23110.23
577.681	23163.56
578.042	23164.46
578.403	23185.7
578.763	23156.78
579.124	23262.99
579.485	23334.4
579.845	23370.11
580.206	23277.9
580.566	23283.1
580.927	23467.28
581.287	23487.39
581.648	23449.88
582.008	23506.6
582.368	23446.26
582.728	23402.87
583.089	23485.81
583.449	23437
583.809	23371.01
584.169	23415.3
584.529	23439.71
584.889	23612.13
585.249	23532.14
585.609	23305.93
585.969	23618.01
586.329	23473.15
586.688	23465.02
587.048	23450.56
587.408	23375.98
587.768	23383.21
588.127	23426.15
588.487	23421.86
588.846	23574.39
589.206	23355.87
589.565	23347.06
589.925	23518.35
590.284	23378.24
590.643	23404
591.003	23504.34
591.362	23526.26
591.721	23471.57
592.08	23582.08
592.44	23567.61
592.799	23544.34
593.158	23482.87
593.517	23527.39
593.876	23538.69
594.235	23500.05
594.593	23502.08
594.952	23581.85
595.311	23526.94
595.67	23618.23
596.029	23715.41
596.387	23659.59
596.746	23746.59
597.104	23657.33
597.463	23485.13
597.822	23648.97
598.18	23676.76
598.538	23565.81
598.897	23743.88
599.255	23541.17
599.613	23801.96
599.972	23668.4
600.33	23776.2
600.688	23681.06
601.046	23844.44
601.404	23842.41
601.762	23736.42
602.12	23903.43
602.478	23760.15
602.836	23886.02
603.194	23714.28
603.552	23743.88
603.91	23636.54
604.268	23835.86
604.625	23783.65
604.983	23797.89
605.341	23766.48
605.698	23921.05
606.056	23964.89
606.413	23916.76
606.771	24041.27
607.128	24025
607.485	23977.77
607.843	24047.15
608.2	24173.25
608.557	24127.83
608.914	24043.76
609.272	24242.63
609.629	24326.24
609.986	24384.99
610.343	24246.02
610.7	24495.95
611.057	24311.32
611.414	24331.44
611.771	24431.77
612.127	24519.91
612.484	24522.62
612.841	24552.9
613.198	24565.33
613.554	24618.43
613.911	24673.8
614.267	24624.54
614.624	24721.03
614.98	24693.91
615.337	24741.82
615.693	24753.12
616.05	24705.66
616.406	24828.15
616.762	24756.96
617.118	24832.89
617.475	24727.36
617.831	24890.07
618.187	24900.24
618.543	24911.99
618.899	25121.02
619.255	24999.89
619.611	24974.58
619.967	25195.82
620.323	25008.93
620.678	25112.43
621.034	24991.53
621.39	25066.33
621.746	25011.42
622.101	25288.7
622.457	25031.98
622.812	25195.82
623.168	25237.4
623.523	25189.72
623.879	25266.1
624.234	25186.1
624.589	25217.51
624.945	25273.11
625.3	25311.3
625.655	25343.61
626.01	25276.5
626.365	25335.03
626.72	25226.33
627.075	25292.54
627.43	25375.25
627.785	25160.57
628.14	25284.63
628.495	25289.15
628.85	25240.79
629.205	25166.67
629.559	25389.71
629.914	25283.95
630.269	25354.69
630.623	25261.13
630.978	25180
631.332	25300.9
631.687	25293.45
632.041	25279.43
632.396	25205.76
632.75	25137.52
633.104	25142.71
633.459	25101.13
633.813	25021.81
634.167	24956.28
634.521	25006.45
634.875	25082.38
635.229	24948.37
635.583	24931.42
635.937	25053.45
636.291	24994.24
636.645	24875.38
636.999	24845.77
637.352	24932.78
637.706	24823.4
638.06	24956.96
638.413	24781.82
638.767	24854.81
639.121	24866.11
639.474	24706.79
639.828	24671.31
640.181	24810.75
640.534	24828.6
640.888	24576.18
641.241	24599.23
641.594	24626.12
641.947	24687.36
642.301	24657.08
642.654	24572.79
643.007	24587.93
643.36	24582.28
643.713	24542.96
644.066	24669.28
644.419	24479.23
644.771	24381.83
645.124	24077.43
645.477	24021.39
645.83	23961.28
646.182	23893.03
646.535	23773.49
646.888	23895.29
647.24	23814.84
647.593	23848.29
647.945	23777.1
648.298	23723.32
648.65	23701.62
649.002	23613.72
649.355	23726.71
649.707	23647.61
650.059	23766.48
650.411	23976.64
650.763	24076.08
651.115	24290.53
651.467	24224.32
651.819	24288.05
652.171	24160.59
652.523	24159.92
652.875	24165.79
653.227	23989.75
653.578	24244.43
653.93	24159.24
654.282	24121.05
654.633	23969.41
654.985	24067.94
655.337	24165.34
655.688	24022.07
656.039	24093.02
656.391	23958.34
656.742	24079.92
657.094	24023.87
657.445	24211.89
657.796	24016.42
658.147	24003.31
658.498	24047.15
658.849	24151.33
659.2	23994.72
659.551	23950.43
659.902	24127.37
660.253	24028.85
660.604	24092.57
660.955	23987.49
661.306	24124.89
661.656	24058.68
662.007	24018
662.358	24190.65
662.708	24029.52
663.059	24029.07
663.409	23939.81
663.76	24125.57
664.11	24068.84
664.461	24085.12
664.811	24128.05
665.161	24094.61
665.511	23996.3
665.862	24003.99
666.212	24167.15
666.562	24112.91
666.912	24001.05
667.262	23966.25
667.612	24108.62
667.962	24043.76
668.312	24027.94
668.662	24129.63
669.011	24041.5
669.361	24054.83
669.711	23993.14
670.06	24011.22
670.41	23882.41
670.76	23996.3
671.109	23970.77
671.459	23952.92
671.808	23806.25
672.157	23960.15
672.507	23787.5
672.856	23830.21
673.205	23872.47
673.554	23904.1
673.904	23887.83
674.253	24018.22
674.602	23792.92
674.951	23544.79
675.3	23402.42
675.649	23723.32
675.998	23693.94
676.346	23692.13
676.695	23808.96
677.044	23670.44
677.393	23649.87
677.741	23778.23
678.09	23703.88
678.438	23535.98
678.787	23637.9
679.135	23508.86
679.484	23381.18
679.832	23580.04
680.181	23350.22
680.529	23566.26
680.877	23400.39
681.225	23384.12
681.573	23490.55
681.922	23307.06
682.27	23177.57
682.618	23277
682.966	23134.41
683.314	23262.99
683.661	23093.5
684.009	23051.47
684.357	22905.71
684.705	23059.61
685.053	23039.04
685.4	22900.97
685.748	22735.09
686.095	22749.56
686.443	22772.83
686.79	22745.26
687.138	22666.62
687.485	22840.85
687.832	22624.81
688.18	22635.89
688.527	22593.86
688.874	22479.73
689.221	22437.48
689.568	22384.14
689.915	22322.9
690.262	22324.94
690.609	22224.83
690.956	22172.4
691.303	22136.24
691.65	22095.79
691.997	22031.61
692.344	21903.03
692.69	21891.95
693.037	21912.74
693.383	21736.7
693.73	21722.92
694.077	21613.09
694.423	21644.73
694.769	21491.96
695.116	21497.39
695.462	21455.81
695.808	21294.68
696.155	21400.67
696.501	21206.09
696.847	21190.28
697.193	21109.37
697.539	21164.51
697.885	21020.79
698.231	20873.67
698.577	20801.59
698.923	20857.86
699.269	20642.72
699.614	20652.21
699.96	20612.66
700.306	20561.14
700.651	20487.92
700.997	20382.61
701.342	20354.14
701.688	20346.46
702.033	20302.39
702.379	20266.91
702.724	20161.6
703.069	20159.79
703.415	19957.54
703.76	19960.48
704.105	19896.07
704.45	19868.28
704.795	19805.68
705.14	19699.24
705.485	19678.9
705.83	19557.1
706.175	19630.09
706.52	19566.59
706.865	19468.74
707.209	19405.24
707.554	19272.81
707.899	19384.45
708.243	19174.74
708.588	19216.09
708.932	19048.86
709.277	19016.32
709.621	18964.57
709.966	18917.79
710.31	18883.9
710.654	18859.26
710.998	18881.86
711.342	18855.42
711.687	18771.58
712.031	18735.43
712.375	18665.82
712.719	18648.2
713.063	18565.71
713.407	18567.97
713.75	18592.83
714.094	18556.9
714.438	18463.34
714.782	18544.24
715.125	18408.88
715.469	18414.98
715.812	18313.52
716.156	18269
716.499	18129.79
716.843	18309.67
717.186	18208.43
717.53	18334.76
717.873	18229.45
718.216	18131.83
718.559	18121.66
718.902	18001.21
719.246	18066.74
719.589	17961.89
719.932	18005.95
720.275	17970.02
720.617	17970.25
720.96	17855.9
721.303	17795.34
721.646	17876.24
721.989	17715.34
722.331	17737.03
722.674	17764.15
723.016	17750.37
723.359	17730.25
723.701	17655.68
724.044	17602.12
724.386	17491.62
724.729	17683.93
725.071	17558.96
725.413	17633.99
725.755	17569.81
726.097	17428.79
726.439	17332.3
726.782	17463.37
727.124	17477.15
727.465	17337.95
727.807	17382.01
728.149	17354.22
728.491	17292.53
728.833	17444.61
729.175	17281.23
729.516	17250.49
729.858	17265.41
730.199	17315.58
730.541	17110.16
730.882	17284.84
731.224	17272.64
731.565	17184.51
731.906	17104.06
732.248	17219.53
732.589	17113.32
732.93	17041.23
733.271	17070.84
733.612	17000.1
733.953	17113.77
734.294	16942.93
734.635	17010.5
734.976	17112.87
735.317	16933.66
735.658	16988.35
735.999	17000.33
736.339	16986.32
736.68	17009.82
737.021	16979.31
737.361	16850.28
737.702	16985.64
738.042	16956.94
738.383	16957.62
738.723	16925.08
739.063	16838.98
739.404	16961.69
739.744	16884.63
740.084	16909.48
740.424	16861.8
740.764	16759.21
741.104	16970.95
741.444	16804.18
741.784	16785.87
742.124	16881.69
742.464	16894.8
742.804	16795.59
743.143	16762.37
743.483	16794.01
743.823	16896.38
744.162	16868.36
744.502	16881.46
744.841	16899.32
745.181	16937.05
745.52	16909.03
745.86	16890.95
746.199	16989.26
746.538	16938.64
746.877	17100.89
747.216	17063.15
747.556	17029.93
747.895	17083.72
748.234	17137.73
748.573	17046.66
748.911	17143.6
749.25	17177.73
749.589	17201.91
749.928	17253.88
750.267	17281
750.605	17355.8
750.944	17322.81
751.283	17341.34
751.621	17457.27
751.96	17374.11
752.298	17469.47
752.636	17516.25
752.975	17638.73
753.313	17613.2
753.651	17759.63
753.989	17743.81
754.327	17773.19
754.666	17862.23
755.004	17890.02
755.342	17963.24
755.679	18090.7
756.017	18035.1
756.355	18145.61
756.693	18145.16
757.031	18321.43
