Data from hue_300_FLMS001491_00054.txt Node
Date: Tue Feb 07 15:50:55 GMT 2017
User: dcchb
Spectrometer: FLMS00149
Trigger mode: 0
Integration Time (sec): 2.000000E-2
Scans to average: 10
Electric dark correction enabled: true
Nonlinearity correction enabled: false
Boxcar width: 0
XAxis mode: Wavelengths
Number of Pixels in Spectrum: 2048
>>>>>Begin Spectral Data<<<<<
341.393	-18.64
341.776	-18.64
342.16	-18.64
342.543	-79.43
342.927	-44.86
343.31	-53.22
343.693	-58.19
344.077	-47.8
344.46	-45.31
344.843	-53.67
345.226	-46.44
345.61	-29.94
345.993	-9.38
346.376	-16.16
346.759	3.5
347.142	27.23
347.525	33.11
347.908	33.78
348.291	66.1
348.674	82.37
349.057	114.01
349.44	109.94
349.823	140.67
350.206	157.17
350.588	194.23
350.971	206.44
351.354	234.01
351.737	248.02
352.119	239.2
352.502	238.98
352.884	269.26
353.267	278.98
353.65	304.74
354.032	296.15
354.414	306.09
354.797	297.05
355.179	315.13
355.562	307.45
355.944	324.17
356.326	330.95
356.709	330.05
357.091	333.21
357.473	347
357.855	336.38
358.238	334.12
358.62	329.82
359.002	341.57
359.384	338.86
359.766	338.64
360.148	344.06
360.53	323.04
360.912	324.17
361.294	322.82
361.676	308.35
362.057	331.63
362.439	318.52
362.821	330.05
363.203	322.36
363.584	321.01
363.966	314.68
364.348	331.86
364.729	319.2
365.111	294.34
365.493	321.91
365.874	319.88
366.256	329.14
366.637	304.29
367.019	304.74
367.4	318.97
367.781	323.49
368.163	327.11
368.544	315.36
368.925	304.74
369.306	321.46
369.688	312.42
370.069	304.96
370.45	298.18
370.831	319.43
371.212	340.89
371.593	301.35
371.974	309.03
372.355	321.91
372.736	329.14
373.117	298.41
373.498	303.38
373.879	338.18
374.26	308.58
374.641	303.83
375.021	289.82
375.402	320.78
375.783	312.2
376.163	321.69
376.544	299.54
376.925	314.23
377.305	337.96
377.686	329.37
378.066	332.99
378.447	337.05
378.827	320.78
379.208	335.7
379.588	342.02
379.968	343.61
380.349	327.34
380.729	327.79
381.109	332.99
381.489	320.78
381.87	343.15
382.25	332.76
382.63	343.38
383.01	324.62
383.39	348.58
383.77	352.65
384.15	338.41
384.53	319.88
384.91	339.09
385.29	342.02
385.67	375.7
386.049	340.44
386.429	355.13
386.809	332.76
387.189	360.33
387.568	362.59
387.948	380.67
388.328	354.68
388.707	356.94
389.087	352.87
389.466	377.73
389.846	369.14
390.225	362.14
390.605	361.46
390.984	378.41
391.363	361.23
391.743	372.53
392.122	382.25
392.501	364.62
392.881	380.89
393.26	366.21
393.639	386.54
394.018	361.01
394.397	376.6
394.776	395.58
395.155	409.14
395.534	370.27
395.913	400.33
396.292	381.12
396.671	392.65
397.05	403.94
397.429	396.26
397.808	391.97
398.186	385.64
398.565	409.37
398.944	410.5
399.323	379.54
399.701	398.29
400.08	395.81
400.458	399.88
400.837	421.12
401.215	420.67
401.594	408.01
401.972	417.96
402.351	439.42
402.729	425.86
403.107	432.19
403.486	444.62
403.864	416.83
404.242	423.83
404.62	432.19
404.999	429.25
405.377	459.76
405.755	458.63
406.133	437.84
406.511	445.07
406.889	446.2
407.267	481
407.645	464.51
408.023	445.07
408.401	478.52
408.779	462.47
409.156	495.24
409.534	471.51
409.912	490.5
410.29	495.02
410.667	508.35
411.045	512.42
411.422	512.42
411.8	540.44
412.178	521.68
412.555	547.67
412.933	551.28
413.31	567.1
413.687	563.04
414.065	568.46
414.442	603.03
414.819	596.03
415.197	600.1
415.574	621.79
415.951	616.14
416.328	624.5
416.705	619.98
417.082	658.85
417.46	636.03
417.837	667.89
418.214	657.27
418.591	679.19
418.967	687.78
419.344	685.52
419.721	666.08
420.098	692.98
420.475	706.31
420.852	713.31
421.228	746.31
421.605	720.77
421.982	737.72
422.358	748.57
422.735	750.6
423.111	766.19
423.488	794.67
423.864	758.74
424.241	798.51
424.617	783.82
424.994	782.47
425.37	806.65
425.746	806.65
426.123	838.06
426.499	847.32
426.875	842.35
427.251	858.85
427.627	898.85
428.003	906.76
428.379	909.69
428.756	885.51
429.132	930.48
429.507	906.3
429.883	939.75
430.259	970.48
430.635	942.01
431.011	962.8
431.387	995.79
431.763	986.3
432.138	986.3
432.514	1018.17
432.89	1019.75
433.265	1044.83
433.641	1047.77
434.016	1059.29
434.392	1086.64
434.767	1097.03
435.143	1075.79
435.518	1116.92
435.894	1106.98
436.269	1135.22
436.644	1127.54
437.02	1151.5
437.395	1122.12
437.77	1165.96
438.145	1177.48
438.52	1179.07
438.895	1213.19
439.271	1205.96
439.646	1234.43
440.021	1219.97
440.395	1243.02
440.77	1245.5
441.145	1240.76
441.52	1280.31
441.895	1264.94
442.27	1277.59
442.645	1264.03
443.019	1272.4
443.394	1304.71
443.769	1315.33
444.143	1282.79
444.518	1342.68
444.892	1326.86
445.267	1311.04
445.641	1317.14
446.016	1335.67
446.39	1314.2
446.764	1345.61
447.139	1339.06
447.513	1350.59
447.887	1344.48
448.262	1352.39
448.636	1377.25
449.01	1372.05
449.384	1395.78
449.758	1390.13
450.132	1375.9
450.506	1382.9
450.88	1408.89
451.254	1403.24
451.628	1421.54
452.002	1411.38
452.376	1412.96
452.75	1416.12
453.123	1454.76
453.497	1426.29
453.871	1482.79
454.244	1473.29
454.618	1482.56
454.992	1497.02
455.365	1495.44
455.739	1515.78
456.112	1533.86
456.486	1549.68
456.859	1521.88
457.232	1564.82
457.606	1566.17
457.979	1559.62
458.352	1601.65
458.725	1593.07
459.099	1596.23
459.472	1617.02
459.845	1653.63
460.218	1636
460.591	1626.06
460.964	1637.58
461.337	1679.16
461.71	1706.51
462.083	1687.98
462.456	1704.47
462.829	1716.9
463.201	1733.17
463.574	1720.29
463.947	1753.51
464.32	1781.08
464.692	1779.05
465.065	1805.04
465.438	1805.49
465.81	1831.25
466.183	1836.22
466.555	1891.36
466.928	1874.19
467.3	1840.06
467.672	1900.63
468.045	1922.32
468.417	1934.07
468.789	1898.37
469.161	1940.63
469.534	1961.42
469.906	1990.57
470.278	1988.54
470.65	1981.08
471.022	2040.29
471.394	2064.24
471.766	2057.01
472.138	2093.17
472.51	2141.07
472.882	2115.31
473.253	2137.01
473.625	2136.1
473.997	2197.34
474.369	2179.94
474.74	2201.19
475.112	2229.21
475.484	2244.35
475.855	2266.49
476.227	2306.27
476.598	2333.61
476.97	2335.42
477.341	2368.19
477.713	2397.11
478.084	2428.07
478.455	2451.12
478.827	2456.32
479.198	2522.98
479.569	2514.62
479.94	2555.07
480.311	2548.29
480.682	2614.28
481.053	2632.36
481.424	2690.21
481.795	2671.68
482.166	2704
482.537	2731.79
482.908	2747.61
483.279	2778.12
483.65	2821.51
484.021	2857.66
484.391	2854.5
484.762	2896.99
485.133	2903.77
485.503	2918.91
485.874	2940.37
486.244	2948.28
486.615	3002.29
486.985	2980.83
487.356	3079.81
487.726	3069.18
488.097	3135.17
488.467	3134.49
488.837	3201.16
489.207	3184.21
489.578	3251.1
489.948	3249.75
490.318	3261.27
490.688	3287.26
491.058	3324.77
491.428	3362.28
491.798	3378.78
492.168	3441.15
492.538	3444.99
492.908	3421.04
493.278	3471.21
493.648	3506.24
494.017	3508.27
494.387	3521.15
494.757	3546.46
495.126	3593.92
495.496	3566.57
495.866	3579.23
496.235	3609.74
496.605	3624.42
496.974	3653.35
497.344	3654.93
497.713	3650.64
498.082	3699.22
498.452	3727.25
498.821	3744.65
499.19	3694.03
499.559	3743.07
499.928	3773.35
500.298	3764.76
500.667	3815.15
501.036	3821.26
501.405	3813.57
501.774	3800.47
502.143	3829.16
502.512	3873.23
502.88	3906.45
503.249	3861.48
503.618	3892.67
503.987	3951.42
504.356	3913.68
504.724	3940.8
505.093	3970.18
505.462	3924.53
505.83	3963.85
506.199	3997.97
506.567	4034.36
506.936	4021.7
507.304	4107.8
507.672	4051.08
508.041	4083.85
508.409	4102.38
508.777	4087.46
509.145	4126.11
509.514	4116.61
509.882	4085.66
510.25	4149.38
510.618	4135.6
510.986	4141.7
511.354	4184.18
511.722	4213.34
512.09	4225.76
512.458	4257.85
512.826	4219.89
513.193	4221.24
513.561	4239.1
513.929	4223.28
514.297	4345.08
514.664	4300.11
515.032	4279.77
515.4	4296.5
515.767	4296.5
516.135	4296.72
516.502	4302.37
516.869	4333.78
517.237	4361.35
517.604	4325.2
517.972	4400
518.339	4392.99
518.706	4364.74
519.073	4423.95
519.44	4363.39
519.808	4411.75
520.175	4405.87
520.542	4450.62
520.909	4483.84
521.276	4465.08
521.643	4468.02
522.009	4484.74
522.376	4494.91
522.743	4541.46
523.11	4599.31
523.477	4598.64
523.843	4649.48
524.21	4639.77
524.577	4646.32
524.943	4673.66
525.31	4706.88
525.676	4682.7
526.043	4693.1
526.409	4715.02
526.776	4788.01
527.142	4815.81
527.508	4803.38
527.874	4782.81
528.241	4835.69
528.607	4897.16
528.973	4817.84
529.339	4908.01
529.705	4944.39
530.071	4993.88
530.437	5008.79
530.803	4999.98
531.169	5049.25
531.535	5022.13
531.901	4962.69
532.267	5100.32
532.632	5104.39
532.998	5119.3
533.364	5147.77
533.73	5157.27
534.095	5184.61
534.461	5230.71
534.826	5242.01
535.192	5260.77
535.557	5248.56
535.923	5238.17
536.288	5293.99
536.653	5341.22
537.019	5303.25
537.384	5306.64
537.749	5385.06
538.114	5362.46
538.479	5441.78
538.845	5444.04
539.21	5403.59
539.575	5465.51
539.94	5475.9
540.305	5494.66
540.67	5516.8
541.034	5575.33
541.399	5647.42
541.764	5625.73
542.129	5673.86
542.494	5658.04
542.858	5757.93
543.223	5709.12
543.587	5773.75
543.952	5733.07
544.316	5746.18
544.681	5752.73
545.045	5775.78
545.41	5862.11
545.774	5844.93
546.138	5881.54
546.503	5864.82
546.867	5857.81
547.231	5940.3
547.595	6020.07
547.959	6016.45
548.324	5970.8
548.688	5975.78
549.052	6039.73
549.416	6052.84
549.779	6040.63
550.143	6032.04
550.507	6090.12
550.871	6147.07
551.235	6160.85
551.599	6175.32
551.962	6121.53
552.326	6215.99
552.689	6258.25
553.053	6272.26
553.417	6231.59
553.78	6285.6
554.143	6297.8
554.507	6303.22
554.87	6342.77
555.234	6400.4
555.597	6302.09
555.96	6363.79
556.323	6340.51
556.686	6422.09
557.05	6463.45
557.413	6494.63
557.776	6514.52
558.139	6475.87
558.502	6527.62
558.865	6507.29
559.228	6512.94
559.59	6645.14
559.953	6624.35
560.316	6631.8
560.679	6620.28
561.041	6601.3
561.404	6691.69
561.767	6697.56
562.129	6718.35
562.492	6754.06
562.854	6724.68
563.217	6785.02
563.579	6806.49
563.941	6835.87
564.304	6845.81
564.666	6871.57
565.028	6892.81
565.39	6844.23
565.753	6915.86
566.115	6911.34
566.477	7016.43
566.839	6960.38
567.201	7031.34
567.563	7049.42
567.925	7076.54
568.287	7103.2
568.648	7129.42
569.01	7198.57
569.372	7239.02
569.734	7187.27
570.095	7290.77
570.457	7327.38
570.819	7302.97
571.18	7338.45
571.542	7435.4
571.903	7421.84
572.265	7488.96
572.626	7566.92
572.987	7559.69
573.349	7570.76
573.71	7639.23
574.071	7698.89
574.432	7759.46
574.794	7817.99
575.155	7864.54
575.516	7873.8
575.877	7959.68
576.238	8057.3
576.599	8121.48
576.96	8130.07
577.32	8211.2
577.681	8300.46
578.042	8318.09
578.403	8451.19
578.763	8572.99
579.124	8685.31
579.485	8736.15
579.845	8914.68
580.206	8928.24
580.566	9120.33
580.927	9207.1
581.287	9395.57
581.648	9445.29
582.008	9655.45
582.368	9746.98
582.728	9920.08
583.089	10138.83
583.449	10254.31
583.809	10394.64
584.169	10664.47
584.529	10778.59
584.889	11019.48
585.249	11102.42
585.609	11343.09
585.969	11645
586.329	11780.59
586.688	12051.77
587.048	12301.48
587.408	12563.17
587.768	12733.34
588.127	12971.75
588.487	13120.22
588.846	13508.46
589.206	13658.96
589.565	13930.14
589.925	14263.24
590.284	14476.34
590.643	14768.31
591.003	15132.6
591.362	15433.61
591.721	15685.58
592.08	15889.86
592.44	16232.91
592.799	16681.48
593.158	16854.36
593.517	17103.39
593.876	17516.04
594.235	17706.09
594.593	18098.62
594.952	18394.88
595.311	18627.19
595.67	19008.88
596.029	19308.08
596.387	19684.79
596.746	20050.66
597.104	20309.41
597.463	20545.11
597.822	20890.86
598.18	21196.62
598.538	21333.56
598.897	21912.98
599.255	21919.08
599.613	22582.8
599.972	22737.82
600.33	23084.48
600.688	23173.97
601.046	23523.56
601.404	23959.71
601.762	24162.42
602.12	24511.33
602.478	24832.45
602.836	25043.3
603.194	25164.65
603.552	25548.82
603.91	25614.58
604.268	26129.6
604.625	26320.32
604.983	26617.04
605.341	26780.65
605.698	27294.76
606.056	27463.35
606.413	27625.38
606.771	27867.18
607.128	28258.58
607.485	28312.14
607.843	28550.77
608.2	28922.06
608.557	29136.52
608.914	29178.78
609.272	29742.83
609.629	29841.14
609.986	30152.77
610.343	30214.46
610.7	30632.08
611.057	30661.23
611.414	30861.67
611.771	31168.56
612.127	31341.21
612.484	31606.97
612.841	31808.99
613.198	31865.26
613.554	32155.65
613.911	32338.47
614.267	32484.68
614.624	32671.12
614.98	32809.42
615.337	33012.35
615.693	33154.27
616.05	33283.31
616.406	33686.46
616.762	33607.14
617.118	33720.36
617.475	34052.55
617.831	34250.51
618.187	34325.31
618.543	34471.97
618.899	34721.01
619.255	34670.84
619.611	34754.45
619.967	35135.23
620.323	35130.94
620.678	35216.36
621.034	35228.34
621.39	35371.39
621.746	35382.91
622.101	35927.08
622.457	35783.8
622.812	35953.07
623.168	36052.27
623.523	36127.52
623.879	36369.55
624.234	36272.83
624.589	36393.28
624.945	36372.49
625.3	36574.97
625.655	36696.78
626.01	36853.16
626.365	36819.03
626.72	36777.9
627.075	36944.45
627.43	36948.75
627.785	36962.53
628.14	37138.12
628.495	37221.28
628.85	37312.58
629.205	37064.9
629.559	37441.16
629.914	37298.12
630.269	37368.4
630.623	37191.23
630.978	37223.09
631.332	37449.3
631.687	37580.82
632.041	37405.23
632.396	37533.14
632.75	37374.72
633.104	37709.18
633.459	37476.87
633.813	37471.9
634.167	37572.91
634.521	37664.89
634.875	37698.56
635.229	37610.42
635.583	37465.57
635.937	37520.71
636.291	37454.5
636.645	37507.6
636.999	37556.64
637.352	37772.45
637.706	37553.93
638.06	37561.84
638.413	37518.67
638.767	37529.07
639.121	37647.94
639.474	37431.9
639.828	37302.63
640.181	37570.88
640.534	37531.78
640.888	37547.37
641.241	37263.54
641.594	37492.91
641.947	37665.79
642.301	37562.97
642.654	37545.11
643.007	37525.45
643.36	37443.65
643.713	37505.34
644.066	37572.01
644.419	37422.86
644.771	37133.83
645.124	36759.15
645.477	36710.33
645.83	36560.28
646.182	36507.4
646.535	36477.35
646.888	36497.91
647.24	36386.05
647.593	36587.17
647.945	36529.1
648.298	36280.29
648.65	36156.22
649.002	36229.22
649.355	36395.54
649.707	36326.84
650.059	36489.78
650.411	36828.75
650.763	36966.6
651.115	37229.42
651.467	37119.14
651.819	37165.69
652.171	37117.33
652.523	37015.18
652.875	37037.56
653.227	36959.82
653.578	37226.25
653.93	37008.41
654.282	36907.39
654.633	36924.34
654.985	37012.7
655.337	36934.28
655.688	37073.94
656.039	37064
656.391	36853.61
656.742	37007.73
657.094	36931.12
657.445	37085.01
657.796	36904.68
658.147	36884.34
658.498	36854.96
658.849	37108.06
659.2	36781.29
659.551	36799.37
659.902	37004.79
660.253	36793.27
660.604	37005.92
660.955	36792.59
661.306	36836.21
661.656	36934.51
662.007	36937.9
662.358	36829.88
662.708	36974.28
663.059	36920.05
663.409	36711.01
663.76	36846.38
664.11	36809.77
664.461	36957.56
664.811	36822.2
665.161	36834.85
665.511	36740.39
665.862	36763.67
666.212	36753.95
666.562	36898.58
666.912	36623.33
667.262	36750.79
667.612	36805.25
667.962	36762.76
668.312	36685.7
668.662	36996.43
669.011	36773.38
669.361	36737.23
669.711	36695.42
670.06	36678.92
670.41	36626.49
670.76	36555.76
671.109	36696.55
671.459	36612.94
671.808	36579.49
672.157	36732.48
672.507	36345.6
672.856	36382.66
673.205	36508.31
673.554	36472.6
673.904	36497.68
674.253	36602.54
674.602	36497.91
674.951	36039.39
675.3	35823.58
675.649	36548.08
675.998	36459.72
676.346	36481.41
676.695	36562.54
677.044	36305.6
677.393	36365.71
677.741	36367.52
678.09	36306.5
678.438	36268.99
678.787	36298.37
679.135	36319.16
679.484	36062.22
679.832	36099.28
680.181	35960.07
680.529	35992.16
680.877	35916.46
681.225	35952.61
681.573	36137.69
681.922	35853.41
682.27	35868.55
682.618	35861.32
682.966	35697.93
683.314	35837.81
683.661	35655.22
684.009	35593.98
684.357	35615
684.705	35348.79
685.053	35577.93
685.4	35412.74
685.748	35322.57
686.095	35346.53
686.443	35194.22
686.79	35045.52
687.138	35119.87
687.485	35117.16
687.832	34925.07
688.18	34986.31
688.527	34909.25
688.874	34824.28
689.221	34801.91
689.568	34595.59
689.915	34579.54
690.262	34572.54
690.609	34493.22
690.956	34460.68
691.303	34338.19
691.65	34226.56
691.997	34217.52
692.344	34151.53
692.69	34116.96
693.037	34129.16
693.383	33693.69
693.73	33785.89
694.077	33665.44
694.423	33729.85
694.769	33707.93
695.116	33307.49
695.462	33407.37
695.808	33175.06
696.155	33385
696.501	33194.72
696.847	33342.97
697.193	33075.4
697.539	33079.7
697.885	32787.27
698.231	32659.82
698.577	32640.16
698.923	32643.55
699.269	32482.87
699.614	32367.17
699.96	32349.54
700.306	32350.22
700.651	32196.55
700.997	32064.81
701.342	32159.49
701.688	32119.49
702.033	31831.59
702.379	31978.71
702.724	31749.79
703.069	31903.68
703.415	31403.58
703.76	31513.63
704.105	31459.4
704.45	31270.93
704.795	31180.31
705.14	31109.58
705.485	31061.67
705.83	31009.24
706.175	31057.15
706.52	30924.05
706.865	30886.76
707.209	30827.78
707.554	30752.98
707.899	30806.76
708.243	30523.83
708.588	30392.99
708.932	30440.89
709.277	30328.58
709.621	30477.96
709.966	30218.53
710.31	30271.41
710.654	29979.66
710.998	30112.54
711.342	30089.94
711.687	29945.09
712.031	29909.16
712.375	29631.65
712.719	29706
713.063	29815.37
713.407	29817.86
713.75	29661.71
714.094	29635.27
714.438	29473.24
714.782	29519.11
715.125	29296.29
715.469	29474.14
715.812	29308.04
716.156	29146.69
716.499	29194.6
716.843	29262.62
717.186	28967.94
717.53	29033.47
717.873	28982.63
718.216	29025.11
718.559	28810.43
718.902	28578.57
719.246	28789.19
719.589	28649.76
719.932	28541.28
720.275	28537.22
720.617	28562.3
720.96	28591.9
721.303	28447.27
721.646	28481.85
721.989	28259.03
722.331	28363.89
722.674	28307.17
723.016	28213.16
723.359	28211.35
723.701	28173.84
724.044	28069.66
724.386	27899.27
724.729	28057.45
725.071	27926.84
725.413	27890.23
725.755	27833.73
726.097	27816.56
726.439	27615.66
726.782	27684.81
727.124	27737.91
727.465	27569.78
727.807	27662.89
728.149	27496.11
728.491	27525.72
728.833	27590.35
729.175	27394.19
729.516	27487.98
729.858	27351.94
730.199	27403.91
730.541	27337.93
730.882	27171.6
731.224	27367.08
731.565	27109.23
731.906	27222.67
732.248	27180.64
732.589	27100.42
732.93	26994.66
733.271	27012.28
733.612	26973.87
733.953	26929.35
734.294	26765.28
734.635	26805.28
734.976	26800.54
735.317	26747.66
735.658	26749.69
735.999	26701.56
736.339	26589.47
736.68	26770.26
737.021	26587.66
737.361	26467.89
737.702	26530.71
738.042	26568.45
738.383	26430.15
738.723	26580.43
739.063	26394
739.404	26456.37
739.744	26433.99
740.084	26268.57
740.424	26301.57
740.764	26169.14
741.104	26307.67
741.444	26153.78
741.784	26059.31
742.124	26083.95
742.464	26167.11
742.804	26169.82
743.143	26029.71
743.483	26086.21
743.823	25890.96
744.162	25880.79
744.502	25988.13
744.841	25765.31
745.181	25913.56
745.52	25709.04
745.86	25810.73
746.199	25675.82
746.538	25754.92
746.877	25791.07
747.216	25707.91
747.556	25726.67
747.895	25609.61
748.234	25485.54
748.573	25439.67
748.911	25506.79
749.25	25494.58
749.589	25451.2
749.928	25476.28
750.267	25427.92
750.605	25400.12
750.944	25203.52
751.283	25288.49
751.621	25246.68
751.96	25209.39
752.298	25156.06
752.636	25167.13
752.975	25006.69
753.313	25015.27
753.651	25051.21
753.989	24908.61
754.327	24954.71
754.666	24794.04
755.004	24860.7
755.342	24881.49
755.679	24776.86
756.017	24547.26
756.355	24699.35
756.693	24577.09
757.031	24731.89
757.368	24543.87
757.706	24655.96
758.044	24392.24
758.381	24473.82
758.719	24346.82
759.056	24461.62
759.394	24309.53
