Data from hue_60_FLMS001491_10.txt Node
Date: Mon Feb 06 15:11:51 GMT 2017
User: dcchb
Spectrometer: FLMS00149
Trigger mode: 0
Integration Time (sec): 2.000000E-2
Scans to average: 10
Electric dark correction enabled: true
Nonlinearity correction enabled: false
Boxcar width: 0
XAxis mode: Wavelengths
Number of Pixels in Spectrum: 2048
>>>>>Begin Spectral Data<<<<<
341.393	-9.83
341.776	-9.83
342.16	-9.83
342.543	-73.56
342.927	-63.84
343.31	-84.18
343.693	-61.81
344.077	-71.3
344.46	-64.29
344.843	-57.74
345.226	-48.02
345.61	-30.17
345.993	-2.82
346.376	-13.22
346.759	27.91
347.142	39.89
347.525	37.63
347.908	60.68
348.291	66.33
348.674	96.16
349.057	104.97
349.44	139.77
349.823	160.56
350.206	162.14
350.588	206.44
350.971	201.69
351.354	234.91
351.737	269.94
352.119	274
352.502	237.62
352.884	295.25
353.267	310.61
353.65	305.87
354.032	305.87
354.414	296.83
354.797	319.65
355.179	330.27
355.562	338.86
355.944	342.48
356.326	333.44
356.709	364.17
357.091	347
357.473	356.71
357.855	351.52
358.238	372.76
358.62	351.97
359.002	373.66
359.384	377.05
359.766	361.69
360.148	333.44
360.53	332.76
360.912	354
361.294	348.13
361.676	335.02
362.057	365.3
362.439	344.74
362.821	333.89
363.203	332.53
363.584	328.24
363.966	335.02
364.348	341.57
364.729	328.69
365.111	343.61
365.493	328.24
365.874	329.82
366.256	327.34
366.637	313.33
367.019	320.33
367.4	349.48
367.781	342.48
368.163	314.46
368.544	311.52
368.925	315.58
369.306	347.67
369.688	323.49
370.069	335.47
370.45	297.05
370.831	309.03
371.212	314.46
371.593	340.22
371.974	339.31
372.355	328.01
372.736	330.05
373.117	332.76
373.498	361.23
373.879	321.69
374.26	339.31
374.641	315.13
375.021	330.05
375.402	338.64
375.783	318.75
376.163	337.96
376.544	329.14
376.925	311.52
377.305	326.66
377.686	328.47
378.066	342.48
378.447	334.57
378.827	345.41
379.208	355.36
379.588	349.71
379.968	349.71
380.349	343.15
380.729	334.12
381.109	360.1
381.489	354.68
381.87	359.2
382.25	354.23
382.63	370.05
383.01	332.31
383.39	349.71
383.77	346.09
384.15	344.96
384.53	345.19
384.91	349.03
385.29	369.37
385.67	350.39
386.049	344.74
386.429	364.62
386.809	364.17
387.189	356.94
387.568	355.13
387.948	377.73
388.328	362.82
388.707	362.14
389.087	363.27
389.466	358.07
389.846	378.63
390.225	377.28
390.605	363.04
390.984	371.18
391.363	373.21
391.743	390.16
392.122	383.83
392.501	380.22
392.881	367.11
393.26	363.72
393.639	375.24
394.018	404.4
394.397	393.1
394.776	399.42
395.155	400.33
395.534	378.86
395.913	371.63
396.292	383.83
396.671	391.97
397.05	380.44
397.429	406.43
397.808	398.97
398.186	396.71
398.565	396.94
398.944	402.81
399.323	389.48
399.701	401.46
400.08	380.22
400.458	407.33
400.837	424.73
401.215	413.21
401.594	404.85
401.972	405.53
402.351	395.36
402.729	408.24
403.107	400.33
403.486	420.44
403.864	399.42
404.242	418.41
404.62	413.44
404.999	423.6
405.377	416.15
405.755	438.52
406.133	422.93
406.511	401.01
406.889	421.34
407.267	445.07
407.645	446.65
408.023	434.9
408.401	441.68
408.779	453.66
409.156	424.73
409.534	442.14
409.912	445.98
410.29	462.25
410.667	449.14
411.045	438.29
411.422	473.09
411.8	472.19
412.178	472.64
412.555	480.55
412.933	497.05
413.31	468.12
413.687	474.68
414.065	488.01
414.442	477.61
414.819	485.3
415.197	472.87
415.574	497.73
415.951	495.47
416.328	504.96
416.705	495.24
417.082	510.16
417.46	503.38
417.837	490.5
418.214	505.86
418.591	521.68
418.967	506.99
419.344	532.53
419.721	531.62
420.098	509.03
420.475	536.6
420.852	519.2
421.228	521.68
421.605	518.52
421.982	541.57
422.358	521.23
422.735	520.33
423.111	547.22
423.488	554.9
423.864	560.78
424.241	558.06
424.617	572.75
424.994	554
425.37	570.72
425.746	566.2
426.123	595.13
426.499	568.91
426.875	578.4
427.251	579.76
427.627	583.6
428.003	592.19
428.379	600.55
428.756	570.95
429.132	609.14
429.507	595.8
429.883	607.55
430.259	611.4
430.635	612.53
431.011	636.93
431.387	615.92
431.763	635.8
432.138	626.31
432.514	643.71
432.89	633.54
433.265	661.34
433.641	654.11
434.016	665.18
434.392	684.84
434.767	662.69
435.143	675.8
435.518	658.17
435.894	694.56
436.269	692.75
436.644	697.04
437.02	684.84
437.395	701.34
437.77	735.69
438.145	723.26
438.52	727.78
438.895	727.33
439.271	724.16
439.646	735.91
440.021	756.93
440.395	759.64
440.77	729.36
441.145	727.33
441.52	750.6
441.895	749.02
442.27	746.76
442.645	759.42
443.019	770.71
443.394	781.79
443.769	769.36
444.143	781.79
444.518	785.4
444.892	782.92
445.267	812.97
445.641	786.98
446.016	801.67
446.39	780.21
446.764	813.88
447.139	808.45
447.513	833.54
447.887	806.87
448.262	830.15
448.636	819.3
449.01	842.35
449.384	839.64
449.758	849.36
450.132	847.77
450.506	872.86
450.88	861.79
451.254	869.69
451.628	901.56
452.002	907.21
452.376	895.68
452.75	862.92
453.123	894.1
453.497	904.5
453.871	934.1
454.244	935
454.618	924.16
454.992	981.1
455.365	939.3
455.739	943.37
456.112	976.58
456.486	984.04
456.859	983.82
457.232	1033.08
457.606	1024.72
457.979	1015.91
458.352	1040.99
458.725	1040.31
459.099	1058.39
459.472	1072.85
459.845	1089.58
460.218	1086.41
460.591	1075.11
460.964	1108.11
461.337	1139.97
461.71	1151.04
462.083	1160.99
462.456	1165.05
462.829	1185.39
463.201	1190.14
463.574	1186.3
463.947	1221.55
464.32	1268.78
464.692	1226.75
465.065	1242.79
465.438	1277.82
465.81	1288.21
466.183	1281.89
466.555	1333.19
466.928	1360.3
467.3	1368.66
467.672	1380.19
468.045	1415.67
468.417	1412.05
468.789	1424.71
469.161	1464.03
469.534	1511.26
469.906	1534.54
470.278	1569.34
470.65	1587.64
471.022	1624.03
471.394	1665.83
471.766	1671.03
472.138	1720.75
472.51	1747.86
472.882	1805.04
473.253	1813.85
473.625	1856.79
473.997	1910.57
474.369	1927.07
474.74	1979.5
475.112	2030.12
475.484	2094.52
475.855	2132.94
476.227	2154.86
476.598	2260.84
476.97	2263.33
477.341	2319.15
477.713	2392.59
478.084	2463.33
478.455	2579.03
478.827	2557.79
479.198	2668.07
479.569	2713.49
479.94	2840.94
480.311	2918.45
480.682	2984.67
481.053	3082.74
481.424	3186.47
481.795	3302.17
482.166	3393.24
482.537	3470.08
482.908	3595.27
483.279	3679.34
483.65	3795.04
484.021	3935.6
484.391	3978.31
484.762	4117.97
485.133	4215.37
485.503	4343.73
485.874	4483.84
486.244	4533.55
486.615	4711.4
486.985	4876.14
487.356	5026.42
487.726	5112.52
488.097	5285.17
488.467	5436.35
488.837	5633.86
489.207	5733.75
489.578	5927.64
489.948	6030.01
490.318	6193.4
490.688	6341.87
491.058	6531.24
491.428	6686.94
491.798	6818.01
492.168	6972.59
492.538	7166.7
492.908	7355.17
493.278	7537.54
493.648	7677.43
494.017	7873.13
494.387	7987.25
494.757	8209.39
495.126	8367.8
495.496	8544.75
495.866	8624.74
496.235	8873.1
496.605	8973.89
496.974	9262.02
497.344	9382.69
497.713	9547.43
498.082	9681.44
498.452	9859.74
498.821	10020.41
499.19	10224.02
499.559	10394.42
499.928	10510.35
500.298	10651.81
500.667	10885.02
501.036	10939.71
501.405	11175.41
501.774	11325.46
502.143	11409.53
502.512	11592.58
502.88	11809.07
503.249	11822.85
503.618	12117.99
503.987	12246.12
504.356	12372.67
504.724	12520.69
505.093	12708.48
505.462	12765.65
505.83	12988.25
506.199	13168.13
506.567	13412.87
506.936	13418.74
507.304	13618.06
507.672	13861.44
508.041	13974.89
508.409	14175.33
508.777	14315.44
509.145	14537.58
509.514	14533.74
509.882	14728.54
510.25	14807.18
510.618	15034.75
510.986	15153.16
511.354	15332.37
511.722	15471.57
512.09	15692.36
512.458	15705.69
512.826	16018.67
513.193	16098.67
513.561	16209.18
513.929	16338.89
514.297	16526.68
514.664	16760.8
515.032	16846.45
515.4	17074.24
515.767	17129.83
516.135	17359.88
516.502	17270.17
516.869	17608.46
517.237	17710.83
517.604	17763.71
517.972	18051.62
518.339	18207.77
518.706	18243.02
519.073	18450.93
519.44	18483.69
519.808	18810.69
520.175	18794.65
520.542	19141.3
520.909	19251.81
521.276	19271.47
521.643	19561.63
522.009	19674.4
522.376	19838.69
522.743	20131.34
523.11	20257.21
523.477	20480.7
523.843	20476.18
524.21	20812.22
524.577	20904.65
524.943	20987.58
525.31	21070.52
525.676	21408.82
526.043	21626.44
526.409	21695.59
526.776	21870.95
527.142	21930.16
527.508	22124.5
527.874	22322.69
528.241	22569.69
528.607	22470.03
528.973	22808.1
529.339	22843.81
529.705	23159.73
530.071	23274.53
530.437	23306.17
530.803	23505.71
531.169	23578.48
531.535	23676.55
531.901	23811.92
532.267	23839.94
532.632	24102.53
532.998	24199.93
533.364	24229.76
533.73	24364.44
534.095	24615.74
534.461	24626.81
534.826	24826.35
535.192	24983.41
535.557	24946.8
535.923	25068.15
536.288	25293.46
536.653	25362.84
537.019	25196.74
537.384	25571.64
537.749	25667.69
538.114	25595.37
538.479	25712.43
538.845	25863.61
539.21	25781.81
539.575	25976.61
539.94	26106.77
540.305	26326.43
540.67	26202.59
541.034	26409.14
541.399	26522.13
541.764	26581.79
542.129	26712.63
542.494	26702.46
542.858	26765.06
543.223	26857.94
543.587	27025.84
543.952	27057.48
544.316	27202.56
544.681	27194.65
545.045	27448.66
545.41	27471.71
545.774	27505.6
546.138	27578.6
546.503	27686.39
546.867	27682.32
547.231	27903.33
547.595	27948.08
547.959	28200.5
548.324	28144.91
548.688	28264.68
549.052	28283.66
549.416	28313.49
549.779	28418.8
550.143	28493.6
550.507	28708.51
550.871	28847.04
551.235	28874.61
551.599	29074.83
551.962	29053.36
552.326	29175.17
552.689	29370.41
553.053	29308.95
553.417	29342.39
553.78	29709.16
554.143	29667.81
554.507	29671.2
554.87	29900.34
555.234	30194.35
555.597	29949.61
555.96	30094.91
556.323	30316.83
556.686	30384.62
557.05	30437.28
557.413	30629.82
557.776	30758.17
558.139	30894.89
558.502	30965.17
558.865	31094.21
559.228	31333.98
559.59	31480.64
559.953	31520.41
560.316	31771.93
560.679	32009.21
561.041	32139.15
561.404	32141.64
561.767	32371.92
562.129	32318.81
562.492	32588.41
562.854	32620.27
563.217	32668.18
563.579	32796.09
563.941	33058.45
564.304	33248.5
564.666	33400.59
565.028	33505.45
565.39	33470.19
565.753	33756.29
566.115	33742.28
566.477	34001.48
566.839	34071.31
567.201	34238.08
567.563	34309.04
567.925	34472.43
568.287	34491.41
568.648	34644.4
569.01	34811.85
569.372	35061.34
569.734	34954.45
570.095	35151.05
570.457	35298.39
570.819	35405.06
571.18	35479.41
571.542	35712.39
571.903	35673.53
572.265	35849.11
572.626	35866.06
572.987	35954.42
573.349	36086.17
573.71	36345.37
574.071	36204.36
574.432	36468.53
574.794	36706.04
575.155	36653.61
575.516	36615.87
575.877	36856.32
576.238	36937.67
576.599	36980.38
576.96	36969.54
577.32	37083.88
577.681	37186.93
578.042	37258.12
578.403	37299.7
578.763	37297.66
579.124	37501.73
579.485	37661.04
579.845	37607.26
580.206	37620.37
580.566	37577.88
580.927	37686.58
581.287	37790.98
581.648	37790.08
582.008	37885.22
582.368	37861.26
582.728	37885.67
583.089	38035.27
583.449	37950.75
583.809	38051.77
584.169	38026.01
584.529	38081.6
584.889	38396.17
585.249	38007.48
585.609	37954.37
585.969	38204.98
586.329	38146.68
586.688	38222.84
587.048	38273
587.408	38166.57
587.768	38126.12
588.127	38289.5
588.487	38197.98
588.846	38350.97
589.206	38129.05
589.565	38189.62
589.925	38387.13
590.284	38235.27
590.643	38400.23
591.003	38469.16
591.362	38599.32
591.721	38553.9
592.08	38562.94
592.44	38580.57
592.799	38695.14
593.158	38593
593.517	38602.71
593.876	38593
594.235	38637.29
594.593	38677.06
594.952	38783.95
595.311	38616.5
595.67	38792.31
596.029	38956.15
596.387	38954.34
596.746	39049.71
597.104	38711.41
597.463	38723.84
597.822	39147.11
598.18	38808.58
598.538	38736.72
598.897	39124.28
599.255	38817.85
599.613	39367.21
599.972	39060.55
600.33	39274.33
600.688	39070.95
601.046	39351.62
601.404	39394.78
601.762	39376.25
602.12	39506.42
602.478	39618.28
602.836	39537.38
603.194	39293.09
603.552	39547.1
603.91	39357.72
604.268	39768.78
604.625	39657.15
604.983	39799.52
605.341	39544.84
605.698	39908.89
606.056	39919.06
606.413	39924.71
606.771	40012.85
607.128	40162.45
607.485	39959.29
607.843	40009
608.2	40343.01
608.557	40458.03
608.914	40259.85
609.272	40499.16
609.629	40406.06
609.986	40802.88
610.343	40496.45
610.7	40867.51
611.057	40701.42
611.414	40822.32
611.771	40824.12
612.127	40909.55
612.484	40999.94
612.841	41030.67
613.198	41012.14
613.554	41010.11
613.911	41292.36
614.267	41213.72
614.624	41162.42
614.98	41358.8
615.337	41530.09
615.693	41419.81
616.05	41433.37
616.406	41632.69
616.762	41515.86
617.118	41566.25
617.475	41621.62
617.831	41730.77
618.187	41883.76
618.543	41821.84
618.899	42191.77
619.255	42065.45
619.611	41962.4
619.967	42072.45
620.323	42187.03
620.678	42085.79
621.034	42067.71
621.39	42081.04
621.746	42120.59
622.101	42558.99
622.457	42207.82
622.812	42373.24
623.168	42571.65
623.523	42482.84
623.879	42566.23
624.234	42341.15
624.589	42596.73
624.945	42448.71
625.3	42516.74
625.655	42678.54
626.01	42525.32
626.365	42635.38
626.72	42417.08
627.075	42630.86
627.43	42629.05
627.785	42549.5
628.14	42593.34
628.495	42703.17
628.85	42673.12
629.205	42546.11
629.559	42878.53
629.914	42587.92
630.269	42511.31
630.623	42524.64
630.978	42413.01
631.332	42561.03
631.687	42645.32
632.041	42524.19
632.396	42601.93
632.75	42287.36
633.104	42365.33
633.459	42223.64
633.813	42364.42
634.167	42296.63
634.521	42280.36
634.875	42439.45
635.229	42419.34
635.583	42093.02
635.937	42178.44
636.291	42165.33
636.645	42148.84
636.999	42106.8
637.352	42299.57
637.706	42001.04
638.06	42076.29
638.413	41989.97
638.767	41939.8
639.121	42136.41
639.474	41819.13
639.828	41859.8
640.181	42012.79
640.534	41988.16
640.888	41728.96
641.241	41603.54
641.594	41781.84
641.947	41826.36
642.301	41676.53
642.654	41767.6
643.007	41738.45
643.36	41626.36
643.713	41649.87
644.066	41636.53
644.419	41559.92
644.771	41258.92
645.124	40839.72
645.477	40885.37
645.83	40583.23
646.182	40445.6
646.535	40530.35
646.888	40430.69
647.24	40226.4
647.593	40478.14
647.945	40354.08
648.298	40293.29
648.65	40156.12
649.002	40110.92
649.355	40185.5
649.707	40063.47
650.059	40211.26
650.411	40768.53
650.763	40822.32
651.115	41103.66
651.467	40986.38
651.819	41043.33
652.171	40895.31
652.523	40890.34
652.875	40825.25
653.227	40648.76
653.578	40936.89
653.93	40798.59
654.282	40652.38
654.633	40599.5
654.985	40646.73
655.337	40658.7
655.688	40655.99
656.039	40832.94
656.391	40381.65
656.742	40619.61
657.094	40539.84
657.445	40614.64
657.796	40555.43
658.147	40426.17
658.498	40385.04
658.849	40550.23
659.2	40408.99
659.551	40506.62
659.902	40483.12
660.253	40402.44
660.604	40526.73
660.955	40356.34
661.306	40492.61
661.656	40316.79
662.007	40484.92
662.358	40359.05
662.708	40296.91
663.059	40341.65
663.409	40072.73
663.76	40310.01
664.11	40309.56
664.461	40293.52
664.811	40316.12
665.161	40139.4
665.511	40260.75
665.862	40352.27
666.212	40299.17
666.562	40446.28
666.912	40218.26
667.262	40144.59
667.612	40079.29
667.962	40229.79
668.312	40153.86
668.662	40285.83
669.011	40148.89
669.361	40093.3
669.711	40109.57
670.06	39892.62
670.41	39984.15
670.76	39895.56
671.109	40116.35
671.459	40000.42
671.808	39951.6
672.157	40036.35
672.507	39768.78
672.856	39866.41
673.205	39877.26
673.554	39902.34
673.904	39841.1
674.253	40017.82
674.602	39786.41
674.951	39330.6
675.3	39129.93
675.649	39714.1
675.998	39778.73
676.346	39680.88
676.695	39876.58
677.044	39626.64
677.393	39651.5
677.741	39672.74
678.09	39553.65
678.438	39450.15
678.787	39609.02
679.135	39501.9
679.484	39323.82
679.832	39463.48
680.181	39207.44
680.529	39334.9
680.877	39234.79
681.225	39001.35
681.573	39595.91
681.922	39235.69
682.27	38975.59
682.618	39107.11
682.966	39011.74
683.314	38913.44
683.661	38901.91
684.009	38720.9
684.357	38638.42
684.705	38550.29
685.053	38642.26
685.4	38691.53
685.748	38453.11
686.095	38471.19
686.443	38220.58
686.79	38268.26
687.138	38324.76
687.485	38237.3
687.832	38110.52
688.18	38079.79
688.527	37888.38
688.874	37900.59
689.221	37793.24
689.568	37830.08
689.915	37633.47
690.262	37710.99
690.609	37512.57
690.956	37445.68
691.303	37323.88
691.65	37303.31
691.997	37159.14
692.344	37147.61
692.69	36993.04
693.037	36978.8
693.383	36669.88
693.73	36716.21
694.077	36657.23
694.423	36583.56
694.769	36418.59
695.116	36343.56
695.462	36345.37
695.808	36240.97
696.155	36309.21
696.501	35917.13
696.847	35969.34
697.193	35790.81
697.539	35985.16
697.885	35751.49
698.231	35590.36
698.577	35542
698.923	35539.29
699.269	35498.39
699.614	35228.11
699.96	35149.47
700.306	35281.67
700.651	35079.42
700.997	34824.96
701.342	34951.74
701.688	34902.02
702.033	34753.55
702.379	34728.47
702.724	34705.64
703.069	34703.83
703.415	34235.6
703.76	34269.04
704.105	34435.14
704.45	34324.18
704.795	34044.87
705.14	33845.78
705.485	33942.72
705.83	33867.02
706.175	33914.02
706.52	33735.5
706.865	33517.2
707.209	33594.48
707.554	33476.52
707.899	33615.27
708.243	33220.93
708.588	33221.39
708.932	33025.23
709.277	33084.67
709.621	33080.37
709.966	32738.69
710.31	32858.23
710.654	32655.07
710.998	32735.75
711.342	32684.9
711.687	32577.56
712.031	32324.23
712.375	32302.09
712.719	32328.75
713.063	32317.46
713.407	32370.56
713.75	32105.03
714.094	32192.49
714.438	32015.99
714.782	32050.8
715.125	31771.48
715.469	31978.03
715.812	31774.42
716.156	31540.3
716.499	31667.3
716.843	31594.54
717.186	31457.82
717.53	31654.42
717.873	31638.6
718.216	31483.13
718.559	31301.66
718.902	31100.54
719.246	31164.72
719.589	31147.09
719.932	31000.88
720.275	31044.95
720.617	30933.08
720.96	30829.81
721.303	30940.32
721.646	30866.42
721.989	30698.74
722.331	30686.31
722.674	30588.01
723.016	30698.51
723.359	30664.84
723.701	30672.07
724.044	30373.33
724.386	30245.19
724.729	30401.35
725.071	30282.93
725.413	30263.05
725.755	30391.63
726.097	30244.06
726.439	30048.36
726.782	30152.31
727.124	30126.33
727.465	29938.53
727.807	29963.62
728.149	29829.16
728.491	29848.59
728.833	29822.83
729.175	29741.48
729.516	29744.42
729.858	29458.77
730.199	29591.2
730.541	29571.54
730.882	29557.53
731.224	29597.98
731.565	29411.09
731.906	29361.37
732.248	29427.14
732.589	29160.93
732.93	29148.5
733.271	29160.25
733.612	29152.34
733.953	29000.93
734.294	28890.88
734.635	28984.89
734.976	29105.79
735.317	28856.53
735.658	28893.59
735.999	28812.01
736.339	28707.38
736.68	28787.6
737.021	28809.98
737.361	28641.39
737.702	28718.68
738.042	28650.89
738.383	28617.89
738.723	28618.12
739.063	28459.48
739.404	28534.5
739.744	28405.24
740.084	28363.44
740.424	28379.03
740.764	28328.18
741.104	28519.59
741.444	28150.56
741.784	28160.73
742.124	28122.99
742.464	28081.18
742.804	28075.31
743.143	28023.78
743.483	28035.08
743.823	27939.72
744.162	27906.5
744.502	27783.56
744.841	27692.49
745.181	27802.09
745.52	27732.27
745.86	27680.74
746.199	27643.91
746.538	27482.55
746.877	27508.77
747.216	27495.89
747.556	27474.87
747.895	27416.34
748.234	27292.73
748.573	27330.69
748.911	27253.86
749.25	27227.19
749.589	27106.97
749.928	27117.82
750.267	27194.43
750.605	27067.65
750.944	27052.06
751.283	26960.76
751.621	26933.42
751.96	26742.69
752.298	26812.06
752.636	26787.21
752.975	26619.75
753.313	26654.78
753.651	26652.97
753.989	26535.23
754.327	26397.84
754.666	26407.78
755.004	26441
755.342	26464.28
755.679	26293.88
756.017	26147.67
756.355	26287.11
