Data from hue_120_FLMS001491_00079.txt Node
Date: Tue Feb 07 16:59:58 GMT 2017
User: dcchb
Spectrometer: FLMS00149
Trigger mode: 0
Integration Time (sec): 2.000000E-2
Scans to average: 10
Electric dark correction enabled: true
Nonlinearity correction enabled: false
Boxcar width: 0
XAxis mode: Wavelengths
Number of Pixels in Spectrum: 2048
>>>>>Begin Spectral Data<<<<<
341.393	-13.25
341.776	-13.25
342.16	-13.25
342.543	-61.83
342.927	-47.82
343.31	-63.64
343.693	-59.12
344.077	-71.55
344.46	-65
344.843	-64.09
345.226	-27.71
345.61	-37.43
345.993	-16.64
346.376	0.99
346.759	14.1
347.142	16.36
347.525	36.24
347.908	66.98
348.291	57.48
348.674	109.69
349.057	103.36
349.44	128.89
349.823	135.22
350.206	165.96
350.588	182.68
350.971	226.29
351.354	214.77
351.737	234.88
352.119	242.34
352.502	246.63
352.884	266.29
353.267	287.99
353.65	292.05
354.032	297.03
354.414	294.77
354.797	325.73
355.179	319.17
355.562	320.53
355.944	330.92
356.326	320.53
356.709	334.09
357.091	333.41
357.473	336.12
357.855	328.21
358.238	348.78
358.62	344.26
359.002	347.65
359.384	344.26
359.766	339.06
360.148	326.63
360.53	340.19
360.912	338.83
361.294	337.03
361.676	345.39
362.057	337.03
362.439	337.25
362.821	336.8
363.203	336.57
363.584	334.99
363.966	313.75
364.348	327.08
364.729	330.02
365.111	348.55
365.493	325.27
365.874	320.75
366.256	310.13
366.637	316.91
367.019	308.33
367.4	306.07
367.781	330.47
368.163	327.99
368.544	315.33
368.925	301.09
369.306	335.67
369.688	303.81
370.069	319.85
370.45	296.12
370.831	322.11
371.212	313.75
371.593	306.07
371.974	306.07
372.355	309.23
372.736	325.95
373.117	330.47
373.498	323.69
373.879	311.49
374.26	303.58
374.641	323.24
375.021	317.59
375.402	310.36
375.783	311.49
376.163	344.48
376.544	323.92
376.925	328.89
377.305	331.83
377.686	336.35
378.066	321.66
378.447	311.71
378.827	321.66
379.208	334.31
379.588	332.96
379.968	330.47
380.349	335.67
380.729	341.32
381.109	326.86
381.489	339.51
381.87	349
382.25	358.49
382.63	344.71
383.01	350.81
383.39	352.39
383.77	361.21
384.15	337.25
384.53	361.88
384.91	359.4
385.29	367.76
385.67	358.49
386.049	357.36
386.429	356.69
386.809	363.69
387.189	353.3
387.568	358.49
387.948	370.24
388.328	375.44
388.707	358.95
389.087	367.31
389.466	367.98
389.846	367.31
390.225	381.09
390.605	361.66
390.984	382.67
391.363	389.23
391.743	389.45
392.122	384.03
392.501	361.66
392.881	397.36
393.26	370.7
393.639	392.16
394.018	402.11
394.397	395.33
394.776	390.81
395.155	378.15
395.534	397.81
395.913	385.61
396.292	409.34
396.671	413.18
397.05	404.59
397.429	405.72
397.808	399.85
398.186	407.08
398.565	407.08
398.944	416.34
399.323	413.63
399.701	416.8
400.08	403.92
400.458	405.5
400.837	447.08
401.215	421.54
401.594	401.66
401.972	426.97
402.351	414.76
402.729	435.1
403.107	429.9
403.486	443.01
403.864	407.08
404.242	450.47
404.62	421.77
404.999	449.34
405.377	438.04
405.755	442.11
406.133	444.59
406.511	445.95
406.889	448.89
407.267	456.8
407.645	480.75
408.023	460.41
408.401	464.93
408.779	464.71
409.156	463.8
409.534	468.77
409.912	481.65
410.29	469.9
410.667	500.86
411.045	490.47
411.422	474.87
411.8	473.07
412.178	499.51
412.555	500.18
412.933	512.16
413.31	508.32
413.687	513.74
414.065	523.46
414.442	512.39
414.819	525.49
415.197	526.62
415.574	541.99
415.951	538.38
416.328	512.84
416.705	532.95
417.082	528.21
417.46	540.86
417.837	542.22
418.214	568.88
418.591	558.49
418.967	544.7
419.344	553.06
419.721	579.05
420.098	560.75
420.475	569.11
420.852	561.43
421.228	577.92
421.605	595.55
421.982	570.01
422.358	589.9
422.735	581.31
423.111	604.81
423.488	614.31
423.864	613.18
424.241	607.75
424.617	593.74
424.994	622.44
425.37	621.31
425.746	643.68
426.123	640.75
426.499	621.09
426.875	635.1
427.251	639.84
427.627	676.68
428.003	676
428.379	690.01
428.756	660.18
429.132	650.46
429.507	673.06
429.883	676.45
430.259	711.48
430.635	693.17
431.011	683.23
431.387	723.68
431.763	706.05
432.138	746.51
432.514	725.26
432.89	726.17
433.265	744.7
433.641	743.12
434.016	756.45
434.392	754.19
434.767	806.62
435.143	776.56
435.518	764.36
435.894	773.4
436.269	796.22
436.644	805.04
437.02	787.18
437.395	815.2
437.77	804.36
438.145	861.53
438.52	858.37
438.895	844.13
439.271	882.32
439.646	875.99
440.021	868.54
440.395	884.58
440.77	880.74
441.145	880.29
441.52	903.56
441.895	888.87
442.27	905.82
442.645	917.12
443.019	922.77
443.394	906.5
443.769	933.17
444.143	915.99
444.518	926.84
444.892	936.56
445.267	941.75
445.641	956.9
446.016	942.21
446.39	967.52
446.764	959.83
447.139	963.22
447.513	977.23
447.887	1006.61
448.262	981.75
448.636	985.82
449.01	1012.71
449.384	1014.3
449.758	1015.65
450.132	1050.9
450.506	1036.22
450.88	1024.69
451.254	1040.06
451.628	1079.15
452.002	1094.52
452.376	1108.76
452.75	1085.71
453.123	1090.9
453.497	1088.87
453.871	1116.67
454.244	1147.85
454.618	1144.01
454.992	1134.29
455.365	1154.63
455.739	1175.42
456.112	1217
456.486	1207.74
456.859	1234.85
457.232	1264.91
457.606	1255.19
457.979	1236.21
458.352	1310.11
458.725	1312.82
459.099	1322.54
459.472	1343.78
459.845	1368.18
460.218	1355.76
460.591	1359.6
460.964	1392.36
461.337	1411.12
461.71	1443.66
462.083	1470.55
462.456	1473.04
462.829	1453.15
463.201	1498.8
463.574	1518.69
463.947	1521.17
464.32	1563.43
464.692	1542.42
465.065	1598.01
465.438	1611.34
465.81	1646.6
466.183	1675.97
466.555	1671
466.928	1685.69
467.3	1711.23
467.672	1741.73
468.045	1789.64
468.417	1808.17
468.789	1841.39
469.161	1850.21
469.534	1905.35
469.906	1945.8
470.278	1963.87
470.65	1999.13
471.022	2054.72
471.394	2064.89
471.766	2094.94
472.138	2156.19
472.51	2193.02
472.882	2240.7
473.253	2273.47
473.625	2331.32
473.997	2373.58
474.369	2422.85
474.74	2483.18
475.112	2518.66
475.484	2600.69
475.855	2681.82
476.227	2677.08
476.598	2779.9
476.97	2837.75
477.341	2896.28
477.713	2978.99
478.084	3016.95
478.455	3180.79
478.827	3177.63
479.198	3291.3
479.569	3335.82
479.94	3475.25
480.311	3512.99
480.682	3637.28
481.053	3752.98
481.424	3828.46
481.795	3915.91
482.166	4030.71
482.537	4129.02
482.908	4263.48
483.279	4342.57
483.65	4472.06
484.021	4586.86
484.391	4693.52
484.762	4793.86
485.133	4877.7
485.503	4982.1
485.874	5116.56
486.244	5283.34
486.615	5439.72
486.985	5581.18
487.356	5719.26
487.726	5848.52
488.097	5955.41
488.467	6076.54
488.837	6239.47
489.207	6411.89
489.578	6553.13
489.948	6647.82
490.318	6816.85
490.688	6953.12
491.058	7160.12
491.428	7279.44
491.798	7434.47
492.168	7627.68
492.538	7685.98
492.908	7894.57
493.278	8092.3
493.648	8113.09
494.017	8306.76
494.387	8438.51
494.757	8560.99
495.126	8696.35
495.496	8834.88
495.866	8904.48
496.235	9104.03
496.605	9251.14
496.974	9377.47
497.344	9476.9
497.713	9586.95
498.082	9714.86
498.452	9929.32
498.821	9995.75
499.19	10092.25
499.559	10249.53
499.928	10327.04
500.298	10460.6
500.667	10543.31
501.036	10603.65
501.405	10770.87
501.774	10835.51
502.143	10922.28
502.512	11074.14
502.88	11223.74
503.249	11269.84
503.618	11425.32
503.987	11423.51
504.356	11503.96
504.724	11652.21
505.093	11731.08
505.462	11748.48
505.83	11890.85
506.199	12004.97
506.567	12219.42
506.936	12220.1
507.304	12331.96
507.672	12385.07
508.041	12404.28
508.409	12594.56
508.777	12660.09
509.145	12725.63
509.514	12707.32
509.882	12810.37
510.25	12854.44
510.618	12912.74
510.986	13021.66
511.354	13142.34
511.722	13286.97
512.09	13327.64
512.458	13321.32
512.826	13365.61
513.193	13414.2
513.561	13490.8
513.929	13551.82
514.297	13672.04
514.664	13682.44
515.032	13742.77
515.4	13847.63
515.767	13825.48
516.135	13933.05
516.502	13822.09
516.869	14123.78
517.237	14055.31
517.604	14040.17
517.972	14163.1
518.339	14304.34
518.706	14237.22
519.073	14273.83
519.44	14240.61
519.808	14452.59
520.175	14293.04
520.542	14570.55
520.909	14594.05
521.276	14469.08
521.643	14689.42
522.009	14683.09
522.376	14775.52
522.743	14797.44
523.11	14847.38
523.477	14959.47
523.843	14952.23
524.21	15100.25
524.577	15139.8
524.943	15197.88
525.31	15185.45
525.676	15275.84
526.043	15257.54
526.409	15289.17
526.776	15285.11
527.142	15345.67
527.508	15390.41
527.874	15423.18
528.241	15391.09
528.607	15507.93
528.973	15602.39
529.339	15500.47
529.705	15649.84
530.071	15632.22
530.437	15661.14
530.803	15655.27
531.169	15714.25
531.535	15595.61
531.901	15641.48
532.267	15676.73
532.632	15679.22
532.998	15683.97
533.364	15716.96
533.73	15791.31
534.095	15762.83
534.461	15755.38
534.826	15776.17
535.192	15752.44
535.557	15758.77
535.923	15673.12
536.288	15705.21
536.653	15668.83
537.019	15608.49
537.384	15667.47
537.749	15610.52
538.114	15553.57
538.479	15547.47
538.845	15601.03
539.21	15469.73
539.575	15526
539.94	15533.91
540.305	15561.71
540.67	15486.23
541.034	15481.26
541.399	15440.13
541.764	15413.01
542.129	15375.27
542.494	15342.51
542.858	15382.51
543.223	15293.69
543.587	15325.56
543.952	15279.23
544.316	15229.29
544.681	15146.35
545.045	15244.88
545.41	15232.9
545.774	15159.46
546.138	15137.09
546.503	15045.79
546.867	15013.93
547.231	15026.36
547.595	15048.05
547.959	15060.71
548.324	15003.31
548.688	14960.14
549.052	14955.85
549.416	14973.25
549.779	14887.38
550.143	14930.09
550.507	14930.31
550.871	14874.5
551.235	14805.8
551.599	14809.86
551.962	14768.74
552.326	14802.63
552.689	14747.49
553.053	14668.17
553.417	14580.49
553.78	14688.06
554.143	14720.83
554.507	14650.55
554.87	14790.66
555.234	14790.66
555.597	14607.16
555.96	14588.4
556.323	14685.35
556.686	14633.15
557.05	14576.42
557.413	14607.38
557.776	14636.99
558.139	14683.99
558.502	14595.41
558.865	14644.45
559.228	14693.48
559.59	14694.16
559.953	14603.09
560.316	14735.97
560.679	14614.84
561.041	14629.08
561.404	14752.01
561.767	14771.45
562.129	14653.48
562.492	14717.44
562.854	14731.45
563.217	14691
563.579	14759.92
563.941	14839.24
564.304	14833.59
564.666	14917.88
565.028	14823.42
565.39	14835.17
565.753	14879.47
566.115	14871.11
566.477	14940.48
566.839	14893.93
567.201	14953.82
567.563	14962.18
567.925	15046.24
568.287	15033.81
568.648	15006.92
569.01	15064.32
569.372	15072.46
569.734	15087.37
570.095	15102.51
570.457	15133.92
570.819	15122.17
571.18	15149.52
571.542	15175.73
571.903	15285.78
572.265	15245.56
572.626	15298.44
572.987	15252.57
573.349	15287.14
573.71	15284.2
574.071	15308.83
574.432	15329.85
574.794	15391.77
575.155	15286.91
575.516	15285.56
575.877	15460.92
576.238	15373.24
576.599	15441.49
576.96	15432.9
577.32	15434.03
577.681	15390.87
578.042	15550.64
578.403	15394.93
578.763	15494.37
579.124	15526
579.485	15454.82
579.845	15574.82
580.206	15454.82
580.566	15467.02
580.927	15429.51
581.287	15579.79
581.648	15436.29
582.008	15502.73
582.368	15382.05
582.728	15514.25
583.089	15490.52
583.449	15456.4
583.809	15497.53
584.169	15410.3
584.529	15444.2
584.889	15502.5
585.249	15429.96
585.609	15415.27
585.969	15419.11
586.329	15343.64
586.688	15409.4
587.048	15381.15
587.408	15377.53
587.768	15309.06
588.127	15283.07
588.487	15308.16
588.846	15397.42
589.206	15261.83
589.565	15302.73
589.925	15415.27
590.284	15355.84
590.643	15315.61
591.003	15379.57
591.362	15368.95
591.721	15327.59
592.08	15190.42
592.44	15416.63
592.799	15392.22
593.158	15328.27
593.517	15276.97
593.876	15337.76
594.235	15331.66
594.593	15370.98
594.952	15336.18
595.311	15174.83
595.67	15292.34
596.029	15383.18
596.387	15405.1
596.746	15372.11
597.104	15301.38
597.463	15258.89
597.822	15401.04
598.18	15275.62
598.538	15143.87
598.897	15324.43
599.255	15146.35
599.613	15397.87
599.972	15246.46
600.33	15251.44
600.688	15219.12
601.046	15253.92
601.404	15269.29
601.762	15277.65
602.12	15245.11
602.478	15295.95
602.836	15271.32
603.194	15240.36
603.552	15263.86
603.91	15264.77
604.268	15264.99
604.625	15225.67
604.983	15343.41
605.341	15168.27
605.698	15351.55
606.056	15375.05
606.413	15332.34
606.771	15406.46
607.128	15373.69
607.485	15285.11
607.843	15409.62
608.2	15306.12
608.557	15407.82
608.914	15395.16
609.272	15511.77
609.629	15436.29
609.986	15465.21
610.343	15474.48
610.7	15542.27
611.057	15439.45
611.414	15524.2
611.771	15525.78
612.127	15537.08
612.484	15497.3
612.841	15577.53
613.198	15509.28
613.554	15521.71
613.911	15518.32
614.267	15580.69
614.624	15531.2
614.98	15525.1
615.337	15629.28
615.693	15725.77
616.05	15631.09
616.406	15708.82
616.762	15700.01
617.118	15707.24
617.475	15636.28
617.831	15725.77
618.187	15719.67
618.543	15727.35
618.899	15903.4
619.255	15764.64
619.611	15784.3
619.967	15729.84
620.323	15890.97
620.678	15762.16
621.034	15736.85
621.39	15757.41
621.746	15774.59
622.101	15917.41
622.457	15678.77
622.812	15793.57
623.168	15907.24
623.523	15829.05
623.879	15838.99
624.234	15808.93
624.589	15778.2
624.945	15793.79
625.3	15810.06
625.655	15784.08
626.01	15757.64
626.365	15813.23
626.72	15671.99
627.075	15783.4
627.43	15762.83
627.785	15803.96
628.14	15795.6
628.495	15762.83
628.85	15667.24
629.205	15722.38
629.559	15836.73
629.914	15734.59
630.269	15780.01
630.623	15633.12
630.978	15645.1
631.332	15693.91
631.687	15698.88
632.041	15615.72
632.396	15679.45
632.75	15582.05
633.104	15638.32
633.459	15549.51
633.813	15510.19
634.167	15529.62
634.521	15543.18
634.875	15553.12
635.229	15467.47
635.583	15412.56
635.937	15474.48
636.291	15439.23
636.645	15463.41
636.999	15403.52
637.352	15384.31
637.706	15296.86
638.06	15408.72
638.413	15399.23
638.767	15339.79
639.121	15349.06
639.474	15182.28
639.828	15226.8
640.181	15238.1
640.534	15212.57
640.888	15190.19
641.241	15205.79
641.594	15229.51
641.947	15136.64
642.301	15215.5
642.654	15147.26
643.007	15227.48
643.36	15170.76
643.713	15142.74
644.066	15178.67
644.419	15060.25
644.771	15016.19
645.124	14874.5
645.477	14845.57
645.83	14783.65
646.182	14702.07
646.535	14604.9
646.888	14679.47
647.24	14557.44
647.593	14634.28
647.945	14568.97
648.298	14474.28
648.65	14504.56
649.002	14524.67
649.355	14559.93
649.707	14552.24
650.059	14691.45
650.411	14761.28
650.763	14815.51
651.115	14911.78
651.467	14907.72
651.819	14907.26
652.171	14911.56
652.523	14881.95
652.875	14885.57
653.227	14773.03
653.578	14980.26
653.93	14966.7
654.282	14815.29
654.633	14768.28
654.985	14843.08
655.337	14823.2
655.688	14902.52
656.039	14949.3
656.391	14902.29
656.742	14783.88
657.094	14892.12
657.445	15011.44
657.796	14916.3
658.147	14905.68
658.498	14858.23
658.849	14899.81
659.2	14901.84
659.551	14817.77
659.902	14922.4
660.253	14859.36
660.604	14885.57
660.955	14851.45
661.306	14915.62
661.656	14792.24
662.007	14974.38
662.358	14966.92
662.708	14892.12
663.059	14942.74
663.409	14804.22
663.76	14909.52
664.11	14931.67
664.461	14902.97
664.811	14914.72
665.161	14989.3
665.511	14944.78
665.862	14843.54
666.212	14928.51
666.562	14981.16
666.912	14934.16
667.262	14963.99
667.612	14873.37
667.962	14934.83
668.312	14884.67
668.662	14959.69
669.011	14940.48
669.361	14879.02
669.711	14967.37
670.06	14809.86
670.41	14842.18
670.76	14849.41
671.109	14891.9
671.459	14877.21
671.808	14821.62
672.157	14832.01
672.507	14758.34
672.856	14726.7
673.205	14782.75
673.554	14807.15
673.904	14702.3
674.253	14798.57
674.602	14775.06
674.951	14571.68
675.3	14488.97
675.649	14653.94
675.998	14642.19
676.346	14655.07
676.695	14691
677.044	14721.28
677.393	14556.09
677.741	14584.11
678.09	14600.15
678.438	14547.05
678.787	14601.51
679.135	14583.88
679.484	14489.87
679.832	14538.23
680.181	14470.66
680.529	14450.78
680.877	14459.37
681.225	14462.53
681.573	14516.31
681.922	14390.67
682.27	14348.63
682.618	14424.56
682.966	14336.43
683.314	14384.34
683.661	14236.55
684.009	14210.56
684.357	14181.86
684.705	14161.52
685.053	14166.04
685.4	14141.41
685.748	14127.17
686.095	14053.5
686.443	14046.5
686.79	14015.54
687.138	14060.05
687.485	14024.57
687.832	13956.1
688.18	13916.33
688.527	13801.98
688.874	13825.26
689.221	13855.99
689.568	13806.28
689.915	13783.68
690.262	13680.18
690.609	13647.64
690.956	13697.8
691.303	13644.47
691.65	13514.08
691.997	13462.78
692.344	13514.31
692.69	13353.63
693.037	13366.74
693.383	13241.77
693.73	13358.38
694.077	13206.97
694.423	13180.76
694.769	13178.27
695.116	13151.15
695.462	13154.77
695.808	12962
696.155	13027.76
696.501	12897.15
696.847	12914.32
697.193	12872.29
697.539	12882.91
697.885	12733.76
698.231	12685.85
698.577	12755.91
698.923	12689.92
699.269	12637.72
699.614	12513.65
699.96	12496.93
700.306	12499.64
700.651	12366.99
700.997	12366.31
701.342	12342.59
701.688	12329.48
702.033	12249.71
702.379	12244.51
702.724	12188.92
703.069	12294.22
703.415	12102.14
703.76	12001.13
704.105	12064.4
704.45	11988.7
704.795	11966.32
705.14	11877.96
705.485	11886.1
705.83	11812.88
706.175	11818.98
706.52	11728.14
706.865	11742.83
707.209	11724.07
707.554	11657.63
707.899	11686.33
708.243	11548.93
708.588	11620.57
708.932	11480.23
709.277	11458.77
709.621	11510.74
709.966	11439.33
710.31	11484.53
710.654	11413.34
710.998	11352.1
711.342	11413.34
711.687	11316.17
712.031	11276.62
712.375	11254.48
712.719	11282.73
713.063	11312.33
713.407	11226.23
713.75	11153.01
714.094	11155.27
714.438	11179
714.782	11191.2
715.125	11008.61
715.469	11122.05
715.812	11038.66
716.156	11013.58
716.499	11070.98
716.843	11012
717.186	10877.54
717.53	10973.13
717.873	10961.6
718.216	10937.88
718.559	10903.3
718.902	10808.16
719.246	10818.78
719.589	10779.91
719.932	10777.43
720.275	10778.11
720.617	10777.2
720.96	10745.34
721.303	10790.31
721.646	10782.4
721.989	10686.13
722.331	10820.37
722.674	10729.52
723.016	10671.89
723.359	10737.66
723.701	10664.66
724.044	10608.62
724.386	10513.25
724.729	10666.92
725.071	10586.25
725.413	10552.8
725.755	10531.11
726.097	10619.69
726.439	10538.34
726.782	10583.99
727.124	10571.11
727.465	10463.54
727.807	10554.38
728.149	10486.59
728.491	10468.06
728.833	10546.7
729.175	10517.55
729.516	10453.14
729.858	10491.33
730.199	10385.8
730.541	10529.75
730.882	10459.47
731.224	10532.92
731.565	10462.18
731.906	10451.11
732.248	10392.58
732.589	10395.52
732.93	10300.15
733.271	10407.72
733.612	10401.17
733.953	10389.87
734.294	10402.07
734.635	10374.28
734.976	10414.5
735.317	10387.83
735.658	10330.66
735.999	10312.13
736.339	10356.42
736.68	10394.61
737.021	10345.12
737.361	10372.02
737.702	10350.77
738.042	10368.4
738.383	10299.25
738.723	10426.25
739.063	10377.89
739.404	10354.84
739.744	10409.53
740.084	10389.19
740.424	10385.35
740.764	10370.66
741.104	10408.62
741.444	10381.96
741.784	10326.82
742.124	10422.18
742.464	10466.93
742.804	10430.32
743.143	10433.48
743.483	10494.95
743.823	10500.37
744.162	10557.32
744.502	10545.8
744.841	10594.83
745.181	10608.17
745.52	10664.44
745.86	10716.19
746.199	10712.12
746.538	10769.07
746.877	10935.84
747.216	10842.29
747.556	10894.26
747.895	10936.52
748.234	11005.45
748.573	11033.92
748.911	11104.2
749.25	11169.96
749.589	11164.54
749.928	11294.7
750.267	11368.37
750.605	11436.17
750.944	11498.54
751.283	11442.95
751.621	11674.81
751.96	11633.45
752.298	11761.13
752.636	11958.87
752.975	11934.46
753.313	12038.86
753.651	12187.79
753.989	12280.21
754.327	12364.05
754.666	12446.31
755.004	12530.83
755.342	12741.22
755.679	12800.2
756.017	12875.68
