Data from hue_220_FLMS001491_00042.txt Node
Date: Tue Feb 07 16:39:30 GMT 2017
User: dcchb
Spectrometer: FLMS00149
Trigger mode: 0
Integration Time (sec): 2.000000E-2
Scans to average: 10
Electric dark correction enabled: true
Nonlinearity correction enabled: false
Boxcar width: 0
XAxis mode: Wavelengths
Number of Pixels in Spectrum: 2048
>>>>>Begin Spectral Data<<<<<
341.393	-7.25
341.776	-7.25
342.16	-7.25
342.543	-60.58
342.927	-52.22
343.31	-70.97
343.693	-57.87
344.077	-48.83
344.46	-49.96
344.843	-60.58
345.226	-51.54
345.61	-32.1
345.993	-19.45
346.376	0.21
346.759	5.64
347.142	30.72
347.525	22.13
347.908	53.09
348.291	68.23
348.674	103.71
349.057	107.55
349.44	125.86
349.823	153.88
350.206	172.18
350.588	187.55
350.971	195.69
351.354	228.45
351.737	224.39
352.119	233.65
352.502	246.99
352.884	262.8
353.267	268
353.65	290.6
354.032	276.81
354.414	310.94
354.797	300.32
355.179	308.9
355.562	312.29
355.944	316.14
356.326	322.69
356.709	322.69
357.091	344.61
357.473	342.8
357.855	331.5
358.238	338.06
358.62	330.37
359.002	334.67
359.384	328.79
359.766	355.46
360.148	333.31
360.53	325.85
360.912	360.2
361.294	314.55
361.676	348.45
362.057	330.6
362.439	318.62
362.821	329.47
363.203	304.84
363.584	313.2
363.966	329.47
364.348	310.94
364.729	328.34
365.111	330.37
365.493	314.55
365.874	324.27
366.256	304.38
366.637	296.7
367.019	310.71
367.4	314.55
367.781	308
368.163	314.78
368.544	319.07
368.925	306.19
369.306	319.3
369.688	322.01
370.069	313.2
370.45	303.93
370.831	338.51
371.212	307.32
371.593	306.87
371.974	319.07
372.355	317.27
372.736	310.26
373.117	316.14
373.498	298.74
373.879	315.91
374.26	316.36
374.641	301.22
375.021	329.24
375.402	336.7
375.783	318.85
376.163	335.34
376.544	335.8
376.925	311.84
377.305	323.59
377.686	330.82
378.066	315.23
378.447	312.97
378.827	303.71
379.208	329.24
379.588	321.79
379.968	325.63
380.349	336.25
380.729	369.69
381.109	296.7
381.489	326.98
381.87	323.59
382.25	338.73
382.63	326.53
383.01	338.73
383.39	329.69
383.77	335.34
384.15	341.22
384.53	359.52
384.91	351.16
385.29	355.91
385.67	345.29
386.049	343.48
386.429	350.03
386.809	340.54
387.189	360.65
387.568	343.48
387.948	358.62
388.328	369.02
388.707	355.46
389.087	353.87
389.466	369.69
389.846	367.21
390.225	348.9
390.605	356.59
390.984	353.42
391.363	375.8
391.743	363.82
392.122	362.69
392.501	350.49
392.881	379.64
393.26	371.05
393.639	397.94
394.018	365.4
394.397	372.41
394.776	389.58
395.155	404.27
395.534	395.91
395.913	360.43
396.292	387.32
396.671	382.57
397.05	402.91
397.429	393.42
397.808	405.17
398.186	414.89
398.565	417.6
398.944	424.83
399.323	404.27
399.701	407.43
400.08	404.04
400.458	419.64
400.837	416.7
401.215	421.22
401.594	435
401.972	428.9
402.351	416.92
402.729	444.72
403.107	430.03
403.486	425.29
403.864	441.1
404.242	443.59
404.62	437.26
404.999	440.43
405.377	466.87
405.755	440.88
406.133	476.36
406.511	486.98
406.889	459.86
407.267	488.79
407.645	461.22
408.023	511.84
408.401	511.61
408.779	497.15
409.156	512.74
409.534	510.25
409.912	496.7
410.29	543.7
410.667	541.21
411.045	541.21
411.422	546.19
411.8	577.82
412.178	570.37
412.555	580.76
412.933	584.15
413.31	613.53
413.687	601.78
414.065	592.06
414.442	626.64
414.819	621.21
415.197	624.15
415.574	631.61
415.951	638.61
416.328	660.31
416.705	683.58
417.082	678.16
417.46	660.76
417.837	689.23
418.214	708.22
418.591	713.41
418.967	714.32
419.344	706.18
419.721	740.98
420.098	734.43
420.475	776.24
420.852	764.49
421.228	776.91
421.605	806.52
421.982	800.64
422.358	799.74
422.735	821.66
423.111	842.45
423.488	874.09
423.864	861.88
424.241	891.94
424.617	890.81
424.994	911.6
425.37	896.01
425.746	914.31
426.123	940.3
426.499	957.02
426.875	954.31
427.251	966.51
427.627	990.02
428.003	1037.7
428.379	1032.5
428.756	1033.63
429.132	1048.55
429.507	1074.76
429.883	1058.94
430.259	1079.73
430.635	1082.22
431.011	1118.83
431.387	1124.7
431.763	1131.93
432.138	1154.31
432.514	1189.79
432.89	1168.77
433.265	1222.1
433.641	1248.77
434.016	1265.49
434.392	1271.59
434.767	1309.33
435.143	1347.07
435.518	1351.36
435.894	1371.7
436.269	1357.92
436.644	1395.66
437.02	1407.63
437.395	1434.52
437.77	1468.65
438.145	1503.22
438.52	1509.1
438.895	1535.09
439.271	1567.18
439.646	1575.76
440.021	1613.95
440.395	1635.42
440.77	1640.17
441.145	1659.38
441.52	1708.87
441.895	1702.31
442.27	1716.1
442.645	1727.17
443.019	1724.69
443.394	1736.66
443.769	1796.77
444.143	1749.09
444.518	1801.97
444.892	1817.34
445.267	1830.67
445.641	1847.85
446.016	1869.54
446.39	1888.98
446.764	1915.42
447.139	1886.49
447.513	1906.6
447.887	1928.75
448.262	1943.66
448.636	1983.21
449.01	1983.44
449.384	1964.45
449.758	2017.33
450.132	2010.55
450.506	2042.19
450.88	2036.77
451.254	2081.51
451.628	2118.57
452.002	2083.55
452.376	2155.41
452.75	2188.63
453.123	2133.49
453.497	2191.34
453.871	2217.1
454.244	2260.04
454.618	2264.79
454.992	2326.03
455.365	2258.23
455.739	2342.52
456.112	2368.96
456.486	2361.73
456.859	2402.86
457.232	2441.5
457.606	2442.41
457.979	2461.62
458.352	2542.29
458.725	2543.65
459.099	2529.18
459.472	2595.17
459.845	2633.59
460.218	2598.11
460.591	2666.36
460.964	2683.31
461.337	2730.54
461.71	2720.14
462.083	2817.54
462.456	2793.58
462.829	2829.52
463.201	2861.38
463.574	2878.55
463.947	2903.41
464.32	2948.16
464.692	2970.76
465.065	3022.96
465.438	2998.1
465.81	3055.95
466.183	3111.32
466.555	3158.77
466.928	3195.83
467.3	3206
467.672	3212.1
468.045	3335.49
468.417	3306.79
468.789	3363.29
469.161	3359.45
469.534	3412.33
469.906	3493.68
470.278	3522.61
470.65	3527.8
471.022	3613.9
471.394	3636.95
471.766	3691.19
472.138	3708.14
472.51	3808.7
472.882	3902.26
473.253	3840.11
473.625	3954.91
473.997	4028.13
474.369	4053.44
474.74	4100.89
475.112	4127.11
475.484	4214.34
475.855	4275.13
476.227	4279.65
476.598	4401.23
476.97	4480.55
477.341	4486.65
477.713	4543.37
478.084	4566.42
478.455	4629.47
478.827	4733.19
479.198	4840.54
479.569	4820.2
479.94	4922.12
480.311	5008.89
480.682	5101.77
481.053	5193.07
481.424	5230.13
481.795	5307.64
482.166	5367.3
482.537	5380.64
482.908	5523.46
483.279	5612.04
483.65	5644.13
484.021	5718.93
484.391	5779.49
484.762	5808.42
485.133	5881.64
485.503	5987.17
485.874	6051.58
486.244	6093.84
486.615	6190.11
486.985	6225.81
487.356	6358.91
487.726	6359.59
488.097	6543.54
488.467	6527.5
488.837	6663.31
489.207	6668.06
489.578	6808.17
489.948	6812.24
490.318	6929.3
490.688	6974.72
491.058	7070.31
491.428	7115.96
491.798	7091.78
492.168	7268.72
492.538	7253.35
492.908	7330.64
493.278	7429.4
493.648	7483.4
494.017	7540.58
494.387	7532.67
494.757	7575.83
495.126	7692.21
495.496	7684.53
495.866	7737.64
496.235	7820.35
496.605	7844.75
496.974	7881.36
497.344	7962.04
497.713	8009.72
498.082	8023.5
498.452	8063.05
498.821	8128.36
499.19	8108.25
499.559	8190.96
499.928	8244.29
500.298	8284.97
500.667	8295.36
501.036	8298.3
501.405	8371.52
501.774	8411.97
502.143	8495.81
502.512	8365.64
502.88	8472.76
503.249	8466.88
503.618	8537.61
503.987	8514.56
504.356	8524.28
504.724	8555.47
505.093	8552.08
505.462	8669.81
505.83	8683.6
506.199	8711.85
506.567	8826.65
506.936	8790.04
507.304	8864.16
507.672	8836.82
508.041	8879.07
508.409	8952.07
508.777	8962.91
509.145	9037.71
509.514	8973.08
509.882	8968.79
510.25	9020.77
510.618	9030.26
510.986	9035
511.354	9020.77
511.722	9171.5
512.09	9203.59
512.458	9099.86
512.826	9213.53
513.193	9160.87
513.561	9180.31
513.929	9257.37
514.297	9328.33
514.664	9369.68
515.032	9339.18
515.4	9368.78
515.767	9385.28
516.135	9448.33
516.502	9264.15
516.869	9382.79
517.237	9329.91
517.604	9345.05
517.972	9372.39
518.339	9424.6
518.706	9402.45
519.073	9392.51
519.44	9440.19
519.808	9497.36
520.175	9469.57
520.542	9549.11
520.909	9585.72
521.276	9620.3
521.643	9633.18
522.009	9627.76
522.376	9576.46
522.743	9595.67
523.11	9682.9
523.477	9699.39
523.843	9689.45
524.21	9689.45
524.577	9789.33
524.943	9811.93
525.31	9793.17
525.676	9813.06
526.043	9874.08
526.409	9839.95
526.776	9914.75
527.142	9830.01
527.508	9902.78
527.874	9962.21
528.241	9896
528.607	9911.59
528.973	9993.17
529.339	9936.67
529.705	9939.61
530.071	10011.02
530.437	9995.2
530.803	10039.04
531.169	9980.74
531.535	9900.74
531.901	9950.23
532.267	9969.67
532.632	9972.15
532.998	9943.23
533.364	9953.85
533.73	9899.61
534.095	9985.49
534.461	9970.57
534.826	9873.17
535.192	9948.88
535.557	9960.85
535.923	10038.14
536.288	9838.82
536.653	9957.01
537.019	9854.42
537.384	9912.95
537.749	9852.83
538.114	9848.09
538.479	9841.76
538.845	9884.02
539.21	9832.95
539.575	9773.74
539.94	9738.71
540.305	9816
540.67	9718.15
541.034	9720.18
541.399	9728.54
541.764	9735.55
542.129	9669.11
542.494	9653.97
542.858	9687.64
543.223	9661.65
543.587	9674.08
543.952	9613.29
544.316	9644.25
544.681	9592.73
545.045	9645.61
545.41	9613.29
545.774	9566.06
546.138	9507.53
546.503	9528.1
546.867	9496.23
547.231	9563.8
547.595	9427.31
547.959	9444.03
548.324	9468.89
548.688	9387.76
549.052	9323.13
549.416	9380.76
549.779	9338.27
550.143	9317.26
550.507	9380.08
550.871	9352.06
551.235	9306.63
551.599	9358.61
551.962	9296.69
552.326	9305.28
552.689	9325.84
553.053	9226.64
553.417	9210.82
553.78	9323.58
554.143	9276.8
554.507	9220.31
554.87	9164.26
555.234	9234.32
555.597	9138.28
555.96	9151.61
556.323	9101.67
556.686	9144.83
557.05	9192.74
557.413	9139.18
557.776	9174.66
558.139	9176.69
558.502	9115
558.865	9190.48
559.228	9191.83
559.59	9178.28
559.953	9186.41
560.316	9235.9
560.679	9234.32
561.041	9183.02
561.404	9158.62
561.767	9227.31
562.129	9180.31
562.492	9219.18
562.854	9194.55
563.217	9213.3
563.579	9199.07
563.941	9215.11
564.304	9252.4
564.666	9288.1
565.028	9253.53
565.39	9244.94
565.753	9315.45
566.115	9268.22
566.477	9360.42
566.839	9284.26
567.201	9324.26
567.563	9371.49
567.925	9379.17
568.287	9347.31
568.648	9390.93
569.01	9486.52
569.372	9493.07
569.734	9448.55
570.095	9548.66
570.457	9460.98
570.819	9500.08
571.18	9458.72
571.542	9577.81
571.903	9451.71
572.265	9563.8
572.626	9565.84
572.987	9570.36
573.349	9580.07
573.71	9647.87
574.071	9695.78
574.432	9700.3
574.794	9728.09
575.155	9776
575.516	9724.25
575.877	9792.72
576.238	9743.01
576.599	9801.76
576.96	9838.6
577.32	9790.69
577.681	9843.57
578.042	9880.63
578.403	9904.81
578.763	9939.16
579.124	9915.21
579.485	9920.85
579.845	9950.01
580.206	9993.62
580.566	9954.75
580.927	9994.98
581.287	9997.46
581.648	10042.89
582.008	10031.59
582.368	10063
582.728	10083.56
583.089	10063.22
583.449	10122.21
583.809	10099.61
584.169	10142.09
584.529	10140.96
584.889	10183.45
585.249	10089.89
585.609	10206.05
585.969	10227.51
586.329	10161.75
586.688	10211.92
587.048	10305.03
587.408	10242.2
587.768	10218.47
588.127	10189.32
588.487	10224.35
588.846	10291.92
589.206	10279.72
589.565	10293.5
589.925	10308.42
590.284	10334.18
590.643	10388.87
591.003	10341.41
591.362	10403.33
591.721	10425.7
592.08	10405.81
592.44	10437
592.799	10339.38
593.158	10393.16
593.517	10448.52
593.876	10476.32
594.235	10477
594.593	10425.02
594.952	10455.98
595.311	10477
595.67	10474.96
596.029	10561.06
596.387	10463.67
596.746	10554.51
597.104	10536.21
597.463	10500.5
597.822	10581.63
598.18	10536.88
598.538	10517.22
598.897	10563.78
599.255	10541.18
599.613	10664.34
599.972	10594.28
600.33	10573.49
600.688	10603.1
601.046	10559.71
601.404	10691.91
601.762	10566.04
602.12	10653.49
602.478	10725.13
602.836	10661.4
603.194	10580.5
603.552	10658.91
603.91	10620.95
604.268	10619.14
604.625	10632.93
604.983	10709.31
605.341	10644.45
605.698	10656.43
606.056	10770.1
606.413	10712.92
606.771	10708.63
607.128	10733.94
607.485	10778.69
607.843	10751.57
608.2	10832.47
608.557	10742.98
608.914	10742.08
609.272	10861.17
609.629	10814.16
609.986	10881.28
610.343	10756.09
610.7	10876.99
611.057	10857.78
611.414	10916.99
611.771	10835.18
612.127	10894.39
612.484	10842.86
612.841	10958.12
613.198	10902.75
613.554	10935.74
613.911	10965.35
614.267	10970.77
614.624	10989.75
614.98	10923.54
615.337	11044.89
615.693	10952.92
616.05	10955.18
616.406	11053.71
616.762	10938.46
617.118	10953.14
617.475	10980.26
617.831	11022.07
618.187	11018.68
618.543	11062.29
618.899	11134.16
619.255	11075.4
619.611	11067.49
619.967	11073.14
620.323	11107.04
620.678	11093.48
621.034	11062.52
621.39	11086.93
621.746	11024.78
622.101	11183.19
622.457	11031.79
622.812	11128.96
623.168	11124.21
623.523	11140.26
623.879	11250.76
624.234	11049.41
624.589	11071.33
624.945	11073.82
625.3	11083.31
625.655	11119.69
626.01	11109.3
626.365	11145.23
626.72	11046.02
627.075	11094.61
627.43	11118.11
627.785	11042.41
628.14	11073.59
628.495	11110.43
628.85	11020.49
629.205	11010.54
629.559	11135.51
629.914	11048.28
630.269	10968.74
630.623	11018.68
630.978	10989.75
631.332	11039.24
631.687	11064.78
632.041	10977.55
632.396	11032.24
632.75	10917.89
633.104	10951.11
633.459	10924.44
633.813	10931.45
634.167	10899.59
634.521	10892.35
634.875	10860.49
635.229	10897.33
635.583	10854.39
635.937	10818.91
636.291	10870.66
636.645	10849.64
636.999	10770.1
637.352	10789.08
637.706	10694.62
638.06	10794.5
638.413	10809.87
638.767	10755.18
639.121	10760.38
639.474	10641.97
639.828	10707.05
640.181	10736.2
640.534	10701.17
640.888	10668.86
641.241	10658.01
641.594	10610.33
641.947	10697.56
642.301	10613.94
642.654	10640.61
643.007	10672.7
643.36	10682.64
643.713	10578.24
644.066	10604.9
644.419	10619.14
644.771	10512.25
645.124	10484
645.477	10502.31
645.83	10390.67
646.182	10398.81
646.535	10299.83
646.888	10269.77
647.24	10248.98
647.593	10291.01
647.945	10203.33
648.298	10173.73
648.65	10140.51
649.002	10233.84
649.355	10223.45
649.707	10248.08
650.059	10260.28
650.411	10372.59
650.763	10368.07
651.115	10571.46
651.467	10524
651.819	10500.05
652.171	10477.22
652.523	10429.54
652.875	10493.5
653.227	10415.31
653.578	10478.81
653.93	10505.25
654.282	10435.42
654.633	10406.72
654.985	10474.51
655.337	10463.21
655.688	10452.59
656.039	10520.61
656.391	10372.14
656.742	10454.17
657.094	10473.38
657.445	10533.49
657.796	10466.83
658.147	10469.32
658.498	10460.05
658.849	10450.11
659.2	10423.67
659.551	10495.98
659.902	10547.28
660.253	10523.55
660.604	10530.56
660.955	10508.18
661.306	10518.58
661.656	10529.43
662.007	10502.08
662.358	10511.12
662.708	10472.03
663.059	10532.36
663.409	10442.42
663.76	10524
664.11	10493.04
664.461	10492.59
664.811	10487.62
665.161	10508.64
665.511	10447.17
665.862	10552.93
666.212	10562.65
666.562	10500.95
666.912	10447.62
667.262	10466.83
667.612	10394.74
667.962	10534.4
668.312	10495.76
668.662	10552.7
669.011	10475.64
669.361	10492.14
669.711	10454.17
670.06	10495.3
670.41	10439.03
670.76	10492.37
671.109	10452.59
671.459	10519.94
671.808	10496.43
672.157	10493.72
672.507	10365.59
672.856	10263.9
673.205	10355.65
673.554	10465.02
673.904	10378.24
674.253	10415.53
674.602	10409.66
674.951	10255.54
675.3	10195.42
675.649	10321.52
675.998	10306.61
676.346	10279.72
676.695	10299.38
677.044	10217.57
677.393	10301.64
677.741	10331.24
678.09	10234.07
678.438	10249.89
678.787	10245.37
679.135	10271.81
679.484	10199.94
679.832	10224.35
680.181	10158.59
680.529	10215.08
680.877	10175.31
681.225	10136.22
681.573	10175.54
681.922	10056.44
682.27	10065.94
682.618	10065.48
682.966	10099.61
683.314	10090.12
683.661	10063.45
684.009	9923.11
684.357	9962.66
684.705	9939.16
685.053	9952.04
685.4	9910.46
685.748	9853.51
686.095	9896
686.443	9807.64
686.79	9837.24
687.138	9865.26
687.485	9791.59
687.832	9787.53
688.18	9804.7
688.527	9692.61
688.874	9657.36
689.221	9638.38
689.568	9558.15
689.915	9598.6
690.262	9584.59
690.609	9560.64
690.956	9519.51
691.303	9514.99
691.65	9434.09
691.997	9444.26
692.344	9404.03
692.69	9278.39
693.037	9374.88
693.383	9290.82
693.73	9315
694.077	9269.12
694.423	9265.28
694.769	9266.63
695.116	9207.2
695.462	9173.98
695.808	9120.2
696.155	9125.17
696.501	9043.36
696.847	9077.71
697.193	8976.25
697.539	9036.58
697.885	8953.87
698.231	8832.52
698.577	8910.49
698.923	8835.01
699.269	8821
699.614	8764.73
699.96	8741.68
700.306	8760.66
700.651	8705.52
700.997	8634.11
701.342	8620.78
701.688	8610.38
702.033	8529.25
702.379	8528.12
702.724	8492.87
703.069	8537.16
703.415	8486.09
703.76	8416.26
704.105	8460.33
704.45	8389.82
704.795	8341.69
705.14	8328.35
705.485	8326.09
705.83	8304.85
706.175	8235.25
706.52	8312.54
706.865	8241.8
707.209	8166.32
707.554	8152.77
707.899	8136.95
708.243	8101.02
708.588	8105.54
708.932	8075.48
709.277	7995.93
709.621	8049.94
709.966	7978.08
710.31	8003.39
710.654	7950.29
710.998	7863.73
711.342	7941.7
711.687	7956.39
712.031	7875.94
712.375	7767.92
712.719	7818.99
713.063	7821.25
713.407	7811.98
713.75	7763.4
714.094	7753.91
714.438	7757.75
714.782	7674.59
715.125	7705.32
715.469	7763.85
715.812	7636.17
716.156	7641.14
716.499	7630.97
716.843	7694.02
717.186	7630.52
717.53	7637.98
717.873	7667.81
718.216	7642.95
718.559	7595.27
718.902	7522.27
719.246	7572.89
719.589	7522.95
719.932	7493.8
720.275	7563.18
720.617	7479.11
720.96	7518.66
721.303	7497.64
721.646	7536.51
721.989	7445.21
722.331	7496.06
722.674	7457.19
723.016	7431.88
723.359	7471.88
723.701	7422.16
724.044	7372.9
724.386	7355.72
724.729	7461.26
725.071	7397.08
725.413	7426.68
725.755	7346.46
726.097	7322.05
726.439	7359.34
726.782	7314.14
727.124	7371.54
727.465	7348.49
727.807	7342.84
728.149	7353.92
728.491	7283.86
728.833	7342.17
729.175	7340.81
729.516	7303.97
729.858	7267.37
730.199	7312.11
730.541	7313.01
730.882	7312.11
731.224	7295.84
731.565	7302.17
731.906	7287.93
732.248	7339.68
732.589	7291.77
732.93	7270.76
733.271	7258.55
733.612	7298.78
733.953	7265.78
734.294	7284.54
734.635	7273.69
734.976	7337.19
735.317	7328.83
735.658	7361.15
735.999	7328.61
736.339	7281.38
736.68	7346.23
737.021	7338.32
737.361	7269.17
737.702	7316.63
738.042	7281.15
738.383	7304.65
738.723	7340.36
739.063	7355.27
739.404	7410.19
739.744	7351.66
740.084	7367.02
740.424	7367.48
740.764	7435.04
741.104	7450.86
741.444	7395.05
741.784	7400.7
742.124	7480.69
742.464	7376.52
742.804	7466.46
743.143	7451.77
743.483	7419.9
743.823	7457.42
744.162	7475.04
744.502	7598.2
744.841	7550.07
745.181	7634.36
745.52	7623.97
745.86	7656.06
746.199	7725.66
746.538	7701.48
746.877	7826.45
747.216	7848.37
747.556	7851.53
747.895	7905.09
748.234	7967.01
748.573	7969.72
748.911	8018.76
749.25	8128.13
749.589	8118.64
749.928	8226.21
750.267	8345.76
750.605	8294.91
750.944	8416.49
751.283	8502.36
751.621	8506.2
751.96	8606.54
752.298	8737.84
752.636	8827.1
752.975	8860.77
753.313	8998.85
753.651	9124.72
753.989	9209.46
754.327	9249.46
754.666	9378.04
755.004	9472.28
755.342	9691.03
755.679	9785.72
756.017	9880.63
756.355	9984.13
756.693	10099.83
757.031	10281.98
757.368	10373.5
757.706	10530.1
758.044	10582.31
758.381	10864.78
758.719	10962.18
759.056	11185
759.394	11320.59
759.731	11386.81
760.068	11544.54
760.405	11731.43
760.743	11874.7
761.08	12028.82
761.417	12244.41
761.754	12362.37
762.091	12635.36
762.428	12710.84
762.765	12921.23
763.102	13154.44
763.438	13240.99
763.775	13401.89
