Data from hue_50_FLMS001491_4.txt Node
Date: Mon Feb 06 15:09:29 GMT 2017
User: dcchb
Spectrometer: FLMS00149
Trigger mode: 0
Integration Time (sec): 2.000000E-2
Scans to average: 10
Electric dark correction enabled: true
Nonlinearity correction enabled: false
Boxcar width: 0
XAxis mode: Wavelengths
Number of Pixels in Spectrum: 2048
>>>>>Begin Spectral Data<<<<<
341.393	-29.15
341.776	-29.15
342.16	-29.15
342.543	-63.5
342.927	-66.21
343.31	-57.63
343.693	-70.73
344.077	-66.21
344.46	-75.48
344.843	-43.16
345.226	-56.95
345.61	-31.86
345.993	-19.43
346.376	-19.21
346.759	10.85
347.142	25.31
347.525	35.71
347.908	42.94
348.291	82.71
348.674	108.02
349.057	135.14
349.44	150.96
349.823	135.36
350.206	156.38
350.588	196.61
350.971	208.13
351.354	226.21
351.737	239.54
352.119	256.04
352.502	256.49
352.884	272.08
353.267	311.18
353.65	307.79
354.032	302.82
354.414	307.34
354.797	308.24
355.179	312.31
355.562	317.05
355.944	310.95
356.326	319.31
356.709	338.75
357.091	351.4
357.473	345.98
357.855	331.97
358.238	344.4
358.62	329.26
359.002	336.94
359.384	333.78
359.766	340.78
360.148	339.2
360.53	345.08
360.912	349.14
361.294	338.3
361.676	338.75
362.057	342.14
362.439	319.77
362.821	319.09
363.203	328.8
363.584	315.25
363.966	348.01
364.348	325.64
364.729	342.14
365.111	333.78
365.493	311.4
365.874	317.96
366.256	314.34
366.637	321.8
367.019	317.05
367.4	319.77
367.781	309.6
368.163	310.5
368.544	302.14
368.925	304.4
369.306	319.99
369.688	316.6
370.069	304.85
370.45	310.05
370.831	298.07
371.212	314.57
371.593	314.12
371.974	310.27
372.355	313.44
372.736	319.77
373.117	341.23
373.498	307.34
373.879	320.44
374.26	299.2
374.641	311.18
375.021	314.79
375.402	301.24
375.783	314.79
376.163	321.57
376.544	325.42
376.925	332.42
377.305	313.21
377.686	326.55
378.066	319.77
378.447	307.11
378.827	323.83
379.208	311.63
379.588	348.01
379.968	324.29
380.349	333.78
380.729	324.51
381.109	352.08
381.489	330.84
381.87	333.1
382.25	329.93
382.63	341.91
383.01	342.59
383.39	337.62
383.77	330.84
384.15	319.31
384.53	354.57
384.91	339.88
385.29	343.72
385.67	346.66
386.049	343.04
386.429	343.72
386.809	325.87
387.189	320.22
387.568	361.35
387.948	328.13
388.328	339.65
388.707	348.24
389.087	336.49
389.466	335.81
389.846	362.93
390.225	347.79
390.605	354.11
390.984	342.59
391.363	372.65
391.743	344.17
392.122	367
392.501	361.12
392.881	362.02
393.26	349.6
393.639	366.32
394.018	362.93
394.397	368.58
394.776	359.09
395.155	358.18
395.534	367
395.913	356.83
396.292	392.98
396.671	371.74
397.05	378.07
397.429	358.41
397.808	372.42
398.186	387.79
398.565	367.67
398.944	368.8
399.323	388.92
399.701	388.92
400.08	369.93
400.458	368.58
400.837	380.55
401.215	377.84
401.594	381.91
401.972	373.32
402.351	384.4
402.729	378.07
403.107	375.36
403.486	391.4
403.864	398.63
404.242	394.79
404.62	405.64
404.999	385.98
405.377	406.99
405.755	422.59
406.133	428.01
406.511	398.63
406.889	397.28
407.267	416.03
407.645	395.02
408.023	417.84
408.401	407.22
408.779	410.61
409.156	404.96
409.534	401.8
409.912	433.89
410.29	424.62
410.667	414.45
411.045	423.94
411.422	427.56
411.8	424.85
412.178	412.19
412.555	440.89
412.933	415.36
413.31	436.37
413.687	429.59
414.065	470.5
414.442	443.15
414.819	460.1
415.197	471.63
415.574	455.58
415.951	461.23
416.328	456.03
416.705	467.33
417.082	466.43
417.46	479.99
417.837	474.79
418.214	485.86
418.591	482.25
418.967	484.28
419.344	470.72
419.721	471.4
420.098	476.15
420.475	476.6
420.852	469.14
421.228	474.34
421.605	489.03
421.982	490.61
422.358	497.84
422.735	493.77
423.111	513.88
423.488	503.94
423.864	518.4
424.241	529.25
424.617	512.08
424.994	542.13
425.37	549.14
425.746	525.86
426.123	535.13
426.499	531.74
426.875	538.06
427.251	522.25
427.627	524.28
428.003	533.55
428.379	547.1
428.756	534.9
429.132	581.45
429.507	534.9
429.883	551.4
430.259	569.02
430.635	552.98
431.011	563.6
431.387	562.7
431.763	577.16
432.138	570.83
432.514	579.65
432.89	592.75
433.265	565.86
433.641	612.64
434.016	586.65
434.392	605.18
434.767	610.61
435.143	612.19
435.518	618.74
435.894	622.81
436.269	653.32
436.644	614
437.02	618.74
437.395	639.31
437.77	642.02
438.145	638.63
438.52	649.47
438.895	670.49
439.271	630.72
439.646	689.93
440.021	667.1
440.395	656.03
440.77	680.21
441.145	670.72
441.52	679.08
441.895	678.63
442.27	671.62
442.645	696.7
443.019	707.33
443.394	691.51
443.769	695.8
444.143	706.2
444.518	719.76
444.892	713.65
445.267	710.72
445.641	726.99
446.016	722.47
446.39	719.76
446.764	718.63
447.139	727.89
447.513	730.38
447.887	743.94
448.262	761.11
448.636	745.52
449.01	736.25
449.384	750.94
449.758	751.39
450.132	750.26
450.506	757.72
450.88	779.87
451.254	775.57
451.628	810.15
452.002	802.01
452.376	802.69
452.75	804.05
453.123	797.27
453.497	814.22
453.871	809.24
454.244	856.93
454.618	821.45
454.992	852.86
455.365	861.22
455.739	880.88
456.112	861.67
456.486	879.52
456.859	907.55
457.232	891.5
457.606	905.29
457.979	890.6
458.352	919.07
458.725	909.13
459.099	933.53
459.472	963.36
459.845	948
460.218	947.55
460.591	999.07
460.964	993.87
461.337	997.94
461.71	1051.27
462.083	1023.25
462.456	1010.82
462.829	1015.34
463.201	1058.5
463.574	1038.16
463.947	1081.1
464.32	1076.13
464.692	1110.93
465.065	1122
465.438	1138.73
465.81	1141.44
466.183	1140.76
466.555	1177.14
466.928	1189.57
467.3	1181.21
467.672	1211.49
468.045	1246.29
468.417	1260.76
468.789	1236.8
469.161	1285.84
469.534	1317.03
469.906	1358.16
470.278	1347.08
470.65	1394.77
471.022	1400.19
471.394	1402.67
471.766	1446.74
472.138	1452.62
472.51	1516.12
472.882	1526.97
473.253	1573.74
473.625	1604.03
473.997	1666.85
474.369	1662.33
474.74	1689.67
475.112	1732.38
475.484	1740.52
475.855	1791.37
476.227	1825.49
476.598	1939.16
476.97	1935.09
477.341	2016.67
477.713	2078.59
478.084	2060.06
478.455	2166.27
478.827	2225.7
479.198	2255.08
479.569	2316.1
479.94	2366.72
480.311	2461.18
480.682	2506.37
481.053	2589.76
481.424	2642.42
481.795	2733.94
482.166	2803.54
482.537	2854.39
482.908	2992.01
483.279	3056.42
483.65	3134.15
484.021	3200.14
484.391	3307.26
484.762	3410.53
485.133	3488.04
485.503	3568.04
485.874	3667.7
486.244	3714.7
486.615	3878.54
486.985	3951.99
487.356	4068.59
487.726	4192.88
488.097	4300.23
488.467	4379.77
488.837	4566.43
489.207	4678.75
489.578	4764.85
489.948	4923.71
490.318	4995.8
490.688	5106.08
491.058	5218.17
491.428	5330.48
491.798	5449.57
492.168	5643.24
492.538	5682.34
492.908	5875.55
493.278	6008.66
493.648	6082.78
494.017	6223.79
494.387	6323.9
494.757	6451.58
495.126	6602.99
495.496	6702.42
495.866	6863.1
496.235	6953.04
496.605	7099.02
496.974	7160.49
497.344	7348.51
497.713	7458.56
498.082	7564.55
498.452	7667.59
498.821	7806.57
499.19	7916.63
499.559	8062.16
499.928	8155.49
500.298	8294.02
500.667	8410.63
501.036	8455.82
501.405	8647
501.774	8748.92
502.143	8839.09
502.512	8957.05
502.88	9075.69
503.249	9134.9
503.618	9264.39
503.987	9338.06
504.356	9458.28
504.724	9608.33
505.093	9703.02
505.462	9822.34
505.83	9897.59
506.199	10019.4
506.567	10127.87
506.936	10178.04
507.304	10352.95
507.672	10474.53
508.041	10574.86
508.409	10685.59
508.777	10799.04
509.145	10875.65
509.514	10973.04
509.882	11098.01
510.25	11167.39
510.618	11265.47
510.986	11396.08
511.354	11554.05
511.722	11658.68
512.09	11780.48
512.458	11815.28
512.826	11897.31
513.193	12005.56
513.561	12103.18
513.929	12124.2
514.297	12329.85
514.664	12466.79
515.032	12509.05
515.4	12604.19
515.767	12718.54
516.135	12810.28
516.502	12842.37
516.869	13037.17
517.237	13123.27
517.604	13149.71
517.972	13302.25
518.339	13334.34
518.706	13409.59
519.073	13548.12
519.44	13511.51
519.808	13753.08
520.175	13798.06
520.542	13978.62
520.909	14052.74
521.276	14083.47
521.643	14247.08
522.009	14317.14
522.376	14482.78
522.743	14626.51
523.11	14749.89
523.477	14818.82
523.843	15011.81
524.21	15044.58
524.577	15276.66
524.943	15292.03
525.31	15335.64
525.676	15541.96
526.043	15671.9
526.409	15651.34
526.776	15886.36
527.142	15978.56
527.508	16090.65
527.874	16103.76
528.241	16288.61
528.607	16308.27
528.973	16508.27
529.339	16533.8
529.705	16625.33
530.071	16732.44
530.437	16921.59
530.803	17008.82
531.169	17082.94
531.535	17049.04
531.901	17138.98
532.267	17274.8
532.632	17398.19
532.998	17427.11
533.364	17540.56
533.73	17569.48
534.095	17829.59
534.461	17769.02
534.826	17948.68
535.192	18015.35
535.557	18122.69
535.923	18137.6
536.288	18243.81
536.653	18192.97
537.019	18279.97
537.384	18303.7
537.749	18395.45
538.114	18527.2
538.479	18555.67
538.845	18628.21
539.21	18651.26
539.575	18777.13
539.94	18835.89
540.305	18976.68
540.67	18938.71
541.034	19006.05
541.399	19112.49
541.764	19117.92
542.129	19239.27
542.494	19310.23
542.858	19389.09
543.223	19442.43
543.587	19548.86
543.952	19563.1
544.316	19636.09
544.681	19707.05
545.045	19803.1
545.41	19908.63
545.774	19907.5
546.138	19950.44
546.503	20013.49
546.867	19972.58
547.231	20171.22
547.595	20253.25
547.959	20342.06
548.324	20333.7
548.688	20399.46
549.052	20541.83
549.416	20551.32
549.779	20552.23
550.143	20588.61
550.507	20788.61
550.871	20721.49
551.235	20802.62
551.599	21046.45
551.962	20882.84
552.326	21147.01
552.689	21201.02
553.053	21028.37
553.417	21294.13
553.78	21426.78
554.143	21368.25
554.507	21518.3
554.87	21628.13
555.234	21813.21
555.597	21696.6
555.96	21885.98
556.323	21785.19
556.686	21997.16
557.05	22071.96
557.413	22085.75
557.776	22267.21
558.139	22371.39
558.502	22412.74
558.865	22455.45
559.228	22595.56
559.59	22601.44
559.953	22679.86
560.316	22999.85
560.679	23038.72
561.041	23000.75
561.404	23242.78
561.767	23349.44
562.129	23327.07
562.492	23544.47
562.854	23467.41
563.217	23571.81
563.579	23590.34
563.941	23760.28
564.304	23895.64
564.666	24069.2
565.028	23996.21
565.39	24124.34
565.753	24296.76
566.115	24277.33
566.477	24342.41
566.839	24456.76
567.201	24663.08
567.563	24649.75
567.925	24727.94
568.287	24915.05
568.648	24938.55
569.01	25140.36
569.372	25259.45
569.734	25223.74
570.095	25445.43
570.457	25482.72
570.819	25591.87
571.18	25595.26
571.542	25922.48
571.903	25933.56
572.265	25887.23
572.626	25870.96
572.987	26032.08
573.349	26112.99
573.71	26312.98
574.071	26282.47
574.432	26453.54
574.794	26558.62
575.155	26685.85
575.516	26562.69
575.877	26751.61
576.238	26954.77
576.599	26982.57
576.96	27020.76
577.32	27045.39
577.681	27275.89
578.042	27341.88
578.403	27477.47
578.763	27399.05
579.124	27496.68
579.485	27677.69
579.845	27856.67
580.206	27916.33
580.566	27892.37
580.927	27913.16
581.287	28265.02
581.648	28077.23
582.008	28455.97
582.368	28377.56
582.728	28504.56
583.089	28509.53
583.449	28556.54
583.809	28836.53
584.169	28931.44
584.529	28850.54
584.889	29113.81
585.249	29060.03
585.609	29179.12
585.969	29312.68
586.329	29372.56
586.688	29544.53
587.048	29571.2
587.408	29553.8
587.768	29741.14
588.127	29830.63
588.487	29719.22
588.846	30219.09
589.206	29988.36
589.565	30136.83
589.925	30388.13
590.284	30307.68
590.643	30579.99
591.003	30620.66
591.362	30913.31
591.721	30777.95
592.08	30951.05
592.44	31106.07
592.799	31211.38
593.158	31280.08
593.517	31296.13
593.876	31301.55
594.235	31575.67
594.593	31479.4
594.952	31792.84
595.311	31823.57
595.67	31874.64
596.029	32285.48
596.387	32214.52
596.746	32334.52
597.104	32227.18
597.463	32255.2
597.822	32591.01
598.18	32357.57
598.538	32630.1
598.897	32645.92
599.255	32626.26
599.613	32998.68
599.972	32918.23
600.33	33092.01
600.688	33037.1
601.046	33159.58
601.404	33460.36
601.762	33300.37
602.12	33500.36
602.478	33626.69
602.836	33529.29
603.194	33563.41
603.552	33602.73
603.91	33715.05
604.268	33870.52
604.625	33855.38
604.983	34094.7
605.341	34002.5
605.698	34251.75
606.056	34352.54
606.413	34359.32
606.771	34475.93
607.128	34579.43
607.485	34385.54
607.843	34494.46
608.2	34729.48
608.557	34934.45
608.914	34816.03
609.272	35154.56
609.629	35124.05
609.986	35158.17
610.343	35214.67
610.7	35468.9
611.057	35433.64
611.414	35479.52
611.771	35462.8
612.127	35830.47
612.484	35595.67
612.841	35890.81
613.198	35742.11
613.554	35824.37
613.911	36154.08
614.267	36054.65
614.624	36124.47
614.98	36184.59
615.337	36472.04
615.693	36341.42
616.05	36204.92
616.406	36684.69
616.762	36453.73
617.118	36596.1
617.475	36578.93
617.831	36644.69
618.187	36726.49
618.543	36759.49
618.899	36973.04
619.255	36840.39
619.611	36950.89
619.967	37141.4
620.323	37272.92
620.678	37165.35
621.034	37105.92
621.39	37121.96
621.746	37058.91
622.101	37620.25
622.457	37153.6
622.812	37352.24
623.168	37462.07
623.523	37511.1
623.879	37568.5
624.234	37490.54
624.589	37644.66
624.945	37641.04
625.3	37634.94
625.655	37632.91
626.01	37673.59
626.365	37713.81
626.72	37676.3
627.075	37716.75
627.43	37731.44
627.785	37562.4
628.14	37782.28
628.495	37767.59
628.85	37718.33
629.205	37672.91
629.559	37914.03
629.914	37719.46
630.269	37901.6
630.623	37705.45
630.978	37657.09
631.332	37807.59
631.687	37862.96
632.041	37653.93
632.396	37792.45
632.75	37647.82
633.104	37774.83
633.459	37559.92
633.813	37652.57
634.167	37554.72
634.521	37609.63
634.875	37763.53
635.229	37647.15
635.583	37403.08
635.937	37496.64
636.291	37507.94
636.645	37299.58
636.999	37376.87
637.352	37452.8
637.706	37393.37
638.06	37413.48
638.413	37493.25
638.767	37180.27
639.121	37449.64
639.474	37189.98
639.828	37330.32
640.181	37326.93
640.534	37299.58
640.888	37232.92
641.241	37111.34
641.594	37233.82
641.947	37222.3
642.301	37218.23
642.654	37179.59
643.007	37172.81
643.36	37036.54
643.713	36963.1
644.066	37236.31
644.419	36948.86
644.771	36665.48
645.124	36473.39
645.477	36384.13
645.83	36166.96
646.182	35971.03
646.535	35850.36
646.888	35961.77
647.24	35737.59
647.593	36041.31
647.945	35745.95
648.298	35681.77
648.65	35635.67
649.002	35668.44
649.355	35811.49
649.707	35723.81
650.059	35843.58
650.411	36182.78
650.763	36337.58
651.115	36749.54
651.467	36479.27
651.819	36401.3
652.171	36338.25
652.523	36409.44
652.875	36396.11
653.227	36281.08
653.578	36551.58
653.93	36415.31
654.282	36260.97
654.633	36263.68
654.985	36283.34
655.337	36240.4
655.688	36214.19
656.039	36485.37
656.391	36098.03
656.742	36205.15
657.094	36211.25
657.445	36310.23
657.796	36084.02
658.147	36071.82
658.498	36044.48
658.849	36118.82
659.2	36145.26
659.551	36101.88
659.902	36361.3
660.253	36112.95
660.604	36088.54
660.955	36038.83
661.306	36103.91
661.656	36039.28
662.007	36098.03
662.358	35948.21
662.708	36033.63
663.059	36020.75
663.409	35797.02
663.76	36041.31
664.11	36006.06
664.461	36123.12
664.811	35979.62
665.161	36117.92
665.511	35963.57
665.862	36157.24
666.212	36002.44
666.562	36047.64
666.912	35928.55
667.262	35841.54
667.612	35841.77
667.962	35813.75
668.312	35909.11
668.662	36098.03
669.011	35817.59
669.361	35683.81
669.711	35759.29
670.06	35795.22
670.41	35602.23
670.76	35574.88
671.109	35803.35
671.459	35624.6
671.808	35716.58
672.157	35657.37
672.507	35435
672.856	35617.14
673.205	35639.51
673.554	35583.02
673.904	35622.11
674.253	35698.27
674.602	35573.08
674.951	34971.06
675.3	34858.74
675.649	35401.33
675.998	35485.62
676.346	35534.21
676.695	35490.59
677.044	35326.53
677.393	35411.95
677.741	35462.57
678.09	35329.24
678.438	35347.09
678.787	35310.94
679.135	35260.09
679.484	35031.4
679.832	35454.21
680.181	35015.12
680.529	35190.26
680.877	35072.98
681.225	35021.45
681.573	35322.69
681.922	34906.43
682.27	34744.17
682.618	34810.38
682.966	34816.26
683.314	34830.04
683.661	34709.6
684.009	34531.97
684.357	34524.29
684.705	34381.24
685.053	34494.46
685.4	34577.85
685.748	34492.43
686.095	34385.08
686.443	34207.01
686.79	34093.79
687.138	34231.42
687.485	34225.31
687.832	34073.91
688.18	34147.8
688.527	33947.13
688.874	33890.41
689.221	33826.23
689.568	33834.59
689.915	33703.97
690.262	33795.72
690.609	33630.3
690.956	33366.13
691.303	33549.63
691.65	33291.55
691.997	33262.4
692.344	33095.17
692.69	33152.35
693.037	33082.97
693.383	32840.04
693.73	32837.33
694.077	32698.8
694.423	32766.82
694.769	32658.8
695.116	32608.41
695.462	32392.59
695.808	32430.56
696.155	32523.44
696.501	32236.21
696.847	32058.82
697.193	31951.48
697.539	32110.34
697.885	31904.7
698.231	31841.2
698.577	31744.25
698.923	31618.15
699.269	31626.74
699.614	31491.6
699.96	31602.78
700.306	31426.29
700.651	31228.78
700.997	31294.54
701.342	31188.56
701.688	31200.76
702.033	31001.44
702.379	31018.62
702.724	30902.46
703.069	31001.9
703.415	30671.06
703.76	30563.49
704.105	30622.7
704.45	30582.7
704.795	30387.45
705.14	30303.84
705.485	30359.2
705.83	30093.9
706.175	30217.28
706.52	30027.01
706.865	29992.88
707.209	29980
707.554	29852.55
707.899	29919.21
708.243	29815.26
708.588	29640.58
708.932	29521.26
709.277	29496.4
709.621	29538.66
709.966	29332.34
710.31	29302.51
710.654	29199.01
710.998	29186.8
711.342	29267.71
711.687	29010.54
712.031	28970.99
712.375	28929.41
712.719	28939.8
713.063	28904.1
713.407	29032.01
713.75	28760.83
714.094	28799.92
714.438	28660.94
714.782	28716.76
715.125	28534.62
715.469	28528.29
715.812	28453.04
716.156	28224.57
716.499	28258.24
716.843	28290.78
717.186	28066.15
717.53	28239.03
717.873	28271.57
718.216	28015.99
718.559	28011.24
718.902	27858.02
719.246	28001.3
719.589	27906.61
719.932	27728.08
720.275	27764.69
720.617	27722.43
720.96	27609.44
721.303	27676.79
721.646	27578.94
721.989	27325.61
722.331	27472.27
722.674	27428.21
723.016	27437.02
723.359	27507.53
723.701	27357.25
724.044	27171.71
724.386	27102.34
724.729	27149.57
725.071	27151.83
725.413	27070.93
725.755	27152.96
726.097	27031.83
726.439	26780.99
726.782	26874.77
727.124	26963.36
727.465	26719.3
727.807	26670.03
728.149	26708.45
728.491	26722.01
728.833	26606.76
729.175	26688.56
729.516	26422.58
729.858	26571.96
730.199	26456.71
730.541	26491.05
730.882	26462.36
731.224	26543.26
731.565	26348.91
731.906	26258.74
732.248	26434.11
732.589	26213.77
732.93	26047.22
733.271	26141.23
733.612	26059.88
733.953	26239.76
734.294	25991.63
734.635	25966.77
734.976	26072.53
735.317	25862.6
735.658	25913.67
735.999	25842.26
736.339	25683.62
736.68	25920.9
737.021	25837.06
737.361	25584.64
737.702	25851.75
738.042	25639.1
738.383	25651.3
738.723	25596.16
739.063	25435.72
739.404	25555.49
739.744	25450.18
740.084	25395.26
740.424	25482.49
740.764	25347.81
741.104	25398.65
741.444	25337.86
741.784	25276.4
742.124	25235.72
742.464	25224.42
742.804	25096.74
743.143	25062.84
743.483	25116.18
743.823	24998.44
744.162	24895.84
744.502	25022.17
744.841	24884.09
745.181	25031.88
745.52	24794.6
745.86	24894.71
746.199	24732.46
746.538	24697.88
746.877	24825.79
747.216	24747.6
747.556	24681.84
747.895	24797.99
748.234	24524.55
748.573	24511.45
748.911	24467.83
749.25	24463.31
749.589	24313.94
749.928	24392.35
750.267	24386.7
750.605	24268.74
750.944	24260.15
751.283	24185.13
751.621	24301.73
751.96	24110.33
752.298	24201.17
752.636	24114.39
752.975	23922.99
753.313	23798.24
753.651	23932.48
753.989	23851.35
754.327	23712.37
754.666	23584.92
755.004	23664.46
755.342	23700.17
755.679	23670.79
756.017	23513.73
756.355	23578.59
756.693	23573.62
757.031	23476.22
