Data from hue_36_FLMS001491_00080.txt Node
Date: Tue Feb 07 17:30:17 GMT 2017
User: dcchb
Spectrometer: FLMS00149
Trigger mode: 0
Integration Time (sec): 2.000000E-2
Scans to average: 10
Electric dark correction enabled: true
Nonlinearity correction enabled: false
Boxcar width: 0
XAxis mode: Wavelengths
Number of Pixels in Spectrum: 2048
>>>>>Begin Spectral Data<<<<<
341.393	-36
341.776	-36
342.16	-36
342.543	-72.16
342.927	-48.2
343.31	-83.91
343.693	-69
344.077	-61.76
344.46	-64.25
344.843	-61.54
345.226	-34.87
345.61	-37.36
345.993	-14.99
346.376	-23.8
346.759	4.68
347.142	34.5
347.525	50.78
347.908	66.59
348.291	68.85
348.674	103.88
349.057	122.19
349.44	122.86
349.823	130.1
350.206	159.25
350.588	201.51
350.971	227.72
351.354	226.59
351.737	238.57
352.119	253.48
352.502	266.14
352.884	306.59
353.267	285.8
353.65	319.69
354.032	299.81
354.414	308.62
354.797	321.95
355.179	321.73
355.562	319.24
355.944	345.23
356.326	320.82
356.709	323.54
357.091	339.13
357.473	350.65
357.855	353.14
358.238	347.04
358.62	342.52
359.002	342.07
359.384	343.88
359.766	355.63
360.148	341.16
360.53	366.02
360.912	357.21
361.294	352.24
361.676	349.52
362.057	354.04
362.439	338.9
362.821	339.58
363.203	345.23
363.584	339.58
363.966	332.35
364.348	345.91
364.729	315.85
365.111	335.51
365.493	334.61
365.874	342.97
366.256	331.9
366.637	321.5
367.019	321.28
367.4	329.19
367.781	336.64
368.163	317.21
368.544	341.62
368.925	332.58
369.306	322.41
369.688	331.9
370.069	312.92
370.45	318.57
370.831	327.38
371.212	333.03
371.593	333.71
371.974	322.86
372.355	312.24
372.736	319.69
373.117	323.76
373.498	310.88
373.879	334.38
374.26	328.96
374.641	337.55
375.021	307.72
375.402	319.92
375.783	327.6
376.163	311.11
376.544	342.52
376.925	336.42
377.305	320.37
377.686	335.06
378.066	334.16
378.447	336.42
378.827	344.1
379.208	344.33
379.588	335.06
379.968	352.24
380.349	337.1
380.729	348.39
381.109	341.62
381.489	345.23
381.87	331.67
382.25	337.77
382.63	345.46
383.01	347.94
383.39	344.33
383.77	337.1
384.15	351.56
384.53	358.56
384.91	366.02
385.29	361.73
385.67	344.1
386.049	364.89
386.429	344.78
386.809	367.6
387.189	346.13
387.568	369.41
387.948	346.13
388.328	346.13
388.707	362.41
389.087	348.62
389.466	354.95
389.846	361.05
390.225	363.31
390.605	382.07
390.984	359.92
391.363	361.5
391.743	379.35
392.122	385.23
392.501	366.47
392.881	382.52
393.26	381.84
393.639	387.49
394.018	385.46
394.397	375.29
394.776	365.34
395.155	374.61
395.534	394.72
395.913	388.39
396.292	402.4
396.671	361.95
397.05	401.05
397.429	392.91
397.808	383.42
398.186	395.85
398.565	392.01
398.944	399.47
399.323	385.23
399.701	416.19
400.08	381.84
400.458	416.64
400.837	406.7
401.215	412.57
401.594	400.14
401.972	417.32
402.351	410.99
402.729	406.02
403.107	407.15
403.486	423.42
403.864	412.57
404.242	411.22
404.62	410.54
404.999	405.12
405.377	432.46
405.755	427.94
406.133	421.84
406.511	429.52
406.889	422.07
407.267	439.47
407.645	446.7
408.023	431.33
408.401	430.65
408.779	435.85
409.156	446.02
409.534	438.79
409.912	448.96
410.29	452.12
410.667	453.02
411.045	428.39
411.422	443.53
411.8	469.75
412.178	462.52
412.555	487.15
412.933	455.74
413.31	474.72
413.687	459.13
414.065	476.53
414.442	478.11
414.819	486.92
415.197	507.94
415.574	499.8
415.951	488.96
416.328	510.42
416.705	491.44
417.082	515.17
417.46	501.84
417.837	498.45
418.214	487.15
418.591	506.81
418.967	519.01
419.344	519.01
419.721	527.83
420.098	529.18
420.475	504.1
420.852	526.24
421.228	531.89
421.605	530.99
421.982	527.83
422.358	545.45
422.735	540.25
423.111	565.56
423.488	549.75
423.864	542.74
424.241	542.97
424.617	553.36
424.994	554.27
425.37	572.57
425.746	546.36
426.123	573.25
426.499	571.67
426.875	568.05
427.251	580.03
427.627	576.86
428.003	601.72
428.379	600.82
428.756	583.42
429.132	598.56
429.507	594.72
429.883	600.82
430.259	615.73
430.635	634.04
431.011	615.28
431.387	617.54
431.763	651.89
432.138	644.66
432.514	648.95
432.89	646.69
433.265	647.37
433.641	663.64
434.016	663.19
434.392	665.67
434.767	676.52
435.143	682.85
435.518	677.88
435.894	684.43
436.269	712.45
436.644	700.48
437.02	711.1
437.395	714.94
437.77	710.19
438.145	726.46
438.52	723.07
438.895	753.36
439.271	718.1
439.646	742.96
440.021	719.23
440.395	750.19
440.77	729.63
441.145	748.61
441.52	763.3
441.895	775.28
442.27	780.25
442.645	763.07
443.019	770.76
443.394	772.11
443.769	774.15
444.143	792.9
444.518	796.07
444.892	780.47
445.267	784.99
445.641	797.87
446.016	810.53
446.39	808.04
446.764	814.37
447.139	815.05
447.513	810.53
447.887	814.37
448.262	835.39
448.636	837.87
449.01	859.79
449.384	826.57
449.758	845.1
450.132	851.43
450.506	838.33
450.88	888.27
451.254	842.39
451.628	864.54
452.002	871.54
452.376	873.13
452.75	906.12
453.123	925.1
453.497	904.54
453.871	913.35
454.244	914.03
454.618	915.16
454.992	947.48
455.365	936.4
455.739	972.33
456.112	979.34
456.486	975.27
456.859	981.82
457.232	994.03
457.606	1000.81
457.979	1020.02
458.352	1037.87
458.725	1017.76
459.099	1038.77
459.472	1051.65
459.845	1076.96
460.218	1068.83
460.591	1084.65
460.964	1090.52
461.337	1112.44
461.71	1110.63
462.083	1136.62
462.456	1138.2
462.829	1143.63
463.201	1168.49
463.574	1154.02
463.947	1196.96
464.32	1210.07
464.692	1207.58
465.065	1231.08
465.438	1239.44
465.81	1259.78
466.183	1277.86
466.555	1323.28
466.928	1290.52
467.3	1300.46
467.672	1322.61
468.045	1366.22
468.417	1365.09
468.789	1381.59
469.161	1397.41
469.534	1416.62
469.906	1475.82
470.278	1481.92
470.65	1492.32
471.022	1514.92
471.394	1549.95
471.766	1591.75
472.138	1600.34
472.51	1617.51
472.882	1628.59
473.253	1681.02
473.625	1707
473.997	1764.18
474.369	1786.78
474.74	1778.19
475.112	1838.98
475.484	1884.17
475.855	1911.52
476.227	1979.31
476.598	2013.44
476.97	2018.63
477.341	2073.1
477.713	2127.78
478.084	2163.71
478.455	2206.43
478.827	2238.29
479.198	2325.97
479.569	2348.57
479.94	2437.38
480.311	2481.67
480.682	2580.43
481.053	2658.62
481.424	2711.95
481.795	2712.63
482.166	2827.43
482.537	2906.97
482.908	2984.03
483.279	3044.6
483.65	3127.76
484.021	3193.97
484.391	3211.82
484.762	3310.12
485.133	3374.76
485.503	3445.94
485.874	3569.1
486.244	3655.43
486.615	3774.75
486.985	3834.63
487.356	3906.27
487.726	3999.15
488.097	4121.63
488.467	4183.55
488.837	4274.62
489.207	4336.76
489.578	4521.17
489.948	4589.87
490.318	4688.39
490.688	4692.91
491.058	4840.71
491.428	4937.43
491.798	5067.59
492.168	5185.1
492.538	5286.12
492.908	5401.14
493.278	5480.01
493.648	5517.52
494.017	5620.12
494.387	5703.28
494.757	5830.06
495.126	5944.86
495.496	5974.46
495.866	6045.65
496.235	6200.9
496.605	6307.79
496.974	6327.67
497.344	6472.08
497.713	6595.46
498.082	6615.12
498.452	6682.69
498.821	6805.63
499.19	6853.08
499.559	6982.34
499.928	7043.36
500.298	7133.3
500.667	7223.92
501.036	7264.37
501.405	7392.5
501.774	7383.24
502.143	7568.77
502.512	7591.59
502.88	7737.35
503.249	7740.97
503.618	7891.7
503.987	7960.85
504.356	8046.95
504.724	8120.17
505.093	8143.9
505.462	8190.45
505.83	8321.74
506.199	8284.01
506.567	8428.63
506.936	8546.6
507.304	8598.8
507.672	8640.15
508.041	8721.96
508.409	8836.31
508.777	8848.74
509.145	8951.56
509.514	8926.02
509.882	9081.5
510.25	9078.79
510.618	9136.19
510.986	9213.92
511.354	9305
511.722	9408.95
512.09	9443.52
512.458	9473.13
512.826	9593.58
513.193	9679.22
513.561	9733.68
513.929	9755.61
514.297	9908.37
514.664	9913.34
515.032	9989.95
515.4	10072.66
515.767	10167.8
516.135	10209.38
516.502	10097.52
516.869	10361.01
517.237	10387.45
517.604	10361.46
517.972	10547
518.339	10539.54
518.706	10616.15
519.073	10611.63
519.44	10678.74
519.808	10839.64
520.175	10778.86
520.542	10910.83
520.909	11029.92
521.276	11002.35
521.643	11147.88
522.009	11183.59
522.376	11213.19
522.743	11300.2
523.11	11395.56
523.477	11450.25
523.843	11576.12
524.21	11659.06
524.577	11731.15
524.943	11754.42
525.31	11892.5
525.676	11903.8
526.043	12118.71
526.409	12092.94
526.776	12202.32
527.142	12260.4
527.508	12362.99
527.874	12457.23
528.241	12456.1
528.607	12513.27
528.973	12692.93
529.339	12712.59
529.705	12835.52
530.071	12900.83
530.437	12924.56
530.803	13047.72
531.169	13040.94
531.535	13080.94
531.901	13099.47
532.267	13200.49
532.632	13350.31
532.998	13268.51
533.364	13455.17
533.73	13390.31
534.095	13495.17
534.461	13574.49
534.826	13638.67
535.192	13648.16
535.557	13775.61
535.923	13828.27
536.288	13913.24
536.653	14008.83
537.019	13901.26
537.384	13984.42
537.749	14085.43
538.114	14173.57
538.479	14131.08
538.845	14267.35
539.21	14230.52
539.575	14337.63
539.94	14398.42
540.305	14489.94
540.67	14485.88
541.034	14586.21
541.399	14632.54
541.764	14664.63
542.129	14747.34
542.494	14717.28
542.858	14815.13
543.223	14865.3
543.587	14944.17
543.952	15017.61
544.316	15092.64
544.681	15035.01
545.045	15203.37
545.41	15206.08
545.774	15247.66
546.138	15222.81
546.503	15349.81
546.867	15338.51
547.231	15461.67
547.595	15561.1
547.959	15595.45
548.324	15649.69
548.688	15630.25
549.052	15694.66
549.416	15809.91
549.779	15837.03
550.143	15869.12
550.507	16030.02
550.871	15981.43
551.235	15956.12
551.599	16138.26
551.962	16166.28
552.326	16186.17
552.689	16325.83
553.053	16235.43
553.417	16258.48
553.78	16533.51
554.143	16446.95
554.507	16537.35
554.87	16531.47
555.234	16754.97
555.597	16640.17
555.96	16802.43
556.323	16884.91
556.686	16912.03
557.05	16993.15
557.413	17010.78
557.776	17079.48
558.139	17162.42
558.502	17175.07
558.865	17272.47
559.228	17326.71
559.59	17342.98
559.953	17439.92
560.316	17600.82
560.679	17633.82
561.041	17721.5
561.404	17712.91
561.767	17863.19
562.129	17820.03
562.492	17939.34
562.854	18023.18
563.217	18016.4
563.579	18022.28
563.941	18199
564.304	18317.87
564.666	18399.67
565.028	18462.27
565.39	18410.52
565.753	18566.9
566.115	18641.02
566.477	18724.18
566.839	18869.49
567.201	18819.55
567.563	18871.07
567.925	19040.56
568.287	19008.92
568.648	19041.01
569.01	19180.44
569.372	19325.52
569.734	19290.95
570.095	19292.08
570.457	19561.9
570.819	19539.3
571.18	19454.11
571.542	19717.6
571.903	19650.94
572.265	19880.54
572.626	19972.74
572.987	19963.02
573.349	20051.83
573.71	20194.2
574.071	20335.89
574.432	20382.67
574.794	20561.87
575.155	20555.77
575.516	20544.02
575.877	20823.56
576.238	20843.68
576.599	20999.15
576.96	20987.17
577.32	21153.05
577.681	21297.45
578.042	21355.75
578.403	21562.75
578.763	21615.86
579.124	21816.98
579.485	22061.5
579.845	22041.84
580.206	22180.36
580.566	22433.92
580.927	22499.9
581.287	22726.56
581.648	22613.12
582.008	22863.51
582.368	23090.85
582.728	23148.93
583.089	23403.83
583.449	23566.77
583.809	23718.63
584.169	23831.17
584.529	23930.15
584.889	24363.58
585.249	24397.71
585.609	24673.18
585.969	24931.03
586.329	25110
586.688	25247.85
587.048	25563.33
587.408	25575.53
587.768	25872.47
588.127	25989.75
588.487	26214.83
588.846	26603.3
589.206	26628.16
589.565	26898.88
589.925	27189.04
590.284	27295.48
590.643	27591.29
591.003	27857.5
591.362	28055.69
591.721	28200.09
592.08	28498.39
592.44	28810.92
592.799	29050.46
593.158	29240.97
593.517	29548.08
593.876	29825.36
594.235	29874.4
594.593	30013.83
594.952	30511.67
595.311	30523.42
595.67	30886.8
596.029	31178.54
596.387	31436.16
596.746	31612.21
597.104	31552.32
597.463	31853.33
597.822	32242.7
598.18	32254.22
598.538	32491.28
598.897	32817.15
599.255	32873.64
599.613	33445.38
599.972	33364.48
600.33	33577.8
600.688	33722.66
601.046	34027.06
601.404	34276.99
601.762	34381.62
602.12	34802.86
602.478	34843.53
602.836	35032
603.194	35012.34
603.552	35234.03
603.91	35321.71
604.268	35671.99
604.625	35646
604.983	36043.28
605.341	35956.95
605.698	36267
606.056	36472.64
606.413	36554.67
606.771	36827.89
607.128	36926.64
607.485	36830.6
607.843	37059.75
608.2	37451.15
608.557	37637.13
608.914	37672.16
609.272	37894.07
609.629	38095.2
609.986	38327.74
610.343	38151.02
610.7	38526.37
611.057	38647.27
611.414	38666.03
611.771	38903.31
612.127	39097.43
612.484	39188.73
612.841	39448.61
613.198	39286.35
613.554	39401.83
613.911	39786.91
614.267	39867.58
614.624	39834.81
614.98	39915.94
615.337	40291.98
615.693	40267.35
616.05	40367
616.406	40636.83
616.762	40567
617.118	40745.07
617.475	40795.47
617.831	40847.89
618.187	41068
618.543	41070.04
618.899	41397.26
619.255	41302.12
619.611	41305.51
619.967	41737.59
620.323	41762.67
620.678	41490.59
621.034	41504.37
621.39	41653.3
621.746	41680.87
622.101	42121.31
622.457	41869.11
622.812	42052.38
623.168	42133.96
623.523	42186.84
623.879	42417.8
624.234	41930.58
624.589	42286.73
624.945	42332.15
625.3	42511.35
625.655	42496.67
626.01	42490.79
626.365	42488.98
626.72	42502.09
627.075	42531.24
627.43	42601.3
627.785	42544.8
628.14	42598.58
628.495	42673.38
628.85	42700.73
629.205	42609.43
629.559	42930.78
629.914	42741.4
630.269	42695.98
630.623	42709.77
630.978	42542.99
631.332	42881.51
631.687	42911.57
632.041	42743.21
632.396	42810.1
632.75	42746.6
633.104	42804.23
633.459	42694.17
633.813	42646.49
634.167	42767.39
634.521	42712.93
634.875	42983.88
635.229	42829.76
635.583	42704.57
635.937	42555.19
636.291	42484.91
636.645	42698.47
636.999	42582.31
637.352	42700.95
637.706	42507.74
638.06	42636.77
638.413	42662.76
638.767	42444.46
639.121	42519.26
639.474	42418.02
639.828	42479.72
640.181	42506.38
640.534	42441.75
640.888	42439.49
641.241	42345.26
641.594	42427.51
641.947	42502.99
642.301	42322.21
642.654	42435.2
643.007	42331.02
643.36	42446.95
643.713	42352.04
644.066	42423.67
644.419	42172.61
644.771	41931.03
645.124	41637.7
645.477	41459.18
645.83	41188.68
646.182	41156.59
646.535	41021.68
646.888	41103.03
647.24	40963.15
647.593	41309.58
647.945	41129.92
648.298	40913.88
648.65	40942.58
649.002	40791.4
649.355	40918.4
649.707	40956.82
650.059	41086.31
650.411	41503.02
650.763	41523.13
651.115	42061.65
651.467	41863.69
651.819	41784.59
652.171	41797.25
652.523	41723.35
652.875	41630.02
653.227	41463.92
653.578	41767.19
653.93	41648.78
654.282	41493.98
654.633	41439.52
654.985	41490.36
655.337	41502.11
655.688	41483.36
656.039	41639.06
656.391	41393.64
656.742	41478.16
657.094	41560.87
657.445	41608.1
657.796	41490.59
658.147	41488.78
658.498	41605.16
658.849	41648.55
659.2	41503.47
659.551	41340.54
659.902	41571.72
660.253	41479.29
660.604	41577.59
660.955	41260.54
661.306	41475.9
661.656	41286.75
662.007	41264.61
662.358	41350.71
662.708	41277.71
663.059	41350.25
663.409	41178.51
663.76	41278.84
664.11	41273.42
664.461	41165.63
664.811	41280.65
665.161	41183.25
665.511	41232.52
665.862	41137.6
666.212	41141.67
666.562	41198.17
666.912	41262.8
667.262	41164.27
667.612	41138.28
667.962	41035.46
668.312	41030.94
668.662	41356.81
669.011	41206.3
669.361	41091.05
669.711	41051.05
670.06	40935.35
670.41	40940.32
670.76	41052.64
671.109	41152.75
671.459	41010.15
671.808	40971.96
672.157	40978.96
672.507	40794.79
672.856	40874.11
673.205	40886.54
673.554	41019.64
673.904	40869.36
674.253	41111.16
674.602	40960.66
674.951	40494.68
675.3	40260.34
675.649	40920.44
675.998	40835.92
676.346	40832.08
676.695	40963.82
677.044	40654.23
677.393	40707.33
677.741	40870.04
678.09	40641.35
678.438	40620.56
678.787	40531.29
679.135	40748.46
679.484	40437.06
679.832	40461.92
680.181	40411.3
680.529	40373.78
680.877	40420.79
681.225	40249.04
681.573	40611.52
681.922	40204.52
682.27	40134.69
682.618	40129.04
682.966	40002.27
683.314	40109.61
683.661	39890.41
684.009	39783.74
684.357	39845.21
684.705	39768.83
685.053	39668.04
685.4	39787.13
685.748	39543.07
686.095	39457.42
686.443	39345.11
686.79	39360.25
687.138	39510.75
687.485	39514.6
687.832	39236.41
688.18	39252.23
688.527	39082.74
688.874	39122.06
689.221	38926.36
689.568	38923.43
689.915	38913.26
690.262	38945.12
690.609	38750.32
690.956	38548.29
691.303	38473.95
691.65	38414.96
691.997	38346.04
692.344	38191.47
692.69	38186.5
693.037	38218.81
693.383	37942.66
693.73	38112.37
694.077	37775.21
694.423	37681.88
694.769	37823.12
695.116	37597.58
695.462	37499.51
695.808	37430.36
696.155	37468.55
696.501	37302.45
696.847	37158.73
697.193	37033.76
697.539	37109.01
697.885	36768.45
698.231	36739.3
698.577	36668.12
698.923	36746.31
699.269	36571.17
699.614	36462.47
699.96	36317.17
700.306	36248.24
700.651	36203.05
700.997	36117.17
701.342	36197.4
701.688	35975.25
702.033	35764.41
702.379	35768.48
702.724	35785.2
703.069	35757.86
703.415	35357.64
703.76	35410.3
704.105	35490.07
704.45	35485.1
704.795	35172.34
705.14	35001.95
705.485	34990.87
705.83	34922.17
706.175	34969.18
706.52	34742.97
706.865	34726.25
707.209	34658.45
707.554	34587.27
707.899	34620.71
708.243	34408.97
708.588	34437.67
708.932	34246.49
709.277	34177.56
709.621	34065.25
709.966	33979.15
710.31	34043.55
710.654	33724.92
710.998	33834.97
711.342	33854.63
711.687	33733.96
712.031	33638.82
712.375	33522.44
712.719	33395.66
713.063	33531.93
713.407	33471.82
713.75	33358.83
714.094	33338.04
714.438	33133.75
714.782	33089.91
715.125	33047.87
715.469	33172.62
715.812	32935.56
716.156	32823.47
716.499	32733.98
716.843	32780.99
717.186	32573.54
717.53	32793.42
717.873	32684.49
718.216	32599.3
718.559	32512.97
718.902	32246.77
719.246	32400.43
719.589	32197.5
719.932	32287.44
720.275	32155.69
720.617	32087.9
720.96	32086.32
721.303	32058.52
721.646	32033.89
721.989	31903.72
722.331	32034.34
722.674	31816.49
723.016	31783.05
723.359	31735.82
723.701	31822.14
724.044	31578.08
724.386	31521.81
724.729	31649.27
725.071	31512.1
725.413	31489.5
725.755	31464.41
726.097	31256.28
726.439	31155.04
726.782	31103.74
727.124	31402.95
727.465	31151.65
727.807	31111.2
728.149	31069.17
728.491	30951.43
728.833	31029.17
729.175	30856.29
729.516	30800.93
729.858	30710.76
730.199	30857.42
730.541	30736.3
730.882	30663.3
731.224	30822.85
731.565	30574.72
731.906	30514.16
732.248	30578.33
732.589	30429.41
732.93	30224.9
733.271	30368.4
733.612	30332.24
733.953	30442.52
734.294	30324.1
734.635	30188.29
734.976	30209.08
735.317	30069.87
735.658	29999.37
735.999	30050.66
736.339	29968.63
736.68	30044.34
737.021	29871.23
737.361	29638.25
737.702	29906.26
738.042	29837.79
738.383	29741.52
738.723	29809.99
739.063	29621.52
739.404	29591.02
739.744	29593.73
740.084	29395.09
740.424	29498.36
740.764	29484.58
741.104	29510.57
741.444	29321.42
741.784	29319.84
742.124	29285.26
742.464	29287.52
742.804	29234.19
743.143	29121.88
743.483	29165.94
743.823	28871.49
744.162	29007.75
744.502	29024.7
744.841	28902.22
745.181	29065.61
745.52	28877.81
745.86	28892.05
746.199	28821.32
746.538	28753.3
746.877	28822.67
747.216	28738.83
747.556	28616.58
747.895	28740.87
748.234	28482.57
748.573	28584.71
748.911	28432.4
749.25	28429.24
749.589	28327.55
749.928	28355.34
750.267	28368.67
750.605	28294.55
750.944	28200.32
751.283	28203.26
751.621	28170.26
751.96	28099.76
752.298	28043.49
752.636	28071.96
752.975	27931.85
753.313	27810.05
753.651	27856.15
753.989	27678.98
754.327	27564.18
754.666	27520.34
755.004	27740.44
755.342	27655.25
755.679	27516.04
756.017	27373.45
756.355	27374.8
756.693	27199.21
757.031	27292.77
757.368	27137.97
