Data from hue_10_FLMS001491_67.txt Node
Date: Mon Feb 06 15:32:20 GMT 2017
User: dcchb
Spectrometer: FLMS00149
Trigger mode: 0
Integration Time (sec): 2.000000E-2
Scans to average: 10
Electric dark correction enabled: true
Nonlinearity correction enabled: false
Boxcar width: 0
XAxis mode: Wavelengths
Number of Pixels in Spectrum: 2048
>>>>>Begin Spectral Data<<<<<
341.393	-15.95
341.776	-15.95
342.16	-15.95
342.543	-58.2
342.927	-59.79
343.31	-69.73
343.693	-80.8
344.077	-73.12
344.46	-68.6
344.843	-52.78
345.226	-47.81
345.61	-32.67
345.993	-21.14
346.376	-13.23
346.759	12.08
347.142	10.27
347.525	55.24
347.908	74.22
348.291	106.54
348.674	85.97
349.057	115.58
349.44	115.35
349.823	149.25
350.206	131.85
350.588	177.5
350.971	207.55
351.354	233.09
351.737	229.47
352.119	250.71
352.502	250.49
352.884	255.91
353.267	285.97
353.65	284.61
354.032	291.16
354.414	314.89
354.797	333.65
355.179	300.43
355.562	305.63
355.944	334.1
356.326	341.33
356.709	328
357.091	343.82
357.473	357.15
357.855	324.61
358.238	330.71
358.62	313.54
359.002	342.24
359.384	332.97
359.766	340.2
360.148	316.7
360.53	344.95
360.912	328.23
361.294	344.95
361.676	322.12
362.057	324.61
362.439	312.63
362.821	335.68
363.203	330.94
363.584	330.94
363.966	330.03
364.348	313.54
364.729	325.06
365.111	292.07
365.493	330.03
365.874	317.6
366.256	325.97
366.637	288.68
367.019	314.21
367.4	310.37
367.781	313.54
368.163	294.1
368.544	311.05
368.925	312.86
369.306	307.44
369.688	311.96
370.069	304.27
370.45	306.31
370.831	297.49
371.212	310.83
371.593	314.44
371.974	299.75
372.355	306.98
372.736	312.41
373.117	299.53
373.498	305.85
373.879	323.25
374.26	290.26
374.641	305.4
375.021	306.08
375.402	320.54
375.783	318.28
376.163	313.99
376.544	302.92
376.925	317.83
377.305	311.96
377.686	306.53
378.066	318.51
378.447	338.4
378.827	309.24
379.208	313.08
379.588	323.71
379.968	334.33
380.349	326.64
380.729	342.24
381.109	345.4
381.489	313.31
381.87	343.59
382.25	332.07
382.63	317.38
383.01	330.26
383.39	332.97
383.77	337.94
384.15	345.85
384.53	338.62
384.91	327.55
385.29	329.36
385.67	339.52
386.049	335.23
386.429	356.25
386.809	357.15
387.189	348.79
387.568	332.97
387.948	327.77
388.328	328.68
388.707	339.75
389.087	333.42
389.466	351.73
389.846	339.52
390.225	342.01
390.605	363.48
390.984	356.02
391.363	369.35
391.743	347.43
392.122	348.56
392.501	355.34
392.881	332.29
393.26	360.09
393.639	371.61
394.018	375.46
394.397	365.96
394.776	354.89
395.155	362.8
395.534	351.95
395.913	340.88
396.292	344.27
396.671	363.93
397.05	365.96
397.429	366.64
397.808	367.77
398.186	368.45
398.565	375
398.944	365.96
399.323	389.24
399.701	370.71
400.08	381.11
400.458	387.89
400.837	369.13
401.215	368.9
401.594	388.79
401.972	409.35
402.351	367.55
402.729	384.04
403.107	378.62
403.486	389.47
403.864	379.07
404.242	397.6
404.62	383.59
404.999	383.37
405.377	409.13
405.755	397.83
406.133	409.13
406.511	412.29
406.889	397.38
407.267	425.62
407.645	417.04
408.023	394.21
408.401	376.59
408.779	420.2
409.156	394.21
409.534	431.05
409.912	415.68
410.29	420.65
410.667	423.82
411.045	428.56
411.422	422.01
411.8	430.82
412.178	431.05
412.555	430.6
412.933	425.17
413.31	431.27
413.687	445.28
414.065	446.64
414.442	447.77
414.819	454.55
415.197	460.43
415.574	460.65
415.951	441.67
416.328	432.86
416.705	442.57
417.082	462.69
417.46	457.26
417.837	476.47
418.214	478.96
418.591	453.87
418.967	456.81
419.344	453.87
419.721	471.27
420.098	460.65
420.475	468.34
420.852	473.08
421.228	481.44
421.605	481.44
421.982	485.51
422.358	490.03
422.735	496.81
423.111	504.04
423.488	519.41
423.864	489.58
424.241	514.89
424.617	501.55
424.994	490.71
425.37	513.08
425.746	505.17
426.123	514.21
426.499	530.93
426.875	537.94
427.251	523.47
427.627	535.68
428.003	523.02
428.379	552.4
428.756	515.11
429.132	539.07
429.507	538.16
429.883	546.75
430.259	552.4
430.635	549.46
431.011	549.01
431.387	559.86
431.763	582.46
432.138	567.09
432.514	567.09
432.89	581.33
433.265	586.75
433.641	572.97
434.016	583.36
434.392	581.55
434.767	605.28
435.143	609.8
435.518	608.9
435.894	607.99
436.269	614.09
436.644	629.91
437.02	632.85
437.395	622.46
437.77	631.49
438.145	625.85
438.52	667.65
438.895	638.5
439.271	638.95
439.646	639.63
440.021	660.19
440.395	669.23
440.77	642.57
441.145	664.04
441.52	666.3
441.895	653.87
442.27	657.26
442.645	685.28
443.019	674.88
443.394	680.76
443.769	705.62
444.143	687.76
444.518	680.76
444.892	705.62
445.267	717.59
445.641	713.75
446.016	696.13
446.39	724.6
446.764	726.63
447.139	701.55
447.513	720.31
447.887	734.77
448.262	768.67
448.636	733.41
449.01	715.56
449.384	725.5
449.758	734.09
450.132	728.89
450.506	756.92
450.88	742.9
451.254	760.76
451.628	757.37
452.002	764.15
452.376	771.6
452.75	777.71
453.123	800.76
453.497	800.3
453.871	809.34
454.244	828.33
454.618	823.58
454.992	805.95
455.365	848.66
455.739	860.64
456.112	855.44
456.486	857.48
456.859	856.8
457.232	846.18
457.606	843.47
457.979	880.98
458.352	903.13
458.725	890.02
459.099	867.87
459.472	910.81
459.845	925.95
460.218	914.65
460.591	925.95
460.964	922.33
461.337	934.09
461.71	965.5
462.083	932.73
462.456	958.49
462.829	946.97
463.201	975.44
463.574	983.35
463.947	968.43
464.32	1000.75
464.692	1036
465.065	1021.54
465.438	1049.56
465.81	1075.1
466.183	1070.35
466.555	1074.65
466.928	1100.41
467.3	1090.01
467.672	1086.4
468.045	1120.97
468.417	1126.4
468.789	1156.23
469.161	1167.75
469.534	1158.26
469.906	1188.32
470.278	1179.95
470.65	1201.65
471.022	1251.37
471.394	1255.21
471.766	1271.25
472.138	1290.91
472.51	1306.05
472.882	1325.26
473.253	1333.4
473.625	1353.51
473.997	1401.64
474.369	1392.83
474.74	1420.63
475.112	1439.38
475.484	1433.28
475.855	1491.81
476.227	1508.31
476.598	1521.87
476.97	1548.08
477.341	1577.91
477.713	1588.31
478.084	1634.18
478.455	1644.58
478.827	1661.75
479.198	1705.82
479.569	1722.54
479.94	1765.7
480.311	1792.14
480.682	1816.1
481.053	1907.85
481.424	1902.2
481.795	1922.99
482.166	1957.34
482.537	1987.39
482.908	2015.87
483.279	2030.33
483.65	2099.03
484.021	2127.95
484.391	2156.88
484.762	2164.34
485.133	2218.35
485.503	2298.12
485.874	2316.65
486.244	2322.75
486.615	2383.31
486.985	2426.7
487.356	2440.71
487.726	2470.54
488.097	2524.1
488.467	2533.14
488.837	2606.81
489.207	2646.36
489.578	2673.47
489.948	2714.6
490.318	2762.96
490.688	2776.52
491.058	2805.9
491.428	2839.8
491.798	2892
492.168	2948.04
492.538	2964.31
492.908	2997.53
493.278	3051.09
493.648	3081.6
494.017	3089.06
494.387	3144.2
494.757	3168.83
495.126	3173.35
495.496	3224.65
495.866	3229.62
496.235	3293.12
496.605	3290.86
496.974	3334.25
497.344	3351.88
497.713	3380.8
498.082	3385.77
498.452	3484.53
498.821	3469.61
499.19	3489.5
499.559	3529.27
499.928	3555.26
500.298	3563.85
500.667	3601.81
501.036	3608.14
501.405	3646.33
501.774	3675.48
502.143	3659.66
502.512	3700.11
502.88	3716.84
503.249	3751.86
503.618	3804.07
503.987	3774.91
504.356	3769.27
504.724	3820.56
505.093	3859.88
505.462	3890.39
505.83	3889.04
506.199	3896.72
506.567	3923.16
506.936	3957.06
507.304	3992.76
507.672	3946.44
508.041	4011.29
508.409	4009.94
508.777	4057.85
509.145	4071.18
509.514	4096.71
509.882	4135.81
510.25	4122.7
510.618	4153.44
510.986	4169.48
511.354	4194.56
511.722	4186.43
512.09	4253.55
512.458	4214.68
512.826	4236.82
513.193	4261.91
513.561	4251.06
513.929	4330.38
514.297	4340.32
514.664	4385.97
515.032	4398.63
515.4	4399.98
515.767	4445.18
516.135	4444.5
516.502	4411.51
516.869	4482.69
517.237	4478.17
517.604	4482.47
517.972	4508.45
518.339	4517.72
518.706	4538.28
519.073	4562.69
519.44	4572.41
519.808	4613.08
520.175	4571.05
520.542	4619.19
520.909	4644.04
521.276	4665.29
521.643	4688.79
522.009	4691.73
522.376	4733.99
522.743	4706.87
523.11	4764.95
523.477	4823.25
523.843	4802.46
524.21	4834.77
524.577	4849.69
524.943	4929.91
525.31	4887.2
525.676	4913.19
526.043	4992.28
526.409	4979.4
526.776	5033.19
527.142	5039.29
527.508	5095.78
527.874	5119.06
528.241	5124.48
528.607	5147.99
528.973	5168.32
529.339	5162.9
529.705	5189.79
530.071	5246.51
530.437	5295.55
530.803	5321.31
531.169	5352.95
531.535	5288.1
531.901	5338.72
532.267	5369
532.632	5414.19
532.998	5420.75
533.364	5485.38
533.73	5459.84
534.095	5497.58
534.461	5528.77
534.826	5556.11
535.192	5499.84
535.557	5633.4
535.923	5583
536.288	5632.95
536.653	5662.32
537.019	5677.01
537.384	5668.88
537.749	5681.76
538.114	5755.2
538.479	5722.89
538.845	5812.15
539.21	5768.99
539.575	5838.59
539.94	5853.05
540.305	5875.65
540.67	5908.87
541.034	5900.06
541.399	5920.85
541.764	5969.43
542.129	5979.83
542.494	6029.54
542.858	6021.41
543.223	6031.8
543.587	6098.92
543.952	6057.79
544.316	6116.1
544.681	6078.36
545.045	6144.34
545.41	6207.39
545.774	6225.7
546.138	6226.6
546.503	6289.2
546.867	6313.61
547.231	6310.89
547.595	6345.02
547.959	6352.02
548.324	6365.36
548.688	6355.64
549.052	6448.52
549.416	6448.97
549.779	6472.02
550.143	6464.11
550.507	6544.56
550.871	6507.27
551.235	6513.15
551.599	6568.06
551.962	6651.22
552.326	6612.35
552.689	6651.68
553.053	6631.79
553.417	6653.26
553.78	6752.24
554.143	6698.45
554.507	6787.04
554.87	6700.49
555.234	6775.97
555.597	6780.03
555.96	6804.21
556.323	6860.48
556.686	6893.02
557.05	6888.96
557.413	6881.05
557.776	6917.43
558.139	6992.46
558.502	6959.92
558.865	6991.78
559.228	6999.69
559.59	7043.76
559.953	7018.22
560.316	7085.56
560.679	7126.01
561.041	7147.71
561.404	7111.78
561.767	7191.32
562.129	7123.98
562.492	7246.24
562.854	7249.63
563.217	7219.8
563.579	7279
563.941	7345.44
564.304	7360.58
564.666	7388.15
565.028	7375.27
565.39	7409.62
565.753	7448.72
566.115	7494.37
566.477	7516.29
566.839	7509.05
567.201	7557.19
567.563	7565.1
567.925	7645.55
568.287	7690.07
568.648	7658.43
569.01	7780.23
569.372	7771.87
569.734	7764.41
570.095	7815.49
570.457	7927.12
570.819	7817.97
571.18	7906.11
571.542	7953.79
571.903	7956.27
572.265	8035.59
572.626	8086.67
572.987	8110.39
573.349	8121.02
573.71	8209.83
574.071	8175.25
574.432	8215.7
574.794	8325.3
575.155	8333.21
575.516	8373.89
575.877	8448.46
576.238	8495.47
576.599	8579.31
576.96	8544.73
577.32	8588.57
577.681	8756.03
578.042	8841.67
578.403	8836.93
578.763	8951.73
579.124	8984.27
579.485	9144.94
579.845	9244.83
580.206	9373.86
580.566	9345.16
580.927	9520.53
581.287	9635.78
581.648	9628.32
582.008	9832.16
582.368	9942.44
582.728	10073.05
583.089	10224.46
583.449	10339.94
583.809	10525.92
584.169	10733.15
584.529	10820.61
584.889	11028.28
585.249	11095.63
585.609	11264.21
585.969	11506.01
586.329	11609.74
586.688	11910.52
587.048	12079.33
587.408	12175.15
587.768	12406.1
588.127	12586.66
588.487	12760.22
588.846	13061.68
589.206	13188.9
589.565	13458.28
589.925	13788.66
590.284	13918.38
590.643	14133.29
591.003	14502.54
591.362	14698.47
591.721	14916.09
592.08	15156.76
592.44	15500.26
592.799	15633.59
593.158	15971.43
593.517	16245.1
593.876	16488.93
594.235	16683.05
594.593	17034.91
594.952	17361
595.311	17579.98
595.67	17920.08
596.029	18315.55
596.387	18491.36
596.746	18871.47
597.104	19007.51
597.463	19318.91
597.822	19600.49
598.18	19755.74
598.538	20047.48
598.897	20557.3
599.255	20527.24
599.613	21174.91
599.972	21263.27
600.33	21536.93
600.688	21856.25
601.046	22216.01
601.404	22468.89
601.762	22612.39
602.12	23037.23
602.478	23298.92
602.836	23485.13
603.194	23712.02
603.552	24076.75
603.91	24159.24
604.268	24553.58
604.625	24749.5
604.983	25106.11
605.341	25260.23
605.698	25597.39
606.056	25917.16
606.413	25930.49
606.771	26363.93
607.128	26530.25
607.485	26824.7
607.843	26868.77
608.2	27326.16
608.557	27530.22
608.914	27684.12
609.272	27977.89
609.629	28334.95
609.986	28503.98
610.343	28548.05
610.7	28942.39
611.057	29053.57
611.414	29229.84
611.771	29460.57
612.127	29683.61
612.484	29925.64
612.841	30096.26
613.198	30195.01
613.554	30334.89
613.911	30800.19
614.267	30881.32
614.624	30905.27
614.98	31111.15
615.337	31415.77
615.693	31545.71
616.05	31662.32
616.406	31906.83
616.762	32110.22
617.118	32079.03
617.475	32261.85
617.831	32484.44
618.187	32725.57
618.543	32741.61
618.899	32860.48
619.255	33233.12
619.611	33230.41
619.967	33407.81
620.323	33611.42
620.678	33592.44
621.034	33686.44
621.39	33718.99
621.746	33868.59
622.101	34323.26
622.457	34113.78
622.812	34287.78
623.168	34528
623.523	34460.44
623.879	34654.1
624.234	34470.6
624.589	34763.7
624.945	34917.82
625.3	34916.69
625.655	35014.55
626.01	34998.05
626.365	35178.38
626.72	35052.96
627.075	35309.68
627.43	35293.63
627.785	35367.08
628.14	35425.83
628.495	35530.24
628.85	35457.25
629.205	35513.52
629.559	35753.96
629.914	35582.67
630.269	35694.98
630.623	35777.24
630.978	35629.22
631.332	35896.78
631.687	35911.92
632.041	35912.15
632.396	35866.5
632.75	35798.48
633.104	35942.88
633.459	35774.3
633.813	35886.16
634.167	35924.35
634.521	35954.63
634.875	36088.19
635.229	35890.91
635.583	35801.87
635.937	35934.3
636.291	35936.33
636.645	36034.86
636.999	35954.18
637.352	36065.82
637.706	35971.13
638.06	36282.08
638.413	35954.41
638.767	36047.74
639.121	35972.03
639.474	35783.34
639.828	35889.55
640.181	35762.55
640.534	35866.5
640.888	35829.44
641.241	35762.1
641.594	35918.93
641.947	35976.78
642.301	35933.39
642.654	35994.86
643.007	35992.6
643.36	35853.85
643.713	35770.46
644.066	36213.84
644.419	35815.2
644.771	35511.71
645.124	35201.43
645.477	35155.11
645.83	35043.25
646.182	35143.13
646.535	34789.24
646.888	35029.01
647.24	34710.6
647.593	34974.77
647.945	34913.08
648.298	34639.41
648.65	34689.13
649.002	34596.48
649.355	34589.7
649.707	34749.24
650.059	34687.32
650.411	35220.64
650.763	35307.42
651.115	35653.17
651.467	35543.12
651.819	35573.4
652.171	35462.67
652.523	35416.12
652.875	35467.41
653.227	35363.24
653.578	35614.08
653.93	35378.38
654.282	35385.84
654.633	35374.99
654.985	35254.09
655.337	35434.2
655.688	35379.96
656.039	35495.66
656.391	35142
656.742	35234.43
657.094	35214.77
657.445	35356.68
657.796	35188.1
658.147	35205.73
658.498	35275.78
658.849	35292.5
659.2	35315.33
659.551	35151.27
659.902	35258.83
660.253	35137.93
660.604	35241.21
660.955	35017.71
661.306	35170.02
661.656	35141.1
662.007	35198.04
662.358	35152.85
662.708	35261.77
663.059	35208.89
663.409	34840.54
663.76	35229.46
664.11	35232.17
664.461	35234.65
664.811	35175.67
665.161	35070.14
665.511	35129.57
665.862	35043.47
666.212	35202.11
666.562	35137.93
666.912	35156.24
667.262	35145.39
667.612	34924.38
667.962	35172.06
668.312	34976.58
668.662	35153.98
669.011	35112.17
669.361	34951.95
669.711	35052.51
670.06	34930.48
670.41	34896.13
670.76	34905.17
671.109	35016.35
671.459	34985.85
671.808	34860.65
672.157	34840.09
672.507	34751.95
672.856	34774.78
673.205	34900.88
673.554	34888.67
673.904	34724.84
674.253	34984.49
674.602	34814.1
674.951	34417.72
675.3	34296.15
675.649	34685.97
675.998	34789.24
676.346	34680.54
676.695	34934.77
677.044	34449.81
677.393	34589.47
677.741	34764.61
678.09	34588.12
678.438	34446.42
678.787	34575.69
679.135	34651.39
679.484	34207.11
679.832	34445.07
680.181	34370.27
680.529	34381.34
680.877	34359.87
681.225	34362.59
681.573	34403.26
681.922	34082.59
682.27	33988.58
682.618	34123.04
682.966	34037.85
683.314	34092.31
683.661	33980.9
684.009	33791.3
684.357	33859.1
684.705	33695.71
685.053	33819.32
685.4	33671.98
685.748	33586.33
686.095	33716.27
686.443	33443.06
686.79	33416.85
687.138	33451.87
687.485	33440.35
687.832	33314.25
688.18	33333.91
688.527	33205.1
688.874	33210.3
689.221	33076.29
689.568	32910.42
689.915	32940.7
690.262	32966.69
690.609	32869.97
690.956	32730.09
691.303	32641.05
691.65	32503.65
691.997	32632.69
692.344	32460.94
692.69	32385.91
693.037	32380.04
693.383	32170.78
693.73	32304.56
694.077	32059.82
694.423	32046.94
694.769	31984.12
695.116	31888.3
695.462	31839.49
695.808	31763.56
696.155	31840.62
696.501	31420.06
696.847	31613.96
697.193	31314.76
697.539	31329.44
697.885	31227.3
698.231	30986.4
698.577	31135.78
698.923	31081.77
699.269	30924.94
699.614	30781.21
699.96	30683.59
700.306	30752.28
700.651	30590.25
700.997	30469.58
701.342	30608.79
701.688	30436.36
702.033	30317.72
702.379	30286.53
702.724	30179.19
703.069	30257.61
703.415	29857.62
703.76	30030.5
704.105	29979.2
704.45	29941.23
704.795	29647.68
705.14	29715.93
705.485	29733.1
705.83	29505.31
706.175	29475.48
706.52	29449.04
706.865	29415.14
707.209	29330.4
707.554	29208.14
707.899	29261.02
708.243	29219.67
708.588	29069.62
708.932	28867.14
709.277	28893.8
709.621	28915.72
709.966	28628.72
710.31	28700.59
710.654	28602.06
710.998	28581.72
711.342	28516.19
711.687	28538.33
712.031	28413.59
712.375	28339.47
712.719	28262.86
713.063	28224.89
713.407	28326.81
713.75	28109.87
714.094	28148.96
714.438	27964.56
714.782	28121.62
715.125	27969.31
715.469	27948.97
715.812	27819.71
716.156	27689.31
716.499	27695.19
716.843	27781.29
717.186	27511.69
717.53	27678.02
717.873	27641.86
718.216	27564.8
718.559	27379.49
718.902	27229.89
719.246	27309.89
719.589	27213.62
719.932	27165.71
720.275	27155.54
720.617	26997.81
720.96	27020.18
721.303	27080.97
721.646	27135.88
721.989	26910.58
722.331	26890.92
722.674	26775.89
723.016	27011.37
723.359	26814.08
723.701	26850.47
724.044	26598.72
724.386	26530.25
724.729	26655.44
725.071	26602.56
725.413	26534.54
725.755	26587.42
726.097	26434.66
726.439	26331.16
726.782	26328.22
727.124	26429.01
727.465	26287.09
727.807	26171.61
728.149	26207.32
728.491	26284.38
728.833	26161.44
729.175	25979.53
729.516	25939.76
729.858	25864.73
730.199	25942.47
730.541	25900.21
730.882	25845.07
731.224	25915.58
731.565	25879.87
731.906	25711.74
732.248	25795.13
732.589	25643.27
732.93	25540.22
733.271	25595.81
733.612	25617.5
733.953	25598.75
734.294	25532.53
734.635	25390.62
734.976	25402.37
735.317	25224.29
735.658	25303.84
735.999	25342.03
736.339	25194.92
736.68	25308.13
737.021	25269.49
737.361	25121.7
737.702	25262.03
738.042	25153.34
738.383	25076.05
738.723	25104.52
739.063	25079.44
739.404	25081.7
739.744	24955.83
740.084	24935.94
740.424	24952.66
740.764	24890.52
741.104	24941.59
741.444	24742.05
741.784	24668.15
742.124	24783.4
742.464	24728.04
742.804	24728.71
743.143	24600.81
743.483	24674.25
743.823	24558.78
744.162	24521.94
744.502	24506.57
744.841	24432.22
745.181	24545.22
745.52	24363.53
745.86	24365.79
746.199	24395.39
746.538	24316.3
746.877	24392.68
747.216	24315.17
747.556	24215.51
747.895	24286.01
748.234	24211.89
748.573	24159.92
748.911	24021.39
749.25	24068.39
749.589	24049.41
749.928	23934.61
750.267	23957.21
750.605	23834.73
750.944	23897.55
751.283	23790.43
751.621	23893.26
751.96	23606.03
752.298	23714.96
752.636	23727.84
752.975	23483.78
753.313	23432.03
753.651	23548.41
753.989	23566.03
754.327	23478.35
754.666	23405.59
755.004	23349.32
755.342	23460.95
755.679	23359.03
756.017	23148.64
756.355	23310.67
756.693	23173.27
757.031	23141.19
757.368	23011.25
757.706	23041.53
758.044	22881.98
758.381	22975.09
758.719	22811.48
759.056	22900.74
759.394	22836.79
759.731	22678.15
760.068	22676.79
760.405	22528.77
760.743	22457.59
761.08	22600.41
