Data from hue_80_FLMS001491_83.txt Node
Date: Mon Feb 06 15:23:53 GMT 2017
User: dcchb
Spectrometer: FLMS00149
Trigger mode: 0
Integration Time (sec): 2.000000E-2
Scans to average: 10
Electric dark correction enabled: true
Nonlinearity correction enabled: false
Boxcar width: 0
XAxis mode: Wavelengths
Number of Pixels in Spectrum: 2048
>>>>>Begin Spectral Data<<<<<
341.393	-2.84
341.776	-2.84
342.16	-2.84
342.543	-50.97
342.927	-54.36
343.31	-68.6
343.693	-87.81
344.077	-70.63
344.46	-75.38
344.843	-52.56
345.226	-53.01
345.61	-19.34
345.993	1.45
346.376	-11.43
346.759	21.34
347.142	21.34
347.525	40.55
347.908	63.83
348.291	83.71
348.674	92.98
349.057	113.54
349.44	139.98
349.823	129.36
350.206	157.16
350.588	178.63
350.971	192.41
351.354	212.52
351.737	211.84
352.119	259.75
352.502	247.32
352.884	266.31
353.267	256.82
353.65	284.84
354.032	292.52
354.414	317.15
354.797	301.11
355.179	332.29
355.562	334.55
355.944	316.93
356.326	332.75
356.709	322.35
357.091	333.65
357.473	330.03
357.855	331.62
358.238	328.45
358.62	335.23
359.002	343.37
359.384	346.53
359.766	350.15
360.148	334.78
360.53	340.43
360.912	344.95
361.294	332.97
361.676	331.16
362.057	311.96
362.439	316.47
362.821	342.01
363.203	312.86
363.584	316.47
363.966	300.88
364.348	329.58
364.729	309.24
365.111	319.64
365.493	315.12
365.874	314.21
366.256	312.63
366.637	299.07
367.019	299.53
367.4	324.61
367.781	301.11
368.163	312.86
368.544	320.09
368.925	297.72
369.306	305.85
369.688	314.67
370.069	301.79
370.45	272.63
370.831	328.45
371.212	313.31
371.593	300.66
371.974	310.15
372.355	294.78
372.736	313.76
373.117	301.56
373.498	317.15
373.879	316.93
374.26	309.7
374.641	296.36
375.021	330.71
375.402	293.65
375.783	319.86
376.163	322.58
376.544	299.98
376.925	321.45
377.305	315.8
377.686	309.92
378.066	325.51
378.447	317.38
378.827	314.89
379.208	335.23
379.588	329.81
379.968	321.9
380.349	321.22
380.729	322.8
381.109	353.08
381.489	330.03
381.87	289.58
382.25	333.2
382.63	325.51
383.01	337.27
383.39	336.59
383.77	315.34
384.15	311.96
384.53	339.98
384.91	333.2
385.29	332.97
385.67	303.37
386.049	320.09
386.429	330.03
386.809	365.51
387.189	342.69
387.568	365.06
387.948	345.63
388.328	341.11
388.707	336.81
389.087	316.7
389.466	356.7
389.846	357.38
390.225	339.3
390.605	324.61
390.984	344.5
391.363	349.24
391.743	344.72
392.122	355.57
392.501	351.28
392.881	351.95
393.26	386.3
393.639	361.45
394.018	360.77
394.397	362.58
394.776	375.91
395.155	367.77
395.534	371.16
395.913	368.22
396.292	382.91
396.671	352.86
397.05	367.32
397.429	358.06
397.808	388.11
398.186	371.84
398.565	377.04
398.944	363.93
399.323	362.8
399.701	383.37
400.08	361.9
400.458	375.46
400.837	365.51
401.215	375.23
401.594	400.99
401.972	375.91
402.351	389.92
402.729	375.91
403.107	396.02
403.486	398.05
403.864	372.52
404.242	387.89
404.62	382.69
404.999	381.78
405.377	396.92
405.755	397.83
406.133	405.51
406.511	404.16
406.889	390.6
407.267	384.5
407.645	401.9
408.023	410.48
408.401	436.02
408.779	411.39
409.156	416.13
409.534	438.73
409.912	419.75
410.29	440.31
410.667	416.13
411.045	426.53
411.422	451.39
411.8	429.01
412.178	437.38
412.555	457.49
412.933	451.16
413.31	443.25
413.687	458.39
414.065	453.19
414.442	440.54
414.819	469.24
415.197	465.62
415.574	473.98
415.951	468.34
416.328	479.18
416.705	458.84
417.082	477.83
417.46	478.96
417.837	484.15
418.214	474.44
418.591	489.35
418.967	488.67
419.344	495.91
419.721	497.03
420.098	475.79
420.475	490.93
420.852	488.45
421.228	496.81
421.605	510.37
421.982	502.68
422.358	503.36
422.735	522.57
423.111	515.34
423.488	513.31
423.864	515.79
424.241	515.34
424.617	532.51
424.994	539.52
425.37	550.59
425.746	524.6
426.123	543.36
426.499	550.37
426.875	532.51
427.251	556.92
427.627	534.55
428.003	551.04
428.379	544.04
428.756	532.97
429.132	559.18
429.507	568.45
429.883	560.54
430.259	583.81
430.635	587.88
431.011	586.75
431.387	598.95
431.763	589.01
432.138	612.51
432.514	620.65
432.89	597.37
433.265	617.26
433.641	626.52
434.016	620.42
434.392	633.98
434.767	636.69
435.143	657.93
435.518	635.11
435.894	648.67
436.269	656.35
436.644	664.71
437.02	664.26
437.395	678.95
437.77	689.35
438.145	704.26
438.52	672.4
438.895	706.52
439.271	682.11
439.646	693.64
440.021	719.4
440.395	712.85
440.77	710.59
441.145	695
441.52	728.89
441.895	727.31
442.27	730.48
442.645	736.35
443.019	746.07
443.394	752.62
443.769	771.38
444.143	711.72
444.518	747.42
444.892	747.88
445.267	742.45
445.641	779.29
446.016	787.2
446.39	773.64
446.764	771.83
447.139	785.61
447.513	797.82
447.887	800.98
448.262	775.45
448.636	800.08
449.01	791.72
449.384	793.3
449.758	818.83
450.132	814.54
450.506	812.96
450.88	832.39
451.254	826.97
451.628	832.17
452.002	848.21
452.376	855.67
452.75	865.39
453.123	876.01
453.497	881.88
453.871	874.43
454.244	916.68
454.618	893.63
454.992	917.81
455.365	933.63
455.739	949.45
456.112	936.35
456.486	929.11
456.859	946.97
457.232	961.66
457.606	977.93
457.979	978.38
458.352	982.9
458.725	1000.07
459.099	1010.69
459.472	1024.48
459.845	1036.68
460.218	1041.88
460.591	1034.42
460.964	1060.18
461.337	1089.11
461.71	1096.57
462.083	1122.78
462.456	1120.97
462.829	1133.63
463.201	1107.87
463.574	1134.76
463.947	1182.67
464.32	1201.42
464.692	1206.85
465.065	1207.07
465.438	1239.84
465.81	1228.99
466.183	1278.03
466.555	1306.28
466.928	1284.58
467.3	1311.93
467.672	1352.83
468.045	1365.49
468.417	1362.32
468.789	1371.36
469.161	1415.65
469.534	1429.89
469.906	1454.75
470.278	1480.06
470.65	1494.97
471.022	1544.01
471.394	1567.52
471.766	1600.73
472.138	1613.84
472.51	1638.47
472.882	1661.75
473.253	1724.8
473.625	1733.39
473.997	1827.85
474.369	1798.47
474.74	1867.17
475.112	1928.18
475.484	1959.37
475.855	2009.99
476.227	2046.6
476.598	2114.62
476.97	2162.3
477.341	2200.27
477.713	2267.38
478.084	2302.19
478.455	2404.78
478.827	2437.1
479.198	2518.68
479.569	2521.39
479.94	2668.05
480.311	2691.78
480.682	2777.43
481.053	2890.42
481.424	2983.3
481.795	3039.57
482.166	3097.64
482.537	3217.19
482.908	3275.04
483.279	3380.8
483.65	3489.27
484.021	3627.12
484.391	3650.62
484.762	3752.09
485.133	3847.23
485.503	3927.23
485.874	4088.58
486.244	4185.98
486.615	4315.24
486.985	4451.28
487.356	4523.37
487.726	4652.18
488.097	4807.66
488.467	4876.81
488.837	5048.33
489.207	5156.57
489.578	5287.64
489.948	5428.2
490.318	5528.32
490.688	5695.54
491.058	5796.56
491.428	5884.46
491.798	6055.53
492.168	6201.52
492.538	6376.88
492.908	6449.87
493.278	6626.37
493.648	6722.18
494.017	6937.09
494.387	7008.95
494.757	7097.99
495.126	7308.16
495.496	7388.15
495.866	7525.1
496.235	7683.29
496.605	7762.61
496.974	7894.35
497.344	8047.8
497.713	8111.52
498.082	8293.44
498.452	8441.68
498.821	8581.79
499.19	8604.17
499.559	8715.35
499.928	8869.24
500.298	9069.24
500.667	9178.84
501.036	9187.88
501.405	9372.06
501.774	9409.57
502.143	9507.19
502.512	9666.51
502.88	9792.16
503.249	9806.85
503.618	9934.75
503.987	10112.38
504.356	10135.88
504.724	10257.68
505.093	10266.5
505.462	10418.13
505.83	10574.28
506.199	10751
506.567	10767.5
506.936	10800.94
507.304	10984.44
507.672	10989.87
508.041	11150.99
508.409	11239.58
508.777	11366.35
509.145	11396.41
509.514	11518.44
509.882	11558.89
510.25	11661.04
510.618	11769.51
510.986	11762.73
511.354	11918.43
511.722	12051.99
512.09	12083.62
512.458	12201.81
512.826	12347.12
513.193	12405.65
513.561	12400.45
513.929	12494.46
514.297	12544.4
514.664	12619.88
515.032	12613.33
515.4	12793.21
515.767	12864.85
516.135	12922.47
516.502	12893.09
516.869	13121.56
517.237	13095.35
517.604	13129.7
517.972	13205.18
518.339	13326.08
518.706	13340.09
519.073	13427.54
519.44	13533.98
519.808	13606.07
520.175	13594.77
520.542	13702.79
520.909	13726.74
521.276	13770.81
521.643	13889.68
522.009	14002.44
522.376	13986.62
522.743	14187.07
523.11	14152.95
523.477	14234.53
523.843	14310.23
524.21	14470.23
524.577	14489.66
524.943	14554.29
525.31	14603.33
525.676	14630.45
526.043	14736.89
526.409	14720.39
526.776	14863.21
527.142	14877.45
527.508	14897.33
527.874	15063.43
528.241	15043.32
528.607	15067.95
528.973	15180.26
529.339	15139.36
529.705	15268.62
530.071	15384.55
530.437	15388.39
530.803	15384.55
531.169	15500.26
531.535	15368.96
531.901	15443.08
532.267	15462.74
532.632	15601.72
532.998	15540.93
533.364	15592.68
533.73	15617.99
534.095	15685.56
534.461	15738.89
534.826	15767.37
535.192	15737.09
535.557	15783.86
535.923	15742.96
536.288	15700.93
536.653	15822.28
537.019	15691.66
537.384	15683.53
537.749	15680.14
538.114	15807.14
538.479	15744.32
538.845	15813.24
539.21	15754.26
539.575	15766.01
539.94	15736.41
540.305	15819.34
540.67	15707.26
541.034	15836.29
541.399	15827.71
541.764	15827.48
542.129	15845.56
542.494	15771.66
542.858	15810.98
543.223	15719.91
543.587	15811.89
543.952	15741.15
544.316	15796.75
544.681	15762.4
545.045	15772.57
545.41	15720.59
545.774	15765.33
546.138	15725.56
546.503	15719.23
546.867	15787.03
547.231	15732.57
547.595	15707.26
547.959	15709.97
548.324	15788.16
548.688	15700.03
549.052	15724.88
549.416	15736.41
549.779	15709.06
550.143	15702.51
550.507	15806.69
550.871	15772.11
551.235	15662.96
551.599	15691.44
551.962	15724.66
552.326	15777.31
552.689	15787.48
553.053	15645.11
553.417	15665.45
553.78	15820.47
554.143	15812.56
554.507	15775.96
554.87	15830.64
555.234	15919
555.597	15755.84
555.96	15783.86
556.323	15860.02
556.686	15796.75
557.05	15831.1
557.413	15858.44
557.776	15770.08
558.139	15796.52
558.502	15949.74
558.865	15857.99
559.228	15978.66
559.59	15935.05
559.953	16015.05
560.316	16094.59
560.679	16024.76
561.041	16133.91
561.404	16113.35
561.767	16129.39
562.129	16092.56
562.492	16291.42
562.854	16220.92
563.217	16171.2
563.579	16348.82
563.941	16231.31
564.304	16391.31
564.666	16320.8
565.028	16339.78
565.39	16365.09
565.753	16432.21
566.115	16428.37
566.477	16491.87
566.839	16488.93
567.201	16603.5
567.563	16607.35
567.925	16615.03
568.287	16652.99
568.648	16670.62
569.01	16739.09
569.372	16761.47
569.734	16638.98
570.095	16870.39
570.457	16855.7
570.819	16878.53
571.18	16770.73
571.542	16876.94
571.903	16805.53
572.265	16955.59
572.626	16909.03
572.987	16982.7
573.349	17042.36
573.71	17080.1
574.071	17064.51
574.432	17091.4
574.794	17163.72
575.155	17230.15
575.516	17097.73
575.877	17202.81
576.238	17163.26
576.599	17199.19
576.96	17284.39
577.32	17242.58
577.681	17317.16
578.042	17346.31
578.403	17349.02
578.763	17345.18
579.124	17326.42
579.485	17425.63
579.845	17396.03
580.206	17342.47
580.566	17281
580.927	17311.28
581.287	17430.15
581.648	17385.63
582.008	17447.32
582.368	17403.26
582.728	17373.65
583.089	17352.64
583.449	17334.78
583.809	17415.91
584.169	17370.04
584.529	17338.17
584.889	17458.85
585.249	17400.09
585.609	17330.72
585.969	17373.2
586.329	17375.24
586.688	17403.03
587.048	17322.13
587.408	17297.05
587.768	17297.5
588.127	17292.53
588.487	17264.28
588.846	17340.43
589.206	17212.75
589.565	17240.55
589.925	17341.56
590.284	17296.14
590.643	17300.66
591.003	17322.81
591.362	17396.93
591.721	17382.01
592.08	17246.88
592.44	17317.38
592.799	17290.04
593.158	17354.9
593.517	17244.17
593.876	17305.18
594.235	17270.15
594.593	17258.4
594.952	17358.74
595.311	17272.41
595.67	17206.65
596.029	17342.24
596.387	17339.53
596.746	17397.61
597.104	17186.77
597.463	17224.28
597.822	17363.94
598.18	17267.22
598.538	17196.03
598.897	17228.35
599.255	17100.67
599.613	17398.06
599.972	17305.86
600.33	17367.78
600.688	17196.71
601.046	17353.77
601.404	17391.73
601.762	17308.34
602.12	17443.93
602.478	17448
602.836	17398.74
603.194	17332.98
603.552	17370.26
603.91	17241
604.268	17401.45
604.625	17286.2
604.983	17345.18
605.341	17303.15
605.698	17457.04
606.056	17469.02
606.413	17361.68
606.771	17417.95
607.128	17423.6
607.485	17374.56
607.843	17402.35
608.2	17478.06
608.557	17401
608.914	17452.3
609.272	17484.84
609.629	17440.09
609.986	17585.85
610.343	17528.45
610.7	17619.07
611.057	17533.88
611.414	17667.43
611.771	17710.82
612.127	17692.52
612.484	17591.05
612.841	17698.84
613.198	17645.06
613.554	17681.44
613.911	17736.58
614.267	17754.43
614.624	17833.08
614.98	17804.15
615.337	17887.31
615.693	17817.71
616.05	17882.34
616.406	17901.32
616.762	17800.53
617.118	17804.83
617.475	17834.43
617.831	17901.32
618.187	17939.74
618.543	17999.17
618.899	17945.39
619.255	18007.53
619.611	17939.06
619.967	18024.48
620.323	18111.26
620.678	17936.58
621.034	17936.8
621.39	17952.62
621.746	17972.73
622.101	18108.1
622.457	18019.74
622.812	18096.12
623.168	18052.51
623.523	18119.4
623.879	18145.16
624.234	18042.56
624.589	17969.8
624.945	18098.83
625.3	18130.7
625.655	18123.46
626.01	18085.73
626.365	18057.25
626.72	18176.12
627.075	18029
627.43	18015.9
627.785	17989.68
628.14	18089.34
628.495	18118.27
628.85	18026.29
629.205	17958.95
629.559	18126.63
629.914	17969.8
630.269	17970.47
630.623	17869.91
630.978	17986.97
631.332	18061.32
631.687	18017.93
632.041	17921.89
632.396	17949.01
632.75	17879.18
633.104	17944.03
633.459	17827.88
633.813	17883.47
634.167	17870.59
634.521	17849.8
634.875	17883.7
635.229	17849.35
635.583	17744.49
635.937	17771.61
636.291	17779.29
636.645	17758.28
636.999	17653.65
637.352	17773.87
637.706	17645.74
638.06	17673.53
638.413	17646.64
638.767	17558.96
639.121	17697.26
639.474	17484.61
639.828	17535.91
640.181	17547.89
640.534	17562.57
640.888	17500.2
641.241	17383.6
641.594	17551.95
641.947	17517.6
642.301	17531.62
642.654	17483.25
643.007	17429.7
643.36	17324.39
643.713	17427.89
644.066	17510.15
644.419	17318.74
644.771	17205.07
645.124	17083.04
645.477	17097.05
645.83	16971.4
646.182	16919.2
646.535	16859.77
646.888	16866.77
647.24	16676.04
647.593	16862.03
647.945	16831.07
648.298	16786.32
648.65	16775.25
649.002	16737.96
649.355	16800.34
649.707	16719.89
650.059	16911.52
650.411	17062.25
650.763	17109.93
651.115	17262.7
651.467	17209.36
651.819	17228.12
652.171	17196.26
652.523	17099.76
652.875	17171.62
653.227	17057.96
653.578	17160.33
653.93	17158.74
654.282	17002.14
654.633	17084.17
654.985	17161.23
655.337	17107.9
655.688	17118.29
656.039	17125.52
656.391	16928.02
656.742	17068.58
657.094	17093.43
657.445	17163.26
657.796	17092.98
658.147	17144.73
658.498	17115.58
658.849	17129.59
659.2	17130.72
659.551	17076.03
659.902	17120.55
660.253	17084.62
660.604	17084.85
660.955	17019.76
661.306	17206.43
661.656	17151.96
662.007	17148.35
662.358	17175.47
662.708	17180.89
663.059	17212.3
663.409	16994.23
663.76	17147.67
664.11	17166.2
664.461	17219.08
664.811	17210.95
665.161	17176.82
665.511	17154.45
665.862	17250.94
666.212	17236.03
666.562	17235.35
666.912	17191.96
667.262	17268.12
667.612	17171.17
667.962	17242.58
668.312	17104.96
668.662	17273.77
669.011	17133.43
669.361	17154.68
669.711	17095.92
670.06	17153.77
670.41	17155.35
670.76	17052.08
671.109	17122.36
671.459	17101.8
671.808	17015.7
672.157	17086.88
672.507	16944.74
672.856	17027.22
673.205	16977.73
673.554	17063.38
673.904	16947
674.253	17067.22
674.602	16969.82
674.951	16694.8
675.3	16774.8
675.649	16892.31
675.998	16976.83
676.346	16922.14
676.695	16933.21
677.044	16829.49
677.393	16817.51
677.741	16887.79
678.09	16795.82
678.438	16741.35
678.787	16859.54
679.135	16845.98
679.484	16643.96
679.832	16809.83
680.181	16672.43
680.529	16778.19
680.877	16662.03
681.225	16649.38
681.573	16645.31
681.922	16648.7
682.27	16565.09
682.618	16608.02
682.966	16477.41
683.314	16569.38
683.661	16438.08
684.009	16376.62
684.357	16403.96
684.705	16314.7
685.053	16290.97
685.4	16257.98
685.748	16254.81
686.095	16227.24
686.443	16099.79
686.79	16144.31
687.138	16060.47
687.485	16151.54
687.832	16066.57
688.18	16113.57
688.527	15918.32
688.874	15869.96
689.221	15979.79
689.568	15861.15
689.915	15738.67
690.262	15769.4
690.609	15738.44
690.956	15750.87
691.303	15720.36
691.65	15610.99
691.997	15592.01
692.344	15477.21
692.69	15538.45
693.037	15393.14
693.383	15308.4
693.73	15475.85
694.077	15280.6
694.423	15274.95
694.769	15176.65
695.116	15188.63
695.462	15139.14
695.808	15027.73
696.155	14999.93
696.501	14937.11
696.847	14996.31
697.193	14844.68
697.539	14849.2
697.885	14676.55
698.231	14596.1
698.577	14675.87
698.923	14635.87
699.269	14547.51
699.614	14501.19
699.96	14343.68
700.306	14458.25
700.651	14375.77
700.997	14360.17
701.342	14295.09
701.688	14229.33
702.033	14126.73
702.379	14159.73
702.724	14121.08
703.069	14114.3
703.415	13924.93
703.76	13993.18
704.105	14031.82
704.45	13963.35
704.795	13856.23
705.14	13852.16
705.485	13799.28
705.83	13681.55
706.175	13691.72
706.52	13611.04
706.865	13604.94
707.209	13532.62
707.554	13498.28
707.899	13543.02
708.243	13475.68
708.588	13441.33
708.932	13332.63
709.277	13298.73
709.621	13300.31
709.966	13242.01
710.31	13232.07
710.654	13160.2
710.998	13167.89
711.342	13135.12
711.687	13077.95
712.031	13046.99
712.375	13017.16
712.719	13043.6
713.063	12998.63
713.407	12981.23
713.75	12860.33
714.094	12923.83
714.438	12835.69
714.782	12886.54
715.125	12811.29
715.469	12833.66
715.812	12726.54
716.156	12685.42
716.499	12663.95
716.843	12767.45
717.186	12685.42
717.53	12720.44
717.873	12722.25
718.216	12621.69
718.559	12633.89
718.902	12434.35
719.246	12567
719.589	12470.96
719.932	12515.48
720.275	12457.17
720.617	12506.89
720.96	12417.63
721.303	12448.81
721.646	12363.39
721.989	12364.52
722.331	12376.72
722.674	12291.75
723.016	12342.15
723.359	12336.5
723.701	12329.04
724.044	12251.75
724.386	12209.27
724.729	12284.97
725.071	12153.45
725.413	12233.9
725.755	12142.15
726.097	12215.14
726.439	12159.33
726.782	12148.93
727.124	12221.02
727.465	12071.87
727.807	12098.76
728.149	11997.75
728.491	12096.28
728.833	12122.04
729.175	12099.44
729.516	12108.03
729.858	12075.94
730.199	12105.77
730.541	12073.68
730.882	12054.02
731.224	12047.01
731.565	11952.33
731.906	12050.18
732.248	12052.44
732.589	11973.34
732.93	11957.52
733.271	11973.12
733.612	11941.71
733.953	12015.15
734.294	11898.09
734.635	12017.86
734.976	11994.59
735.317	11870.52
735.658	11998.88
735.999	11947.81
736.339	11852.67
736.68	11950.07
737.021	11875.04
737.361	11817.64
737.702	12007.92
738.042	11964.08
738.383	12003.17
738.723	11950.07
739.063	11939.9
739.404	12032.55
739.744	11981.7
740.084	11934.47
740.424	11850.63
740.764	11972.89
741.104	12090.18
741.444	11966.11
741.784	12022.38
742.124	12042.95
742.464	12018.54
742.804	12028.26
743.143	12025.09
743.483	12150.97
743.823	12105.32
744.162	12058.99
744.502	12098.76
744.841	12138.76
745.181	12133.57
745.52	12218.08
745.86	12238.2
746.199	12213.11
746.538	12287.01
746.877	12412.43
747.216	12440.45
747.556	12441.81
747.895	12453.78
748.234	12437.51
748.573	12450.17
748.911	12605.64
749.25	12691.06
749.589	12655.36
749.928	12825.52
750.267	12887.9
750.605	12871.85
750.944	12939.42
751.283	12930.61
751.621	13121.56
751.96	13115.91
752.298	13180.77
752.636	13307.32
752.975	13306.42
753.313	13425.28
753.651	13570.36
753.989	13584.15
754.327	13771.71
754.666	13699.63
755.004	13868.89
755.342	13960.64
755.679	14086.73
756.017	14064.14
756.355	14288.54
756.693	14343.22
