Data from hue_220_FLMS001491_00083.txt Node
Date: Tue Feb 07 16:40:03 GMT 2017
User: dcchb
Spectrometer: FLMS00149
Trigger mode: 0
Integration Time (sec): 2.000000E-2
Scans to average: 10
Electric dark correction enabled: true
Nonlinearity correction enabled: false
Boxcar width: 0
XAxis mode: Wavelengths
Number of Pixels in Spectrum: 2048
>>>>>Begin Spectral Data<<<<<
341.393	-21.14
341.776	-21.14
342.16	-21.14
342.543	-62.72
342.927	-57.3
343.31	-79
343.693	-74.93
344.077	-54.14
344.46	-47.58
344.843	-37.87
345.226	-68.15
345.61	-23.4
345.993	-32.67
346.376	5.52
346.759	20.44
347.142	12.53
347.525	40.32
347.908	50.27
348.291	79.42
348.674	97.72
349.057	111.51
349.44	124.16
349.823	130.49
350.206	168.46
350.588	201.68
350.971	191.05
351.354	208.23
351.737	234.67
352.119	233.99
352.502	233.54
352.884	282.58
353.267	284.16
353.65	270.6
354.032	294.78
354.414	291.16
354.797	305.4
355.179	338.85
355.562	322.58
355.944	311.28
356.326	332.52
356.709	321.67
357.091	318.51
357.473	344.04
357.855	330.71
358.238	336.81
358.62	342.01
359.002	335.46
359.384	329.81
359.766	326.64
360.148	318.96
360.53	347.89
360.912	333.88
361.294	337.94
361.676	321.22
362.057	316.25
362.439	320.77
362.821	327.77
363.203	321.67
363.584	320.09
363.966	326.42
364.348	308.57
364.729	323.03
365.111	315.34
365.493	320.32
365.874	319.19
366.256	307.21
366.637	315.57
367.019	315.57
367.4	317.83
367.781	320.54
368.163	303.14
368.544	309.7
368.925	315.34
369.306	305.85
369.688	323.93
370.069	311.28
370.45	315.34
370.831	300.43
371.212	292.52
371.593	320.32
371.974	310.15
372.355	304.5
372.736	318.51
373.117	302.01
373.498	290.26
373.879	324.84
374.26	325.97
374.641	292.29
375.021	322.8
375.402	323.93
375.783	298.85
376.163	289.13
376.544	304.72
376.925	305.85
377.305	318.73
377.686	316.25
378.066	307.89
378.447	310.83
378.827	333.42
379.208	328
379.588	321.45
379.968	323.93
380.349	320.54
380.729	321.45
381.109	330.26
381.489	326.19
381.87	341.78
382.25	335.68
382.63	322.58
383.01	333.2
383.39	338.17
383.77	342.69
384.15	349.47
384.53	339.07
384.91	319.64
385.29	325.51
385.67	355.8
386.049	354.44
386.429	328.23
386.809	339.07
387.189	342.46
387.568	340.88
387.948	355.34
388.328	341.11
388.707	348.56
389.087	346.98
389.466	352.86
389.846	357.6
390.225	350.15
390.605	339.3
390.984	372.74
391.363	364.61
391.743	363.03
392.122	377.04
392.501	346.53
392.881	365.96
393.26	354.21
393.639	366.87
394.018	378.62
394.397	391.28
394.776	396.25
395.155	376.36
395.534	382.01
395.913	369.13
396.292	387.66
396.671	389.47
397.05	381.33
397.429	383.37
397.808	361.9
398.186	390.82
398.565	374.55
398.944	389.02
399.323	405.06
399.701	411.61
400.08	417.26
400.458	429.47
400.837	412.52
401.215	399.18
401.594	429.47
401.972	421.1
402.351	384.5
402.729	422.01
403.107	426.98
403.486	420.65
403.864	431.73
404.242	434.66
404.62	438.28
404.999	417.26
405.377	467.21
405.755	447.09
406.133	459.52
406.511	445.96
406.889	443.93
407.267	462.69
407.645	454.78
408.023	465.4
408.401	482.8
408.779	480.76
409.156	482.57
409.534	492.06
409.912	509.24
410.29	525.06
410.667	480.99
411.045	523.93
411.422	535
411.8	559.86
412.178	559.18
412.555	550.37
412.933	545.4
413.31	557.15
413.687	555.79
414.065	577.26
414.442	607.54
414.819	613.64
415.197	611.38
415.574	619.07
415.951	622.91
416.328	636.47
416.705	632.85
417.082	660.42
417.46	640.31
417.837	657.26
418.214	656.13
418.591	648.9
418.967	670.82
419.344	688.89
419.721	714.88
420.098	698.84
420.475	718.95
420.852	717.59
421.228	743.81
421.605	757.14
421.982	766.41
422.358	760.3
422.735	786.07
423.111	802.11
423.488	818.16
423.864	806.86
424.241	828.55
424.617	838.95
424.994	880.98
425.37	887.08
425.746	871.04
426.123	883.92
426.499	899.51
426.875	921.43
427.251	928.21
427.627	951.94
428.003	944.48
428.379	942.67
428.756	997.13
429.132	991.03
429.507	990.36
429.883	1022.9
430.259	1044.37
430.635	1043.24
431.011	1037.59
431.387	1088.66
431.763	1086.85
432.138	1113.52
432.514	1102.89
432.89	1139.73
433.265	1154.64
433.641	1197.81
434.016	1212.04
434.392	1201.88
434.767	1220.86
435.143	1222.67
435.518	1280.29
435.894	1305.15
436.269	1301.99
436.644	1339.5
437.02	1344.47
437.395	1351.25
437.77	1398.93
438.145	1395.54
438.52	1457.46
438.895	1461.08
439.271	1450.91
439.646	1502.66
440.021	1522.32
440.395	1518.03
440.77	1548.98
441.145	1530.68
441.52	1624.24
441.895	1615.2
442.27	1637.8
442.645	1624.46
443.019	1680.73
443.394	1623.56
443.769	1687.74
444.143	1676.44
444.518	1688.19
444.892	1703.78
445.267	1732.71
445.641	1734.97
446.016	1769.09
446.39	1785.59
446.764	1801.86
447.139	1788.98
447.513	1798.92
447.887	1772.03
448.262	1827.85
448.636	1822.88
449.01	1873.5
449.384	1877.56
449.758	1897.22
450.132	1904.68
450.506	1913.95
450.88	1939.03
451.254	1927.96
451.628	1958.92
452.002	2000.72
452.376	1997.33
452.75	2014.74
453.123	2077.78
453.497	2065.13
453.871	2082.76
454.244	2132.02
454.618	2111.91
454.992	2157.1
455.365	2168.86
455.739	2193.94
456.112	2210.44
456.486	2262.41
456.859	2274.16
457.232	2313.26
457.606	2307.16
457.979	2330.89
458.352	2371.34
458.725	2353.03
459.099	2394.16
459.472	2434.39
459.845	2429.87
460.218	2494.04
460.591	2528.39
460.964	2511.22
461.337	2560.48
461.71	2612.23
462.083	2592.57
462.456	2629.86
462.829	2642.74
463.201	2690.65
463.574	2722.29
463.947	2756.64
464.32	2797.09
464.692	2791.21
465.065	2832.11
465.438	2865.56
465.81	2885.22
466.183	2923.86
466.555	2988.49
466.928	2988.04
467.3	2980.59
467.672	3071.66
468.045	3084.09
468.417	3095.38
468.789	3118.89
469.161	3178.55
469.534	3219.68
469.906	3283.18
470.278	3338.99
470.65	3359.11
471.022	3393.91
471.394	3444.75
471.766	3452.66
472.138	3506.67
472.51	3583.73
472.882	3578.31
473.253	3628.25
473.625	3669.61
473.997	3757.51
474.369	3761.58
474.74	3820.79
475.112	3896.95
475.484	3895.59
475.855	3964.97
476.227	3990.5
476.598	4116.37
476.97	4152.76
477.341	4215.36
477.713	4242.47
478.084	4245.86
478.455	4392.07
478.827	4401.79
479.198	4525.86
479.569	4479.76
479.94	4624.38
480.311	4664.83
480.682	4719.07
481.053	4838.62
481.424	4867.09
481.795	4917.26
482.166	5027.76
482.537	5010.36
482.908	5163.8
483.279	5185.5
483.65	5222.56
484.021	5305.95
484.391	5415.32
484.762	5441.31
485.133	5454.42
485.503	5503.23
485.874	5647.18
486.244	5635.88
486.615	5714.52
486.985	5824.58
487.356	5869.32
487.726	5915.65
488.097	6039.71
488.467	6012.6
488.837	6190.67
489.207	6230.22
489.578	6244
489.948	6316.77
490.318	6398.12
490.688	6389.31
491.058	6502.07
491.428	6596.31
491.798	6598.34
492.168	6767.38
492.538	6754.72
492.908	6807.83
493.278	6873.14
493.648	6876.3
494.017	6965.79
494.387	7010.08
494.757	7060.7
495.126	7084.21
495.496	7070.2
495.866	7112.91
496.235	7202.85
496.605	7264.77
496.974	7263.64
497.344	7284.43
497.713	7358.78
498.082	7389.96
498.452	7439.45
498.821	7481.03
499.19	7483.52
499.559	7532.56
499.928	7574.59
500.298	7535.95
500.667	7623.85
501.036	7639.22
501.405	7718.99
501.774	7640.8
502.143	7774.36
502.512	7688.71
502.88	7789.05
503.249	7775.94
503.618	7828.82
503.987	7902.72
504.356	7909.95
504.724	7871.08
505.093	7953.34
505.462	7950.62
505.83	8012.32
506.199	8021.13
506.567	8083.73
506.936	8061.81
507.304	8076.5
507.672	8155.59
508.041	8122.15
508.409	8172.77
508.777	8209.83
509.145	8263.61
509.514	8180.9
509.882	8297.28
510.25	8264.97
510.618	8265.42
510.986	8283.95
511.354	8349.71
511.722	8397.39
512.09	8456.83
512.458	8296.38
512.826	8420.22
513.193	8424.51
513.561	8420.44
513.929	8530.95
514.297	8504.96
514.664	8495.24
515.032	8500.21
515.4	8551.29
515.767	8520.33
516.135	8566.2
516.502	8436.71
516.869	8595.35
517.237	8544.73
517.604	8570.04
517.972	8636.71
518.339	8629.25
518.706	8601.23
519.073	8586.99
519.44	8596.03
519.808	8644.17
520.175	8591.51
520.542	8619.31
520.909	8676.48
521.276	8661.11
521.643	8766.87
522.009	8725.52
522.376	8689.36
522.743	8727.1
523.11	8775.24
523.477	8811.62
523.843	8857.27
524.21	8826.31
524.577	8844.16
524.943	8862.01
525.31	8856.36
525.676	8889.13
526.043	8855.46
526.409	8864.72
526.776	8912.63
527.142	8908.57
527.508	8925.97
527.874	8927.1
528.241	8914.89
528.607	8870.83
528.973	8943.14
529.339	8958.28
529.705	8957.6
530.071	8973.42
530.437	8968.9
530.803	8976.81
531.169	9007.55
531.535	8902.01
531.901	8895.01
532.267	8899.98
532.632	8909.47
532.998	8915.57
533.364	8919.19
533.73	8892.07
534.095	8944.95
534.461	8857.27
534.826	8905.85
535.192	8861.33
535.557	8922.8
535.923	8880.54
536.288	8815.91
536.653	8846.19
537.019	8751.06
537.384	8811.84
537.749	8777.04
538.114	8763.48
538.479	8690.94
538.845	8689.59
539.21	8628.12
539.575	8726.88
539.94	8662.24
540.305	8678.51
540.67	8601.45
541.034	8608.69
541.399	8634.45
541.764	8624.96
542.129	8615.69
542.494	8565.52
542.858	8549.48
543.223	8463.38
543.587	8512.64
543.952	8466.99
544.316	8520.55
544.681	8456.83
545.045	8415.24
545.41	8458.86
545.774	8381.57
546.138	8369.6
546.503	8367.34
546.867	8301.35
547.231	8310.84
547.595	8263.84
547.959	8283.27
548.324	8302.25
548.688	8252.54
549.052	8227.68
549.416	8215.48
549.779	8212.09
550.143	8229.04
550.507	8089.83
550.871	8174.12
551.235	8072.88
551.599	8139.32
551.962	8037.85
552.326	8116.04
552.689	8087.12
553.053	7982.71
553.417	7985.88
553.78	8091.19
554.143	7954.47
554.507	8027.91
554.87	7995.82
555.234	7972.09
555.597	7981.13
555.96	7950.85
556.323	7936.39
556.686	7925.99
557.05	7944.07
557.413	7947.69
557.776	7877.41
558.139	7886.67
558.502	7934.58
558.865	7864.07
559.228	7923.05
559.59	7838.08
559.953	7917.63
560.316	7908.14
560.679	7873.79
561.041	7948.59
561.404	7904.3
561.767	7938.65
562.129	7834.92
562.492	7955.82
562.854	7905.2
563.217	7876.73
563.579	7916.73
563.941	7919.44
564.304	7954.47
564.666	7972.09
565.028	7895.26
565.39	7974.35
565.753	7978.65
566.115	7983.39
566.477	7981.13
566.839	7979.1
567.201	8018.87
567.563	7998.53
567.925	8050.96
568.287	8038.53
568.648	7999.66
569.01	8007.57
569.372	8071.75
569.734	8054.12
570.095	8142.26
570.457	8176.38
570.819	8133.9
571.18	8097.51
571.542	8145.87
571.903	8123.28
572.265	8109.04
572.626	8204.18
572.987	8170.73
573.349	8159.66
573.71	8265.64
574.071	8171.41
574.432	8235.14
574.794	8298.41
575.155	8243.95
575.516	8229.94
575.877	8286.66
576.238	8229.94
576.599	8323.95
576.96	8368.47
577.32	8312.65
577.681	8390.39
578.042	8383.38
578.403	8448.24
578.763	8368.24
579.124	8430.39
579.485	8490.72
579.845	8469.48
580.206	8488.46
580.566	8517.16
580.927	8527.56
581.287	8595.35
581.648	8452.53
582.008	8595.58
582.368	8552.42
582.728	8611.4
583.089	8570.72
583.449	8569.37
583.809	8622.47
584.169	8608.91
584.529	8580.89
584.889	8727.33
585.249	8625.18
585.609	8638.74
585.969	8654.56
586.329	8713.77
586.688	8670.83
587.048	8691.62
587.408	8699.31
587.768	8718.29
588.127	8751.51
588.487	8766.87
588.846	8746.54
589.206	8799.87
589.565	8794.22
589.925	8804.84
590.284	8813.2
590.643	8836.02
591.003	8891.39
591.362	8915.57
591.721	8888.45
592.08	8932.29
592.44	8913.31
592.799	8883.26
593.158	8960.54
593.517	8832.63
593.876	8958.28
594.235	8905.4
594.593	8957.38
594.952	8944.27
595.311	8982.24
595.67	8975
596.029	9018.62
596.387	9033.08
596.746	8975.68
597.104	9017.49
597.463	8927.32
597.822	9037.38
598.18	8995.12
598.538	8990.6
598.897	9033.99
599.255	8960.32
599.613	9073.98
599.972	9070.14
600.33	9071.72
600.688	9015.91
601.046	9045.28
601.404	9083.25
601.762	9126.41
602.12	9110.59
602.478	9077.15
602.836	9135.45
603.194	9091.16
603.552	9146.75
603.91	9104.49
604.268	9196.24
604.625	9094.55
604.983	9125.28
605.341	9114.66
605.698	9146.53
606.056	9174.09
606.413	9119.18
606.771	9174.09
607.128	9209.12
607.485	9149.24
607.843	9139.52
608.2	9213.87
608.557	9283.47
608.914	9207.77
609.272	9277.14
609.629	9257.26
609.986	9267.65
610.343	9225.62
610.7	9346.52
611.057	9269.69
611.414	9252.96
611.771	9293.87
612.127	9312.85
612.484	9219.29
612.841	9289.12
613.198	9289.8
613.554	9309.01
613.911	9324.37
614.267	9363.24
614.624	9379.51
614.98	9390.13
615.337	9379.74
615.693	9384.26
616.05	9313.75
616.406	9464.93
616.762	9342.9
617.118	9330.25
617.475	9365.5
617.831	9436.69
618.187	9422.9
618.543	9475.56
618.899	9400.98
619.255	9411.38
619.611	9422.68
619.967	9450.25
620.323	9452.51
620.678	9489.57
621.034	9365.05
621.39	9446.18
621.746	9417.93
622.101	9468.78
622.457	9493.86
622.812	9432.62
623.168	9499.06
623.523	9455.67
623.879	9535.89
624.234	9423.58
624.589	9427.65
624.945	9499.06
625.3	9495.67
625.655	9466.52
626.01	9485.73
626.365	9476.91
626.72	9445.95
627.075	9457.93
627.43	9483.92
627.785	9420.19
628.14	9407.54
628.495	9450.47
628.85	9501.77
629.205	9424.71
629.559	9453.41
629.914	9395.11
630.269	9400.08
630.623	9394.65
630.978	9394.43
631.332	9444.37
631.687	9446.18
632.041	9393.98
632.396	9385.84
632.75	9370.25
633.104	9362.56
633.459	9264.26
633.813	9296.58
634.167	9338.16
634.521	9271.27
634.875	9268.56
635.229	9205.28
635.583	9210.93
635.937	9285.73
636.291	9247.54
636.645	9270.82
636.999	9298.61
637.352	9224.72
637.706	9139.52
638.06	9229.23
638.413	9163.47
638.767	9157.37
639.121	9219.97
639.474	9116.47
639.828	9124.6
640.181	9107.2
640.534	9157.15
640.888	9084.61
641.241	9040.99
641.594	9106.98
641.947	9099.29
642.301	9033.53
642.654	9124.6
643.007	9064.95
643.36	9072.85
643.713	9033.76
644.066	9083.7
644.419	9038.05
644.771	8981.11
645.124	8918.28
645.477	8861.33
645.83	8814.78
646.182	8899.3
646.535	8822.92
646.888	8821.11
647.24	8754.44
647.593	8802.13
647.945	8721.23
648.298	8717.38
648.65	8728.46
649.002	8655.24
649.355	8749.93
649.707	8737.04
650.059	8831.51
650.411	8960.09
650.763	8886.87
651.115	8966.42
651.467	8895.46
651.819	8873.09
652.171	8925.74
652.523	8909.24
652.875	8907.21
653.227	8834.89
653.578	8924.38
653.93	8969.58
654.282	8898.62
654.633	8887.32
654.985	8937.72
655.337	8903.59
655.688	8907.21
656.039	8928.9
656.391	8854.78
656.742	8886.42
657.094	8951.5
657.445	8957.83
657.796	8923.93
658.147	8900.88
658.498	8971.61
658.849	8905.18
659.2	8977.26
659.551	8931.84
659.902	9009.35
660.253	8981.56
660.604	9002.35
660.955	8946.08
661.306	9039.86
661.656	8947.89
662.007	9034.66
662.358	8917.15
662.708	9029.92
663.059	8993.99
663.409	8948.34
663.76	9001.44
664.11	9006.64
664.461	9049.58
664.811	8932.52
665.161	9030.6
665.511	8948.34
665.862	8923.48
666.212	8999.18
666.562	8957.6
666.912	9039.64
667.262	9008.45
667.612	8916.93
667.962	8985.63
668.312	9026.08
668.662	9012.07
669.011	9003.48
669.361	8944.5
669.711	8973.65
670.06	8962.12
670.41	8905.18
670.76	8923.48
671.109	9028.34
671.459	8911.73
671.808	8964.16
672.157	8960.09
672.507	8940.43
672.856	8889.58
673.205	8870.6
673.554	8949.24
673.904	8882.13
674.253	8985.17
674.602	8913.99
674.951	8778.17
675.3	8758.96
675.649	8872.63
675.998	8832.63
676.346	8896.59
676.695	8805.74
677.044	8807.1
677.393	8873.31
677.741	8819.75
678.09	8795.57
678.438	8794.22
678.787	8802.58
679.135	8752.86
679.484	8755.35
679.832	8772.07
680.181	8717.16
680.529	8837.15
680.877	8720.55
681.225	8732.98
681.573	8661.11
681.922	8706.76
682.27	8630.15
682.618	8645.97
682.966	8582.02
683.314	8619.08
683.661	8578.4
684.009	8524.62
684.357	8548.35
684.705	8481.68
685.053	8467.67
685.4	8539.31
685.748	8494.34
686.095	8460.22
686.443	8418.63
686.79	8415.7
687.138	8390.61
687.485	8421.12
687.832	8449.37
688.18	8385.64
688.527	8339.09
688.874	8326.89
689.221	8340.22
689.568	8314.46
689.915	8238.98
690.262	8260.67
690.609	8245.53
690.956	8187.45
691.303	8179.32
691.65	8155.59
691.997	8085.76
692.344	8068.81
692.69	8029.94
693.037	8023.62
693.383	7956.73
693.73	7959.21
694.077	7899.33
694.423	7893
694.769	7936.84
695.116	7857.52
695.462	7846.22
695.808	7782.72
696.155	7838.08
696.501	7735.71
696.847	7724.64
697.193	7631.54
697.539	7737.75
697.885	7661.14
698.231	7631.99
698.577	7621.82
698.923	7585.21
699.269	7551.76
699.614	7440.13
699.96	7459.79
700.306	7481.71
700.651	7385.22
700.997	7403.07
701.342	7390.19
701.688	7429.28
702.033	7363.75
702.379	7235.61
702.724	7254.6
703.069	7330.53
703.415	7162.17
703.76	7204.2
704.105	7194.03
704.45	7176.86
704.795	7106.13
705.14	7099.57
705.485	7043.08
705.83	7019.8
706.175	7002.85
706.52	7007.15
706.865	6981.61
707.209	7019.8
707.554	6883.08
707.899	6969.18
708.243	6909.3
708.588	6890.77
708.932	6852.35
709.277	6850.54
709.621	6843.53
709.966	6808.28
710.31	6795.4
710.654	6728.06
710.998	6747.94
711.342	6756.98
711.687	6693.48
712.031	6698.68
712.375	6699.81
712.719	6732.35
713.063	6675.86
713.407	6654.16
713.75	6627.5
714.094	6646.25
714.438	6640.38
714.782	6655.74
715.125	6521.96
715.469	6540.94
715.812	6488.06
716.156	6518.57
716.499	6562.64
716.843	6579.59
717.186	6522.41
717.53	6548.18
717.873	6479.25
718.216	6532.36
718.559	6492.58
718.902	6423.21
719.246	6429.76
719.589	6426.82
719.932	6418.46
720.275	6423.21
720.617	6469.53
720.96	6415.07
721.303	6419.14
721.646	6446.03
721.989	6390.44
722.331	6350.21
722.674	6359.03
723.016	6391.12
723.359	6351.8
723.701	6334.85
724.044	6277.22
724.386	6295.07
724.729	6359.25
725.071	6330.1
725.413	6314.28
725.755	6297.11
726.097	6332.81
726.439	6268.63
726.782	6234.29
727.124	6296.88
727.465	6217.79
727.807	6244.45
728.149	6301.85
728.491	6283.32
728.833	6225.25
729.175	6215.75
729.516	6279.71
729.858	6263.89
730.199	6257.56
730.541	6267.5
730.882	6221.4
731.224	6261.18
731.565	6235.64
731.906	6265.7
732.248	6266.83
732.589	6260.05
732.93	6220.5
733.271	6230.44
733.612	6228.41
733.953	6233.38
734.294	6197.22
734.635	6211.91
734.976	6234.06
735.317	6262.99
735.658	6248.3
735.999	6235.19
736.339	6223.66
736.68	6278.8
737.021	6278.13
737.361	6216.43
737.702	6313.61
738.042	6294.4
738.383	6330.1
738.723	6274.51
739.063	6257.56
739.404	6351.34
739.744	6291.91
740.084	6333.72
740.424	6360.38
740.764	6403.09
741.104	6372.13
741.444	6384.56
741.784	6375.52
742.124	6443.77
742.464	6414.85
742.804	6405.81
743.143	6464.11
743.483	6488.06
743.823	6456.65
744.162	6481.74
744.502	6562.86
744.841	6548.85
745.181	6639.7
745.52	6604.44
745.86	6688.28
746.199	6705.46
746.538	6709.53
746.877	6749.53
747.216	6817.09
747.556	6830.65
747.895	6891.9
748.234	6862.97
748.573	6886.92
748.911	7001.95
749.25	7061.83
749.589	7104.54
749.928	7160.36
750.267	7239.91
750.605	7262.96
750.944	7385.89
751.283	7373.92
751.621	7505.21
751.96	7542.95
752.298	7673.8
752.636	7725.09
752.975	7820.23
753.313	7906.78
753.651	8051.41
753.989	8146.78
754.327	8169.83
754.666	8306.1
755.004	8436.71
755.342	8551.06
755.679	8712.64
756.017	8786.76
756.355	8991.5
756.693	9006.64
757.031	9267.2
757.368	9329.57
757.706	9446.4
758.044	9569.11
758.381	9834.64
758.719	9908.99
759.056	10060.63
759.394	10197.8
759.731	10387.17
760.068	10485.25
760.405	10637.56
760.743	10738.8
761.08	11001.17
761.417	11074.61
761.754	11279.12
762.091	11501.72
762.428	11607.03
762.765	11766.57
763.102	11973.12
763.438	12125.88
763.775	12174.24
764.112	12524.52
764.449	12689.71
764.785	12838.41
765.122	12950.94
765.458	13020.1
765.795	13189.36
766.131	13429.8
766.467	13549.12
766.804	13635.9
767.14	13745.95
767.476	14008.32
767.812	14051.03
768.148	14309.55
768.485	14324.24
