Data from hue_26_FLMS001491_00049.txt Node
Date: Tue Feb 07 17:14:04 GMT 2017
User: dcchb
Spectrometer: FLMS00149
Trigger mode: 0
Integration Time (sec): 2.000000E-2
Scans to average: 10
Electric dark correction enabled: true
Nonlinearity correction enabled: false
Boxcar width: 0
XAxis mode: Wavelengths
Number of Pixels in Spectrum: 2048
>>>>>Begin Spectral Data<<<<<
341.393	-15.44
341.776	-15.44
342.16	-15.44
342.543	-39.39
342.927	-71.93
343.31	-71.48
343.693	-67.41
344.077	-65.61
344.46	-59.73
344.843	-50.01
345.226	-31.26
345.61	-35.1
345.993	-5.27
346.376	-4.59
346.759	11.68
347.142	23.88
347.525	28.86
347.908	68.18
348.291	87.16
348.674	75.18
349.057	95.52
349.44	108.18
349.823	147.5
350.206	157.44
350.588	196.31
350.971	227.49
351.354	229.98
351.737	228.62
352.119	245.57
352.502	249.64
352.884	269.98
353.267	286.02
353.65	310.66
354.032	286.93
354.414	322.86
354.797	328.28
355.179	319.47
355.562	310.43
355.944	331.9
356.326	327.38
356.709	341.84
357.091	339.36
357.473	335.29
357.855	347.04
358.238	352.69
358.62	348.62
359.002	315.18
359.384	345.46
359.766	309.53
360.148	328.96
360.53	335.97
360.912	340.26
361.294	337.1
361.676	333.03
362.057	345.46
362.439	335.29
362.821	295.06
363.203	302.52
363.584	329.64
363.966	326.25
364.348	316.53
364.729	333.48
365.111	336.64
365.493	303.65
365.874	310.88
366.256	295.51
366.637	327.15
367.019	306.36
367.4	310.88
367.781	305.68
368.163	306.81
368.544	318.11
368.925	299.36
369.306	307.49
369.688	326.93
370.069	298.68
370.45	312.24
370.831	321.95
371.212	292.58
371.593	316.08
371.974	330.32
372.355	315.63
372.736	336.42
373.117	323.08
373.498	329.19
373.879	335.29
374.26	295.74
374.641	313.82
375.021	322.86
375.402	323.76
375.783	313.82
376.163	319.92
376.544	323.76
376.925	336.42
377.305	311.56
377.686	331.22
378.066	328.96
378.447	332.12
378.827	347.49
379.208	321.5
379.588	325.8
379.968	321.28
380.349	358.34
380.729	313.82
381.109	336.87
381.489	348.62
381.87	346.81
382.25	341.62
382.63	350.2
383.01	335.97
383.39	343.42
383.77	334.16
384.15	335.97
384.53	330.32
384.91	349.07
385.29	351.78
385.67	333.03
386.049	356.98
386.429	345.68
386.809	347.04
387.189	341.84
387.568	349.75
387.948	354.95
388.328	352.24
388.707	356.08
389.087	357.43
389.466	361.5
389.846	358.34
390.225	371.67
390.605	367.38
390.984	332.58
391.363	364.44
391.743	385.68
392.122	370.09
392.501	350.88
392.881	363.54
393.26	334.61
393.639	353.14
394.018	362.63
394.397	387.72
394.776	367.38
395.155	396.08
395.534	384.55
395.913	379.81
396.292	376.87
396.671	381.61
397.05	387.49
397.429	389.52
397.808	366.02
398.186	393.82
398.565	390.43
398.944	383.87
399.323	373.93
399.701	398.34
400.08	380.94
400.458	389.3
400.837	399.24
401.215	367.6
401.594	384.55
401.972	404.66
402.351	403.76
402.729	404.89
403.107	392.24
403.486	396.98
403.864	409.64
404.242	391.78
404.62	404.89
404.999	423.87
405.377	395.17
405.755	416.42
406.133	432.01
406.511	431.78
406.889	407.38
407.267	439.69
407.645	439.47
408.023	420.71
408.401	422.97
408.779	418.22
409.156	436.75
409.534	434.72
409.912	432.46
410.29	445.34
410.667	461.61
411.045	456.19
411.422	445.12
411.8	438.11
412.178	469.07
412.555	450.31
412.933	460.48
413.31	463.65
413.687	454.61
414.065	466.81
414.442	455.74
414.819	469.3
415.197	481.5
415.574	483.31
415.951	492.8
416.328	488.05
416.705	479.24
417.082	514.04
417.46	502.06
417.837	496.41
418.214	488.05
418.591	505
418.967	499.8
419.344	526.02
419.721	475.4
420.098	500.93
420.475	508.39
420.852	516.98
421.228	516.98
421.605	528.5
421.982	531.44
422.358	508.62
422.735	519.69
423.111	520.14
423.488	535.06
423.864	540.25
424.241	539.35
424.617	529.18
424.994	525.79
425.37	550.65
425.746	536.19
426.123	554.72
426.499	573.93
426.875	567.15
427.251	559.46
427.627	574.15
428.003	587.48
428.379	559.46
428.756	570.54
429.132	596.75
429.507	589.74
429.883	592.46
430.259	599.91
430.635	615.05
431.011	596.52
431.387	599.46
431.763	623.19
432.138	633.59
432.514	632.23
432.89	629.29
433.265	624.32
433.641	624.32
434.016	626.81
434.392	682.62
434.767	675.17
435.143	675.17
435.518	662.96
435.894	672
436.269	685.79
436.644	674.94
437.02	660.48
437.395	687.37
437.77	701.61
438.145	702.74
438.52	715.62
438.895	714.26
439.271	707.48
439.646	717.42
440.021	728.27
440.395	737.31
440.77	719.91
441.145	737.99
441.52	755.62
441.895	753.36
442.27	752.45
442.645	740.02
443.019	777.31
443.394	773.47
443.769	771.43
444.143	751.32
444.518	766.01
444.892	775.05
445.267	775.95
445.641	784.99
446.016	785.22
446.39	772.79
446.764	785.9
447.139	759.91
447.513	813.02
447.887	806.01
448.262	787.48
448.636	817.31
449.01	818.89
449.384	836.07
449.758	801.72
450.132	821.38
450.506	840.81
450.88	864.99
451.254	843.07
451.628	871.77
452.002	846.01
452.376	841.04
452.75	888.49
453.123	842.62
453.497	870.87
453.871	886.91
454.244	902.05
454.618	880.13
454.992	924.88
455.365	926.68
455.739	933.92
456.112	932.79
456.486	951.54
456.859	953.58
457.232	971.2
457.606	985.21
457.979	987.93
458.352	994.71
458.725	1006
459.099	1020.69
459.472	988.15
459.845	1009.17
460.218	1016.17
460.591	1040.35
460.964	1053.24
461.337	1050.75
461.71	1104.76
462.083	1101.82
462.456	1104.53
462.829	1114.02
463.201	1103.86
463.574	1123.52
463.947	1149.96
464.32	1159.67
464.692	1180.69
465.065	1163.29
465.438	1218.65
465.81	1224.3
466.183	1208.26
466.555	1234.93
466.928	1239.9
467.3	1257.3
467.672	1268.6
468.045	1285.09
468.417	1293.68
468.789	1305.21
469.161	1314.25
469.534	1334.58
469.906	1364.41
470.278	1384.75
470.65	1389.95
471.022	1404.64
471.394	1393.79
471.766	1445.09
472.138	1491.42
472.51	1500.91
472.882	1515.37
473.253	1572.77
473.625	1576.84
473.997	1604.41
474.369	1587.23
474.74	1639.43
475.112	1676.27
475.484	1724.18
475.855	1725.53
476.227	1734.8
476.598	1790.16
476.97	1813.89
477.341	1828.58
477.713	1886.89
478.084	1880.78
478.455	1935.47
478.827	1989.03
479.198	2043.49
479.569	2012.31
479.94	2086.88
480.311	2080.55
480.682	2167.78
481.053	2201
481.424	2261.34
481.795	2283.49
482.166	2353.99
482.537	2369.81
482.908	2396.7
483.279	2437.61
483.65	2515.34
484.021	2534.55
484.391	2575.68
484.762	2659.52
485.133	2671.5
485.503	2717.6
485.874	2769.35
486.244	2800.08
486.615	2868.55
486.985	2857.93
487.356	2979.51
487.726	2989
488.097	3050.7
488.467	3051.37
488.837	3107.87
489.207	3159.62
489.578	3272.84
489.948	3302.22
490.318	3314.64
490.688	3353.29
491.058	3396.9
491.428	3473.06
491.798	3542.66
492.168	3586.05
492.538	3638.25
492.908	3662.88
493.278	3704.01
493.648	3752.37
494.017	3764.58
494.387	3826.72
494.757	3867.62
495.126	3907.4
495.496	3924.57
495.866	3976.77
496.235	4019.71
496.605	4044.79
496.974	4106.71
497.344	4142.87
497.713	4132.93
498.082	4172.7
498.452	4221.51
498.821	4245.92
499.19	4278.23
499.559	4366.37
499.928	4365.69
500.298	4394.84
500.667	4451.79
501.036	4436.65
501.405	4503.09
501.774	4504.67
502.143	4569.98
502.512	4579.7
502.88	4603.88
503.249	4645.91
503.618	4656.98
503.987	4689.98
504.356	4677.77
504.724	4735.85
505.093	4777.2
505.462	4769.07
505.83	4842.51
506.199	4896.75
506.567	4888.16
506.936	4847.49
507.304	4949.86
507.672	4940.36
508.041	4966.35
508.409	5039.57
508.777	5062.62
509.145	5120.92
509.514	5040.7
509.882	5124.54
510.25	5108.27
510.618	5148.72
510.986	5188.49
511.354	5206.35
511.722	5264.2
512.09	5266.68
512.458	5282.95
512.826	5310.07
513.193	5306.23
513.561	5371.77
513.929	5372.22
514.297	5399.56
514.664	5420.35
515.032	5471.2
515.4	5514.36
515.767	5503.97
516.135	5533.57
516.502	5514.36
516.869	5621.93
517.237	5571.53
517.604	5559.56
517.972	5616.28
518.339	5678.65
518.706	5696.73
519.073	5707.8
519.44	5698.08
519.808	5764.3
520.175	5774.01
520.542	5814.92
520.909	5865.54
521.276	5854.24
521.643	5912.09
522.009	5928.81
522.376	5892.66
522.743	5948.7
523.11	5990.05
523.477	6075.93
523.843	6057.85
524.21	6089.49
524.577	6122.48
524.943	6160.45
525.31	6183.5
525.676	6248.13
526.043	6252.87
526.409	6292.42
526.776	6411.96
527.142	6399.31
527.508	6382.81
527.874	6531.74
528.241	6469.36
528.607	6505.07
528.973	6563.6
529.339	6555.69
529.705	6607.89
530.071	6651.73
530.437	6666.19
530.803	6697.38
531.169	6765.85
531.535	6757.72
531.901	6710.71
532.267	6768.79
532.632	6799.52
532.998	6902.12
533.364	6888.56
533.73	6957.26
534.095	7007.65
534.461	7017.37
534.826	7005.85
535.192	7117.26
535.557	7074.32
535.923	7063.47
536.288	7181.89
536.653	7133.3
537.019	7176.69
537.384	7198.61
537.749	7263.47
538.114	7256.91
538.479	7245.84
538.845	7345.95
539.21	7332.17
539.575	7329.91
539.94	7442.45
540.305	7390.92
540.67	7437.93
541.034	7471.82
541.399	7496.91
541.764	7524.03
542.129	7620.97
542.494	7580.07
542.858	7654.42
543.223	7664.81
543.587	7699.39
543.952	7711.82
544.316	7763.57
544.681	7752.95
545.045	7802.21
545.41	7868.42
545.774	7846.28
546.138	7945.03
546.503	7924.69
546.867	8004.24
547.231	7986.61
547.595	8014.41
547.959	8036.78
548.324	8069.1
548.688	8070
549.052	8068.64
549.416	8142.54
549.779	8185.02
550.143	8181.64
550.507	8241.75
550.871	8289.88
551.235	8258.92
551.599	8384.57
551.962	8342.99
552.326	8399.26
552.689	8453.49
553.053	8411.69
553.417	8478.58
553.78	8550.21
554.143	8519.71
554.507	8551.12
554.87	8554.28
555.234	8612.36
555.597	8628.4
555.96	8635.41
556.323	8706.14
556.686	8675.63
557.05	8732.81
557.413	8776.2
557.776	8781.62
558.139	8807.61
558.502	8801.96
558.865	8865.46
559.228	8949.98
559.59	8934.61
559.953	8986.81
560.316	9110.2
560.679	9036.53
561.041	9148.39
561.404	9075.4
561.767	9154.72
562.129	9128.5
562.492	9195.62
562.854	9280.36
563.217	9248.73
563.579	9260.02
563.941	9326.69
564.304	9310.42
564.666	9429.29
565.028	9452.79
565.39	9468.38
565.753	9512
566.115	9487.14
566.477	9596.74
566.839	9566.23
567.201	9675.38
567.563	9642.61
567.925	9714.48
568.287	9745.21
568.648	9701.82
569.01	9838.31
569.372	9855.72
569.734	9877.18
570.095	9925.32
570.457	9949.72
570.819	10010.74
571.18	9974.13
571.542	10074.24
571.903	10147.91
572.265	10245.99
572.626	10280.34
572.987	10317.62
573.349	10358.53
573.71	10361.01
574.071	10394.91
574.432	10466.77
574.794	10603.72
575.155	10629.71
575.516	10611.63
575.877	10710.83
576.238	10764.84
576.599	10897.95
576.96	10972.07
577.32	11017.04
577.681	11125.74
578.042	11112.86
578.403	11278.5
578.763	11360.99
579.124	11479.63
579.485	11568.44
579.845	11681.88
580.206	11796.23
580.566	11932.05
580.927	12025.83
581.287	12203.68
581.648	12291.13
582.008	12433.27
582.368	12490.9
582.728	12721.18
583.089	12794.62
583.449	13008.85
583.809	13194.38
584.169	13412.68
584.529	13563.41
584.889	13853.8
585.249	13909.39
585.609	14090.63
585.969	14427.57
586.329	14525.65
586.688	14728.13
587.048	14965.41
587.408	15114.11
587.768	15307.78
588.127	15568.33
588.487	15778.05
588.846	16148.88
589.206	16294.19
589.565	16563.11
589.925	16872.71
590.284	17062.98
590.643	17408.74
591.003	17652.35
591.362	18110.41
591.721	18236.96
592.08	18512.44
592.44	18920.34
592.799	19124.62
593.158	19366.43
593.517	19699.3
593.876	19992.62
594.235	20205.05
594.593	20526.4
594.952	20956.44
595.311	21069.88
595.67	21481.85
596.029	21833.71
596.387	22212.9
596.746	22389.17
597.104	22703.74
597.463	23008.36
597.822	23315.93
598.18	23543.49
598.538	23892.41
598.897	24389.57
599.255	24501.88
599.613	24999.05
599.972	25114.98
600.33	25555.19
600.688	25648.29
601.046	26045.35
601.404	26499.57
601.762	26719.68
602.12	27001.71
602.478	27417.74
602.836	27506.1
603.194	27588.36
603.552	27945.18
603.91	28266.98
604.268	28611.38
604.625	28811.83
604.983	29127.07
605.341	29246.84
605.698	29775.42
606.056	29953.27
606.413	30304.44
606.771	30488.62
607.128	30654.04
607.485	30916.63
607.843	31152.33
608.2	31556.61
608.557	31692.2
608.914	31938.07
609.272	32332.19
609.629	32439.3
609.986	32804.72
610.343	32778.73
610.7	33342.56
611.057	33260.3
611.414	33394.98
611.771	33616.22
612.127	33982.31
612.484	34161.74
612.841	34461.17
613.198	34558.79
613.554	34757.21
613.911	35002.17
614.267	35184.77
614.624	35336.18
614.98	35645.55
615.337	35910.4
615.693	35953.79
616.05	36074.69
616.406	36401.01
616.762	36278.3
617.118	36536.14
617.475	36692.52
617.831	37004.61
618.187	37090.71
618.543	37155.11
618.899	37440.53
619.255	37491.82
619.611	37603.01
619.967	37946.5
620.323	38006.16
620.678	38071.7
621.034	37985.82
621.39	38161.64
621.746	38145.59
622.101	38685.24
622.457	38423.1
622.812	38756.42
623.168	38826.03
623.523	38901.51
623.879	39086.81
624.234	39042.97
624.589	39103.31
624.945	39211.33
625.3	39390.76
625.655	39428.27
626.01	39530.87
626.365	39655.38
626.72	39597.08
627.075	39872.33
627.43	39720.24
627.785	39722.73
628.14	39785.78
628.495	39924.53
628.85	40082.72
629.205	39900.12
629.559	40104.64
629.914	40063.06
630.269	40179.66
630.623	40118.65
630.978	40151.19
631.332	40418.75
631.687	40503.95
632.041	40358.87
632.396	40400.68
632.75	40241.13
633.104	40411.07
633.459	40283.84
633.813	40352.54
634.167	40290.85
634.521	40307.12
634.875	40444.97
635.229	40324.29
635.583	40296.95
635.937	40362.26
636.291	40245.88
636.645	40461.69
636.999	40246.33
637.352	40297.63
637.706	40178.76
638.06	40471.18
638.413	40307.8
638.767	40366.55
639.121	40494.46
639.474	40228.48
639.828	40354.12
640.181	40300.11
640.534	40425.99
640.888	40199.1
641.241	40034.58
641.594	40200.91
641.947	40291.07
642.301	40112.77
642.654	40248.81
643.007	40287.46
643.36	40264.63
643.713	40186.22
644.066	40401.13
644.419	40145.31
644.771	39729.05
645.124	39560.47
645.477	39469.85
645.83	39324.55
646.182	39066.02
646.535	39028.06
646.888	39169.07
647.24	38966.59
647.593	39312.34
647.945	39086.13
648.298	38838
648.65	38811.79
649.002	38811.56
649.355	38974.5
649.707	38817.89
650.059	39037.32
650.411	39490.64
650.763	39492
651.115	39941.7
651.467	39941.03
651.819	39902.16
652.171	39735.61
652.523	39786
652.875	39816.06
653.227	39474.15
653.578	39959.33
653.93	39818.32
654.282	39657.19
654.633	39433.69
654.985	39696.29
655.337	39721.14
655.688	39767.02
656.039	39792.33
656.391	39518.89
656.742	39511.21
657.094	39564.76
657.445	39780.13
657.796	39504.88
658.147	39633.92
658.498	39455.62
658.849	39645.21
659.2	39468.27
659.551	39492.68
659.902	39503.3
660.253	39470.3
660.604	39548.72
660.955	39354.37
661.306	39456.07
661.656	39389.85
662.007	39448.16
662.358	39393.47
662.708	39382.17
663.059	39516.18
663.409	39276.64
663.76	39508.95
664.11	39331.32
664.461	39383.07
664.811	39516.63
665.161	39369.52
665.511	39335.62
665.862	39372.23
666.212	39557.99
666.562	39450.64
666.912	39364.32
667.262	39312.12
667.612	39245.68
667.962	39364.77
668.312	39274.6
668.662	39469.17
669.011	39350.76
669.361	39331.78
669.711	39386.46
670.06	39301.04
670.41	39184.66
670.76	39117.09
671.109	39239.12
671.459	39325
671.808	39182.85
672.157	39245.9
672.507	39041.39
672.856	38955.29
673.205	39146.7
673.554	39165
673.904	39153.02
674.253	39296.52
674.602	39165.45
674.951	38541.51
675.3	38504.68
675.649	39006.14
675.998	39043.2
676.346	38943.09
676.695	39092.46
677.044	38796.2
677.393	38856.53
677.741	38977.21
678.09	38869.87
678.438	38766.14
678.787	38913.93
679.135	38820.6
679.484	38595.98
679.832	38769.31
680.181	38322.99
680.529	38574.73
680.877	38406.6
681.225	38594.62
681.573	38729.76
681.922	38435.53
682.27	38282.99
682.618	38253.61
682.966	38188.98
683.314	38384.91
683.661	38233.73
684.009	38042.09
684.357	37945.82
684.705	37951.47
685.053	37952.38
685.4	37844.13
685.748	37700.86
686.095	37674.19
686.443	37675.1
686.79	37595.55
687.138	37618.38
687.485	37716.23
687.832	37508.77
688.18	37680.52
688.527	37327.31
688.874	37337.48
689.221	37335.22
689.568	37132.74
689.915	37076.02
690.262	37095.9
690.609	36897.04
690.956	36853.65
691.303	36871.05
691.65	36538.4
691.997	36611.85
692.344	36254.34
692.69	36448.69
693.037	36425.41
693.383	36003.95
693.73	36309.03
694.077	36189.49
694.423	35955.82
694.769	35896.39
695.116	35846.9
695.462	35681.48
695.808	35747.69
696.155	35709.27
696.501	35573.91
696.847	35473.57
697.193	35273.13
697.539	35255.95
697.885	35122.62
698.231	35031.78
698.577	35113.81
698.923	34972.12
699.269	34854.15
699.614	34700.71
699.96	34645.8
700.306	34516.54
700.651	34391.79
700.997	34382.08
701.342	34326.48
701.688	34246.49
702.033	34051.46
702.379	34028.64
702.724	34090.11
703.069	34224.34
703.415	33653.51
703.76	33806.5
704.105	33704.13
704.45	33670.91
704.795	33390.92
705.14	33364.48
705.485	33411.93
705.83	33210.13
706.175	33255.55
706.52	33082.22
706.865	33143.69
707.209	33083.13
707.554	32974.2
707.899	32969.23
708.243	32820.76
708.588	32798.62
708.932	32520.66
709.277	32516.59
709.621	32553.2
709.966	32258.74
710.31	32487.89
710.654	32137.39
710.998	32209.93
711.342	32115.24
711.687	32100.1
712.031	31929.03
712.375	31864.85
712.719	31816.04
713.063	31781.47
713.407	31856.04
713.75	31595.71
714.094	31661.47
714.438	31584.86
714.782	31527.24
715.125	31514.35
715.469	31574.47
715.812	31218.09
716.156	31227.13
716.499	31110.98
716.843	31245.44
717.186	30999.11
717.53	31063.97
717.873	31109.62
718.216	31086.8
718.559	30799.35
718.902	30683.42
719.246	30713.25
719.589	30602.51
719.932	30612.68
720.275	30466.92
720.617	30593.48
720.96	30475.51
721.303	30453.37
721.646	30569.52
721.989	30143.09
722.331	30359.36
722.674	30239.59
723.016	30330.66
723.359	30319.81
723.701	30266.25
724.044	29994.62
724.386	30074.62
724.729	30071
725.071	29874.62
725.413	29975.19
725.755	29887.73
726.097	29692.26
726.439	29689.32
726.782	29710.33
727.124	29916.43
727.465	29646.16
727.807	29566.84
728.149	29467.86
728.491	29474.86
728.833	29468.76
729.175	29343.56
729.516	29428.31
729.858	29145.15
730.199	29295.66
730.541	29184.92
730.882	29171.14
731.224	29184.02
731.565	29066.28
731.906	28939.73
732.248	29022.67
732.589	28803.24
732.93	28807.53
733.271	28801.88
733.612	28851.6
733.953	28847.08
734.294	28702
734.635	28764.6
734.976	28823.58
735.317	28568.67
735.658	28582.68
735.999	28593.75
736.339	28539.07
736.68	28573.87
737.021	28423.36
737.361	28368.22
737.702	28431.5
738.042	28343.14
738.383	28320.54
738.723	28403.93
739.063	28269.92
739.404	28365.51
739.744	28170.26
740.084	28232.18
740.424	28121.68
740.764	28082.35
741.104	28177.49
741.444	27986.99
741.784	27841.23
742.124	27914.22
742.464	27825.86
742.804	27888.69
743.143	27782.7
743.483	27636.72
743.823	27566.66
744.162	27585.19
744.502	27609.37
744.841	27683.5
745.181	27612.08
745.52	27533.22
745.86	27530.96
746.199	27367.57
746.538	27330.51
746.877	27416.16
747.216	27415.93
747.556	27355.14
747.895	27331.64
748.234	27153.11
748.573	27245.09
748.911	27253.68
749.25	27155.83
749.589	27023.4
749.928	27154.92
750.267	27107.24
750.605	27115.37
750.944	27126.9
751.283	26940.69
751.621	26879.45
751.96	26730.07
752.298	26703.86
752.636	26903.18
752.975	26695.27
753.313	26653.24
753.651	26775.95
753.989	26634.26
754.327	26559.91
754.666	26474.04
755.004	26468.84
755.342	26458.67
755.679	26493.24
756.017	26307.03
756.355	26348.62
756.693	26204.21
757.031	26255.96
757.368	26093.25
757.706	26120.37
758.044	25854.16
758.381	26054.16
758.719	25832.47
759.056	25981.39
759.394	25859.81
759.731	25660.05
760.068	25568.52
