Data from hue_120_FLMS001491_00100.txt Node
Date: Tue Feb 07 17:00:18 GMT 2017
User: dcchb
Spectrometer: FLMS00149
Trigger mode: 0
Integration Time (sec): 2.000000E-2
Scans to average: 10
Electric dark correction enabled: true
Nonlinearity correction enabled: false
Boxcar width: 0
XAxis mode: Wavelengths
Number of Pixels in Spectrum: 2048
>>>>>Begin Spectral Data<<<<<
341.393	-11.93
341.776	-11.93
342.16	-11.93
342.543	-52.61
342.927	-63.46
343.31	-62.33
343.693	-61.2
344.077	-62.1
344.46	-51.26
344.843	-46.28
345.226	-24.36
345.61	-54.87
345.993	-16.23
346.376	-9
346.759	5.69
347.142	7.27
347.525	42.08
347.908	61.06
348.291	71.45
348.674	90.89
349.057	109.19
349.44	108.06
349.823	141.51
350.206	156.65
350.588	185.12
350.971	212.92
351.354	235.52
351.737	232.13
352.119	245.46
352.502	291.11
352.884	245.23
353.267	266.25
353.65	294.05
354.032	293.37
354.414	293.59
354.797	317.32
355.179	319.58
355.562	320.49
355.944	329.53
356.326	316.64
356.709	334.5
357.091	331.33
357.473	353.71
357.855	355.29
358.238	332.69
358.62	340.82
359.002	323.88
359.384	338.56
359.766	336.53
360.148	341.73
360.53	323.65
360.912	327.27
361.294	321.84
361.676	342.18
362.057	340.6
362.439	322.52
362.821	309.86
363.203	306.25
363.584	320.94
363.966	311.22
364.348	338.11
364.729	329.3
365.111	301.5
365.493	296.08
365.874	317.77
366.256	305.57
366.637	312.35
367.019	315.29
367.4	322.52
367.781	322.29
368.163	314.84
368.544	320.26
368.925	296.08
369.306	307.6
369.688	299.7
370.069	310.54
370.45	318
370.831	312.58
371.212	320.71
371.593	311.45
371.974	312.12
372.355	318.23
372.736	308.51
373.117	305.8
373.498	305.8
373.879	310.99
374.26	308.96
374.641	308.73
375.021	291.11
375.402	312.58
375.783	341.5
376.163	329.53
376.544	337.21
376.925	324.55
377.305	328.62
377.686	323.2
378.066	331.11
378.447	320.49
378.827	341.28
379.208	338.34
379.588	334.72
379.968	332.01
380.349	317.77
380.729	336.53
381.109	332.91
381.489	343.99
381.87	316.19
382.25	337.89
382.63	331.79
383.01	334.27
383.39	332.69
383.77	347.15
384.15	342.41
384.53	344.89
384.91	347.83
385.29	330.66
385.67	358.45
386.049	372.46
386.429	350.99
386.809	343.99
387.189	348.51
387.568	352.58
387.948	347.38
388.328	357.77
388.707	363.65
389.087	345.8
389.466	357.1
389.846	370.65
390.225	370.2
390.605	367.04
390.984	349.41
391.363	352.12
391.743	380.37
392.122	372.46
392.501	358.45
392.881	387.38
393.26	370.43
393.639	372.91
394.018	394.16
394.397	368.17
394.776	366.59
395.155	379.24
395.534	377.89
395.913	392.12
396.292	399.35
396.671	394.38
397.05	388.96
397.429	382.18
397.808	383.08
398.186	384.44
398.565	398.22
398.944	419.01
399.323	415.85
399.701	431.22
400.08	393.93
400.458	407.72
400.837	395.51
401.215	412.46
401.594	407.04
401.972	400.48
402.351	409.52
402.729	404.55
403.107	393.25
403.486	406.81
403.864	424.21
404.242	422.86
404.62	412.01
404.999	433.25
405.377	417.66
405.755	406.36
406.133	432.57
406.511	408.17
406.889	430.09
407.267	434.16
407.645	443.65
408.023	454.27
408.401	445.91
408.779	446.13
409.156	453.82
409.534	452.91
409.912	450.43
410.29	467.37
410.667	457.66
411.045	465.79
411.422	461.5
411.8	481.84
412.178	456.3
412.555	479.8
412.933	463.08
413.31	480.93
413.687	502.4
414.065	454.04
414.442	496.53
414.819	511.67
415.197	511.44
415.574	510.09
415.951	488.84
416.328	519.12
416.705	506.7
417.082	506.47
417.46	504.44
417.837	520.48
418.214	539.01
418.591	517.99
418.967	544.43
419.344	520.71
419.721	536.07
420.098	536.3
420.475	535.62
420.852	531.78
421.228	535.85
421.605	581.04
421.982	539.24
422.358	540.14
422.735	558.9
423.111	562.06
423.488	560.48
423.864	569.07
424.241	583.3
424.617	589.41
424.994	569.29
425.37	576.3
425.746	600.93
426.123	572.91
426.499	577.2
426.875	587.6
427.251	589.86
427.627	587.82
428.003	615.62
428.379	617.43
428.756	615.62
429.132	645.68
429.507	643.19
429.883	626.69
430.259	603.64
430.635	640.7
431.011	661.72
431.387	661.04
431.763	686.58
432.138	668.73
432.514	662.17
432.89	684.77
433.265	688.61
433.641	708.95
434.016	721.61
434.392	732.23
434.767	708.27
435.143	699.01
435.518	728.84
435.894	753.24
436.269	741.27
436.644	734.94
437.02	769.06
437.395	727.93
437.77	766.12
438.145	763.19
438.52	770.64
438.895	789.85
439.271	787.59
439.646	784.65
440.021	818.33
440.395	803.86
440.77	797.54
441.145	806.35
441.52	828.95
441.895	826.01
442.27	826.01
442.645	842.28
443.019	827.37
443.394	836.63
443.769	856.74
444.143	859.91
444.518	839.57
444.892	856.29
445.267	875.05
445.641	885.22
446.016	878.66
446.39	899.45
446.764	877.08
447.139	889.74
447.513	884.54
447.887	884.09
448.262	906.23
448.636	884.99
449.01	924.99
449.384	937.19
449.758	948.49
450.132	936.06
450.506	948.49
450.88	974.71
451.254	983.07
451.628	962.5
452.002	995.27
452.376	982.62
452.75	1006.34
453.123	1002.5
453.497	1017.19
453.871	1001.6
454.244	1047.02
454.618	1026
454.992	1087.02
455.365	1093.57
455.739	1087.92
456.112	1099
456.486	1103.97
456.859	1091.09
457.232	1126.11
457.606	1149.62
457.979	1145.1
458.352	1140.13
458.725	1197.3
459.099	1206.79
459.472	1203.17
459.845	1227.58
460.218	1227.81
460.591	1240.24
460.964	1275.04
461.337	1298.99
461.71	1294.25
462.083	1317.3
462.456	1324.98
462.829	1346.67
463.201	1377.18
463.574	1377.63
463.947	1398.42
464.32	1411.3
464.692	1419.67
465.065	1435.94
465.438	1454.92
465.81	1476.61
466.183	1494.01
466.555	1531.75
466.928	1524.75
467.3	1550.06
467.672	1583.96
468.045	1622.15
468.417	1626.89
468.789	1655.14
469.161	1665.99
469.534	1705.99
469.906	1752.54
470.278	1783.72
470.65	1832.08
471.022	1825.08
471.394	1869.15
471.766	1896.72
472.138	1911.63
472.51	1988.01
472.882	2004.51
473.253	2060.1
473.625	2095.13
473.997	2147.33
474.369	2195.01
474.74	2188.46
475.112	2272.75
475.484	2324.5
475.855	2377.16
476.227	2414.22
476.598	2498.96
476.97	2530.82
477.341	2641.33
477.713	2684.72
478.084	2719.74
478.455	2790.7
478.827	2850.59
479.198	2980.08
479.569	3021.88
479.94	3144.82
480.311	3185.72
480.682	3252.39
481.053	3392.27
481.424	3453.74
481.795	3531.25
482.166	3644.24
482.537	3722.2
482.908	3842.43
483.279	3925.59
483.65	3990.67
484.021	4149.31
484.391	4268.86
484.762	4354.28
485.133	4411.23
485.503	4532.13
485.874	4655.74
486.244	4750.65
486.615	4934.83
486.985	5006.46
487.356	5151.55
487.726	5257.98
488.097	5419.11
488.467	5481.93
488.837	5690.29
489.207	5796.73
489.578	5969.15
489.948	6067.68
490.318	6189.48
490.688	6296.83
491.058	6492.3
491.428	6630.15
491.798	6750.15
492.168	6896.58
492.538	7069.01
492.908	7117.37
493.278	7327.99
493.648	7395.33
494.017	7564.14
494.387	7641.88
494.757	7799.16
495.126	7964.13
495.496	8024.24
495.866	8186.49
496.235	8254.29
496.605	8420.16
496.974	8558.24
497.344	8673.94
497.713	8768.63
498.082	8911.45
498.452	9059.69
498.821	9117.54
499.19	9157.99
499.559	9421.72
499.928	9464.2
500.298	9592.78
500.667	9712.33
501.036	9700.8
501.405	9825.55
501.774	9866.9
502.143	10069.61
502.512	10062.83
502.88	10226.89
503.249	10285.87
503.618	10425.53
503.987	10418.75
504.356	10567
504.724	10702.13
505.093	10648.58
505.462	10771.51
505.83	10885.18
506.199	11044.5
506.567	11124.5
506.936	11181.67
507.304	11295.34
507.672	11332.17
508.041	11451.04
508.409	11443.36
508.777	11569.46
509.145	11689.9
509.514	11613.75
509.882	11799.96
510.25	11741.2
510.618	11800.86
510.986	11867.07
511.354	12023.46
511.722	12055.54
512.09	12218.7
512.458	12164.69
512.826	12322.43
513.193	12242.21
513.561	12387.74
513.929	12423.67
514.297	12564.68
514.664	12532.59
515.032	12655.08
515.4	12654.62
515.767	12707.28
516.135	12742.76
516.502	12710.89
516.869	12830.89
517.237	12860.5
517.604	12818.24
517.972	12993.15
518.339	13082.41
518.706	12942.98
519.073	13007.84
519.44	13033.6
519.808	13124.44
520.175	13115.63
520.542	13182.29
520.909	13279.02
521.276	13242.18
521.643	13305.68
522.009	13409.41
522.376	13443.53
522.743	13446.24
523.11	13575.73
523.477	13547.71
523.843	13567.37
524.21	13722.17
524.577	13736.4
524.943	13776.18
525.31	13764.88
525.676	13857.98
526.043	13879.45
526.409	13888.49
526.776	13968.04
527.142	13977.75
527.508	13893.91
527.874	14042.39
528.241	14054.14
528.607	14069.28
528.973	14126.22
529.339	14046.68
529.705	14073.34
530.071	14168.48
530.437	14135.04
530.803	14215.71
531.169	14208.48
531.535	14145.89
531.901	14167.81
532.267	14112.67
532.632	14239.89
532.998	14192.66
533.364	14205.09
533.73	14197.18
534.095	14224.08
534.461	14156.28
534.826	14190.63
535.192	14211.42
535.557	14211.19
535.923	14130.07
536.288	14151.53
536.653	14106.34
537.019	14064.08
537.384	14015.72
537.749	14118.54
538.114	14072.21
538.479	14030.18
538.845	14039.9
539.21	13890.52
539.575	13962.16
539.94	13938.21
540.305	13975.27
540.67	13874.93
541.034	13872.22
541.399	13929.85
541.764	13837.64
542.129	13843.52
542.494	13836.97
542.858	13785.22
543.223	13757.42
543.587	13793.8
543.952	13748.83
544.316	13683.98
544.681	13664.32
545.045	13667.48
545.41	13611.21
545.774	13653.47
546.138	13556.3
546.503	13551.32
546.867	13431.55
547.231	13520.59
547.595	13504.09
547.959	13477.65
548.324	13416.41
548.688	13298.68
549.052	13374.61
549.416	13298
549.779	13298.9
550.143	13278.56
550.507	13317.88
550.871	13245.34
551.235	13163.76
551.599	13258.22
551.962	13211.22
552.326	13231.56
552.689	13244.67
553.053	13101.17
553.417	13107.49
553.78	13216.87
554.143	13051.45
554.507	13105.46
554.87	13106.14
555.234	13155.85
555.597	12954.96
555.96	13037.44
556.323	13012.81
556.686	13060.26
557.05	13021.17
557.413	13042.41
557.776	13077.89
558.139	13037.67
558.502	13014.39
558.865	13001.06
559.228	12980.94
559.59	13078.57
559.953	12979.36
560.316	13134.61
560.679	13079.02
561.041	13116.31
561.404	13039.02
561.767	13085.12
562.129	13013.49
562.492	13121.28
562.854	13085.8
563.217	13041.51
563.579	12983.2
563.941	13099.36
564.304	13135.29
564.666	13144.56
565.028	13191.11
565.39	13170.09
565.753	13140.04
566.115	13174.16
566.477	13234.5
566.839	13287.38
567.201	13264.55
567.563	13306.36
567.925	13284.21
568.287	13283.76
568.648	13294.61
569.01	13300.94
569.372	13420.93
569.734	13340.03
570.095	13388.39
570.457	13323.53
570.819	13317.43
571.18	13401.27
571.542	13438.11
571.903	13374.61
572.265	13483.76
572.626	13467.71
572.987	13532.79
573.349	13469.07
573.71	13561.27
574.071	13525.79
574.432	13537.09
574.794	13579.8
575.155	13568.95
575.516	13530.08
575.877	13598.33
576.238	13542.96
576.599	13582.06
576.96	13550.87
577.32	13576.41
577.681	13595.84
578.042	13622.06
578.403	13676.74
578.763	13595.17
579.124	13596.75
579.485	13655.5
579.845	13678.55
580.206	13638.33
580.566	13638.78
580.927	13607.37
581.287	13584.09
581.648	13578.89
582.008	13675.39
582.368	13611.66
582.728	13630.87
583.089	13581.83
583.449	13628.84
583.809	13634.94
584.169	13695.28
584.529	13591.55
584.889	13626.35
585.249	13540.48
585.609	13552
585.969	13604.43
586.329	13477.2
586.688	13569.63
587.048	13577.09
587.408	13566.24
587.768	13394.27
588.127	13520.59
588.487	13463.19
588.846	13581.38
589.206	13440.14
589.565	13514.04
589.925	13502.74
590.284	13370.99
590.643	13517.88
591.003	13464.55
591.362	13451.44
591.721	13463.64
592.08	13379.13
592.44	13360.37
592.799	13492.12
593.158	13402.85
593.517	13381.61
593.876	13406.02
594.235	13371.89
594.593	13397.66
594.952	13386.58
595.311	13359.69
595.67	13346.58
596.029	13432.01
596.387	13476.3
596.746	13467.26
597.104	13286.47
597.463	13304.33
597.822	13377.77
598.18	13272.46
598.538	13290.77
598.897	13399.24
599.255	13274.27
599.613	13471.78
599.972	13373.25
600.33	13372.57
600.688	13295.51
601.046	13350.43
601.404	13411.67
601.762	13359.01
602.12	13429.52
602.478	13420.93
602.836	13385.45
603.194	13358.79
603.552	13380.48
603.91	13286.25
604.268	13376.41
604.625	13350.65
604.983	13386.81
605.341	13303.87
605.698	13375.51
606.056	13417.99
606.413	13392.23
606.771	13413.25
607.128	13347.94
607.485	13338.22
607.843	13451.21
608.2	13361.72
608.557	13505.22
608.914	13417.77
609.272	13466.13
609.629	13545.22
609.986	13523.75
610.343	13433.14
610.7	13598.55
611.057	13529.86
611.414	13509.07
611.771	13508.16
612.127	13533.25
612.484	13380.03
612.841	13528.05
613.198	13566.92
613.554	13473.13
613.911	13657.08
614.267	13563.75
614.624	13561.04
614.98	13580.7
615.337	13732.79
615.693	13636.75
616.05	13617.54
616.406	13727.37
616.762	13614.6
617.118	13598.33
617.475	13647.37
617.831	13701.6
618.187	13707.7
618.543	13752.45
618.899	13858.89
619.255	13742.96
619.611	13667.48
619.967	13806.46
620.323	13834.03
620.678	13776.86
621.034	13759
621.39	13719.46
621.746	13678.1
622.101	13799.45
622.457	13735.5
622.812	13773.24
623.168	13719
623.523	13674.49
623.879	13846.23
624.234	13656.63
624.589	13733.01
624.945	13793.8
625.3	13859.11
625.655	13785.67
626.01	13754.71
626.365	13794.26
626.72	13787.25
627.075	13697.31
627.43	13715.84
627.785	13793.13
628.14	13781.15
628.495	13748.38
628.85	13657.54
629.205	13684.43
629.559	13784.76
629.914	13669.51
630.269	13772.56
630.623	13715.16
630.978	13754.71
631.332	13727.14
631.687	13683.52
632.041	13678.78
632.396	13708.38
632.75	13611.44
633.104	13632.68
633.459	13599.46
633.813	13554.26
634.167	13560.59
634.521	13532.12
634.875	13574.83
635.229	13627.93
635.583	13532.79
635.937	13492.79
636.291	13494.38
636.645	13451.44
636.999	13401.27
637.352	13460.71
637.706	13399.69
638.06	13399.01
638.413	13443.76
638.767	13363.53
639.121	13384.32
639.474	13297.32
639.828	13191.11
640.181	13334.16
640.534	13272.69
640.888	13238.11
641.241	13200.6
641.594	13212.12
641.947	13299.35
642.301	13167.61
642.654	13255.51
643.007	13221.84
643.36	13256.42
643.713	13127.61
644.066	13149.3
644.419	13212.35
644.771	13035.41
645.124	13056.2
645.477	12953.15
645.83	12866.14
646.182	12881.29
646.535	12847.16
646.888	12843.32
647.24	12736.43
647.593	12801.74
647.945	12850.33
648.298	12813.49
648.65	12759.03
649.002	12705.02
649.355	12742.76
649.707	12777.33
650.059	12758.58
650.411	13002.64
650.763	12903.88
651.115	13062.07
651.467	12982.3
651.819	12930.1
652.171	13069.3
652.523	12917.22
652.875	13002.64
653.227	12981.17
653.578	12987.95
653.93	13003.09
654.282	12953.15
654.633	12944.56
654.985	12905.69
655.337	12906.6
655.688	12902.08
656.039	13037.67
656.391	12908.86
656.742	12961.28
657.094	12921.51
657.445	13032.69
657.796	12976.65
658.147	12871.12
658.498	13017.55
658.849	12920.15
659.2	13008.51
659.551	12928.97
659.902	13032.47
660.253	13037.89
660.604	13034.95
660.955	13011.68
661.306	13024.11
661.656	12938.91
662.007	13036.08
662.358	12992.7
662.708	12957.67
663.059	13015.75
663.409	12892.36
663.76	13021.17
664.11	13046.48
664.461	13146.82
664.811	13089.42
665.161	13053.71
665.511	13060.94
665.862	13056.65
666.212	13054.84
666.562	13081.28
666.912	12998.12
667.262	12945.69
667.612	13025.46
667.962	13002.19
668.312	13034.5
668.662	13029.76
669.011	12974.84
669.361	12971.68
669.711	12959.7
670.06	12903.43
670.41	13023.2
670.76	12888.29
671.109	12956.09
671.459	12920.15
671.808	12936.65
672.157	13019.81
672.507	12893.71
672.856	12946.14
673.205	12936.65
673.554	12885.81
673.904	12952.24
674.253	12985.01
674.602	12921.06
674.951	12726.71
675.3	12613.27
675.649	12900.49
675.998	12877.67
676.346	12909.76
676.695	12961.28
677.044	12784.34
677.393	12786.6
677.741	12811.46
678.09	12848.97
678.438	12760.84
678.787	12796.32
679.135	12762.64
679.484	12679.48
679.832	12661.86
680.181	12557.23
680.529	12647.85
680.877	12558.81
681.225	12587.06
681.573	12639.03
681.922	12563.78
682.27	12473.39
682.618	12513.16
682.966	12488.53
683.314	12521.07
683.661	12483.78
684.009	12426.83
684.357	12332.6
684.705	12386.38
685.053	12291.02
685.4	12385.03
685.748	12352.26
686.095	12339.6
686.443	12204.69
686.79	12202.66
687.138	12258.7
687.485	12284.24
687.832	12084.02
688.18	12168.31
688.527	12087.86
688.874	12051.25
689.221	12015.32
689.568	12024.58
689.915	11985.94
690.262	11964.25
690.609	11860.3
690.956	11850.35
691.303	11879.05
691.65	11813.74
691.997	11889.9
692.344	11684.48
692.69	11748.21
693.037	11710.92
693.383	11543.02
693.73	11647.42
694.077	11589.79
694.423	11534.65
694.769	11515.67
695.116	11433.87
695.462	11394.32
695.808	11418.05
696.155	11404.71
696.501	11283.14
696.847	11276.36
697.193	11119.3
697.539	11277.71
697.885	11114.33
698.231	10994.78
698.577	11096.7
698.923	11035.01
699.269	10957.04
699.614	10968.12
699.96	10945.07
700.306	10859.42
700.651	10774.9
700.997	10790.72
701.342	10764.96
701.688	10761.34
702.033	10731.74
702.379	10698.29
702.724	10611.74
703.069	10647.67
703.415	10488.81
703.76	10526.55
704.105	10538.97
704.45	10509.37
704.795	10421.69
705.14	10281.81
705.485	10301.92
705.83	10309.6
706.175	10346.66
706.52	10235.93
706.865	10218.76
707.209	10201.13
707.554	10167.46
707.899	10117.74
708.243	10150.96
708.588	10137.4
708.932	10044.07
709.277	10009.72
709.621	10025.77
709.966	9905.09
710.31	9997.07
710.654	9898.09
710.998	9888.37
711.342	9914.13
711.687	9844.53
712.031	9779.45
712.375	9806.79
712.719	9770.18
713.063	9738.09
713.407	9807.24
713.75	9666.91
714.094	9778.32
714.438	9678.88
714.782	9668.94
715.125	9603.18
715.469	9618.09
715.812	9579
716.156	9537.19
716.499	9534.71
716.843	9604.54
717.186	9505.33
717.53	9554.37
717.873	9532.9
718.216	9485.67
718.559	9513.92
718.902	9391.21
719.246	9478.89
719.589	9385.11
719.932	9398.89
720.275	9380.36
720.617	9341.94
720.96	9397.76
721.303	9372.23
721.646	9367.03
721.989	9298.78
722.331	9359.57
722.674	9296.3
723.016	9309.4
723.359	9293.81
723.701	9316.41
724.044	9198.22
724.386	9217.2
724.729	9249.74
725.071	9264.66
725.413	9243.42
725.755	9211.78
726.097	9143.08
726.439	9093.36
726.782	9121.16
727.124	9226.92
727.465	9151.89
727.807	9155.96
728.149	9183.76
728.491	9115.96
728.833	9141.95
729.175	9150.76
729.516	9115.28
729.858	9117.09
730.199	9120.48
730.541	9089.29
730.882	9100.59
731.224	9153.02
731.565	9047.04
731.906	9042.29
732.248	9082.06
732.589	9064.66
732.93	9048.84
733.271	9019.92
733.612	9138.79
733.953	9089.52
734.294	9017.43
734.635	8979.02
734.976	9109.63
735.317	9056.98
735.658	9084.32
735.999	9098.33
736.339	9059.24
736.68	9099.01
737.021	9115.06
737.361	9033.93
737.702	9103.08
738.042	9094.72
738.383	9079.8
738.723	9073.25
739.063	9093.81
739.404	9158.67
739.744	9153.7
740.084	9133.36
740.424	9148.95
740.764	9125.9
741.104	9245.45
741.444	9117.99
741.784	9162.97
742.124	9231.21
742.464	9254.26
742.804	9229.86
743.143	9242.29
743.483	9261.27
743.823	9286.13
744.162	9300.81
744.502	9288.84
744.841	9247.71
745.181	9455.61
745.52	9396.41
745.86	9356.86
746.199	9400.93
746.538	9544.65
746.877	9543.97
747.216	9611.09
747.556	9590.98
747.895	9716.17
748.234	9735.15
748.573	9767.47
748.911	9846.34
749.25	9841.14
749.589	9928.59
749.928	9945.77
750.267	10090.17
750.605	10146.44
750.944	10171.75
751.283	10207.01
751.621	10245.42
751.96	10412.88
752.298	10508.69
752.636	10543.27
752.975	10653.32
753.313	10766.99
753.651	10873.88
753.989	10881.11
754.327	11030.26
754.666	11056.93
755.004	11313.42
755.342	11384.15
755.679	11566.07
756.017	11567.87
756.355	11742.56
756.693	11801.99
757.031	12037.47
757.368	12107.75
757.706	12233.84
758.044	12421.41
758.381	12515.87
