Data from hue_40_FLMS001491_56.txt Node
Date: Mon Feb 06 15:08:06 GMT 2017
User: dcchb
Spectrometer: FLMS00149
Trigger mode: 0
Integration Time (sec): 2.000000E-2
Scans to average: 10
Electric dark correction enabled: true
Nonlinearity correction enabled: false
Boxcar width: 0
XAxis mode: Wavelengths
Number of Pixels in Spectrum: 2048
>>>>>Begin Spectral Data<<<<<
341.393	-11.02
341.776	-11.02
342.16	-11.02
342.543	-55.99
342.927	-60.51
343.31	-63.9
343.693	-76.55
344.077	-59.38
344.46	-69.55
344.843	-62.99
345.226	-39.72
345.61	-40.39
345.993	-15.76
346.376	-13.05
346.759	19.72
347.142	33.5
347.525	35.99
347.908	63.56
348.291	74.63
348.674	100.39
349.057	113.5
349.44	118.25
349.823	153.72
350.206	166.83
350.588	169.54
350.971	219.26
351.354	231.01
351.737	228.53
352.119	254.97
352.502	264.91
352.884	263.55
353.267	273.72
353.65	286.15
354.032	282.53
354.414	316.88
354.797	327.96
355.179	320.73
355.562	317.56
355.944	327.73
356.326	350.56
356.709	342.42
357.091	342.19
357.473	360.27
357.855	348.07
358.238	343.78
358.62	352.36
359.002	355.3
359.384	344.23
359.766	320.73
360.148	346.26
360.53	332.03
360.912	345.13
361.294	333.61
361.676	330.9
362.057	338.35
362.439	350.56
362.821	348.52
363.203	342.65
363.584	330.9
363.966	349.88
364.348	326.38
364.729	326.6
365.111	314.85
365.493	335.19
365.874	320.95
366.256	322.31
366.637	324.57
367.019	325.92
367.4	337.9
367.781	342.87
368.163	328.86
368.544	329.77
368.925	308.52
369.306	323.44
369.688	341.52
370.069	325.92
370.45	329.31
370.831	329.54
371.212	332.03
371.593	318.24
371.974	308.75
372.355	330.22
372.736	314.4
373.117	316.43
373.498	310.1
373.879	307.85
374.26	312.82
374.641	344.45
375.021	306.94
375.402	322.08
375.783	326.38
376.163	362.98
376.544	346.71
376.925	340.61
377.305	328.41
377.686	327.51
378.066	322.53
378.447	339.48
378.827	351.91
379.208	347.62
379.588	336.77
379.968	363.44
380.349	332.03
380.729	341.97
381.109	330.44
381.489	359.14
381.87	330.9
382.25	352.14
382.63	349.65
383.01	322.99
383.39	329.77
383.77	347.17
384.15	369.99
384.53	354.62
384.91	349.43
385.29	353.49
385.67	384.68
386.049	356.21
386.429	368.18
386.809	368.41
387.189	370.89
387.568	372.02
387.948	367.28
388.328	374.28
388.707	359.37
389.087	353.95
389.466	386.71
389.846	367.73
390.225	373.38
390.605	379.93
390.984	378.58
391.363	356.66
391.743	378.8
392.122	375.19
392.501	371.8
392.881	388.52
393.26	375.41
393.639	403.66
394.018	376.54
394.397	386.26
394.776	390.1
395.155	383.55
395.534	391.01
395.913	391.46
396.292	400.95
396.671	391.46
397.05	407.05
397.429	396.88
397.808	374.28
398.186	405.92
398.565	398.01
398.944	388.52
399.323	413.38
399.701	404.79
400.08	413.6
400.458	424.45
400.837	411.8
401.215	403.66
401.594	396.88
401.972	404.57
402.351	399.14
402.729	414.28
403.107	415.64
403.486	412.25
403.864	406.37
404.242	419.71
404.62	404.11
404.999	440.5
405.377	419.48
405.755	440.04
406.133	425.58
406.511	453.38
406.889	438.92
407.267	443.43
407.645	443.89
408.023	420.61
408.401	429.42
408.779	454.73
409.156	458.8
409.534	463.55
409.912	461.74
410.29	459.48
410.667	449.08
411.045	455.64
411.422	479.14
411.8	464.45
412.178	481.85
412.555	466.26
412.933	478.01
413.31	487.28
413.687	499.03
414.065	465.58
414.442	505.58
414.819	502.42
415.197	491.34
415.574	475.98
415.951	494.28
416.328	508.07
416.705	501.51
417.082	505.58
417.46	512.13
417.837	510.78
418.214	498.12
418.591	506.71
418.967	519.59
419.344	526.14
419.721	526.14
420.098	522.75
420.475	536.77
420.852	529.31
421.228	518.69
421.605	547.61
421.982	536.09
422.358	565.01
422.735	571.79
423.111	541.51
423.488	566.14
423.864	559.59
424.241	557.56
424.617	577.44
424.994	545.13
425.37	558.91
425.746	593.26
426.123	586.71
426.499	574.05
426.875	572.47
427.251	606.14
427.627	619.02
428.003	614.96
428.379	605.92
428.756	587.61
429.132	611.79
429.507	626.25
429.883	619.48
430.259	646.59
430.635	628.74
431.011	635.07
431.387	649.3
431.763	659.47
432.138	642.07
432.514	652.69
432.89	675.07
433.265	657.89
433.641	690.43
434.016	686.82
434.392	679.13
434.767	685.24
435.143	687.27
435.518	719.36
435.894	700.6
436.269	732.01
436.644	744.44
437.02	721.85
437.395	736.99
437.77	736.08
438.145	742.64
438.52	746.93
438.895	750.32
439.271	759.81
439.646	752.81
440.021	759.58
440.395	772.47
440.77	761.17
441.145	780.15
441.52	788.96
441.895	795.52
442.27	787.61
442.645	805.23
443.019	793.71
443.394	799.81
443.769	822.41
444.143	816.98
444.518	819.24
444.892	809.53
445.267	835.06
445.641	832.8
446.016	829.41
446.39	839.13
446.764	854.5
447.139	844.78
447.513	862.63
447.887	859.47
448.262	869.64
448.636	865.34
449.01	885.91
449.384	887.26
449.758	877.32
450.132	902.41
450.506	898.56
450.88	859.92
451.254	880.26
451.628	926.36
452.002	901.95
452.376	909.41
452.75	916.42
453.123	933.37
453.497	946.7
453.871	965.23
454.244	977.88
454.618	971.1
454.992	1012.23
455.365	979.69
455.739	1028.05
456.112	1006.81
456.486	1032.57
456.859	1032.12
457.232	1049.97
457.606	1038.45
457.979	1045.9
458.352	1091.55
458.725	1079.12
459.099	1092.01
459.472	1113.47
459.845	1109.18
460.218	1129.74
460.591	1138.56
460.964	1169.52
461.337	1173.81
461.71	1167.03
462.083	1207.03
462.456	1219.46
462.829	1191.21
463.201	1220.14
463.574	1246.35
463.947	1262.17
464.32	1287.48
464.692	1289.29
465.065	1291.55
465.438	1317.08
465.81	1331.77
466.183	1360.02
466.555	1381.04
466.928	1394.14
467.3	1422.17
467.672	1420.58
468.045	1463.97
468.417	1471.2
468.789	1499.23
469.161	1516.4
469.534	1529.51
469.906	1568.6
470.278	1589.85
470.65	1604.31
471.022	1618.55
471.394	1680.24
471.766	1694.93
472.138	1714.14
472.51	1767.02
472.882	1807.24
473.253	1854.25
473.625	1854.92
473.997	1899.44
474.369	1944.41
474.74	1969.72
475.112	1956.84
475.484	2054.24
475.855	2082.71
476.227	2122.94
476.598	2186.21
476.97	2222.14
477.341	2301.69
477.713	2307.11
478.084	2376.49
478.455	2428.92
478.827	2445.64
479.198	2548.24
479.569	2601.8
479.94	2701
480.311	2767.89
480.682	2816.03
481.053	2910.26
481.424	2981.9
481.795	3034.1
482.166	3167.2
482.537	3225.73
482.908	3341.21
483.279	3383.7
483.65	3459.17
484.021	3554.09
484.391	3644.71
484.762	3699.17
485.133	3787.98
485.503	3872.05
485.874	4009.89
486.244	4060.51
486.615	4194.75
486.985	4288.76
487.356	4448.08
487.726	4465.48
488.097	4611.69
488.467	4674.51
488.837	4830.89
489.207	4972.81
489.578	5060.71
489.948	5130.77
490.318	5255.96
490.688	5373.93
491.058	5425.9
491.428	5601.04
491.798	5679.46
492.168	5831.54
492.538	5914.93
492.908	6056.17
493.278	6200.12
493.648	6227.46
494.017	6345.2
494.387	6551.07
494.757	6551.07
495.126	6722.37
495.496	6791.29
495.866	6939.76
496.235	6991.51
496.605	7151.73
496.974	7264.95
497.344	7391.27
497.713	7449.35
498.082	7536.58
498.452	7703.81
498.821	7770.02
499.19	7753.75
499.559	7957.36
499.928	8029.9
500.298	8159.39
500.667	8291.82
501.036	8288.65
501.405	8381.76
501.774	8463.56
502.143	8549.44
502.512	8617.68
502.88	8787.85
503.249	8838.24
503.618	8911.01
503.987	8962.31
504.356	9067.39
504.724	9145.13
505.093	9262.19
505.462	9319.13
505.83	9404.55
506.199	9590.09
506.567	9617.88
506.936	9645.45
507.304	9818.56
507.672	9844.54
508.041	9933.13
508.409	10003.86
508.777	10136.97
509.145	10190.07
509.514	10248.6
509.882	10390.52
510.25	10402.72
510.618	10527.46
510.986	10542.15
511.354	10696.5
511.722	10747.12
512.09	10903.05
512.458	10825.31
512.826	10939.2
513.193	11061.01
513.561	11124.06
513.929	11259.2
514.297	11349.36
514.664	11375.8
515.032	11447.67
515.4	11542.35
515.767	11607.89
516.135	11634.1
516.502	11589.13
516.869	11844.49
517.237	11894.88
517.604	11924.26
517.972	12006.29
518.339	12120.87
518.706	12136.01
519.073	12189.57
519.44	12331.26
519.808	12418.94
520.175	12491.03
520.542	12627.3
520.909	12636.33
521.276	12721.53
521.643	12853.28
522.009	12883.11
522.376	12974.4
522.743	13038.58
523.11	13189.54
523.477	13265.47
523.843	13380.95
524.21	13381.4
524.577	13523.77
524.943	13620.04
525.31	13672.24
525.676	13794.5
526.043	13898.22
526.409	13928.05
526.776	14088.73
527.142	14193.13
527.508	14208.04
527.874	14296.86
528.241	14414.82
528.607	14450.98
528.973	14583.85
529.339	14555.38
529.705	14757.41
530.071	14830.63
530.437	14898.2
530.803	15019.1
531.169	15152.88
531.535	15047.57
531.901	15177.51
532.267	15262.93
532.632	15283.27
532.998	15382.93
533.364	15491.17
533.73	15521.23
534.095	15592.87
534.461	15640.55
534.826	15791.05
535.192	15792.64
535.557	15921.45
535.923	15939.07
536.288	15989.24
536.653	16099.97
537.019	16141.33
537.384	16134.1
537.749	16227.65
538.114	16262.91
538.479	16402.79
538.845	16474.88
539.21	16407.53
539.575	16507.65
539.94	16590.35
540.305	16684.82
540.67	16688.88
541.034	16877.8
541.399	16873.96
541.764	16896.34
542.129	17032.83
542.494	17115.09
542.858	17235.54
543.223	17192.15
543.587	17230.79
543.952	17313.05
544.316	17288.42
544.681	17371.58
545.045	17453.16
545.41	17559.37
545.774	17620.38
546.138	17559.14
546.503	17780.38
546.867	17794.16
547.231	17825.8
547.595	17935.63
547.959	18005.01
548.324	17936.76
548.688	18052.69
549.052	18147.15
549.416	18222.85
549.779	18236.19
550.143	18332.91
550.507	18391.44
550.871	18461.04
551.235	18495.84
551.599	18647.93
551.962	18588.95
552.326	18689.06
552.689	18807.7
553.053	18750.07
553.417	18811.31
553.78	19026.9
554.143	18992.1
554.507	19084.53
554.87	19076.62
555.234	19315.48
555.597	19213.11
555.96	19246.56
556.323	19352.77
556.686	19370.62
557.05	19477.51
557.413	19507.57
557.776	19556.38
558.139	19747.56
558.502	19784.17
558.865	19838.18
559.228	20024.39
559.59	19988.68
559.953	19985.75
560.316	20242.69
560.679	20186.19
561.041	20305.06
561.404	20459.18
561.767	20591.38
562.129	20437.49
562.492	20818.49
562.854	20718.38
563.217	20800.41
563.579	20827.98
563.941	20982.33
564.304	21057.13
564.666	21214.41
565.028	21220.97
565.39	21291.25
565.753	21331.7
566.115	21505.48
566.477	21554.97
566.839	21497.34
567.201	21641.52
567.563	21798.81
567.925	21843.1
568.287	21886.71
568.648	21896.66
569.01	22081.28
569.372	22259.13
569.734	22077.67
570.095	22254.61
570.457	22482.4
570.819	22511.78
571.18	22522.63
571.542	22757.2
571.903	22767.14
572.265	22816.41
572.626	23001.71
572.987	23022.05
573.349	23112.44
573.71	23234.7
574.071	23239.67
574.432	23308.37
574.794	23585.43
575.155	23558.99
575.516	23656.84
575.877	23782.71
576.238	23895.47
576.599	24040.55
576.96	24115.35
577.32	24179.99
577.681	24274.67
578.042	24329.36
578.403	24492.29
578.763	24649.35
579.124	24834.88
579.485	25016.57
579.845	25190.58
580.206	25114.65
580.566	25214.99
580.927	25485.26
581.287	25758.7
581.648	25685.26
582.008	25936.55
582.368	26038.69
582.728	26150.1
583.089	26301.74
583.449	26588.96
583.809	26673.25
584.169	26918.67
584.529	27021.04
584.889	27302.16
585.249	27324.54
585.609	27545.77
585.969	27814.47
586.329	27743.28
586.688	28091.3
587.048	28246.09
587.408	28370.16
587.768	28652.41
588.127	28723.14
588.487	28857.83
588.846	29252.39
589.206	29336.91
589.565	29382.33
589.925	29747.52
590.284	29923.34
590.643	30066.16
591.003	30384.12
591.362	30626.6
591.721	30694.39
592.08	30911.11
592.44	31153.81
592.799	31373.69
593.158	31479.68
593.517	31653.24
593.876	31860.91
594.235	31882.61
594.593	32150.85
594.952	32544.51
595.311	32572.99
595.67	32761.68
596.029	33090.26
596.387	33108.11
596.746	33437.82
597.104	33443.47
597.463	33621.77
597.822	33991.48
598.18	34006.85
598.538	34105.6
598.897	34477.34
599.255	34371.36
599.613	35009.98
599.972	34904.68
600.33	35197.32
600.688	35169.98
601.046	35412.23
601.404	35595.28
601.762	35727.7
602.12	35863.52
602.478	36148.48
602.836	36238.65
603.194	36160.01
603.552	36431.19
603.91	36260.8
604.268	36661.92
604.625	36765.87
604.983	36975.36
605.341	36919.76
605.698	37130.15
606.056	37327.44
606.413	37373.99
606.771	37637.71
607.128	37831.38
607.485	37615.11
607.843	37791.15
608.2	38145.49
608.557	38353.17
608.914	38256.9
609.272	38502.55
609.629	38705.71
609.986	38869.09
610.343	38716.1
610.7	39245.13
611.057	39293.26
611.414	39328.74
611.771	39382.3
612.127	39563.31
612.484	39528.96
612.841	39840.59
613.198	39801.95
613.554	39818.9
613.911	40177.31
614.267	40293.91
614.624	40169.62
614.98	40268.15
615.337	40686.9
615.693	40564.87
616.05	40613.9
616.406	40784.75
616.762	40722.15
617.118	40877.85
617.475	40872.43
617.831	41045.76
618.187	41075.13
618.543	41219.76
618.899	41358.97
619.255	41575.46
619.611	41416.37
619.967	41642.8
620.323	41647.1
620.678	41608.68
621.034	41598.28
621.39	41619.75
621.746	41662.01
622.101	42176.57
622.457	41861.33
622.812	41928.67
623.168	42041.89
623.523	42187.87
623.879	42296.12
624.234	42017.48
624.589	42271.26
624.945	42325.95
625.3	42469.67
625.655	42388.77
626.01	42570.69
626.365	42542.21
626.72	42636.9
627.075	42474.19
627.43	42528.88
627.785	42462.44
628.14	42497.02
628.495	42563.46
628.85	42501.99
629.205	42450.92
629.559	42791.02
629.914	42629.9
630.269	42727.07
630.623	42721.87
630.978	42522.1
631.332	42854.52
631.687	42707.41
632.041	42580.86
632.396	42659.73
632.75	42539.73
633.104	42726.16
633.459	42542.44
633.813	42577.47
634.167	42628.54
634.521	42591.25
634.875	42620.86
635.229	42540.41
635.583	42340.86
635.937	42476.68
636.291	42319.85
636.645	42356.46
636.999	42269
637.352	42509.22
637.706	42210.25
638.06	42449.79
638.413	42325.5
638.767	42261.54
639.121	42244.14
639.474	42094.54
639.828	42150.59
640.181	42205.27
640.534	42178.61
640.888	42101.1
641.241	42003.92
641.594	42226.29
641.947	42232.39
642.301	42011.38
642.654	42152.39
643.007	42141.55
643.36	41976.13
643.713	41926.41
644.066	42228.78
644.419	41880.54
644.771	41597.15
645.124	41233.1
645.477	41233.32
645.83	40979.09
646.182	40930.05
646.535	40675.6
646.888	40866.55
647.24	40553.79
647.593	40875.82
647.945	40570.06
648.298	40512.21
648.65	40504.3
649.002	40532.32
649.355	40727.12
649.707	40581.59
650.059	40637.63
650.411	41180.44
650.763	41110.61
651.115	41653.42
651.467	41445.97
651.819	41341.57
652.171	41382.47
652.523	41215.7
652.875	41288.24
653.227	41050.95
653.578	41421.34
653.93	41286.2
654.282	41160.33
654.633	41230.38
654.985	41089.15
655.337	41091.63
655.688	41163.04
656.039	41320.33
656.391	40956.49
656.742	41043.95
657.094	41030.39
657.445	41219.54
657.796	41012.54
658.147	41005.31
658.498	40994.23
658.849	41231.51
659.2	41061.12
659.551	40979.54
659.902	41230.16
660.253	40860.9
660.604	40998.98
660.955	40764.63
661.306	41082.59
661.656	40848.25
662.007	40972.76
662.358	40987.45
662.708	41008.02
663.059	40913.11
663.409	40755.82
663.76	40894.35
664.11	40904.07
664.461	40837.4
664.811	40749.72
665.161	40764.41
665.511	40541.82
665.862	40633.56
666.212	40863.61
666.562	40908.81
666.912	40841.02
667.262	40805.31
667.612	40711.98
667.962	40816.38
668.312	40629.27
668.662	40843.05
669.011	40776.39
669.361	40634.92
669.711	40598.31
670.06	40609.61
670.41	40511.08
670.76	40495.94
671.109	40671.53
671.459	40570.74
671.808	40512.21
672.157	40745.2
672.507	40475.15
672.856	40543.85
673.205	40572.77
673.554	40637.41
673.904	40465.43
674.253	40635.15
674.602	40652.77
674.951	39933.7
675.3	39750.42
675.649	40298.66
675.998	40371.42
676.346	40373.46
676.695	40475.38
677.044	40116.97
677.393	40430.18
677.741	40135.72
678.09	40240.13
678.438	40034.26
678.787	40212.56
679.135	40140.24
679.484	39982.96
679.832	40074.71
680.181	39865.67
680.529	40056.18
680.877	39868.39
681.225	39826.58
681.573	40022.51
681.922	39737.54
682.27	39803.08
682.618	39607.6
682.966	39549.75
683.314	39746.36
683.661	39497.78
684.009	39331.45
684.357	39275.18
684.705	39337.55
685.053	39273.6
685.4	39261.85
685.748	38975.75
686.095	39087.16
686.443	38957.45
686.79	38903.67
687.138	39002.42
687.485	38858.02
687.832	38827.96
688.18	38868.41
688.527	38560.4
688.874	38686.95
689.221	38550.91
689.568	38383.68
689.915	38272.72
690.262	38277.69
690.609	38256.68
690.956	38135.55
691.303	38081.09
691.65	37813.53
691.997	37973.75
692.344	37586.86
692.69	37540.54
693.037	37644.72
693.383	37277.27
693.73	37500.09
694.077	37207.21
694.423	37292.18
694.769	37124.05
695.116	36912.76
695.462	36887.22
695.808	36826.66
696.155	36959.99
696.501	36701.69
696.847	36724.51
697.193	36448.14
697.539	36621.47
697.885	36306.45
698.231	36109.16
698.577	36235.94
698.923	36066.23
699.269	35941.71
699.614	35899.9
699.96	35807.48
700.306	35845.22
700.651	35668.95
700.997	35541.49
701.342	35509.63
701.688	35464.21
702.033	35361.16
702.379	35418.11
702.724	35207.27
703.069	35297.89
703.415	34896.99
703.76	34954.62
704.105	34863.77
704.45	34816.54
704.795	34647.73
705.14	34481.41
705.485	34538.58
705.83	34370
706.175	34429.21
706.52	34319.61
706.865	34178.14
707.209	34157.8
707.554	33903.8
707.899	34018.15
708.243	33871.48
708.588	33849.11
708.932	33697.25
709.277	33561.89
709.621	33594.43
709.966	33357.37
710.31	33536.35
710.654	33137.49
710.998	33254.55
711.342	33248.67
711.687	33217.71
712.031	33151.05
712.375	32962.13
712.719	32977.95
713.063	32925.52
713.407	33026.08
713.75	32785.64
714.094	32765.3
714.438	32652.31
714.782	32598.07
715.125	32470.39
715.469	32455.02
715.812	32387
716.156	32143.62
716.499	32316.72
716.843	32310.85
717.186	32070.63
717.53	32235.82
717.873	32175.03
718.216	32074.92
718.559	31858.2
718.902	31731.65
719.246	31735.27
719.589	31664.08
719.932	31520.81
720.275	31572.56
720.617	31628.83
720.96	31534.14
721.303	31510.19
721.646	31527.36
721.989	31344.09
722.331	31448.95
722.674	31338.44
723.016	31323.53
723.359	31187.26
723.701	31202.17
724.044	31077.88
724.386	30855.74
724.729	31074.95
725.071	30827.04
725.413	30947.04
725.755	30896.87
726.097	30790.21
726.439	30580.27
726.782	30643.77
727.124	30820.94
727.465	30461.18
727.807	30464.11
728.149	30513.38
728.491	30524.45
728.833	30449.2
729.175	30332.37
729.516	30288.53
729.858	30194.97
730.199	30371.91
730.541	30054.41
730.882	30193.84
731.224	30178.7
731.565	29916.11
731.906	29932.38
732.248	30011.02
732.589	29871.59
732.93	29721.08
733.271	29669.11
733.612	29701.42
733.953	29671.59
734.294	29589.56
734.635	29555.21
734.976	29645.38
735.317	29439.28
735.658	29482.22
735.999	29462.56
736.339	29357.7
736.68	29360.19
737.021	29489.68
737.361	29244.94
737.702	29372.39
738.042	29307.53
738.383	29144.6
738.723	29239.97
739.063	29024.6
739.404	29027.99
739.744	28933.76
740.084	28877.04
740.424	29018.95
740.764	28949.35
741.104	29023.93
741.444	28729.24
741.784	28747.1
742.124	28759.53
742.464	28636.82
742.804	28625.29
743.143	28552.07
743.483	28547.55
743.823	28429.14
744.162	28383.72
744.502	28505.75
744.841	28357.28
745.181	28348.92
745.52	28294.68
745.86	28342.59
746.199	28256.26
746.538	28164.06
746.877	28217.39
747.216	28141.69
747.556	28076.15
747.895	28166.32
748.234	28077.96
748.573	27890.17
748.911	27933.11
749.25	27897.63
749.589	27734.24
749.928	27691.98
750.267	27898.08
750.605	27685.88
750.944	27694.24
751.283	27547.58
751.621	27585.77
751.96	27406.79
752.298	27466.23
752.636	27549.39
752.975	27258.32
753.313	27197.08
753.651	27331.99
753.989	27222.17
754.327	27175.16
754.666	26936.75
755.004	27007.71
755.342	27021.49
755.679	26978.56
756.017	26757.32
756.355	26917.09
