Data from hue_20_FLMS001491_75.txt Node
Date: Mon Feb 06 15:34:38 GMT 2017
User: dcchb
Spectrometer: FLMS00149
Trigger mode: 0
Integration Time (sec): 2.000000E-2
Scans to average: 10
Electric dark correction enabled: true
Nonlinearity correction enabled: false
Boxcar width: 0
XAxis mode: Wavelengths
Number of Pixels in Spectrum: 2048
>>>>>Begin Spectral Data<<<<<
341.393	0.64
341.776	0.64
342.16	0.64
342.543	-47.5
342.927	-55.63
343.31	-72.36
343.693	-66.48
344.077	-53.6
344.46	-62.19
344.843	-48.18
345.226	-31
345.61	-23.54
345.993	-6.82
346.376	-23.32
346.759	-0.04
347.142	16.68
347.525	35.66
347.908	58.04
348.291	70.24
348.674	83.35
349.057	123.57
349.44	126.73
349.823	158.15
350.206	174.64
350.588	206.28
350.971	232.04
351.354	240.18
351.737	226.39
352.119	281.08
352.502	257.35
352.884	286.28
353.267	275.88
353.65	294.64
354.032	308.42
354.414	325.6
354.797	313.62
355.179	324.02
355.562	328.99
355.944	345.03
356.326	348.65
356.709	363.56
357.091	330.12
357.473	363.79
357.855	360.17
358.238	329.21
358.62	342.1
359.002	351.13
359.384	341.42
359.766	343.9
360.148	352.26
360.53	373.06
360.912	356.11
361.294	331.93
361.676	351.36
362.057	325.15
362.439	333.51
362.821	343.45
363.203	334.41
363.584	346.39
363.966	330.57
364.348	342.32
364.729	330.12
365.111	321.53
365.493	330.34
365.874	343.23
366.256	332.38
366.637	323.56
367.019	327.63
367.4	330.34
367.781	340.29
368.163	331.25
368.544	326.95
368.925	321.31
369.306	332.6
369.688	314.98
370.069	336.22
370.45	328.76
370.831	307.97
371.212	319.72
371.593	324.24
371.974	315.66
372.355	300.29
372.736	331.93
373.117	326.28
373.498	331.25
373.879	315.66
374.26	330.34
374.641	324.02
375.021	341.19
375.402	318.82
375.783	311.14
376.163	327.18
376.544	354.3
376.925	338.71
377.305	344.36
377.686	338.03
378.066	327.86
378.447	352.04
378.827	350.46
379.208	350.46
379.588	325.6
379.968	320.85
380.349	346.62
380.729	359.72
381.109	328.99
381.489	372.6
381.87	338.71
382.25	340.29
382.63	365.15
383.01	357.91
383.39	343.68
383.77	386.16
384.15	359.04
384.53	357.01
384.91	359.95
385.29	350.68
385.67	364.69
386.049	347.97
386.429	367.41
386.809	366.5
387.189	368.99
387.568	385.94
387.948	392.94
388.328	379.38
388.707	367.63
389.087	383.45
389.466	374.19
389.846	377.57
390.225	369.89
390.605	378.25
390.984	385.71
391.363	377.57
391.743	389.33
392.122	379.83
392.501	382.55
392.881	398.37
393.26	394.52
393.639	392.04
394.018	391.81
394.397	391.59
394.776	392.72
395.155	402.66
395.534	391.59
395.913	399.95
396.292	403.34
396.671	407.63
397.05	385.71
397.429	407.63
397.808	412.83
398.186	409.89
398.565	410.34
398.944	408.08
399.323	413.05
399.701	427.07
400.08	435.43
400.458	422.09
400.837	427.97
401.215	420.29
401.594	439.49
401.972	423.45
402.351	414.18
402.729	425.03
403.107	421.87
403.486	427.52
403.864	435.2
404.242	431.58
404.62	441.3
404.999	445.82
405.377	415.09
405.755	436.78
406.133	438.14
406.511	450.79
406.889	456.89
407.267	418.25
407.645	437.91
408.023	462.77
408.401	431.81
408.779	446.95
409.156	481.75
409.534	462.54
409.912	456.67
410.29	471.81
410.667	463
411.045	502.54
411.422	478.36
411.8	479.27
412.178	459.83
412.555	480.17
412.933	496.89
413.31	494.63
413.687	492.37
414.065	496.67
414.442	505.71
414.819	513.39
415.197	519.94
415.574	508.42
415.951	532.6
416.328	537.8
416.705	502.09
417.082	535.99
417.46	520.62
417.837	517.91
418.214	550.23
418.591	562.65
418.967	560.39
419.344	547.51
419.721	569.21
420.098	562.65
420.475	562.43
420.852	531.47
421.228	577.12
421.605	572.6
421.982	538.7
422.358	578.7
422.735	585.93
423.111	569.21
423.488	574.63
423.864	584.35
424.241	582.32
424.617	594.52
424.994	587.51
425.37	598.13
425.746	601.98
426.123	631.35
426.499	610.79
426.875	627.29
427.251	597.91
427.627	638.58
428.003	627.96
428.379	653.05
428.756	651.24
429.132	637.45
429.507	634.07
429.883	650.56
430.259	676.1
430.635	668.19
431.011	668.64
431.387	689.43
431.763	669.32
432.138	692.14
432.514	721.75
432.89	684.23
433.265	715.87
433.641	719.94
434.016	725.59
434.392	721.75
434.767	741.63
435.143	744.34
435.518	745.7
435.894	771.24
436.269	758.58
436.644	754.74
437.02	750.22
437.395	766.49
437.77	794.51
438.145	778.47
438.52	767.62
438.895	791.58
439.271	804.91
439.646	805.13
440.021	822.31
440.395	790.9
440.77	793.84
441.145	822.99
441.52	850.78
441.895	847.39
442.27	866.6
442.645	848.3
443.019	845.13
443.394	853.49
443.769	838.81
444.143	852.59
444.518	854.85
444.892	859.6
445.267	859.37
445.641	851.69
446.016	872.25
446.39	900.95
446.764	883.78
447.139	887.84
447.513	891.01
447.887	869.99
448.262	883.1
448.636	904.34
449.01	902.08
449.384	932.59
449.758	935.3
450.132	950.67
450.506	935.75
450.88	950.67
451.254	950.89
451.628	982.53
452.002	940.95
452.376	979.59
452.75	996.54
453.123	978.46
453.497	1006.94
453.871	1022.3
454.244	1021.4
454.618	1026.37
454.992	1065.69
455.365	1003.1
455.739	1052.13
456.112	1086.26
456.486	1064.11
456.859	1063.66
457.232	1108.18
457.606	1116.09
457.979	1124.67
458.352	1126.48
458.725	1136.65
459.099	1126.71
459.472	1169.87
459.845	1158.12
460.218	1192.47
460.591	1192.47
460.964	1186.37
461.337	1226.59
461.71	1252.58
462.083	1213.03
462.456	1246.93
462.829	1255.97
463.201	1282.64
463.574	1286.03
463.947	1284.9
464.32	1345.23
464.692	1342.75
465.065	1349.75
465.438	1356.08
465.81	1358.57
466.183	1368.96
466.555	1425.68
466.928	1415.29
467.3	1441.95
467.672	1485.57
468.045	1452.35
468.417	1475.4
468.789	1527.6
469.161	1519.69
469.534	1516.08
469.906	1578.67
470.278	1579.58
470.65	1612.12
471.022	1624.55
471.394	1621.61
471.766	1685.56
472.138	1681.72
472.51	1727.6
472.882	1733.92
473.253	1787.26
473.625	1801.49
473.997	1796.97
474.369	1834.71
474.74	1843.98
475.112	1904.77
475.484	1962.17
475.855	1960.81
476.227	1990.41
476.598	2027.02
476.97	1996.29
477.341	2116.06
477.713	2104.76
478.084	2127.36
478.455	2206.23
478.827	2210.29
479.198	2291.2
479.569	2309.95
479.94	2369.39
480.311	2387.92
480.682	2462.49
481.053	2516.95
481.424	2543.85
481.795	2561.92
482.166	2608.48
482.537	2671.53
482.908	2703.16
483.279	2738.19
483.65	2779.09
484.021	2813.67
484.391	2872.42
484.762	2913.55
485.133	2961.01
485.503	3007.34
485.874	3071.06
486.244	3094.11
486.615	3190.61
486.985	3231.29
487.356	3285.97
487.726	3308.57
488.097	3393.77
488.467	3422.69
488.837	3492.52
489.207	3530.94
489.578	3556.47
489.948	3626.08
490.318	3667.43
490.688	3724.83
491.058	3756.47
491.428	3786.07
491.798	3848.44
492.168	3909.69
492.538	3968.21
492.908	3991.94
493.278	4058.61
493.648	4070.13
494.017	4151.94
494.387	4207.53
494.757	4220.64
495.126	4262.22
495.496	4291.14
495.866	4294.53
496.235	4377.92
496.605	4430.35
496.974	4456.79
497.344	4485.94
497.713	4553.51
498.082	4598.03
498.452	4637.58
498.821	4634.64
499.19	4695.65
499.559	4659.95
499.928	4720.96
500.298	4772.71
500.667	4806.61
501.036	4799.15
501.405	4847.06
501.774	4913.5
502.143	4934.52
502.512	4954.18
502.88	5012.26
503.249	4977.45
503.618	5057.9
503.987	5073.95
504.356	5138.35
504.724	5122.53
505.093	5151.91
505.462	5152.82
505.83	5195.98
506.199	5294.06
506.567	5300.38
506.936	5299.93
507.304	5367.95
507.672	5392.58
508.041	5358.46
508.409	5426.48
508.777	5478.46
509.145	5541.51
509.514	5496.08
509.882	5534.5
510.25	5575.18
510.618	5589.42
510.986	5590.55
511.354	5621.5
511.722	5677.77
512.09	5718.45
512.458	5731.78
512.826	5754.83
513.193	5855.4
513.561	5809.52
513.929	5826.47
514.297	5869.41
514.664	5923.64
515.032	5911.67
515.4	5981.04
515.767	6010.65
516.135	6074.15
516.502	5982.4
516.869	6049.06
517.237	6143.52
517.604	6145.33
517.972	6167.48
518.339	6212
518.706	6203.41
519.073	6237.53
519.44	6253.58
519.808	6318.66
520.175	6321.15
520.542	6393.46
520.909	6431.2
521.276	6392.11
521.643	6471.65
522.009	6489.96
522.376	6574.7
522.743	6529.73
523.11	6637.3
523.477	6631.65
523.843	6683.85
524.21	6730.85
524.577	6788.03
524.943	6763.62
525.31	6878.19
525.676	6877.29
526.043	6857.18
526.409	6978.98
526.776	7047.68
527.142	7038.87
527.508	7087.68
527.874	7145.08
528.241	7227.34
528.607	7249.71
528.973	7241.35
529.339	7255.81
529.705	7318.18
530.071	7357.96
530.437	7372.42
530.803	7448.12
531.169	7462.81
531.535	7470.04
531.901	7488.57
532.267	7571.74
532.632	7558.63
532.998	7591.85
533.364	7720.88
533.73	7675.91
534.095	7783.26
534.461	7778.74
534.826	7834.78
535.192	7830.71
535.557	7967.88
535.923	7916.81
536.288	7960.43
536.653	7996.81
537.019	8012.4
537.384	8082.46
537.749	8080.88
538.114	8139.4
538.479	8145.28
538.845	8182.57
539.21	8166.07
539.575	8210.82
539.94	8247.2
540.305	8300.3
540.67	8273.19
541.034	8331.26
541.399	8356.35
541.764	8384.14
542.129	8475.44
542.494	8431.37
542.858	8442
543.223	8546.17
543.587	8622.78
543.952	8605.61
544.316	8676.79
544.681	8644.7
545.045	8652.16
545.41	8759.05
545.774	8736.9
546.138	8786.62
546.503	8810.57
546.867	8785.26
547.231	8894.64
547.595	8888.31
547.959	8965.6
548.324	8999.5
548.688	9016.67
549.052	9027.06
549.416	9029.78
549.779	9071.13
550.143	9141.41
550.507	9139.15
550.871	9165.37
551.235	9232.48
551.599	9304.8
551.962	9370.11
552.326	9382.76
552.689	9369.43
553.053	9366.94
553.417	9354.29
553.78	9479.93
554.143	9466.15
554.507	9533.72
554.87	9551.8
555.234	9620.04
555.597	9611.46
555.96	9668.4
556.323	9714.05
556.686	9687.39
557.05	9764.67
557.413	9719.93
557.776	9804.22
558.139	9847.83
558.502	9837.89
558.865	9852.58
559.228	9946.59
559.59	10050.54
559.953	10071.56
560.316	10105.23
560.679	10105.45
561.041	10182.29
561.404	10159.69
561.767	10278.78
562.129	10216.41
562.492	10331.89
562.854	10308.39
563.217	10328.95
563.579	10333.7
563.941	10415.95
564.304	10508.61
564.666	10537.08
565.028	10564.2
565.39	10624.31
565.753	10715.38
566.115	10732.78
566.477	10737.3
566.839	10785.66
567.201	10789.5
567.563	10844.64
567.925	10935.94
568.287	10905.89
568.648	10968.93
569.01	11050.97
569.372	11053.45
569.734	11073.34
570.095	11167.35
570.457	11216.84
570.819	11203.96
571.18	11229.04
571.542	11389.94
571.903	11327.57
572.265	11434.46
572.626	11485.76
572.987	11503.38
573.349	11595.13
573.71	11644.62
574.071	11723.49
574.432	11720.33
574.794	11876.03
575.155	11964.61
575.516	11936.59
575.877	11985.86
576.238	12137.27
576.599	12175
576.96	12285.51
577.32	12355.11
577.681	12438.95
578.042	12492.96
578.403	12580.19
578.763	12664.94
579.124	12704.03
579.485	12853.86
579.845	12989.67
580.206	13011.82
580.566	13114.64
580.927	13229.44
581.287	13434.41
581.648	13479.6
582.008	13599.15
582.368	13723.44
582.728	13928.18
583.089	14122.3
583.449	14201.84
583.809	14336.3
584.169	14564.55
584.529	14672.34
584.889	15055.38
585.249	15044.99
585.609	15276.39
585.969	15534.46
586.329	15659.66
586.688	15967.45
587.048	16092.64
587.408	16407.89
587.768	16589.58
588.127	16826.63
588.487	17033.18
588.846	17450.12
589.206	17501.42
589.565	17867.28
589.925	18173.49
590.284	18338.23
590.643	18768.96
591.003	19021.15
591.362	19286.91
591.721	19702.04
592.08	19909.26
592.44	20281.01
592.799	20623.14
593.158	20779.07
593.517	21153.98
593.876	21478.71
594.235	21696.11
594.593	22120.05
594.952	22443.21
595.311	22703.77
595.67	23122.74
596.029	23452.45
596.387	23778.54
596.746	24116.84
597.104	24371.29
597.463	24805.86
597.822	25214.44
598.18	25423.7
598.538	25858.71
598.897	26351.58
599.255	26327.85
599.613	27100.94
599.972	27300.93
600.33	27636.07
600.688	27815.27
601.046	28359.21
601.404	28718.98
601.762	29021.12
602.12	29516.47
602.478	29824.03
602.836	30077.81
603.194	30238.03
603.552	30545.82
603.91	30848.41
604.268	31243.43
604.625	31556.87
604.983	32118.44
605.341	32108.04
605.698	32525.43
606.056	32891.07
606.413	33134.23
606.771	33467.55
607.128	33799.07
607.485	33769.69
607.843	34190.47
608.2	34622.1
608.557	34931.24
608.914	35118.36
609.272	35374.85
609.629	35735.52
609.986	36225.67
610.343	36134.6
610.7	36798.54
611.057	36677.64
611.414	37063.84
611.771	37229.71
612.127	37628.12
612.484	37841.22
612.841	38269.23
613.198	38205.96
613.554	38464.48
613.911	38806.85
614.267	39128.65
614.624	39123.22
614.98	39390.11
615.337	39868.29
615.693	39832.36
616.05	39847.5
616.406	40346.47
616.762	40281.84
617.118	40444.32
617.475	40731.77
617.831	40889.73
618.187	41139.67
618.543	41366.1
618.899	41696.49
619.255	41666.21
619.611	41856.48
619.967	42070.26
620.323	42212.18
620.678	42162.46
621.034	42271.61
621.39	42456.69
621.746	42566.3
622.101	43027.75
622.457	42770.13
622.812	43055.32
623.168	43178.71
623.523	43329.44
623.879	43456.89
624.234	43234.08
624.589	43708.41
624.945	43740.95
625.3	43764.46
625.655	43876.77
626.01	43933.49
626.365	44040.16
626.72	43987.5
627.075	44040.83
627.43	44345.46
627.785	44328.74
628.14	44439.92
628.495	44554.27
628.85	44485.79
629.205	44408.73
629.559	44772.79
629.914	44569.18
630.269	44712.23
630.623	44674.49
630.978	44722.85
631.332	44960.36
631.687	45034.93
632.041	44855.05
632.396	44907.93
632.75	44719.46
633.104	45022.28
633.459	44889.85
633.813	44898.66
634.167	44948.38
634.521	44891.88
634.875	45003.75
635.229	45007.36
635.583	44822.73
635.937	44848.95
636.291	44886.91
636.645	45039.45
636.999	44843.07
637.352	45041.71
637.706	44875.39
638.06	45059.34
638.413	44904.77
638.767	44858.44
639.121	45039.68
639.474	44747.03
639.828	44877.2
640.181	44852.56
640.534	44904.09
640.888	44894.14
641.241	44853.47
641.594	44809.4
641.947	44845.56
642.301	44767.82
642.654	44878.55
643.007	44810.3
643.36	44798.78
643.713	44662.06
644.066	44896.63
644.419	44591.1
644.771	44462.07
645.124	44067.27
645.477	44025.47
645.83	43752.25
646.182	43769.65
646.535	43420.51
646.888	43682.2
647.24	43308.65
647.593	43761.74
647.945	43501.64
648.298	43430.91
648.65	43429.55
649.002	43259.39
649.355	43347.74
649.707	43274.98
650.059	43575.08
650.411	44039.48
650.763	44061.17
651.115	44539.13
651.467	44409.19
651.819	44477.88
652.171	44344.78
652.523	44345.68
652.875	44263.2
653.227	44065.01
653.578	44377.32
653.93	44371.45
654.282	44236.31
654.633	44144.33
654.985	44171
655.337	44135.75
655.688	44100.72
656.039	44301.39
656.391	43863.21
656.742	43940.5
657.094	43943.21
657.445	44162.86
657.796	44047.84
658.147	44018.01
658.498	44032.47
658.849	44132.58
659.2	43988.86
659.551	43846.04
659.902	43994.73
660.253	43927.16
660.604	43953.15
660.955	43951.34
661.306	43978.91
661.656	43816.88
662.007	43879.03
662.358	43886.94
662.708	43888.75
663.059	43752.71
663.409	43555.65
663.76	43927.16
664.11	43893.49
664.461	43788.41
664.811	43734.63
665.161	43792.7
665.511	43767.17
665.862	43811.01
666.212	43950.21
666.562	43903.21
666.912	43875.64
667.262	43604.01
667.612	43782.76
667.962	43810.11
668.312	43672.48
668.662	44027.73
669.011	43794.74
669.361	43747.73
669.711	43597
670.06	43638.36
670.41	43662.09
670.76	43513.62
671.109	43773.27
671.459	43613.27
671.808	43549.77
672.157	43583.44
672.507	43372.38
672.856	43479.49
673.205	43314.07
673.554	43485.37
673.904	43391.59
674.253	43699.15
674.602	43486.72
674.951	42845.38
675.3	42674.32
675.649	43433.84
675.998	43263.68
676.346	43384.58
676.695	43351.13
677.044	43283.57
677.393	43293.73
677.741	43403.11
678.09	43188.2
678.438	42927.87
678.787	43195.43
679.135	43199.73
679.484	43033.85
679.832	43105.72
680.181	42956.12
680.529	43027.75
680.877	42919.06
681.225	42858.49
681.573	43107.3
681.922	42729.68
682.27	42565.17
682.618	42606.07
682.966	42560.87
683.314	42675.45
683.661	42487.2
684.009	42343.48
684.357	42188.23
684.705	42239.75
685.053	42168.79
685.4	42030.04
685.748	41901.68
686.095	42033.88
686.443	41839.08
686.79	41746.88
687.138	41925.86
687.485	41935.8
687.832	41779.2
688.18	41691.74
688.527	41554.57
688.874	41583.95
689.221	41380.11
689.568	41233.68
689.915	41336.27
690.262	41217.4
690.609	41089.27
690.956	40990.52
691.303	40944.42
691.65	40756.4
691.997	40748.72
692.344	40559.12
692.69	40603.41
693.037	40448.16
693.383	40328.39
693.73	40350.76
694.077	40130.65
694.423	40127.94
694.769	39973.6
695.116	39862.86
695.462	39911
695.808	39753.49
696.155	39887.04
696.501	39489.09
696.847	39542.19
697.193	39276.67
697.539	39282.09
697.885	39126.61
698.231	39022.89
698.577	38958.48
698.923	38913.74
699.269	38661.77
699.614	38559.85
699.96	38518.04
700.306	38660.86
700.651	38388.1
700.997	38320.08
701.342	38242.12
701.688	38269.46
702.033	37951.28
702.379	38013.65
702.724	37936.81
703.069	37973.65
703.415	37651.85
703.76	37581.57
704.105	37567.56
704.45	37438.3
704.795	37267.45
705.14	37243.27
705.485	37115.14
705.83	36994.01
706.175	37087.8
706.52	37086.44
706.865	36841.47
707.209	36871.76
707.554	36660.91
707.899	36840.12
708.243	36647.58
708.588	36521.48
708.932	36403.75
709.277	36263.64
709.621	36250.3
709.966	36012.8
710.31	36173.47
710.654	35765.57
710.998	35840.6
711.342	35966.47
711.687	35761.5
712.031	35613.26
712.375	35475.64
712.719	35592.02
713.063	35491
713.407	35680.38
713.75	35386.6
714.094	35441.96
714.438	35186.6
714.782	35282.65
715.125	35021.18
715.469	35062.99
715.812	34855.99
716.156	34755.88
716.499	34735.54
716.843	34877.91
717.186	34589.78
717.53	34757.01
717.873	34681.31
718.216	34584.13
718.559	34448.77
718.902	34197.48
719.246	34366.51
719.589	34266.63
719.932	34080.87
720.275	34174.88
720.617	34071.15
720.96	33956.13
721.303	34059.4
721.646	34072.96
721.989	33779.63
722.331	33805.17
722.674	33821.44
723.016	33801.33
723.359	33595.46
723.701	33708.9
724.044	33416.71
724.386	33366.54
724.729	33515.69
725.071	33348.01
725.413	33285.41
725.755	33326.76
726.097	33151.18
726.439	32954.8
726.782	33013.1
727.124	33125.41
727.465	33041.8
727.807	32901.69
728.149	32841.81
728.491	32812.2
728.833	32843.61
729.175	32628.25
729.516	32643.85
729.858	32512.32
730.199	32632.09
730.541	32623.73
730.882	32520.68
731.224	32541.47
731.565	32308.26
731.906	32289.05
732.248	32384.87
732.589	32172.22
732.93	32169.73
733.271	32060.13
733.612	32101.94
733.953	32147.59
734.294	31976.97
734.635	31947.59
734.976	31901.72
735.317	31858.33
735.658	31779.24
735.999	31883.41
736.339	31802.29
736.68	31720.03
737.021	31706.47
737.361	31606.81
737.702	31715.06
738.042	31692.01
738.383	31488.62
738.723	31503.08
739.063	31444.55
739.404	31425.8
739.744	31322.3
740.084	31244.33
740.424	31291.34
740.764	31163.66
741.104	31278.46
741.444	31114.17
741.784	31000.72
742.124	30994.62
742.464	31017.9
742.804	31071.01
743.143	30854.06
743.483	30966.15
743.823	30744.91
744.162	30760.73
744.502	30784.46
744.841	30656.1
745.181	30700.17
745.52	30713.27
745.86	30572.49
746.199	30473.28
746.538	30441.87
746.877	30535.65
747.216	30528.42
747.556	30410.01
747.895	30372.27
748.234	30360.74
748.573	30185.6
748.911	30179.96
749.25	30177.92
749.589	29930.02
749.928	30023.12
750.267	30043.24
750.605	30024.93
750.944	29994.42
751.283	29816.8
751.621	29937.93
751.96	29801.21
752.298	29617.03
752.636	29692.28
752.975	29636.47
753.313	29445.51
753.651	29652.96
753.989	29462.01
754.327	29369.81
754.666	29179.76
755.004	29296.59
755.342	29321.45
755.679	29180.21
756.017	28959.42
756.355	29074.67
756.693	28915.13
757.031	29031.28
757.368	28852.08
757.706	28820.44
758.044	28637.4
758.381	28674.23
758.719	28478.3
759.056	28543.61
759.394	28487.12
