Data from hue_20_FLMS001491_76.txt Node
Date: Mon Feb 06 15:34:38 GMT 2017
User: dcchb
Spectrometer: FLMS00149
Trigger mode: 0
Integration Time (sec): 2.000000E-2
Scans to average: 10
Electric dark correction enabled: true
Nonlinearity correction enabled: false
Boxcar width: 0
XAxis mode: Wavelengths
Number of Pixels in Spectrum: 2048
>>>>>Begin Spectral Data<<<<<
341.393	-14.42
341.776	-14.42
342.16	-14.42
342.543	-53.52
342.927	-87.64
343.31	-70.24
343.693	-57.81
344.077	-56
344.46	-58.04
344.843	-36.34
345.226	-49.45
345.61	-53.97
345.993	-20.3
346.376	-18.71
346.759	9.76
347.142	25.35
347.525	45.69
347.908	68.06
348.291	65.58
348.674	94.96
349.057	111.45
349.44	136.76
349.823	136.08
350.206	153.03
350.588	206.14
350.971	211.56
351.354	245.91
351.737	242.52
352.119	261.73
352.502	274.16
352.884	278.68
353.267	275.74
353.65	292.01
354.032	306.7
354.414	319.58
354.797	300.83
355.179	311.22
355.562	320.26
355.944	315.97
356.326	332.01
356.709	339.69
357.091	322.52
357.473	345.57
357.855	353.93
358.238	357.32
358.62	345.57
359.002	353.48
359.384	350.54
359.766	341.28
360.148	352.12
360.53	331.56
360.912	337.21
361.294	324.78
361.676	338.79
362.057	329.98
362.439	339.69
362.821	345.57
363.203	321.39
363.584	329.3
363.966	343.08
364.348	338.11
364.729	329.3
365.111	320.71
365.493	340.82
365.874	314.84
366.256	324.1
366.637	299.02
367.019	300.83
367.4	315.74
367.781	320.26
368.163	317.77
368.544	336.53
368.925	332.91
369.306	330.66
369.688	317.32
370.069	312.58
370.45	318
370.831	305.35
371.212	311.22
371.593	326.14
371.974	322.07
372.355	312.35
372.736	332.91
373.117	328.4
373.498	334.04
373.879	324.78
374.26	317.1
374.641	321.84
375.021	332.69
375.402	321.62
375.783	327.72
376.163	320.26
376.544	353.93
376.925	336.53
377.305	324.33
377.686	345.8
378.066	332.24
378.447	324.33
378.827	338.79
379.208	332.24
379.588	329.3
379.968	335.63
380.349	337.43
380.729	329.98
381.109	328.85
381.489	354.16
381.87	350.99
382.25	360.03
382.63	341.5
383.01	340.6
383.39	341.73
383.77	355.51
384.15	344.67
384.53	346.25
384.91	346.7
385.29	369.75
385.67	346.47
386.049	355.51
386.429	357.1
386.809	372.24
387.189	354.38
387.568	363.2
387.948	355.97
388.328	372.69
388.707	387.83
389.087	365.23
389.466	369.98
389.846	355.06
390.225	374.72
390.605	389.86
390.984	380.82
391.363	380.37
391.743	379.69
392.122	391.22
392.501	371.33
392.881	382.63
393.26	389.64
393.639	363.87
394.018	394.16
394.397	381.95
394.776	387.15
395.155	385.79
395.534	421.73
395.913	393.25
396.292	391.22
396.671	400.03
397.05	382.86
397.429	426.25
397.808	396.19
398.186	395.06
398.565	407.04
398.944	411.56
399.323	413.82
399.701	399.58
400.08	402.74
400.458	414.72
400.837	421.5
401.215	399.13
401.594	406.81
401.972	423.08
402.351	435.74
402.729	408.85
403.107	417.66
403.486	442.06
403.864	435.51
404.242	432.12
404.62	422.4
404.999	416.98
405.377	447.71
405.755	435.74
406.133	442.06
406.511	436.87
406.889	465.57
407.267	463.53
407.645	450.2
408.023	438.9
408.401	472.35
408.779	454.04
409.156	473.25
409.534	468.96
409.912	475.51
410.29	496.75
410.667	460.82
411.045	462.86
411.422	485.23
411.8	462.63
412.178	477.54
412.555	487.94
412.933	476.87
413.31	497.43
413.687	478.22
414.065	494.04
414.442	505.34
414.819	506.47
415.197	516.41
415.574	520.25
415.951	499.46
416.328	526.36
416.705	514.83
417.082	532.91
417.46	540.82
417.837	534.27
418.214	516.64
418.591	523.19
418.967	525.9
419.344	532.23
419.721	536.98
420.098	569.29
420.475	551.44
420.852	566.13
421.228	570.87
421.605	563.87
421.982	559.12
422.358	572.91
422.735	605.68
423.111	574.04
423.488	585.79
423.864	576.07
424.241	588.5
424.617	595.05
424.994	605.9
425.37	582.85
425.746	596.86
426.123	622.62
426.499	587.37
426.875	601.83
427.251	631.44
427.627	620.59
428.003	595.28
428.379	639.35
428.756	647.26
429.132	645
429.507	667.14
429.883	649.06
430.259	661.72
430.635	647.71
431.011	675.28
431.387	676.86
431.763	688.39
432.138	701.04
432.514	708.5
432.89	686.13
433.265	705.79
433.641	693.36
434.016	721.15
434.392	728.38
434.767	716.63
435.143	700.36
435.518	756.18
435.894	745.79
436.269	730.42
436.644	750.76
437.02	760.02
437.395	752.34
437.77	772.45
438.145	788.95
438.52	808.83
438.895	764.99
439.271	806.12
439.646	815.39
440.021	795.73
440.395	804.77
440.77	807.03
441.145	810.64
441.52	834.37
441.895	831.21
442.27	830.75
442.645	831.88
443.019	816.74
443.394	821.49
443.769	842.51
444.143	826.69
444.518	871.88
444.892	852.22
445.267	847.48
445.641	836.18
446.016	873.47
446.39	868.95
446.764	889.28
447.139	870.53
447.513	883.86
447.887	891.77
448.262	906.46
448.636	899.68
449.01	924.31
449.384	921.37
449.758	918.44
450.132	935.61
450.506	942.84
450.88	936.51
451.254	966.12
451.628	977.19
452.002	950.53
452.376	990.98
452.75	954.59
453.123	968.15
453.497	981.03
453.871	993.69
454.244	1004.08
454.618	1022.39
454.992	1033.69
455.365	1016.96
455.739	1008.15
456.112	1050.86
456.486	1077.53
456.859	1087.7
457.232	1085.44
457.606	1078.66
457.979	1106.45
458.352	1123.85
458.725	1134.02
459.099	1124.76
459.472	1144.87
459.845	1181.25
460.218	1159.56
460.591	1189.39
460.964	1178.54
461.337	1232.33
461.71	1224.19
462.083	1231.65
462.456	1237.98
462.829	1270.52
463.201	1247.47
463.574	1283.62
463.947	1313
464.32	1326.34
464.692	1352.1
465.065	1307.8
465.438	1338.76
465.81	1352.78
466.183	1378.09
466.555	1410.4
466.928	1411.53
467.3	1407.01
467.672	1450.4
468.045	1473
468.417	1480
468.789	1515.48
469.161	1536.95
469.534	1545.54
469.906	1580.79
470.278	1579.21
470.65	1595.48
471.022	1598.19
471.394	1640
471.766	1673.44
472.138	1679.32
472.51	1708.02
472.882	1736.95
473.253	1763.16
473.625	1797.96
473.997	1827.34
474.369	1830.95
474.74	1853.1
475.112	1887.22
475.484	1915.25
475.855	1961.57
476.227	1956.38
476.598	2032.98
476.97	2052.64
477.341	2071.4
477.713	2124.05
478.084	2135.13
478.455	2203.37
478.827	2249.02
479.198	2271.62
479.569	2289.7
479.94	2324.05
480.311	2404.5
480.682	2448.34
481.053	2474.1
481.424	2489.47
481.795	2551.61
482.166	2628
482.537	2654.21
482.908	2725.17
483.279	2731.72
483.65	2785.51
484.021	2844.49
484.391	2864.83
484.762	2956.8
485.133	2946.41
485.503	2990.25
485.874	3057.59
486.244	3093.29
486.615	3129.68
486.985	3211.26
487.356	3272.05
487.726	3265.72
488.097	3363.34
488.467	3399.05
488.837	3448.77
489.207	3525.6
489.578	3596.56
489.948	3608.08
490.318	3638.36
490.688	3649.66
491.058	3790
491.428	3817.8
491.798	3847.62
492.168	3915.65
492.538	3962.42
492.908	4001.52
493.278	4017.56
493.648	4095.75
494.017	4169.65
494.387	4180.05
494.757	4222.3
495.126	4263.66
495.496	4248.52
495.866	4348.63
496.235	4398.12
496.605	4401.96
496.974	4474.73
497.344	4481.05
497.713	4544.78
498.082	4577.1
498.452	4610.54
498.821	4643.99
499.19	4675.17
499.559	4741.84
499.928	4679.02
500.298	4744.1
500.667	4825.45
501.036	4765.57
501.405	4868.16
501.774	4902.74
502.143	4949.29
502.512	4951.78
502.88	4974.15
503.249	5002.62
503.618	5037.65
503.987	5076.07
504.356	5076.52
504.724	5081.04
505.093	5134.14
505.462	5135.73
505.83	5163.07
506.199	5225.22
506.567	5303.41
506.936	5297.98
507.304	5348.38
507.672	5377.08
508.041	5400.13
508.409	5437.19
508.777	5497.98
509.145	5464.31
509.514	5483.29
509.882	5533.23
510.25	5540.24
510.618	5563.96
510.986	5599.22
511.354	5650.74
511.722	5689.61
512.09	5726.9
512.458	5714.24
512.826	5775.94
513.193	5817.74
513.561	5796.73
513.929	5817.74
514.297	5904.97
514.664	5898.42
515.032	5955.14
515.4	5967.8
515.767	6008.7
516.135	6023.16
516.502	5989.49
516.869	6128.24
517.237	6132.99
517.604	6090.5
517.972	6147
518.339	6171.41
518.706	6160.78
519.073	6209.82
519.44	6231.74
519.808	6346.77
520.175	6304.51
520.542	6391.29
520.909	6409.59
521.276	6432.19
521.643	6453.21
522.009	6432.42
522.376	6546.54
522.743	6505.41
523.11	6609.81
523.477	6658.62
523.843	6678.06
524.21	6709.92
524.577	6811.39
524.943	6803.48
525.31	6833.54
525.676	6891.16
526.043	6945.85
526.409	6952.85
526.776	7041.21
527.142	6999.86
527.508	7083.7
527.874	7140.19
528.241	7112.17
528.607	7199.18
528.973	7209.12
529.339	7263.58
529.705	7344.71
530.071	7294.31
530.437	7389.9
530.803	7406.85
531.169	7456.57
531.535	7492.95
531.901	7475.78
532.267	7544.7
532.632	7586.96
532.998	7575.44
533.364	7677.13
533.73	7670.8
534.095	7788.99
534.461	7797.58
534.826	7812.49
535.192	7852.49
535.557	7901.76
535.923	7830.57
536.288	7892.72
536.653	8011.13
537.019	7975.43
537.384	8014.97
537.749	8052.03
538.114	8078.93
538.479	8154.86
538.845	8121.86
539.21	8130.22
539.575	8269.43
539.94	8235.31
540.305	8295.64
540.67	8240.05
541.034	8341.07
541.399	8356.21
541.764	8421.97
542.129	8356.43
542.494	8412.48
542.858	8480.27
543.223	8506.94
543.587	8627.61
543.952	8584.45
544.316	8594.84
544.681	8642.3
545.045	8698.12
545.41	8769.98
545.774	8739.25
546.138	8778.34
546.503	8758.23
546.867	8904.67
547.231	8932.24
547.595	8894.27
547.959	8920.26
548.324	8935.17
548.688	8955.06
549.052	9042.29
549.416	9083.42
549.779	9121.16
550.143	9063.53
550.507	9187.15
550.871	9186.02
551.235	9206.81
551.599	9275.96
551.962	9268.05
552.326	9323.64
552.689	9329.97
553.053	9312.34
553.417	9357.54
553.78	9425.33
554.143	9401.38
554.507	9497.42
554.87	9564.76
555.234	9570.86
555.597	9586.01
555.96	9585.33
556.323	9693.8
556.686	9684.31
557.05	9718.88
557.413	9653.35
557.776	9793.68
558.139	9853.12
558.502	9798.2
558.865	9885.43
559.228	9983.73
559.59	10035.94
559.953	10017.86
560.316	10166.1
560.679	10131.3
561.041	10154.58
561.404	10166.78
561.767	10251.75
562.129	10244.07
562.492	10297.17
562.854	10374.46
563.217	10361.13
563.579	10348.02
563.941	10358.19
564.304	10461.46
564.666	10537.62
565.028	10523.16
565.39	10618.07
565.753	10614.68
566.115	10616.94
566.477	10678.63
566.839	10766.54
567.201	10826.2
567.563	10814.9
567.925	10842.02
568.287	10842.24
568.648	10946.42
569.01	10949.36
569.372	10998.62
569.734	11042.92
570.095	11125.4
570.457	11175.79
570.819	11236.81
571.18	11190.48
571.542	11307.77
571.903	11395.67
572.265	11449.46
572.626	11457.37
572.987	11485.62
573.349	11548.21
573.71	11587.99
574.071	11690.58
574.432	11745.04
574.794	11845.83
575.155	11825.49
575.516	11831.6
575.877	12034.3
576.238	11983
576.599	12147.29
576.96	12239.72
577.32	12279.27
577.681	12425.93
578.042	12415.54
578.403	12444.69
578.763	12573.5
579.124	12671.57
579.485	12866.82
579.845	12911.79
580.206	13036.76
580.566	13119.92
580.927	13301.16
581.287	13382.74
581.648	13467.03
582.008	13702.28
582.368	13756.52
582.728	13907.47
583.089	14020.92
583.449	14218.43
583.809	14328.48
584.169	14505.88
584.529	14771.63
584.889	14912.64
585.249	15078.52
585.609	15293.2
585.969	15511.27
586.329	15675.79
586.688	15982.45
587.048	16068.77
587.408	16318.94
587.768	16533.84
588.127	16799.37
588.487	17056.09
588.846	17520.49
589.206	17527.27
589.565	17828.95
589.925	18194.82
590.284	18412.89
590.643	18696.95
591.003	18977.85
591.362	19404.96
591.721	19610.83
592.08	19832.97
592.44	20267.31
592.799	20515.21
593.158	20760.4
593.517	21124.23
593.876	21451.68
594.235	21676.31
594.593	21941.84
594.952	22450.53
595.311	22678.99
595.67	23050.06
596.029	23528.46
596.387	23878.96
596.746	24195.34
597.104	24446.41
597.463	24682.56
597.822	25147.63
598.18	25421.75
598.538	25710.1
598.897	26240.71
599.255	26344.43
599.613	27038.2
599.972	27268.7
600.33	27540.79
600.688	27808.35
601.046	28258.06
601.404	28674.32
601.762	28911.15
602.12	29310.91
602.478	29678.13
602.836	30034.28
603.194	30163.77
603.552	30578
603.91	30788.61
604.268	31215.72
604.625	31548.82
604.983	31794.23
605.341	31990.84
605.698	32375.46
606.056	32973.41
606.413	33009.8
606.771	33372.72
607.128	33790.34
607.485	33737.91
607.843	34098.58
608.2	34459.93
608.557	34960.71
608.914	35087.26
609.272	35399.11
609.629	35779.67
609.986	36087.23
610.343	36143.05
610.7	36596.82
611.057	36736.03
611.414	36948.9
611.771	37253.07
612.127	37569.68
612.484	37746.17
612.841	38029.55
613.198	38204.91
613.554	38404.68
613.911	38837.21
614.267	38839.25
614.624	39033.59
614.98	39422.28
615.337	39636.74
615.693	39794.02
616.05	39810.07
616.406	40240.34
616.762	40379.09
617.118	40510.84
617.475	40565.08
617.831	40777.28
618.187	40982.24
618.543	41186.08
618.899	41558.72
619.255	41643.02
619.611	41750.13
619.967	42052.27
620.323	42162.78
620.678	42321.42
621.034	42135.43
621.39	42523.44
621.746	42382.43
622.101	42973.83
622.457	42857.22
622.812	43009.08
623.168	43088.17
623.523	43335.4
623.879	43450.43
624.234	43331.33
624.589	43499.46
624.945	43546.92
625.3	43817.2
625.655	43720.7
626.01	43855.84
626.365	43835.5
626.72	44032.56
627.075	43998.66
627.43	44199.33
627.785	44094.48
628.14	44349.84
628.495	44432.09
628.85	44517.52
629.205	44480.45
629.559	44706.44
629.914	44551.87
630.269	44632.09
630.623	44692.65
630.978	44407.24
631.332	44920.22
631.687	44905.98
632.041	44756.61
632.396	44923.83
632.75	44757.74
633.104	45030.04
633.459	44748.24
633.813	44755.48
634.167	44902.36
634.521	44913.89
634.875	44919.77
635.229	44869.6
635.583	44765.64
635.937	44846.55
636.291	44789.15
636.645	44870.5
636.999	44827.11
637.352	44936.04
637.706	44730.39
638.06	44939.43
638.413	44867.56
638.767	44773.78
639.121	45037.05
639.474	44729.94
639.828	44762.03
640.181	45012.87
640.534	44824.4
640.888	44683.39
641.241	44560.23
641.594	44753.89
641.947	44830.95
642.301	44764.06
642.654	44707.12
643.007	44837.28
643.36	44771.52
643.713	44751.18
644.066	44826.21
644.419	44518.87
644.771	44469.16
645.124	43954.37
645.477	43930.86
645.83	43772.9
646.182	43518.9
646.535	43594.6
646.888	43442.74
647.24	43421.27
647.593	43630.76
647.945	43505.34
648.298	43327.94
648.65	43406.58
649.002	43255.85
649.355	43342.86
649.707	43303.31
650.059	43528.62
650.411	43914.37
650.763	44014.48
651.115	44461.7
651.467	44350.06
651.819	44425.54
652.171	44191.65
652.523	44275.71
652.875	44236.39
653.227	43915.95
653.578	44223.96
653.93	44229.39
654.282	44007.25
654.633	44062.61
654.985	44063.29
655.337	44092.22
655.688	44068.49
656.039	44190.52
656.391	43807.93
656.742	43918.21
657.094	43841.38
657.445	43985.78
657.796	44085.21
658.147	43872.34
658.498	43849.74
658.849	44033.23
659.2	43957.98
659.551	43820.81
659.902	43839.79
660.253	43951.43
660.604	44008.83
660.955	43759.57
661.306	43990.3
661.656	43777.42
662.007	43804.77
662.358	43885.67
662.708	43855.61
663.059	43617.2
663.409	43554.83
663.76	43826.23
664.11	43732.45
664.461	43935.16
664.811	43684.77
665.161	43617.88
665.511	43642.28
665.862	43784.65
666.212	43737.88
666.562	43923.63
666.912	43733.58
667.262	43654.71
667.612	43791.66
667.962	43869.62
668.312	43837.76
668.662	43934.25
669.011	43650.65
669.361	43602.74
669.711	43639.8
670.06	43610.65
670.41	43469.41
670.76	43534.94
671.109	43621.27
671.459	43557.99
671.808	43400.26
672.157	43588.95
672.507	43331.56
672.856	43422.18
673.205	43442.29
673.554	43567.03
673.904	43294.27
674.253	43553.25
674.602	43394.83
674.951	42824
675.3	42668.07
675.649	43197.78
675.998	43312.58
676.346	43205.69
676.695	43405.91
677.044	43157.1
677.393	43245.46
677.741	43240.49
678.09	43170.21
678.438	43073.03
678.787	43113.03
679.135	43140.38
679.484	42766.6
679.832	42926.82
680.181	42728.64
680.529	42879.37
680.877	42823.32
681.225	42747.62
681.573	42953.72
681.922	42728.41
682.27	42471.47
682.618	42562.99
682.966	42565.25
683.314	42621.97
683.661	42379.27
684.009	42162.55
684.357	42213.62
684.705	42099.05
685.053	42095.43
685.4	42047.98
685.748	41912.84
686.095	41855.66
686.443	41849.56
686.79	41671.04
687.138	41815.67
687.485	41782.22
687.832	41622.68
688.18	41730.02
688.527	41462.68
688.874	41481.66
689.221	41243.7
689.568	41257.94
689.915	41091.17
690.262	41109.92
690.609	40992.18
690.956	40872.41
691.303	40858.18
691.65	40733.21
691.997	40717.62
692.344	40366.66
692.69	40511.07
693.037	40473.55
693.383	40198.08
693.73	40209.61
694.077	40066.11
694.423	40035.37
694.769	40054.13
695.116	39870.86
695.462	39773.23
695.808	39685.33
696.155	39819.33
696.501	39301.38
696.847	39500.7
697.193	39198.79
697.539	39376.86
697.885	39115.62
698.231	38895.97
698.577	38942.52
698.923	38936.19
699.269	38613.04
699.614	38594.73
699.96	38517.45
700.306	38519.71
700.651	38279.49
700.997	38310.22
701.342	38099.61
701.688	38170.34
702.033	37924.24
702.379	37938.71
702.724	37829.78
703.069	37731.25
703.415	37474.54
703.76	37508.89
704.105	37485.84
704.45	37505.5
704.795	37277.93
705.14	37055.11
705.485	36983.7
705.83	37002.69
706.175	36966.53
706.52	36911.39
706.865	36842.69
707.209	36760.21
707.554	36657.16
707.899	36763.82
708.243	36589.36
708.588	36474.56
708.932	36159.54
709.277	36175.36
709.621	36153.89
709.966	36026.89
710.31	36076.38
710.654	35801.36
710.998	35847.91
711.342	35833
711.687	35760.23
712.031	35579.67
712.375	35530.18
712.719	35470.97
713.063	35426.91
713.407	35631.42
713.75	35322.73
714.094	35287.48
714.438	35160.47
714.782	35118.67
715.125	35046.35
715.469	35020.59
715.812	34850.43
716.156	34676.42
716.499	34639.81
716.843	34784.89
717.186	34494.05
717.53	34643.2
717.873	34627.61
718.216	34623.99
718.559	34391.68
718.902	34136.09
719.246	34278.69
719.589	34245.47
719.932	34173.38
720.275	34098.35
720.617	33941.52
720.96	33894.07
721.303	33922.99
721.646	33871.24
721.989	33663.11
722.331	33751.02
722.674	33700.85
723.016	33662.89
723.359	33625.82
723.701	33633.96
724.044	33417.47
724.386	33304.25
724.729	33381.31
725.071	33381.31
725.413	33352.16
725.755	33297.25
726.097	33162.11
726.439	32977.71
726.782	32938.61
727.124	33082.56
727.465	32882.79
727.807	32917.37
728.149	32796.92
728.491	32787.65
728.833	33006.41
729.175	32753.08
729.516	32652.97
729.858	32624.27
730.199	32549.47
730.541	32531.16
730.882	32530.94
731.224	32492.52
731.565	32293.2
731.906	32279.87
732.248	32358.74
732.589	32160.33
732.93	32034.23
733.271	32108.35
733.612	31965.08
733.953	32161
734.294	31808.02
734.635	31873.78
734.976	31867
735.317	31819.09
735.658	31751.75
735.999	31766.89
736.339	31674.92
736.68	31735.03
737.021	31713.78
737.361	31599.66
737.702	31657.06
738.042	31495.71
738.383	31488.48
738.723	31506.33
739.063	31337.52
739.404	31397.63
739.744	31325.09
740.084	31095.95
740.424	31208.71
740.764	31174.59
741.104	31296.17
741.444	31035.16
741.784	30966.01
742.124	31030.86
742.464	31008.49
742.804	30810.98
743.143	30856.41
743.483	30922.62
743.823	30682.4
744.162	30610.99
744.502	30764.88
744.841	30543.87
745.181	30701.61
745.52	30483.76
745.86	30508.84
746.199	30495.06
746.538	30470.43
746.877	30561.27
747.216	30441.05
747.556	30244.22
747.895	30316.31
748.234	30148.18
748.573	30190.66
748.911	30157.67
749.25	30086.48
749.589	29929.88
749.928	30011.68
750.267	29961.51
750.605	29926.71
750.944	29925.81
751.283	29846.94
751.621	29910.44
751.96	29587.74
752.298	29649.88
752.636	29589.77
752.975	29533.05
753.313	29487.63
753.651	29551.58
753.989	29275.2
754.327	29391.59
754.666	29036.12
755.004	29270.69
755.342	29213.96
755.679	29110.92
756.017	29032.95
756.355	29058.04
756.693	28812.84
757.031	28987.98
757.368	28864.59
757.706	28708.89
758.044	28733.98
758.381	28666.63
758.719	28458.5
759.056	28476.36
759.394	28401.33
