Data from hue_310_FLMS001491_89.txt Node
Date: Mon Feb 06 15:50:20 GMT 2017
User: dcchb
Spectrometer: FLMS00149
Trigger mode: 0
Integration Time (sec): 2.000000E-2
Scans to average: 10
Electric dark correction enabled: true
Nonlinearity correction enabled: false
Boxcar width: 0
XAxis mode: Wavelengths
Number of Pixels in Spectrum: 2048
>>>>>Begin Spectral Data<<<<<
341.393	-7.08
341.776	-7.08
342.16	-7.08
342.543	-62.89
342.927	-80.75
343.31	-82.33
343.693	-65.83
344.077	-73.97
344.46	-59.73
344.843	-40.3
345.226	-47.08
345.61	-17.25
345.993	-12.73
346.376	-0.52
346.759	25.24
347.142	14.17
347.525	14.84
347.908	60.72
348.291	100.04
348.674	77.22
349.057	107.5
349.44	109.53
349.823	156.08
350.206	173.94
350.588	170.09
350.971	195.63
351.354	223.88
351.737	247.38
352.119	235.86
352.502	270.43
352.884	267.27
353.267	289.19
353.65	291.9
354.032	320.15
354.414	300.26
354.797	290.32
355.179	290.32
355.562	309.53
355.944	335.06
356.326	324.89
356.709	346.81
357.091	328.28
357.473	340.71
357.855	329.19
358.238	350.65
358.62	341.39
359.002	332.8
359.384	359.69
359.766	339.81
360.148	335.97
360.53	345.91
360.912	329.64
361.294	319.24
361.676	344.55
362.057	338
362.439	327.83
362.821	347.94
363.203	329.41
363.584	338.68
363.966	327.15
364.348	326.47
364.729	312.69
365.111	324.89
365.493	309.75
365.874	335.06
366.256	325.12
366.637	323.54
367.019	353.82
367.4	311.56
367.781	308.85
368.163	324.89
368.544	314.27
368.925	318.11
369.306	315.4
369.688	319.69
370.069	327.83
370.45	293.26
370.831	316.98
371.212	316.31
371.593	326.47
371.974	324.67
372.355	307.94
372.736	315.4
373.117	320.82
373.498	310.2
373.879	311.56
374.26	319.47
374.641	315.4
375.021	327.15
375.402	325.34
375.783	325.57
376.163	335.29
376.544	326.93
376.925	321.95
377.305	328.51
377.686	321.05
378.066	337.77
378.447	344.33
378.827	341.84
379.208	326.02
379.588	351.11
379.968	344.78
380.349	324.67
380.729	346.59
381.109	341.16
381.489	341.16
381.87	338.23
382.25	362.41
382.63	335.97
383.01	341.62
383.39	350.65
383.77	360.37
384.15	335.29
384.53	336.87
384.91	344.33
385.29	364.44
385.67	332.8
386.049	366.7
386.429	350.43
386.809	334.61
387.189	361.28
387.568	370.32
387.948	360.37
388.328	352.91
388.707	336.42
389.087	366.25
389.466	377.09
389.846	347.94
390.225	367.38
390.605	373.48
390.984	373.7
391.363	375.51
391.743	396.08
392.122	375.29
392.501	390.65
392.881	392.24
393.26	386.81
393.639	398.56
394.018	388.39
394.397	387.26
394.776	398.79
395.155	372.12
395.534	396.08
395.913	390.2
396.292	402.4
396.671	403.53
397.05	389.3
397.429	381.61
397.808	391.33
398.186	400.82
398.565	403.53
398.944	393.82
399.323	410.99
399.701	415.51
400.08	401.05
400.458	410.77
400.837	424.78
401.215	403.99
401.594	416.64
401.972	416.64
402.351	420.71
402.729	434.49
403.107	433.36
403.486	454.38
403.864	425.68
404.242	446.7
404.62	452.12
404.999	460.48
405.377	444.89
405.755	431.78
406.133	454.83
406.511	455.96
406.889	471.78
407.267	479.01
407.645	484.89
408.023	495.74
408.401	471.1
408.779	480.82
409.156	495.74
409.534	509.29
409.912	500.93
410.29	520.82
410.667	514.94
411.045	537.77
411.422	537.09
411.8	549.97
412.178	538.67
412.555	544.1
412.933	559.24
413.31	568.28
413.687	570.99
414.065	566.92
414.442	596.52
414.819	600.59
415.197	615.05
415.574	618.22
415.951	629.74
416.328	633.36
416.705	623.64
417.082	633.36
417.46	651.44
417.837	653.02
418.214	670.19
418.591	663.87
418.967	673.81
419.344	694.15
419.721	705.67
420.098	700.48
420.475	707.03
420.852	717.2
421.228	717.65
421.605	722.62
421.982	750.19
422.358	759.01
422.735	786.8
423.111	775.5
423.488	746.12
423.864	787.03
424.241	788.16
424.617	819.34
424.994	798.33
425.37	834.94
425.746	811.89
426.123	852.56
426.499	854.6
426.875	822.51
427.251	850.75
427.627	883.3
428.003	856.4
428.379	892.34
428.756	909.74
429.132	921.04
429.507	928.49
429.883	908.38
430.259	970.98
430.635	959
431.011	976.4
431.387	961.94
431.763	1038.09
432.138	1010.07
432.514	1009.85
432.89	1031.99
433.265	1042.39
433.641	1069.28
434.016	1053.01
434.392	1076.29
434.767	1107.7
435.143	1068.38
435.518	1103.4
435.894	1115.38
436.269	1143.18
436.644	1138.66
437.02	1131.65
437.395	1140.01
437.77	1177.98
438.145	1188.37
438.52	1177.3
438.895	1231.08
439.271	1205.32
439.646	1262.04
440.021	1212.78
440.395	1215.72
440.77	1229.05
441.145	1258.65
441.52	1258.2
441.895	1271.31
442.27	1263.62
442.645	1286
443.019	1290.52
443.394	1270.63
443.769	1281.03
444.143	1314.92
444.518	1317.41
444.892	1292.32
445.267	1317.63
445.641	1329.84
446.016	1345.66
446.39	1347.24
446.764	1345.88
447.139	1357.63
447.513	1380.68
447.887	1362.15
448.262	1363.96
448.636	1383.62
449.01	1415.71
449.384	1378.42
449.758	1397.18
450.132	1420.01
450.506	1419.78
450.88	1417.75
451.254	1408.71
451.628	1450.74
452.002	1425.2
452.376	1426.56
452.75	1452.55
453.123	1469.5
453.497	1479.89
453.871	1505.43
454.244	1481.25
454.618	1503.62
454.992	1531.19
455.365	1509.95
455.739	1548.59
456.112	1578.42
456.486	1592.43
456.859	1578.19
457.232	1593.11
457.606	1585.65
457.979	1618.64
458.352	1644.63
458.725	1642.37
459.099	1640.11
459.472	1667.46
459.845	1701.13
460.218	1707.46
460.591	1717.4
460.964	1702.26
461.337	1726.21
461.71	1745.19
462.083	1789.94
462.456	1766.44
462.829	1769.83
463.201	1800.79
463.574	1810.05
463.947	1833.1
464.32	1851.63
464.692	1844.4
465.065	1866.1
465.438	1893.66
465.81	1921.46
466.183	1921.23
466.555	1921.01
466.928	1934.34
467.3	1924.4
467.672	1976.37
468.045	1981.57
468.417	2024.06
468.789	2063.6
469.161	2043.72
469.534	2069.03
469.906	2104.73
470.278	2075.58
470.65	2128.01
471.022	2136.82
471.394	2161
471.766	2172.98
472.138	2186.76
472.51	2254.33
472.882	2297.95
473.253	2304.73
473.625	2281.23
473.997	2357.38
474.369	2329.13
474.74	2376.36
475.112	2376.36
475.484	2405.06
475.855	2464.5
476.227	2453.2
476.598	2542.24
476.97	2544.72
477.341	2585.17
477.713	2578.84
478.084	2586.3
478.455	2634.44
478.827	2698.16
479.198	2698.84
479.569	2725.96
479.94	2768.22
480.311	2784.94
480.682	2833.75
481.053	2902
481.424	2949.23
481.795	2931.83
482.166	2930.93
482.537	3002.11
482.908	3072.39
483.279	3066.29
483.65	3085.72
484.021	3172.5
484.391	3155.33
484.762	3193.52
485.133	3181.77
485.503	3220.86
485.874	3290.92
486.244	3341.99
486.615	3327.07
486.985	3366.39
487.356	3410.24
487.726	3436.68
488.097	3518.25
488.467	3496.33
488.837	3540.18
489.207	3580.17
489.578	3606.16
489.948	3662.88
490.318	3662.43
490.688	3671.02
491.058	3757.34
491.428	3777.91
491.798	3817
492.168	3884.12
492.538	3854.52
492.908	3919.37
493.278	3950.56
493.648	3905.59
494.017	3971.35
494.387	4025.13
494.757	4020.84
495.126	4057.45
495.496	4071.46
495.866	4059.03
496.235	4084.12
496.605	4128.63
496.974	4199.37
497.344	4208.86
497.713	4221.51
498.082	4256.54
498.452	4232.36
498.821	4284.11
499.19	4319.14
499.559	4346.03
499.928	4325.47
500.298	4390.77
500.667	4393.49
501.036	4393.94
501.405	4454.28
501.774	4463.77
502.143	4453.37
502.512	4467.83
502.88	4475.07
503.249	4506.93
503.618	4529.53
503.987	4539.92
504.356	4564.1
504.724	4593.71
505.093	4602.75
505.462	4583.99
505.83	4611.79
506.199	4664.67
506.567	4700.6
506.936	4683.2
507.304	4713.03
507.672	4708.05
508.041	4728.39
508.409	4778.11
508.777	4831.21
509.145	4819.24
509.514	4822.4
509.882	4815.17
510.25	4855.39
510.618	4875.51
510.986	4877.32
511.354	4898.78
511.722	4923.64
512.09	4991.44
512.458	4946.24
512.826	4975.84
513.193	4978.56
513.561	5009.29
513.929	5027.37
514.297	5101.04
514.664	5117.76
515.032	5094.71
515.4	5093.35
515.767	5092.22
516.135	5133.13
516.502	5080.25
516.869	5144.65
517.237	5232.56
517.604	5153.01
517.972	5173.13
518.339	5244.76
518.706	5206.57
519.073	5238.66
519.44	5256.51
519.808	5302.84
520.175	5304.2
520.542	5284.08
520.909	5351.65
521.276	5341.71
521.643	5427.58
522.009	5410.18
522.376	5386.68
522.743	5465.32
523.11	5501.93
523.477	5543.06
523.843	5581.25
524.21	5577.41
524.577	5604.53
524.943	5611.76
525.31	5609.95
525.676	5745.09
526.043	5677.75
526.409	5731.98
526.776	5801.36
527.142	5778.08
527.508	5833.67
527.874	5815.14
528.241	5830.96
528.607	5909.15
528.973	5946.67
529.339	5922.26
529.705	5996.16
530.071	6027.34
530.437	6115.02
530.803	6079.32
531.169	6114.8
531.535	6111.18
531.901	6152.08
532.267	6154.12
532.632	6188.02
532.998	6276.83
533.364	6244.51
533.73	6285.19
534.095	6314.11
534.461	6314.57
534.826	6380.33
535.192	6357.05
535.557	6407.22
535.923	6397.95
536.288	6472.75
536.653	6501.23
537.019	6489.02
537.384	6510.27
537.749	6520.44
538.114	6586.87
538.479	6653.31
538.845	6656.25
539.21	6621.22
539.575	6647.89
539.94	6721.79
540.305	6719.53
540.67	6760.2
541.034	6788.23
541.399	6813.99
541.764	6830.71
542.129	6841.33
542.494	6861.44
542.858	6930.82
543.223	6969.01
543.587	6983.93
543.952	6992.51
544.316	7060.76
544.681	7003.81
545.045	7032.51
545.41	7088.78
545.774	7120.19
546.138	7136.92
546.503	7143.24
546.867	7192.06
547.231	7227.54
547.595	7281.77
547.959	7304.82
548.324	7355.22
548.688	7349.34
549.052	7351.83
549.416	7369.91
549.779	7364.48
550.143	7406.29
550.507	7457.13
550.871	7473.63
551.235	7470.02
551.599	7503.69
551.962	7529.67
552.326	7562.44
552.689	7636.56
553.053	7628.2
553.417	7585.49
553.78	7725.38
554.143	7725.6
554.507	7743.91
554.87	7758.6
555.234	7756.11
555.597	7772.38
555.96	7802.66
556.323	7851.02
556.686	7852.83
557.05	7893.73
557.413	7884.02
557.776	7904.35
558.139	7935.99
558.502	7938.48
558.865	7995.2
559.228	8041.07
559.59	8023
559.953	8073.62
560.316	8155.65
560.679	8096.21
561.041	8240.84
561.404	8179.38
561.767	8239.26
562.129	8227.06
562.492	8236.1
562.854	8304.34
563.217	8322.87
563.579	8362.87
563.941	8354.06
564.304	8442.42
564.666	8464.11
565.028	8414.17
565.39	8494.4
565.753	8457.79
566.115	8545.69
566.477	8586.82
566.839	8604.67
567.201	8664.56
567.563	8658.91
567.925	8726.48
568.287	8695.29
568.648	8752.47
569.01	8778.23
569.372	8868.85
569.734	8802.86
570.095	8920.37
570.457	8956.53
570.819	8952.69
571.18	8948.62
571.542	9021.16
571.903	9055.28
572.265	9128.73
572.626	9141.61
572.987	9108.62
573.349	9199.46
573.71	9301.61
574.071	9372.11
574.432	9409.85
574.794	9540.24
575.155	9524.42
575.516	9520.58
575.877	9630.86
576.238	9701.6
576.599	9793.34
576.96	9877.64
577.32	9896.39
577.681	10060.68
578.042	10119.89
578.403	10190.62
578.763	10368.47
579.124	10407.34
579.485	10562.59
579.845	10626.32
580.206	10759.87
580.566	10862.92
580.927	10978.4
581.287	11120.09
581.648	11243.25
582.008	11400.08
582.368	11534.09
582.728	11711.49
583.089	11908.99
583.449	12040.06
583.809	12204.81
584.169	12387.17
584.529	12563.67
584.889	12906.93
585.249	13005.46
585.609	13085.24
585.969	13432.57
586.329	13660.81
586.688	13822.16
587.048	14062.61
587.408	14269.16
587.768	14441.58
588.127	14744.17
588.487	15003.38
588.846	15363.37
589.206	15491.73
589.565	15732.85
589.925	16133.97
590.284	16312.49
590.643	16626.61
591.003	16939.82
591.362	17308.4
591.721	17563.76
592.08	17867.26
592.44	18091.66
592.799	18467.69
593.158	18616.62
593.517	18919.88
593.876	19314.9
594.235	19650.71
594.593	19917.6
594.952	20309.68
595.311	20595.32
595.67	20804.35
596.029	21318.01
596.387	21606.14
596.746	21878.22
597.104	22129.74
597.463	22449.28
597.822	22859.22
598.18	23054.92
598.538	23351.18
598.897	23859.42
599.255	23964.05
599.613	24490.58
599.972	24647.19
600.33	25009.22
600.688	25183.22
601.046	25646.94
601.404	26093.25
601.762	26064.33
602.12	26566.24
602.478	26879.22
602.836	27021.37
603.194	27295.71
603.552	27623.84
603.91	27904.51
604.268	28236.02
604.625	28422.91
604.983	28737.93
605.341	28947.87
605.698	29298.14
606.056	29621.98
606.413	29867.17
606.771	30174.73
607.128	30418.56
607.485	30569.75
607.843	30856.29
608.2	31108.72
608.557	31475.26
608.914	31630.96
609.272	31926.77
609.629	32227.33
609.986	32474.33
610.343	32496.48
610.7	32938.27
611.057	33051.04
611.414	33154.31
611.771	33518.37
612.127	33670.46
612.484	33902.09
612.841	34221.18
613.198	34283.55
613.554	34440.15
613.911	34911.33
614.267	34864.32
614.624	35060.25
614.98	35160.59
615.337	35504.98
615.693	35657.07
616.05	35876.73
616.406	36177.51
616.762	36015.48
617.118	36312.87
617.475	36400.1
617.831	36625.63
618.187	36804.39
618.543	37026.98
618.899	37346.07
619.255	37201.21
619.611	37359.85
619.967	37506.29
620.323	37816.79
620.678	37696.79
621.034	37776.11
621.39	37949.67
621.746	37997.8
622.101	38515.3
622.457	38301.07
622.812	38545.81
623.168	38520.05
623.523	38572.47
623.879	38705.35
624.234	38717.33
624.589	38951.45
624.945	39053.59
625.3	39165
625.655	39266.47
626.01	39357.09
626.365	39385.33
626.72	39601.83
627.075	39510.53
627.43	39573.13
627.785	39708.72
628.14	39807.92
628.495	39723.63
628.85	39887.47
629.205	39762.27
629.559	39971.99
629.914	39908.94
630.269	40060.34
630.623	39941.93
630.978	39903.96
631.332	40167.01
631.687	40156.84
632.041	40187.35
632.396	40203.17
632.75	40096.5
633.104	40040.46
633.459	40059.22
633.813	40297.63
634.167	40305.31
634.521	40359.32
634.875	40354.12
635.229	40380.34
635.583	40185.09
635.937	40268.02
636.291	40289.72
636.645	40181.47
636.999	40153.22
637.352	40407.45
637.706	40066.67
638.06	40465.76
638.413	40400.22
638.767	40096.28
639.121	40241.81
639.474	40088.37
639.828	40121.13
640.181	40288.81
640.534	40103.28
640.888	40168.14
641.241	40011.98
641.594	40181.7
641.947	40299.66
642.301	40097.18
642.654	40136.5
643.007	40166.33
643.36	40138.08
643.713	40191.41
644.066	40247.46
644.419	39906.9
644.771	39862.61
645.124	39401.83
645.477	39485.67
645.83	39251.78
646.182	38997.55
646.535	38925.91
646.888	39013.14
647.24	38837.1
647.593	39083.87
647.945	38943.31
648.298	38852.92
648.65	38722.75
649.002	38743.32
649.355	38916.42
649.707	38784.22
650.059	39010.43
650.411	39382.62
650.763	39332
651.115	39796.85
651.467	39745.78
651.819	39764.31
652.171	39515.73
652.523	39481.38
652.875	39576.52
653.227	39390.76
653.578	39696.96
653.93	39635.95
654.282	39481.38
654.633	39319.8
654.985	39524.54
655.337	39528.83
655.688	39513.92
656.039	39615.38
656.391	39315.28
656.742	39396.86
657.094	39346.24
657.445	39496.52
657.796	39483.86
658.147	39437.99
658.498	39237.09
658.849	39391.66
659.2	39240.93
659.551	39294.26
659.902	39407.48
660.253	39315.28
660.604	39424.43
660.955	39129.75
661.306	39451.77
661.656	39196.19
662.007	39348.95
662.358	39280.25
662.708	39207.03
663.059	39309.86
663.409	38972.92
663.76	39351.89
664.11	39230.08
664.461	39294.04
664.811	39220.14
665.161	39116.87
665.511	39218.33
665.862	39174.72
666.212	39143.53
666.562	39334.71
666.912	39185.57
667.262	39192.12
667.612	39127.71
667.962	39292.91
668.312	39141.73
668.662	39361.15
669.011	39142.63
669.361	38977.66
669.711	39071.22
670.06	39061.5
670.41	39065.34
670.76	39024.44
671.109	39066.7
671.459	38921.39
671.808	38827.84
672.157	39169.07
672.507	38767.72
672.856	38850.89
673.205	38806.59
673.554	38988.73
673.904	38807.72
674.253	38976.98
674.602	38849.76
674.951	38238.02
675.3	38151.02
675.649	38704
675.998	38795.29
676.346	38604.56
676.695	38752.36
677.044	38550.55
677.393	38792.58
677.741	38693.6
678.09	38682.08
678.438	38511.46
678.787	38624.9
679.135	38587.84
679.484	38355.31
679.832	38500.16
680.181	38354.85
680.529	38390.56
680.877	38350.33
681.225	38264.01
681.573	38454.96
681.922	38155.99
682.27	38134.52
682.618	38147.63
682.966	37995.31
683.314	38050
683.661	38030.34
684.009	37858.82
684.357	37759.16
684.705	37684.81
685.053	37709.45
685.4	37671.48
685.748	37444.14
686.095	37528.66
686.443	37429.23
686.79	37401.43
687.138	37558.72
687.485	37445.95
687.832	37284.82
688.18	37299.51
688.527	37100.42
688.874	37290.02
689.221	37005.51
689.568	36961.44
689.915	36817.49
690.262	36893.65
690.609	36664.28
690.956	36704.73
691.303	36518.29
691.65	36433.1
691.997	36393.1
692.344	36124.18
692.69	36139.54
693.037	36304.74
693.383	35942.94
693.73	36042.15
694.077	35830.63
694.423	35874.24
694.769	35639.22
695.116	35640.35
695.462	35642.61
695.808	35443.07
696.155	35590.86
696.501	35269.06
696.847	35316.51
697.193	35119.01
697.539	35227.93
697.885	34873.59
698.231	34921.05
698.577	34848.28
698.923	34736.64
699.269	34703.2
699.614	34520.15
699.96	34528.06
700.306	34421.62
700.651	34339.37
700.997	34191.8
701.342	34083.1
701.688	34151.12
702.033	33918.81
702.379	34037.45
702.724	33978.47
703.069	33977.79
703.415	33521.08
703.76	33658.71
704.105	33584.13
704.45	33617.8
704.795	33335.78
705.14	33192.95
705.485	33218.26
705.83	33121.09
706.175	33059.63
706.52	32998.16
706.865	32970.14
707.209	32827.31
707.554	32838.84
707.899	32891.49
708.243	32584.61
708.588	32518.62
708.932	32270.04
709.277	32443.82
709.621	32493.31
709.966	32011.07
710.31	32256.93
710.654	32015.81
710.998	32173.09
711.342	32026.66
711.687	32023.72
712.031	31889.94
712.375	31659.21
712.719	31882.48
713.063	31738.98
713.407	31790.96
713.75	31512.55
714.094	31537.86
714.438	31466.9
714.782	31577.18
715.125	31239.33
715.469	31449.72
715.812	31212.44
716.156	31075.72
716.499	31010.41
716.843	31184.19
717.186	30802.96
717.53	31008.15
717.873	30983.07
718.216	30896.74
718.559	30835.28
718.902	30651.33
719.246	30707.82
719.589	30536.98
719.932	30450.43
720.275	30567.26
720.617	30501.5
720.96	30345.35
721.303	30363.42
721.646	30371.79
721.989	30170.66
722.331	30389.41
722.674	30096.31
723.016	30087.95
723.359	30044.56
723.701	30025.58
724.044	29827.17
724.386	29772.25
724.729	30025.81
725.071	29733.16
725.413	29754.85
725.755	29799.37
726.097	29609.55
726.439	29431.7
726.782	29412.72
727.124	29615.2
727.465	29384.92
727.807	29333.62
728.149	29292.27
728.491	29134.08
728.833	29237.8
729.175	29173.17
729.516	29092.5
729.858	29116.9
730.199	28985.38
730.541	29104.93
730.882	29040.3
731.224	28971.82
731.565	28870.81
731.906	28873.75
732.248	28975.44
732.589	28751.94
732.93	28655
733.271	28779.51
733.612	28669.91
733.953	28715.33
734.294	28647.76
734.635	28543.36
734.976	28621.1
735.317	28380.88
735.658	28408.67
735.999	28437.37
736.339	28315.8
736.68	28354.89
737.021	28321.22
737.361	28143.82
737.702	28395.57
738.042	28206.19
738.383	28009.14
738.723	28222.24
739.063	27968.69
739.404	28087.78
739.744	27916.26
740.084	27895.47
740.424	28077.16
740.764	27819.31
741.104	27958.06
741.444	27648.47
741.784	27703.16
742.124	27741.35
742.464	27686.89
742.804	27654.8
743.143	27569.6
743.483	27577.06
743.823	27473.33
744.162	27522.14
744.502	27519.43
744.841	27288.7
745.181	27448.02
745.52	27328.48
745.86	27278.99
746.199	27279.66
746.538	27152.21
746.877	27243.73
747.216	27180.91
747.556	27128.48
747.895	27018.43
748.234	27059.1
748.573	26883.74
748.911	26905.89
749.25	26769.62
749.589	26782.05
749.928	26738.44
750.267	26737.98
750.605	26658.44
750.944	26528.72
751.283	26439.46
751.621	26598.33
751.96	26408.73
752.298	26428.61
752.636	26390.42
752.975	26315.62
753.313	26154.72
753.651	26227.04
753.989	25944.78
754.327	25989.98
754.666	25883.54
755.004	25964.9
755.342	25953.6
755.679	25864.11
756.017	25770.1
756.355	25731.46
756.693	25658.46
757.031	25707.95
757.368	25533.27
757.706	25524.46
758.044	25388.19
758.381	25554.74
758.719	25295.99
759.056	25350.9
