Data from hue_140_FLMS001491_00091.txt Node
Date: Tue Feb 07 16:56:40 GMT 2017
User: dcchb
Spectrometer: FLMS00149
Trigger mode: 0
Integration Time (sec): 2.000000E-2
Scans to average: 10
Electric dark correction enabled: true
Nonlinearity correction enabled: false
Boxcar width: 0
XAxis mode: Wavelengths
Number of Pixels in Spectrum: 2048
>>>>>Begin Spectral Data<<<<<
341.393	-2.47
341.776	-2.47
342.16	-2.47
342.543	-43.6
342.927	-63.04
343.31	-75.92
343.693	-70.49
344.077	-54
344.46	-67.33
344.843	-59.42
345.226	-65.75
345.61	-36.82
345.993	-21
346.376	-25.75
346.759	13.12
347.142	21.03
347.525	57.87
347.908	64.19
348.291	98.77
348.674	104.19
349.057	117.3
349.44	127.24
349.823	119.11
350.206	164.53
350.588	177.18
350.971	208.37
351.354	207.01
351.737	254.24
352.119	247.92
352.502	247.24
352.884	255.83
353.267	262.83
353.65	288.82
354.032	290.4
354.414	297.41
354.797	305.32
355.179	317.97
355.562	318.2
355.944	336.73
356.326	324.98
356.709	325.43
357.091	334.24
357.473	318.88
357.855	356.16
358.238	352.1
358.62	351.42
359.002	336.05
359.384	341.47
359.766	315.94
360.148	329.27
360.53	342.83
360.912	352.1
361.294	343.73
361.676	322.27
362.057	339.89
362.439	355.03
362.821	346.9
363.203	330.17
363.584	335.82
363.966	329.5
364.348	310.74
364.729	334.24
365.111	303.73
365.493	333.34
365.874	332.89
366.256	310.51
366.637	314.36
367.019	306.9
367.4	333.34
367.781	296.28
368.163	321.59
368.544	324.53
368.925	318.2
369.306	313.23
369.688	328.59
370.069	330.17
370.45	311.87
370.831	303.73
371.212	318.42
371.593	323.85
371.974	306.22
372.355	317.52
372.736	320.46
373.117	323.85
373.498	316.84
373.879	319.1
374.26	323.62
374.641	287.92
375.021	305.99
375.402	325.2
375.783	299.89
376.163	311.87
376.544	316.62
376.925	333.79
377.305	331.08
377.686	317.07
378.066	338.54
378.447	320.68
378.827	318.65
379.208	328.14
379.588	338.99
379.968	334.24
380.349	341.02
380.729	345.32
381.109	331.53
381.489	340.8
381.87	317.52
382.25	320.01
382.63	329.72
383.01	344.86
383.39	348.93
383.77	344.19
384.15	345.54
384.53	347.12
384.91	350.29
385.29	359.33
385.67	337.41
386.049	333.11
386.429	345.99
386.809	353.45
387.189	338.76
387.568	352.55
387.948	360
388.328	374.02
388.707	363.62
389.087	353.9
389.466	344.41
389.846	381.25
390.225	348.71
390.605	356.84
390.984	376.28
391.363	362.72
391.743	390.96
392.122	365.65
392.501	364.07
392.881	362.49
393.26	381.25
393.639	376.28
394.018	366.78
394.397	373.34
394.776	390.74
395.155	402.49
395.534	377.63
395.913	370.85
396.292	372.21
396.671	386.44
397.05	379.89
397.429	373.11
397.808	387.12
398.186	386.9
398.565	388.48
398.944	387.12
399.323	388.7
399.701	420.79
400.08	401.59
400.458	413.79
400.837	392.32
401.215	404.98
401.594	418.76
401.972	412.66
402.351	423.73
402.729	407.91
403.107	431.64
403.486	431.64
403.864	422.83
404.242	414.01
404.62	426.67
404.999	429.16
405.377	420.34
405.755	431.64
406.133	428.25
406.511	417.86
406.889	430.29
407.267	446.1
407.645	441.13
408.023	436.39
408.401	451.08
408.779	421.02
409.156	440.68
409.534	449.49
409.912	443.84
410.29	468.25
410.667	484.75
411.045	480.91
411.422	470.51
411.8	451.75
412.178	456.05
412.555	480.45
412.933	482.26
413.31	469.15
413.687	500.79
414.065	475.03
414.442	487.23
414.819	501.92
415.197	501.24
415.574	488.81
415.951	492.88
416.328	508.25
416.705	489.94
417.082	507.35
417.46	513.67
417.837	534.01
418.214	531.75
418.591	527.91
418.967	518.42
419.344	545.54
419.721	548.7
420.098	532.88
420.475	523.39
420.852	513.45
421.228	546.21
421.605	555.93
421.982	549.15
422.358	550.51
422.735	537.85
423.111	567.46
423.488	586.67
423.864	561.58
424.241	588.02
424.617	574.24
424.994	570.62
425.37	589.38
425.746	582.6
426.123	594.12
426.499	576.27
426.875	583.28
427.251	595.48
427.627	604.97
428.003	612.43
428.379	619.21
428.756	597.06
429.132	629.6
429.507	629.38
429.883	624.63
430.259	609.72
430.635	626.21
431.011	649.94
431.387	675.48
431.763	677.51
432.138	642.48
432.514	684.06
432.89	683.61
433.265	698.75
433.641	700.11
434.016	694.01
434.392	687.45
434.767	723.61
435.143	703.95
435.518	693.78
435.894	720.67
436.269	741.01
436.644	724.29
437.02	738.75
437.395	729.94
437.77	736.94
438.145	768.36
438.52	775.13
438.895	776.49
439.271	770.16
439.646	787.11
440.021	799.77
440.395	799.32
440.77	797.28
441.145	766.32
441.52	794.8
441.895	810.61
442.27	807.22
442.645	836.15
443.019	821.24
443.394	824.4
443.769	824.4
444.143	820.11
444.518	855.13
444.892	864.4
445.267	854.68
445.641	865.75
446.016	859.2
446.39	887.9
446.764	884.51
447.139	873.89
447.513	874.57
447.887	880.22
448.262	892.42
448.636	891.97
449.01	914.57
449.384	889.48
449.758	909.82
450.132	911.4
450.506	933.55
450.88	952.98
451.254	958.41
451.628	960.44
452.002	965.86
452.376	956.6
452.75	988.46
453.123	968.35
453.497	1008.12
453.871	993.21
454.244	1005.41
454.618	1016.71
454.992	1028.46
455.365	1033.43
455.739	1063.71
456.112	1062.36
456.486	1083.38
456.859	1072.75
457.232	1132.19
457.606	1104.84
457.979	1132.87
458.352	1126.76
458.725	1140.55
459.099	1153.66
459.472	1199.08
459.845	1231.39
460.218	1211.51
460.591	1210.83
460.964	1219.42
461.337	1239.53
461.71	1275.01
462.083	1289.7
462.456	1298.06
462.829	1326.98
463.201	1325.63
463.574	1323.82
463.947	1313.88
464.32	1393.42
464.692	1385.06
465.065	1403.82
465.438	1432.97
465.81	1438.85
466.183	1478.39
466.555	1494.66
466.928	1524.04
467.3	1505.06
467.672	1548.45
468.045	1562.46
468.417	1571.5
468.789	1601.78
469.161	1631.84
469.534	1660.99
469.906	1689.46
470.278	1736.69
470.65	1746.18
471.022	1764.04
471.394	1818.05
471.766	1844.49
472.138	1901.89
472.51	1927.2
472.882	1973.52
473.253	2016.23
473.625	2058.04
473.997	2094.42
474.369	2165.83
474.74	2147.98
475.112	2237.92
475.484	2266.62
475.855	2301.87
476.227	2367.86
476.598	2437.92
476.97	2503
477.341	2567.86
477.713	2609.66
478.084	2704.58
478.455	2782.31
478.827	2801.97
479.198	2887.17
479.569	2936.43
479.94	3062.76
480.311	3152.02
480.682	3220.95
481.053	3334.84
481.424	3391.11
481.795	3517.89
482.166	3610.09
482.537	3672.69
482.908	3782.97
483.279	3850.53
483.65	3955.16
484.021	4099.12
484.391	4178.66
484.762	4242.16
485.133	4380.46
485.503	4514.47
485.874	4603.28
486.244	4762.83
486.615	4834.46
486.985	4936.61
487.356	5105.87
487.726	5171.86
488.097	5300.67
488.467	5444.84
488.837	5633.09
489.207	5762.57
489.578	5832.63
489.948	5978.16
490.318	6118.27
490.688	6219.96
491.058	6358.94
491.428	6532.72
491.798	6645.72
492.168	6890.91
492.538	6860.85
492.908	7067.4
493.278	7205.02
493.648	7285.7
494.017	7464.22
494.387	7583.09
494.757	7727.72
495.126	7870.77
495.496	7974.04
495.866	8030.76
496.235	8197.99
496.605	8280.93
496.974	8480.92
497.344	8545.33
497.713	8633.01
498.082	8791.87
498.452	8880.23
498.821	8980.12
499.19	9048.14
499.559	9237.29
499.928	9292.43
500.298	9411.29
500.667	9570.38
501.036	9593.43
501.405	9772.86
501.774	9814.9
502.143	9854.22
502.512	10047.89
502.88	10111.39
503.249	10083.14
503.618	10143.02
503.987	10239.52
504.356	10353.19
504.724	10388.44
505.093	10472.06
505.462	10614.65
505.83	10713.4
506.199	10757.7
506.567	10916.79
506.936	10918.6
507.304	11007.63
507.672	11063.68
508.041	11150
508.409	11223.45
508.777	11333.05
509.145	11419.37
509.514	11450.11
509.882	11455.98
510.25	11444.23
510.618	11592.25
510.986	11601.97
511.354	11737.78
511.722	11806.94
512.09	11829.08
512.458	11828.18
512.826	11991.11
513.193	12032.47
513.561	12048.28
513.929	12087.83
514.297	12243.76
514.664	12306.81
515.032	12298.45
515.4	12361.27
515.767	12396.98
516.135	12363.98
516.502	12311.78
516.869	12461.61
517.237	12561.94
517.604	12427.48
517.972	12546.58
518.339	12661.83
518.706	12620.47
519.073	12608.95
519.44	12652.56
519.808	12825.44
520.175	12761.49
520.542	12906.79
520.909	12880.35
521.276	12913.12
521.643	12979.11
522.009	12988.6
522.376	13009.16
522.743	13029.73
523.11	13168.93
523.477	13166.67
523.843	13296.61
524.21	13271.08
524.577	13340
524.943	13365.09
525.31	13375.93
525.676	13450.06
526.043	13511.07
526.409	13500.68
526.776	13505.65
527.142	13525.99
527.508	13517.17
527.874	13545.19
528.241	13607.11
528.607	13541.58
528.973	13705.19
529.339	13571.86
529.705	13719.88
530.071	13704.74
530.437	13711.97
530.803	13680.11
531.169	13746.09
531.535	13632.88
531.901	13632.42
532.267	13611.41
532.632	13647.79
532.998	13621.58
533.364	13695.47
533.73	13619.77
534.095	13657.51
534.461	13719.88
534.826	13633.55
535.192	13671.07
535.557	13802.36
535.923	13580.9
536.288	13632.42
536.653	13627.23
537.019	13533.67
537.384	13509.26
537.749	13508.13
538.114	13496.16
538.479	13521.92
538.845	13522.37
539.21	13391.53
539.575	13380.91
539.94	13411.86
540.305	13395.82
540.67	13292.32
541.034	13310.85
541.399	13283.28
541.764	13333.45
542.129	13205.77
542.494	13243.51
542.858	13188.14
543.223	13149.95
543.587	13135.71
543.952	13060.69
544.316	13068.37
544.681	13038.54
545.045	13029.05
545.41	12986.11
545.774	12913.35
546.138	12931.65
546.503	12909.51
546.867	12803.52
547.231	12919.67
547.595	12806.01
547.959	12834.7
548.324	12777.31
548.688	12667.7
549.052	12685.1
549.416	12691.21
549.779	12544.32
550.143	12636.29
550.507	12658.66
550.871	12618.21
551.235	12543.64
551.599	12588.84
551.962	12561.49
552.326	12494.37
552.689	12469.74
553.053	12385.23
553.417	12369.86
553.78	12542.96
554.143	12344.77
554.507	12363.3
554.87	12381.16
555.234	12444.66
555.597	12321.5
555.96	12375.28
556.323	12335.96
556.686	12186.81
557.05	12334.61
557.413	12243.53
557.776	12276.3
558.139	12258.67
558.502	12330.09
558.865	12179.81
559.228	12349.97
559.59	12259.8
559.953	12214.61
560.316	12305.23
560.679	12311.33
561.041	12213.48
561.404	12291.44
561.767	12345.45
562.129	12295.96
562.492	12326.7
562.854	12237.88
563.217	12271.33
563.579	12314.49
563.941	12301.61
564.304	12296.41
564.666	12378.9
565.028	12344.55
565.39	12347.49
565.753	12363.98
566.115	12397.88
566.477	12335.73
566.839	12416.64
567.201	12461.61
567.563	12421.61
567.925	12527.59
568.287	12448.95
568.648	12432.68
569.01	12560.36
569.372	12609.63
569.734	12460.48
570.095	12549.51
570.457	12532.11
570.819	12568.72
571.18	12598.33
571.542	12613.92
571.903	12601.26
572.265	12578.44
572.626	12573.02
572.987	12610.76
573.349	12677.19
573.71	12628.38
574.071	12693.92
574.432	12667.25
574.794	12784.08
575.155	12729.62
575.516	12638.33
575.877	12681.94
576.238	12716.06
576.599	12731.66
576.96	12648.95
577.32	12705.44
577.681	12716.74
578.042	12787.47
578.403	12712.67
578.763	12719
579.124	12643.3
579.485	12797.42
579.845	12766.68
580.206	12687.59
580.566	12737.08
580.927	12732.33
581.287	12752.9
581.648	12638.1
582.008	12767.14
582.368	12740.47
582.728	12782.73
583.089	12714.71
583.449	12691.21
583.809	12736.4
584.169	12660.92
584.529	12636.74
584.889	12730.07
585.249	12653.92
585.609	12644.65
585.969	12647.59
586.329	12683.97
586.688	12668.16
587.048	12630.64
587.408	12637.65
587.768	12622.28
588.127	12660.02
588.487	12662.05
588.846	12707.02
589.206	12606.46
589.565	12609.85
589.925	12646.46
590.284	12567.14
590.643	12527.59
591.003	12530.76
591.362	12682.17
591.721	12580.25
592.08	12579.57
592.44	12641.26
592.799	12557.42
593.158	12540.48
593.517	12563.07
593.876	12536.41
594.235	12503.41
594.593	12490.99
594.952	12530.98
595.311	12445.56
595.67	12431.55
596.029	12529.4
596.387	12458.9
596.746	12572.56
597.104	12419.8
597.463	12438.78
597.822	12490.53
598.18	12383.87
598.538	12464.32
598.897	12556.52
599.255	12424.77
599.613	12563.98
599.972	12430.42
600.33	12418.9
600.688	12400.37
601.046	12553.58
601.404	12523.98
601.762	12447.37
602.12	12572.34
602.478	12449.63
602.836	12515.39
603.194	12374.83
603.552	12507.48
603.91	12388.61
604.268	12551.77
604.625	12416.86
604.983	12483.53
605.341	12447.37
605.698	12514.26
606.056	12530.53
606.413	12493.47
606.771	12495.05
607.128	12513.36
607.485	12415.28
607.843	12414.15
608.2	12550.64
608.557	12514.49
608.914	12542.74
609.272	12484.43
609.629	12597.2
609.986	12620.02
610.343	12557.2
610.7	12575.73
611.057	12570.98
611.414	12618.44
611.771	12577.99
612.127	12633.58
612.484	12684.2
612.841	12641.94
613.198	12684.43
613.554	12647.59
613.911	12715.16
614.267	12688.49
614.624	12735.72
614.98	12688.95
615.337	12797.42
615.693	12735.5
616.05	12709.96
616.406	12720.36
616.762	12670.19
617.118	12696.86
617.475	12725.56
617.831	12805.1
618.187	12725.1
618.543	12704.09
618.899	12904.31
619.255	12829.73
619.611	12862.5
619.967	12807.14
620.323	12863.63
620.678	12782.73
621.034	12892.1
621.39	12784.31
621.746	12728.27
622.101	12937.08
622.457	12895.49
622.812	12827.25
623.168	12791.09
623.523	12785.89
623.879	12910.64
624.234	12749.74
624.589	12887.13
624.945	12899.56
625.3	12896.17
625.655	12926.45
626.01	12862.73
626.365	12898.88
626.72	12789.96
627.075	12799
627.43	12819.79
627.785	12802.84
628.14	12862.5
628.495	12860.92
628.85	12824.08
629.205	12757.87
629.559	12822.5
629.914	12750.64
630.269	12838.55
630.623	12767.59
630.978	12752.22
631.332	12742.96
631.687	12770.98
632.041	12714.93
632.396	12707.93
632.75	12677.87
633.104	12717.87
633.459	12617.08
633.813	12669.74
634.167	12580.47
634.521	12616.63
634.875	12692.11
635.229	12549.74
635.583	12513.36
635.937	12590.19
636.291	12524.88
636.645	12503.19
636.999	12493.92
637.352	12556.07
637.706	12429.74
638.06	12465.45
638.413	12421.61
638.767	12430.65
639.121	12434.26
639.474	12379.58
639.828	12389.52
640.181	12479.01
640.534	12366.69
640.888	12305.91
641.241	12299.8
641.594	12300.71
641.947	12435.85
642.301	12325.11
642.654	12315.4
643.007	12296.19
643.36	12337.99
643.713	12237.66
644.066	12349.52
644.419	12294.61
644.771	12213.48
645.124	12136.19
645.477	12059.58
645.83	11949.53
646.182	11877.89
646.535	11832.92
646.888	11930.55
647.24	11902.07
647.593	11966.71
647.945	11930.55
648.298	11835.41
648.65	11771
649.002	11819.14
649.355	11974.84
649.707	11782.98
650.059	11849.19
650.411	12036.08
650.763	12010.09
651.115	12213.7
651.467	12133.03
651.819	12160.6
652.171	12165.12
652.523	12062.75
652.875	12123.09
653.227	12035.86
653.578	12112.69
653.93	12179.35
654.282	12088.51
654.633	12037.66
654.985	12073.59
655.337	12111.33
655.688	12128.96
656.039	12214.61
656.391	12024.1
656.742	12063.65
657.094	12176.64
657.445	12205.57
657.796	12164.89
658.147	12090.77
658.498	12098
658.849	12098
659.2	12112.46
659.551	12007.38
659.902	12136.42
660.253	12117.89
660.604	12175.97
660.955	12086.48
661.306	12133.25
661.656	12087.61
662.007	12217.32
662.358	12118.57
662.708	12179.58
663.059	12147.72
663.409	12096.42
663.76	12118.57
664.11	12171.9
664.461	12197.43
664.811	12225.68
665.161	12126.93
665.511	12128.96
665.862	12166.93
666.212	12121.73
666.562	12186.81
666.912	12147.94
667.262	12108.85
667.612	12110.43
667.962	12216.19
668.312	12163.31
668.662	12178.45
669.011	12156.08
669.361	12124.22
669.711	12124.67
670.06	12162.18
670.41	12076.31
670.76	12071.11
671.109	12243.31
671.459	12156.08
671.808	12052.35
672.157	12090.32
672.507	12003.31
672.856	12007.16
673.205	12033.82
673.554	12109.53
673.904	12055.06
674.253	12078.79
674.602	12072.01
674.951	11856.65
675.3	11799.48
675.649	11996.08
675.998	12014.84
676.346	11966.48
676.695	12029.98
677.044	11960.6
677.393	11944.11
677.741	11966.03
678.09	11891.68
678.438	11860.27
678.787	11904.56
679.135	11936.65
679.484	11882.87
679.832	11863.43
680.181	11753.83
680.529	11795.86
680.877	11771.91
681.225	11804.45
681.573	11801.29
681.922	11735.07
682.27	11686.49
682.618	11615.08
682.966	11658.92
683.314	11641.29
683.661	11611.46
684.009	11541.63
684.357	11546.83
684.705	11512.93
685.053	11514.06
685.4	11468.41
685.748	11426.83
686.095	11440.39
686.443	11427.06
686.79	11437.68
687.138	11341.64
687.485	11430.22
687.832	11345.48
688.18	11347.29
688.527	11340.05
688.874	11282.43
689.221	11275.65
689.568	11271.36
689.915	11192.04
690.262	11231.36
690.609	11077.91
690.956	11012.61
691.303	11059.16
691.65	10989.78
691.997	10984.58
692.344	10916.34
692.69	10920.86
693.037	10880.86
693.383	10851.48
693.73	10816.9
694.077	10739.39
694.423	10800.18
694.769	10726.29
695.116	10637.93
695.462	10670.47
695.808	10562.22
696.155	10601.54
696.501	10528.32
696.847	10480.42
697.193	10401.1
697.539	10418.72
697.885	10336.92
698.231	10389.8
698.577	10250.14
698.923	10248.78
699.269	10256.02
699.614	10211.72
699.96	10203.59
700.306	10145.06
700.651	10109.8
700.997	10092.63
701.342	10091.05
701.688	9988.9
702.033	9994.1
702.379	9966.98
702.724	9957.94
703.069	9921.11
703.415	9839.76
703.76	9801.56
704.105	9726.54
704.45	9733.09
704.795	9737.84
705.14	9685.86
705.485	9636.14
705.83	9649.93
706.175	9674.34
706.52	9657.61
706.865	9592.53
707.209	9551.4
707.554	9465.08
707.899	9544.4
708.243	9487
708.588	9389.37
708.932	9375.36
709.277	9359.54
709.621	9416.26
709.966	9283.61
710.31	9346.44
710.654	9218.98
710.998	9263.27
711.342	9233.22
711.687	9176.04
712.031	9136.5
712.375	9152.32
712.719	9168.59
713.063	9187.34
713.407	9170.62
713.75	9100.11
714.094	9071.64
714.438	9027.12
714.782	9063.28
715.125	9124.29
715.469	9002.94
715.812	8964.07
716.156	8966.33
716.499	8924.98
716.843	8934.92
717.186	8830.74
717.53	8909.61
717.873	8935.37
718.216	8880.91
718.559	8866.67
718.902	8775.6
719.246	8868.03
719.589	8785.09
719.932	8738.77
720.275	8698.77
720.617	8751.2
720.96	8709.16
721.303	8746.68
721.646	8787.13
721.989	8751.65
722.331	8694.7
722.674	8739.45
723.016	8708.26
723.359	8726.34
723.701	8719.11
724.044	8672.55
724.386	8658.09
724.729	8660.58
725.071	8731.54
725.413	8660.58
725.755	8605.89
726.097	8607.7
726.439	8613.35
726.782	8617.41
727.124	8618.77
727.465	8578.09
727.807	8585.33
728.149	8529.06
728.491	8537.42
728.833	8533.12
729.175	8497.64
729.516	8577.42
729.858	8454.48
730.199	8551.88
730.541	8553.91
730.882	8505.55
731.224	8478.44
731.565	8444.09
731.906	8444.09
732.248	8499.9
732.589	8442.5
732.93	8437.08
733.271	8469.4
733.612	8470.75
733.953	8568.6
734.294	8482.28
734.635	8475.5
734.976	8471.2
735.317	8454.03
735.658	8520.24
735.999	8454.48
736.339	8442.5
736.68	8498.1
737.021	8489.51
737.361	8419.68
737.702	8529.96
738.042	8459
738.383	8423.3
738.723	8511.2
739.063	8523.18
739.404	8473.46
739.744	8497.64
740.084	8496.74
740.424	8521.15
740.764	8592.1
741.104	8631.43
741.444	8564.76
741.784	8550.98
742.124	8691.54
742.464	8614.25
742.804	8670.75
743.143	8620.35
743.483	8666
743.823	8626
744.162	8721.59
744.502	8734.47
744.841	8692.44
745.181	8795.04
745.52	8829.39
745.86	8880.68
746.199	8908.03
746.538	8947.58
746.877	8957.52
747.216	9027.57
747.556	9074.35
747.895	9116.84
748.234	9100.79
748.573	9149.6
748.911	9224.4
749.25	9318.19
749.589	9292.43
749.928	9436.38
750.267	9525.64
750.605	9553.89
750.944	9635.69
751.283	9645.86
751.621	9784.62
751.96	9788.91
752.298	9879.53
752.636	9999.53
752.975	10061.67
753.313	10143.25
753.651	10284.49
753.989	10431.15
754.327	10480.19
754.666	10546.4
755.004	10696.46
755.342	10881.31
755.679	10972.83
756.017	10960.4
756.355	11253.96
756.693	11319.04
757.031	11482.65
757.368	11520.62
757.706	11648.07
758.044	11768.97
758.381	12005.57
758.719	12123.99
759.056	12407.15
759.394	12468.39
