Data from hue_130_FLMS001491_00019.txt Node
Date: Tue Feb 07 16:57:15 GMT 2017
User: dcchb
Spectrometer: FLMS00149
Trigger mode: 0
Integration Time (sec): 2.000000E-2
Scans to average: 10
Electric dark correction enabled: true
Nonlinearity correction enabled: false
Boxcar width: 0
XAxis mode: Wavelengths
Number of Pixels in Spectrum: 2048
>>>>>Begin Spectral Data<<<<<
341.393	-6.43
341.776	-6.43
342.16	-6.43
342.543	-70.38
342.927	-71.96
343.31	-73.54
343.693	-69.7
344.077	-55.46
344.46	-52.3
344.843	-43.71
345.226	-43.71
345.61	-41.23
345.993	-13.88
346.376	-15.01
346.759	0.58
347.142	28.83
347.525	50.75
347.908	55.72
348.291	66.34
348.674	89.62
349.057	116.73
349.44	118.99
349.823	147.92
350.206	144.98
350.588	191.08
350.971	193.12
351.354	217.3
351.737	231.99
352.119	239.67
352.502	254.13
352.884	274.7
353.267	256.39
353.65	298.2
354.032	297.97
354.414	297.75
354.797	309.27
355.179	330.06
355.562	322.83
355.944	329.61
356.326	316.73
356.709	330.74
357.091	338.88
357.473	341.59
357.855	340.46
358.238	332.55
358.62	331.42
359.002	346.78
359.384	336.62
359.766	355.6
360.148	341.36
360.53	325.77
360.912	340.46
361.294	321.93
361.676	333.9
362.057	325.99
362.439	333.68
362.821	326.45
363.203	322.83
363.584	330.74
363.966	342.27
364.348	341.14
364.729	324.64
365.111	316.05
365.493	325.54
365.874	313.11
366.256	301.14
366.637	306.33
367.019	337.75
367.4	326.22
367.781	333.45
368.163	324.19
368.544	321.25
368.925	319.44
369.306	307.01
369.688	310.85
370.069	299.55
370.45	323.96
370.831	295.94
371.212	284.87
371.593	303.62
371.974	318.76
372.355	296.39
372.736	328.25
373.117	312.89
373.498	308.14
373.879	312.44
374.26	292.1
374.641	305.88
375.021	329.16
375.402	323.73
375.783	320.57
376.163	325.77
376.544	307.24
376.925	316.73
377.305	327.58
377.686	310.85
378.066	337.07
378.447	344.3
378.827	342.72
379.208	329.38
379.588	314.24
379.968	331.19
380.349	328.25
380.729	344.98
381.109	357.18
381.489	326.67
381.87	364.19
382.25	366.45
382.63	328.93
383.01	343.85
383.39	342.04
383.77	336.62
384.15	359.44
384.53	345.88
384.91	345.43
385.29	326.9
385.67	345.65
386.049	340.68
386.429	353.79
386.809	344.75
387.189	332.32
387.568	335.26
387.948	347.24
388.328	347.24
388.707	378.42
389.087	352.89
389.466	374.81
389.846	356.28
390.225	360.8
390.605	377.52
390.984	378.2
391.363	371.42
391.743	357.86
392.122	348.37
392.501	374.81
392.881	374.81
393.26	369.83
393.639	381.36
394.018	380.23
394.397	375.26
394.776	385.65
395.155	374.58
395.534	393.34
395.913	372.32
396.292	392.89
396.671	395.37
397.05	368.93
397.429	365.77
397.808	403.96
398.186	397.18
398.565	396.05
398.944	385.88
399.323	389.27
399.701	416.39
400.08	410.96
400.458	404.86
400.837	395.6
401.215	386.56
401.594	410.96
401.972	424.52
402.351	406.67
402.729	406.67
403.107	415.48
403.486	420.91
403.864	400.34
404.242	416.39
404.62	413.68
404.999	434.01
405.377	417.74
405.755	430.17
406.133	422.04
406.511	434.01
406.889	417.97
407.267	433.79
407.645	420
408.023	439.66
408.401	444.86
408.779	452.54
409.156	452.77
409.534	449.15
409.912	451.19
410.29	458.19
410.667	473.79
411.045	481.02
411.422	464.07
411.8	450.74
412.178	475.82
412.555	462.71
412.933	483.5
413.31	459.78
413.687	463.17
414.065	481.02
414.442	491.41
414.819	474.92
415.197	484.41
415.574	488.48
415.951	498.87
416.328	504.75
416.705	509.04
417.082	483.5
417.46	507.91
417.837	540.23
418.214	521.02
418.591	523.28
418.967	498.65
419.344	509.27
419.721	500.23
420.098	517.4
420.475	525.31
420.852	506.55
421.228	543.39
421.605	534.35
421.982	545.42
422.358	541.58
422.735	553.11
423.111	543.62
423.488	568.7
423.864	554.69
424.241	567.12
424.617	565.76
424.994	550.62
425.37	582.48
425.746	578.42
426.123	580.22
426.499	603.73
426.875	577.97
427.251	582.94
427.627	582.94
428.003	605.08
428.379	621.13
428.756	630.17
429.132	600.56
429.507	619.77
429.883	617.29
430.259	621.81
430.635	620.45
431.011	639.21
431.387	658.87
431.763	654.8
432.138	671.3
432.514	655.25
432.89	665.87
433.265	662.48
433.641	710.39
434.016	672.43
434.392	681.69
434.767	702.26
435.143	690.96
435.518	702.71
435.894	695.93
436.269	735.7
436.644	739.99
437.02	725.53
437.395	751.97
437.77	723.95
438.145	746.32
438.52	758.3
438.895	754.91
439.271	752.65
439.646	761.91
440.021	762.82
440.395	779.54
440.77	760.56
441.145	805.08
441.52	792.87
441.895	812.54
442.27	784.74
442.645	796.49
443.019	796.72
443.394	823.38
443.769	801.91
444.143	831.97
444.518	834.68
444.892	820.9
445.267	815.47
445.641	831.07
446.016	834.46
446.39	852.76
446.764	865.42
447.139	840.78
447.513	863.61
447.887	881.69
448.262	896.37
448.636	869.71
449.01	894.79
449.384	886.88
449.758	888.24
450.132	914.23
450.506	897.5
450.88	923.27
451.254	895.7
451.628	919.42
452.002	931.85
452.376	935.47
452.75	965.75
453.123	957.62
453.497	973.21
453.871	1003.72
454.244	978.41
454.618	1033.77
454.992	1010.5
455.365	1012.3
455.739	1043.94
456.112	1038.07
456.486	1042.13
456.859	1084.39
457.232	1090.95
457.606	1099.99
457.979	1108.57
458.352	1127.56
458.725	1111.51
459.099	1128.23
459.472	1165.97
459.845	1168.46
460.218	1188.12
460.591	1199.42
460.964	1149.48
461.337	1228.8
461.71	1233.99
462.083	1250.04
462.456	1239.64
462.829	1268.12
463.201	1288
463.574	1295.23
463.947	1309.02
464.32	1339.53
464.692	1359.41
465.065	1358.74
465.438	1373.42
465.81	1399.19
466.183	1408
466.555	1450.71
466.928	1456.36
467.3	1486.19
467.672	1524.83
468.045	1529.35
468.417	1563.93
468.789	1581.33
469.161	1603.93
469.534	1618.39
469.906	1660.2
470.278	1677.82
470.65	1713.3
471.022	1747.43
471.394	1799.18
471.766	1779.29
472.138	1832.85
472.51	1872.85
472.882	1904.94
473.253	1923.47
473.625	1964.6
473.997	2011.15
474.369	2038.27
474.74	2129.56
475.112	2151.03
475.484	2233.51
475.855	2271.48
476.227	2315.09
476.598	2361.42
476.97	2439.16
477.341	2478.93
477.713	2567.29
478.084	2591.7
478.455	2699.27
478.827	2749.21
479.198	2816.55
479.569	2892.25
479.94	2985.13
480.311	3010.9
480.682	3125.24
481.053	3237.78
481.424	3332.47
481.795	3350.77
482.166	3451.56
482.537	3554.61
482.908	3684.78
483.279	3764.55
483.65	3846.58
484.021	4006.12
484.391	4051.32
484.762	4199.56
485.133	4270.07
485.503	4386.45
485.874	4497.64
486.244	4588.03
486.615	4726.78
486.985	4881.35
487.356	4984.4
487.726	5064.17
488.097	5218.29
488.467	5352.08
488.837	5463.94
489.207	5671.16
489.578	5733.76
489.948	5890.37
490.318	6000.2
490.688	6084.49
491.058	6263.24
491.428	6384.14
491.798	6481.99
492.168	6703
492.538	6782.32
492.908	6961.07
493.278	7062.77
493.648	7184.12
494.017	7287.17
494.387	7440.84
494.757	7620.94
495.126	7718.57
495.496	7839.24
495.866	7957.88
496.235	8074.04
496.605	8262.51
496.974	8297.76
497.344	8453.46
497.713	8576.17
498.082	8624.08
498.452	8788.37
498.821	8882.38
499.19	8976.84
499.559	9138.42
499.928	9186.78
500.298	9276.49
500.667	9417.51
501.036	9455.02
501.405	9650.72
501.774	9668.35
502.143	9736.37
502.512	9804.62
502.88	9968.23
503.249	10064.95
503.618	10073.99
503.987	10219.07
504.356	10279.18
504.724	10337.48
505.093	10405.05
505.462	10495.67
505.83	10659.06
506.199	10754.87
506.567	10868.32
506.936	10883.46
507.304	11011.36
507.672	11105.82
508.041	11038.03
508.409	11162.55
508.777	11329.09
509.145	11408.64
509.514	11391.69
509.882	11452.71
510.25	11461.07
510.618	11566.38
510.986	11612.93
511.354	11680.5
511.722	11814.28
512.09	11851.34
512.458	11910.55
512.826	11960.26
513.193	12043.2
513.561	12056.08
513.929	12108.28
514.297	12245.45
514.664	12247.04
515.032	12263.76
515.4	12446.35
515.767	12408.84
516.135	12405.9
516.502	12383.53
516.869	12568.61
517.237	12587.14
517.604	12516.63
517.972	12528.61
518.339	12677.53
518.706	12646.57
519.073	12699.91
519.44	12725.22
519.808	12822.39
520.175	12842.28
520.542	12937.41
520.909	12970.41
521.276	12981.93
521.643	13072.1
522.009	13037.98
522.376	13110.29
522.743	13129.73
523.11	13230.74
523.477	13222.38
523.843	13279.1
524.21	13381.92
524.577	13410.62
524.943	13461.02
525.31	13444.07
525.676	13469.6
526.043	13549.6
526.409	13523.61
526.776	13628.24
527.142	13528.13
527.508	13641.8
527.874	13641.58
528.241	13710.73
528.607	13679.77
528.973	13815.81
529.339	13676.38
529.705	13863.49
530.071	13775.13
530.437	13828.24
530.803	13867.79
531.169	13866.43
531.535	13828.69
531.901	13765.64
532.267	13742.59
532.632	13800.89
532.998	13757.51
533.364	13802.25
533.73	13771.97
534.095	13755.02
534.461	13760.44
534.826	13890.16
535.192	13777.39
535.557	13758.86
535.923	13772.87
536.288	13698.98
536.653	13760.9
537.019	13726.32
537.384	13689.03
537.749	13601.13
538.114	13600.45
538.479	13509.6
538.845	13604.29
539.21	13517.29
539.575	13590.05
539.94	13542.14
540.305	13518.64
540.67	13466.89
541.034	13517.29
541.399	13397.51
541.764	13396.61
542.129	13372.88
542.494	13332.21
542.858	13339.44
543.223	13273.9
543.587	13280.23
543.952	13232.77
544.316	13222.38
544.681	13124.75
545.045	13164.3
545.41	13165.2
545.774	13124.75
546.138	13108.93
546.503	13051.76
546.867	12988.49
547.231	13050.86
547.595	12966.34
547.959	13079.56
548.324	12883.63
548.688	12866.68
549.052	12888.6
549.416	12919.34
549.779	12764.99
550.143	12746.46
550.507	12774.03
550.871	12795.27
551.235	12681.6
551.599	12655.84
551.962	12763.86
552.326	12679.34
552.689	12664.88
553.053	12506.46
553.417	12601.38
553.78	12687.93
554.143	12497.43
554.507	12525.22
554.87	12566.58
555.234	12621.72
555.597	12395.96
555.96	12428.27
556.323	12513.47
556.686	12441.38
557.05	12442.29
557.413	12508.05
557.776	12475.96
558.139	12435.96
558.502	12398.45
558.865	12418.56
559.228	12529.97
559.59	12398.45
559.953	12323.42
560.316	12495.84
560.679	12433.47
561.041	12479.35
561.404	12409.74
561.767	12493.58
562.129	12393.7
562.492	12491.55
562.854	12508.72
563.217	12494.04
563.579	12464.66
563.941	12500.82
564.304	12485.22
564.666	12652
565.028	12486.35
565.39	12522.51
565.753	12590.08
566.115	12615.16
566.477	12557.54
566.839	12583.53
567.201	12578.1
567.563	12614.26
567.925	12661.04
568.287	12634.37
568.648	12684.54
569.01	12668.04
569.372	12758.21
569.734	12621.49
570.095	12705.33
570.457	12669.4
570.819	12753.24
571.18	12815.84
571.542	12823.29
571.903	12776.29
572.265	12781.26
572.626	12760.47
572.987	12845.67
573.349	12812.9
573.71	12940.58
574.071	12851.99
574.432	12837.3
574.794	12958.43
575.155	12972.67
575.516	12847.25
575.877	12926.34
576.238	12847.25
576.599	12951.2
576.96	12997.3
577.32	12927.02
577.681	12910.52
578.042	12971.09
578.403	12884.76
578.763	12991.42
579.124	12990.07
579.485	12953.01
579.845	12955.94
580.206	12928.15
580.566	12943.29
580.927	12984.64
581.287	12965.44
581.648	12912.78
582.008	13033.23
582.368	12921.6
582.728	12960.69
583.089	12948.26
583.449	12891.77
583.809	12959.56
584.169	12985.1
584.529	12851.54
584.889	12997.98
585.249	12881.6
585.609	12838.43
585.969	12825.33
586.329	12908.71
586.688	12831.2
587.048	12851.54
587.408	12840.24
587.768	12833.24
588.127	12827.59
588.487	12798.43
588.846	12867.13
589.206	12794.37
589.565	12737.42
589.925	12779
590.284	12773.8
590.643	12808.6
591.003	12800.47
591.362	12847.47
591.721	12755.5
592.08	12743.29
592.44	12845.21
592.799	12784.65
593.158	12734.03
593.517	12715.5
593.876	12724.54
594.235	12743.97
594.593	12680.7
594.952	12672.11
595.311	12662.39
595.67	12742.39
596.029	12792.79
596.387	12777.19
596.746	12759.34
597.104	12713.01
597.463	12629.63
597.822	12663.97
598.18	12673.24
598.538	12614.48
598.897	12731.54
599.255	12566.8
599.613	12808.38
599.972	12645.67
600.33	12795.5
600.688	12634.37
601.046	12721.6
601.404	12694.26
601.762	12668.49
602.12	12730.41
602.478	12733.58
602.836	12743.07
603.194	12623.52
603.552	12748.72
603.91	12669.4
604.268	12678.89
604.625	12655.61
604.983	12716.63
605.341	12662.39
605.698	12715.95
606.056	12770.64
606.413	12622.17
606.771	12705.78
607.128	12715.72
607.485	12654.94
607.843	12640.02
608.2	12777.42
608.557	12720.02
608.914	12767.48
609.272	12796.4
609.629	12778.1
609.986	12815.61
610.343	12782.39
610.7	12817.64
611.057	12740.13
611.414	12855.83
611.771	12769.73
612.127	12839.56
612.484	12898.55
612.841	12886.12
613.198	12873.91
613.554	12869.39
613.911	12877.98
614.267	12881.37
614.624	12928.6
614.98	12943.97
615.337	13008.15
615.693	12932.67
616.05	12989.16
616.406	13087.01
616.762	12934.7
617.118	12955.04
617.475	12996.85
617.831	13072.33
618.187	12996.17
618.543	13067.81
618.899	13063.06
619.255	13008.6
619.611	13058.99
619.967	13083.85
620.323	13152.32
620.678	13070.07
621.034	13011.08
621.39	13042.95
621.746	12986.23
622.101	13194.81
622.457	13077.98
622.812	13068.48
623.168	13109.84
623.523	13155.26
623.879	13124.98
624.234	13047.47
624.589	13037.98
624.945	13118.88
625.3	13111.65
625.655	13130.18
626.01	13093.79
626.365	13081.14
626.72	13098.09
627.075	13080.01
627.43	13061.48
627.785	12971.76
628.14	13143.06
628.495	13103.51
628.85	13081.14
629.205	13016.51
629.559	13100.35
629.914	13055.6
630.269	12987.36
630.623	13022.84
630.978	12974.93
631.332	13041.82
631.687	13021.48
632.041	12947.36
632.396	12956.62
632.75	12859
633.104	12948.71
633.459	12864.2
633.813	12849.05
634.167	12849.51
634.521	12834.37
634.875	12943.97
635.229	12859
635.583	12765.44
635.937	12805.67
636.291	12766.12
636.645	12758.44
636.999	12783.29
637.352	12755.72
637.706	12726.57
638.06	12724.31
638.413	12623.07
638.767	12692.67
639.121	12644.31
639.474	12669.4
639.828	12630.08
640.181	12611.77
640.534	12633.47
640.888	12581.27
641.241	12588.72
641.594	12613.35
641.947	12679.57
642.301	12658.55
642.654	12624.2
643.007	12590.3
643.36	12502.85
643.713	12517.99
644.066	12488.84
644.419	12481.61
644.771	12426.47
645.124	12380.14
645.477	12280.48
645.83	12305.79
646.182	12118.68
646.535	12126.14
646.888	12180.82
647.24	12063.09
647.593	12115.51
647.945	12116.19
648.298	12035.06
648.65	12031.68
649.002	12050.66
649.355	12074.84
649.707	12019.7
650.059	12181.05
650.411	12262.63
650.763	12385.79
651.115	12455.84
651.467	12379.24
651.819	12421.04
652.171	12384.21
652.523	12377.65
652.875	12342.85
653.227	12261.73
653.578	12390.54
653.93	12376.3
654.282	12298.56
654.633	12301.72
654.985	12335.4
655.337	12344.21
655.688	12359.35
656.039	12415.39
656.391	12255.17
656.742	12353.47
657.094	12278.9
657.445	12413.81
657.796	12321.61
658.147	12349.63
658.498	12322.74
658.849	12399.12
659.2	12339.92
659.551	12282.52
659.902	12388.95
660.253	12437.77
660.604	12391.89
660.955	12362.97
661.306	12491.55
661.656	12356.19
662.007	12393.47
662.358	12411.1
662.708	12452.23
663.059	12442.51
663.409	12331.1
663.76	12462.4
664.11	12450.65
664.461	12422.17
664.811	12430.76
665.161	12408.61
665.511	12390.76
665.862	12467.14
666.212	12479.35
666.562	12457.2
666.912	12386.24
667.262	12403.64
667.612	12342.4
667.962	12447.26
668.312	12406.35
668.662	12414.72
669.011	12459.23
669.361	12362.97
669.711	12425.56
670.06	12392.8
670.41	12341.05
670.76	12314.83
671.109	12456.97
671.459	12361.84
671.808	12364.32
672.157	12368.62
672.507	12293.36
672.856	12266.25
673.205	12254.72
673.554	12307.6
673.904	12250.65
674.253	12376.07
674.602	12258.11
674.951	12088.4
675.3	12077.78
675.649	12230.09
675.998	12191.22
676.346	12241.39
676.695	12225.79
677.044	12141.5
677.393	12328.16
677.741	12176.76
678.09	12146.7
678.438	12187.6
678.787	12177.21
679.135	12205.23
679.484	12023.31
679.832	12105.12
680.181	12031.9
680.529	11988.74
680.877	12001.85
681.225	12031.45
681.573	12045.91
681.922	11963.2
682.27	11905.35
682.618	11950.77
682.966	11854.96
683.314	11946.71
683.661	11814.05
684.009	11799.36
684.357	11789.2
684.705	11796.65
685.053	11709.88
685.4	11803.66
685.748	11631.01
686.095	11713.49
686.443	11648.86
686.79	11612.03
687.138	11621.06
687.485	11626.49
687.832	11560.95
688.18	11639.14
688.527	11540.16
688.874	11456.78
689.221	11471.01
689.568	11386.49
689.915	11414.74
690.262	11444.35
690.609	11375.65
690.956	11347.17
691.303	11339.49
691.65	11257.01
691.997	11219.27
692.344	11126.61
692.69	11094.75
693.037	11094.75
693.383	11076.9
693.73	11021.53
694.077	11028.54
694.423	11009.33
694.769	10934.53
695.116	10888.43
695.462	10858.37
695.808	10834.87
696.155	10829.9
696.501	10762.78
696.847	10683.91
697.193	10685.27
697.539	10651.82
697.885	10548.32
698.231	10558.72
698.577	10594.65
698.923	10569.57
699.269	10505.61
699.614	10400.98
699.96	10404.6
700.306	10443.92
700.651	10332.06
700.997	10326.41
701.342	10276.24
701.688	10173.87
702.033	10172.52
702.379	10193.76
702.724	10140.65
703.069	10138.39
703.415	10102.91
703.76	10054.55
704.105	10035.12
704.45	9993.31
704.795	9969.36
705.14	9983.59
705.485	9861.79
705.83	9856.37
706.175	9815.01
706.52	9789.93
706.865	9749.93
707.209	9731.85
707.554	9716.26
707.899	9699.76
708.243	9599.42
708.588	9582.93
708.932	9548.12
709.277	9503.83
709.621	9589.48
709.966	9455.25
710.31	9482.82
710.654	9419.54
710.998	9411.18
711.342	9396.94
711.687	9386.55
712.031	9275.82
712.375	9296.15
712.719	9362.37
713.063	9261.58
713.407	9314.91
713.75	9275.59
714.094	9184.29
714.438	9166.44
714.782	9244.4
715.125	9140
715.469	9127.8
715.812	9136.38
716.156	9086.67
716.499	9137.06
716.843	9086.89
717.186	9073.33
717.53	9115.37
717.873	9095.93
718.216	9067.23
718.559	9060.68
718.902	9007.57
719.246	8970.51
719.589	8979.33
719.932	8938.42
720.275	8980.23
720.617	8945.88
720.96	8936.84
721.303	8933.9
721.646	8935.71
721.989	8931.42
722.331	8937.52
722.674	8900.01
723.016	8920.57
723.359	8848.93
723.701	8824.08
724.044	8842.38
724.386	8845.54
724.729	8798.54
725.071	8861.14
725.413	8750.41
725.755	8732.55
726.097	8719.67
726.439	8661.14
726.782	8757.18
727.124	8712.44
727.465	8750.41
727.807	8759.67
728.149	8695.72
728.491	8689.62
728.833	8722.16
729.175	8695.94
729.516	8669.5
729.858	8740.46
730.199	8699.79
730.541	8746.34
730.882	8742.27
731.224	8707.92
731.565	8627.47
731.906	8616.85
732.248	8725.32
732.589	8615.95
732.93	8671.09
733.271	8622.5
733.612	8713.34
733.953	8673.35
734.294	8696.4
734.635	8643.29
734.976	8626.79
735.317	8695.94
735.658	8625.21
735.999	8670.18
736.339	8617.98
736.68	8771.42
737.021	8640.35
737.361	8661.59
737.702	8707.69
738.042	8613.46
738.383	8660.92
738.723	8716.51
739.063	8670.86
739.404	8691.88
739.744	8750.63
740.084	8737.07
740.424	8704.31
740.764	8778.2
741.104	8753.8
741.444	8761.7
741.784	8666.11
742.124	8758.54
742.464	8799.22
742.804	8803.74
743.143	8812.78
743.483	8856.17
743.823	8835.6
744.162	8918.76
744.502	8866.56
744.841	8883.51
745.181	8893.68
745.52	8960.34
745.86	9038.53
746.199	9041.25
746.538	9067.69
746.877	9192.65
747.216	9259.54
747.556	9280.79
747.895	9270.39
748.234	9321.24
748.573	9372.76
748.911	9400.78
749.25	9487.11
749.589	9523.49
749.928	9550.84
750.267	9641
750.605	9777.27
750.944	9778.63
751.283	9826.31
751.621	9956.48
751.96	10047.55
752.298	10104.04
752.636	10197.83
752.975	10256.58
753.313	10289.35
753.651	10404.37
753.989	10565.27
754.327	10601.66
754.666	10744.03
755.004	10863.12
755.342	11036.45
755.679	11155.99
756.017	11136.56
756.355	11354.4
756.693	11513.27
757.031	11617
757.368	11721.17
757.706	11833.94
758.044	11969.53
758.381	12301.5
758.719	12290.2
759.056	12448.16
759.394	12616.97
