Data from hue_38_FLMS001491_00092.txt Node
Date: Tue Feb 07 17:32:13 GMT 2017
User: dcchb
Spectrometer: FLMS00149
Trigger mode: 0
Integration Time (sec): 2.000000E-2
Scans to average: 10
Electric dark correction enabled: true
Nonlinearity correction enabled: false
Boxcar width: 0
XAxis mode: Wavelengths
Number of Pixels in Spectrum: 2048
>>>>>Begin Spectral Data<<<<<
341.393	-26.02
341.776	-26.02
342.16	-26.02
342.543	-60.14
342.927	-68.05
343.31	-74.83
343.693	-75.05
344.077	-66.69
344.46	-63.08
344.843	-54.04
345.226	-41.16
345.61	-27.15
345.993	-40.48
346.376	11.95
346.759	12.4
347.142	20.08
347.525	21.44
347.908	67.99
348.291	88.78
348.674	100.08
349.057	119.74
349.44	126.97
349.823	146.18
350.206	177.59
350.588	192.06
350.971	202
351.354	237.93
351.737	260.08
352.119	246.97
352.502	276.8
352.884	285.39
353.267	286.97
353.65	296.46
354.032	310.02
354.414	317.03
354.797	309.57
355.179	316.8
355.562	320.19
355.944	330.13
356.326	323.35
356.709	342.34
357.091	342.34
357.473	364.26
357.855	337.14
358.238	340.08
358.62	351.83
359.002	355.44
359.384	358.83
359.766	354.31
360.148	355.22
360.53	338.04
360.912	357.25
361.294	343.69
361.676	338.49
362.057	332.62
362.439	346.63
362.821	331.71
363.203	326.52
363.584	339.17
363.966	336.01
364.348	329.45
364.729	309.57
365.111	330.58
365.493	352.73
365.874	313.18
366.256	348.44
366.637	320.64
367.019	338.04
367.4	328.1
367.781	326.74
368.163	327.65
368.544	315.9
368.925	308.44
369.306	331.71
369.688	332.62
370.069	330.58
370.45	310.02
370.831	324.93
371.212	323.35
371.593	305.5
371.974	310.02
372.355	325.39
372.736	332.62
373.117	343.01
373.498	331.49
373.879	324.48
374.26	299.85
374.641	336.23
375.021	316.57
375.402	314.77
375.783	328.32
376.163	324.03
376.544	353.18
376.925	339.17
377.305	331.71
377.686	333.3
378.066	323.35
378.447	355.89
378.827	352.28
379.208	353.18
379.588	339.62
379.968	350.47
380.349	336.01
380.729	342.11
381.109	348.66
381.489	340.53
381.87	331.26
382.25	364.93
382.63	363.8
383.01	374.65
383.39	338.95
383.77	357.7
384.15	369.68
384.53	338.95
384.91	376.69
385.29	370.36
385.67	348.21
386.049	353.18
386.429	350.47
386.809	358.83
387.189	359.51
387.568	378.49
387.948	351.83
388.328	391.15
388.707	361.77
389.087	376.46
389.466	374.43
389.846	379.4
390.225	385.27
390.605	360.87
390.984	372.39
391.363	394.31
391.743	389.57
392.122	361.09
392.501	385.27
392.881	380.75
393.26	377.59
393.639	413.52
394.018	381.43
394.397	378.04
394.776	378.49
395.155	377.81
395.534	391.6
395.913	378.94
396.292	407.64
396.671	400.64
397.05	402
397.429	388.21
397.808	410.13
398.186	413.75
398.565	369.68
398.944	409.23
399.323	385.5
399.701	405.61
400.08	407.19
400.458	409.68
400.837	422.79
401.215	449.23
401.594	422.56
401.972	409.45
402.351	418.49
402.729	417.36
403.107	427.98
403.486	416.01
403.864	425.5
404.242	422.79
404.62	418.27
404.999	439.51
405.377	431.37
405.755	414.65
406.133	435.89
406.511	444.48
406.889	454.88
407.267	469.34
407.645	446.51
408.023	448.32
408.401	458.72
408.779	475.44
409.156	470.69
409.534	456.68
409.912	466.85
410.29	480.41
410.667	464.37
411.045	480.41
411.422	497.36
411.8	479.51
412.178	477.93
412.555	501.2
412.933	506.85
413.31	489.22
413.687	481.09
414.065	506.4
414.442	505.04
414.819	536.68
415.197	513.18
415.574	523.57
415.951	541.43
416.328	521.54
416.705	528.32
417.082	506.4
417.46	532.84
417.837	533.29
418.214	518.6
418.591	547.75
418.967	540.75
419.344	541.65
419.721	550.47
420.098	566.28
420.475	560.41
420.852	552.27
421.228	560.86
421.605	571.48
421.982	566.28
422.358	571.48
422.735	576.91
423.111	586.4
423.488	584.14
423.864	584.59
424.241	586.62
424.617	595.21
424.994	598.37
425.37	608.32
425.746	593.63
426.123	615.77
426.499	604.48
426.875	620.75
427.251	614.19
427.627	632.05
428.003	622.55
428.379	646.28
428.756	625.49
429.132	670.01
429.507	645.6
429.883	668.43
430.259	652.84
430.635	665.72
431.011	673.63
431.387	672.95
431.763	709.33
432.138	696.68
432.514	714.08
432.89	694.64
433.265	694.19
433.641	697.13
434.016	724.02
434.392	730.35
434.767	740.29
435.143	749.56
435.518	717.69
435.894	772.61
436.269	759.95
436.644	762.66
437.02	775.54
437.395	758.14
437.77	804.02
438.145	819.16
438.52	815.54
438.895	795.88
439.271	792.72
439.646	790.46
440.021	805.37
440.395	819.61
440.77	834.07
441.145	836.56
441.52	844.7
441.895	858.25
442.27	872.04
442.645	866.62
443.019	869.55
443.394	854.19
443.769	865.71
444.143	867.75
444.518	870.68
444.892	865.49
445.267	899.38
445.641	905.48
446.016	893.96
446.39	893.06
446.764	892.83
447.139	897.8
447.513	925.6
447.887	958.14
448.262	920.4
448.636	937.35
449.01	917.46
449.384	949.33
449.758	971.7
450.132	976.67
450.506	952.26
450.88	978.48
451.254	980.06
451.628	960.85
452.002	995.43
452.376	973.28
452.75	1005.6
453.123	1042.66
453.497	1026.61
453.871	1038.36
454.244	1055.09
454.618	1061.41
454.992	1079.94
455.365	1072.49
455.739	1105.25
456.112	1123.56
456.486	1111.13
456.859	1109.32
457.232	1139.15
457.606	1150
457.979	1164.46
458.352	1169.88
458.725	1174.18
459.099	1168.08
459.472	1222.54
459.845	1215.53
460.218	1237.91
460.591	1276.55
460.964	1267.06
461.337	1276.77
461.71	1304.12
462.083	1309.32
462.456	1311.12
462.829	1319.94
463.201	1347.51
463.574	1354.51
463.947	1375.08
464.32	1399.26
464.692	1418.24
465.065	1412.59
465.438	1460.72
465.81	1456.43
466.183	1481.29
466.555	1538.24
466.928	1522.64
467.3	1535.07
467.672	1562.42
468.045	1614.39
468.417	1615.75
468.789	1593.15
469.161	1651.23
469.534	1678.8
469.906	1695.07
470.278	1714.73
470.65	1742.98
471.022	1805.8
471.394	1806.48
471.766	1832.92
472.138	1870.88
472.51	1918.57
472.882	1916.53
473.253	1955.4
473.625	2036.75
473.997	2040.14
474.369	2103.19
474.74	2102.97
475.112	2158.56
475.484	2232.46
475.855	2255.28
476.227	2274.04
476.598	2396.74
476.97	2420.47
477.341	2453.69
477.713	2494.82
478.084	2534.59
478.455	2633.12
478.827	2651.88
479.198	2754.02
479.569	2764.42
479.94	2900.91
480.311	2952.44
480.682	3001.25
481.053	3087.57
481.424	3174.35
481.795	3251.86
482.166	3288.47
482.537	3353.78
482.908	3448.92
483.279	3525.08
483.65	3601.01
484.021	3712.64
484.391	3789.25
484.762	3885.97
485.133	3901.79
485.503	4011.17
485.874	4156.02
486.244	4223.14
486.615	4333.64
486.985	4388.1
487.356	4532.73
487.726	4606.86
488.097	4762.56
488.467	4804.14
488.837	4897.7
489.207	5044.13
489.578	5153.06
489.948	5258.59
490.318	5366.16
490.688	5426.95
491.058	5581.07
491.428	5647.28
491.798	5746.04
492.168	5937.89
492.538	6019.25
492.908	6117.78
493.278	6197.77
493.648	6267.6
494.017	6375.85
494.387	6490.42
494.757	6607.26
495.126	6708.5
495.496	6776.52
495.866	6828.72
496.235	6930.86
496.605	7049.28
496.974	7155.04
497.344	7279.1
497.713	7371.3
498.082	7475.03
498.452	7550.51
498.821	7674.57
499.19	7702.37
499.559	7821.91
499.928	7871.63
500.298	7955.47
500.667	8100.32
501.036	8171.06
501.405	8232.75
501.774	8232.98
502.143	8461.9
502.512	8450.37
502.88	8589.58
503.249	8604.72
503.618	8686.07
503.987	8738.95
504.356	8892.62
504.724	8916.8
505.093	9043.58
505.462	9051.94
505.83	9148.66
506.199	9290.35
506.567	9405.37
506.936	9388.43
507.304	9525.82
507.672	9554.97
508.041	9659.6
508.409	9802.88
508.777	9816.44
509.145	9873.61
509.514	9882.2
509.882	9996.09
510.25	10009.2
510.618	10145.24
510.986	10195.64
511.354	10249.42
511.722	10391.56
512.09	10471.11
512.458	10479.92
512.826	10525.8
513.193	10609.18
513.561	10687.15
513.929	10732.12
514.297	10883.53
514.664	10949.51
515.032	10987.71
515.4	11104.09
515.767	11144.31
516.135	11267.7
516.502	11213.01
516.869	11337.98
517.237	11420.69
517.604	11388.15
517.972	11562.15
518.339	11578.2
518.706	11618.42
519.073	11626.33
519.44	11713.11
519.808	11885.99
520.175	11907
520.542	12020.22
520.909	12051.86
521.276	12095.47
521.643	12217.05
522.009	12287.56
522.376	12457.72
522.743	12397.39
523.11	12576.82
523.477	12685.97
523.843	12786.75
524.21	12903.59
524.577	12918.73
524.943	12988.1
525.31	13063.58
525.676	13172.96
526.043	13263.58
526.409	13269.68
526.776	13470.35
527.142	13456.12
527.508	13521.42
527.874	13673.51
528.241	13759.84
528.607	13802.09
528.973	13872.83
529.339	13883.67
529.705	14065.14
530.071	14182.65
530.437	14246.38
530.803	14329.31
531.169	14398.46
531.535	14398.46
531.901	14414.06
532.267	14501.51
532.632	14634.39
532.998	14673.03
533.364	14764.1
533.73	14814.5
534.095	14889.52
534.461	14922.74
534.826	15081.38
535.192	15047.94
535.557	15276.18
535.923	15170.19
536.288	15257.65
536.653	15317.76
537.019	15420.36
537.384	15401.83
537.749	15511.2
538.114	15582.84
538.479	15551.2
538.845	15640.24
539.21	15635.72
539.575	15734.7
539.94	15763.63
540.305	15991.64
540.67	15948.25
541.034	15978.99
541.399	16043.62
541.764	16124.29
542.129	16155.71
542.494	16209.49
542.858	16286.1
543.223	16307.34
543.587	16447.22
543.952	16478.18
544.316	16547.11
544.681	16614.45
545.045	16675.24
545.41	16745.07
545.774	16812.41
546.138	16897.61
546.503	16879.08
546.867	16883.14
547.231	17043.37
547.595	17048.79
547.959	17120.65
548.324	17025.51
548.688	17182.8
549.052	17242.46
549.416	17258.5
549.779	17324.71
550.143	17432.06
550.507	17415.33
550.871	17533.75
551.235	17566.52
551.599	17761.09
551.962	17690.58
552.326	17800.63
552.689	17855.1
553.053	17785.49
553.417	17919.73
553.78	18240.17
554.143	18075.2
554.507	18138.25
554.87	18283.78
555.234	18384.57
555.597	18204.69
555.96	18338.92
556.323	18486.27
556.686	18460.96
557.05	18601.52
557.413	18685.58
557.776	18726.03
558.139	18824.34
558.502	18837.22
558.865	18914.28
559.228	19012.81
559.59	19102.07
559.953	19194.27
560.316	19304.1
560.679	19238.56
561.041	19317.66
561.404	19423.64
561.767	19637.65
562.129	19470.42
562.492	19724.65
562.854	19666.8
563.217	19740.02
563.579	19866.79
563.941	19960.8
564.304	19996.51
564.666	20148.37
565.028	20135.26
565.39	20229.27
565.753	20303.17
566.115	20396.5
566.477	20380.9
566.839	20525.99
567.201	20632.42
567.563	20620.22
567.925	20854.11
568.287	20919.2
568.648	20943.38
569.01	21046.88
569.372	21150.6
569.734	21124.16
570.095	21240.77
570.457	21380.88
570.819	21359.86
571.18	21341.33
571.542	21586.75
571.903	21611.15
572.265	21792.39
572.626	21788.1
572.987	21869.45
573.349	21864.93
573.71	22013.4
574.071	22151.03
574.432	22247.07
574.794	22515.31
575.155	22412.72
575.516	22547.63
575.877	22711.01
576.238	22769.54
576.599	22937
576.96	22981.97
577.32	23128.63
577.681	23289.53
578.042	23392.13
578.403	23531.56
578.763	23651.33
579.124	23803.19
579.485	23845.67
579.845	24123.41
580.206	24226.45
580.566	24355.49
580.927	24420.12
581.287	24659.21
581.648	24722.94
582.008	25019.2
582.368	25134.23
582.728	25176.26
583.089	25472.07
583.449	25463.93
583.809	25740.99
584.169	26033.64
584.529	26025.5
584.889	26455.77
585.249	26490.57
585.609	26567.63
585.969	26962.43
586.329	27073.16
586.688	27292.81
587.048	27356.99
587.408	27558.8
587.768	27921.05
588.127	28048.05
588.487	28157.2
588.846	28606.23
589.206	28669.05
589.565	28857.29
589.925	29231.75
590.284	29279.88
590.643	29710.15
591.003	29817.72
591.362	29949.92
591.721	30123.47
592.08	30339.96
592.44	30651.37
592.799	30769.78
593.158	30925.49
593.517	31070.79
593.876	31443.89
594.235	31564.11
594.593	31816.08
594.952	32007.04
595.311	32155.96
595.67	32361.83
596.029	32737.87
596.387	32756.85
596.746	33106.67
597.104	33279.32
597.463	33361.13
597.822	33790.5
598.18	33757.73
598.538	34056.25
598.897	34194.78
599.255	34188.45
599.613	34932.39
599.972	34722.67
600.33	34961.09
600.688	34955.66
601.046	35352.71
601.404	35538.7
601.762	35600.84
602.12	36023.21
602.478	36084.22
602.836	36186.36
603.194	36290.09
603.552	36453.25
603.91	36406.47
604.268	36769.17
604.625	36921.26
604.983	37239.9
605.341	37036.96
605.698	37338.88
606.056	37609.83
606.413	37690.96
606.771	37874.23
607.128	38139.31
607.485	38089.37
607.843	38102.25
608.2	38406.19
608.557	38622.69
608.914	38609.35
609.272	38804.6
609.629	38967.53
609.986	39155.1
610.343	39130.92
610.7	39433.51
611.057	39432.16
611.414	39650
611.771	39732.03
612.127	39907.85
612.484	39993.04
612.841	40103.55
613.198	40093.83
613.554	40430.77
613.911	40471.22
614.267	40626.47
614.624	40520.49
614.98	40770.88
615.337	41043.41
615.693	40875.28
616.05	41116.63
616.406	41352.78
616.762	41301.71
617.118	41344.87
617.475	41334.7
617.831	41671.64
618.187	41654.24
618.543	41704.41
618.899	41914.58
619.255	42040.9
619.611	42071.18
619.967	42242.02
620.323	42263.95
620.678	42151.86
621.034	42189.6
621.39	42153.89
621.746	42365.86
622.101	42865.74
622.457	42513.2
622.812	42517.05
623.168	42784.84
623.523	42788.68
623.879	42931.95
624.234	42672.75
624.589	43103.92
624.945	42993.87
625.3	43053.98
625.655	43080.42
626.01	43136.46
626.365	43204.03
626.72	43155.45
627.075	43244.03
627.43	43167.65
627.785	43022.57
628.14	43136.92
628.495	43319.96
628.85	43227.99
629.205	43133.75
629.559	43383.24
629.914	43370.36
630.269	43337.82
630.623	43437.47
630.978	43250.59
631.332	43540.52
631.687	43489.68
632.041	43348.21
632.396	43420.75
632.75	43359.96
633.104	43403.58
633.459	43232.51
633.813	43192.96
634.167	43287.65
634.521	43311.15
634.875	43359.06
635.229	43339.4
635.583	43197.25
635.937	43166.52
636.291	43102.79
636.645	43220.53
636.999	43219.85
637.352	43204.49
637.706	43060.31
638.06	43166.29
638.413	43138.05
638.767	43000.65
639.121	43317.25
639.474	42853.08
639.828	42943.7
640.181	42909.8
640.534	43053.98
640.888	42793.87
641.241	42759.53
641.594	42816.02
641.947	43010.37
642.301	42801.33
642.654	42745.06
643.007	42887.88
643.36	42836.13
643.713	42894.44
644.066	42901.89
644.419	42717.49
644.771	42275.24
645.124	42086.77
645.477	42167.9
645.83	41754.35
646.182	41726.11
646.535	41600.01
646.888	41656.05
647.24	41548.26
647.593	41667.8
647.945	41588.03
648.298	41388.71
648.65	41224.65
649.002	41329.05
649.355	41423.06
649.707	41379.9
650.059	41525.21
650.411	41933.11
650.763	42020.34
651.115	42463.26
651.467	42261.01
651.819	42348.01
652.171	42336.03
652.523	42189.82
652.875	42182.82
653.227	42038.87
653.578	42262.82
653.93	42185.76
654.282	42164.74
654.633	41967.23
654.985	41960.9
655.337	42015.82
655.688	41996.16
656.039	42198.86
656.391	41798.19
656.742	41892.43
657.094	41857.63
657.445	42118.64
657.796	41793.45
658.147	41903.05
658.498	41855.37
658.849	41931.52
659.2	41858.76
659.551	41791.64
659.902	41980.79
660.253	41857.85
660.604	41880
660.955	41694.24
661.306	41903.05
661.656	41835.26
662.007	41810.85
662.358	41823.28
662.708	41825.76
663.059	41718.65
663.409	41569.27
663.76	41842.94
664.11	41781.02
664.461	41888.59
664.811	41769.95
665.161	41752.77
665.511	41584.19
665.862	41791.87
666.212	41850.17
666.562	41844.75
666.912	41666.9
667.262	41641.59
667.612	41574.7
667.962	41655.6
668.312	41658.99
668.662	41861.7
669.011	41720.23
669.361	41752.77
669.711	41637.52
670.06	41662.61
670.41	41544.87
670.76	41540.35
671.109	41647.46
671.459	41547.58
671.808	41500.58
672.157	41570.4
672.507	41315.5
672.856	41366.57
673.205	41456.96
673.554	41539.67
673.904	41284.76
674.253	41638.2
674.602	41508.94
674.951	40926.35
675.3	40832.8
675.649	41396.17
675.998	41379.67
676.346	41251.54
676.695	41381.71
677.044	41118.89
677.393	41181.04
677.741	41117.53
678.09	41181.04
678.438	41004.32
678.787	41249.51
679.135	41051.32
679.484	40825.79
679.832	40974.26
680.181	40769.07
680.529	40940.36
680.877	40828.05
681.225	40755.28
681.573	40942.85
681.922	40541.5
682.27	40621.5
682.618	40616.08
682.966	40432.13
683.314	40539.02
683.661	40523.43
684.009	40264.22
684.357	40212.02
684.705	40225.13
685.053	40091.8
685.4	40212.7
685.748	39895.87
686.095	39967.51
686.443	39840.96
686.79	39794.86
687.138	39854.97
687.485	39839.15
687.832	39706.5
688.18	39679.38
688.527	39459.73
688.874	39457.47
689.221	39521.64
689.568	39378.6
689.915	39167.53
690.262	39313.97
690.609	39325.27
690.956	39048.44
691.303	38996.69
691.65	38822.91
691.997	38828.78
692.344	38496.36
692.69	38652.51
693.037	38695
693.383	38337.04
693.73	38391.5
694.077	38180.66
694.423	38180.66
694.769	37927.79
695.116	37968.46
695.462	37923.95
695.808	37838.07
696.155	37910.84
696.501	37678.3
696.847	37551.3
697.193	37339.55
697.539	37471.53
697.885	37396.05
698.231	37075.83
698.577	37209.39
698.923	37168.49
699.269	36959.9
699.614	36738.67
699.96	36721.94
700.306	36753.13
700.651	36552.46
700.997	36491.22
701.342	36460.03
701.688	36271.79
702.033	36345
702.379	36036.31
702.724	36092.58
703.069	36043.09
703.415	35844
703.76	35896.43
704.105	35839.93
704.45	35718.35
704.795	35513.39
705.14	35490.11
705.485	35317.46
705.83	35255.54
706.175	35372.38
706.52	35377.57
706.865	35045.83
707.209	34983.46
707.554	34917.25
707.899	34914.31
708.243	34856.68
708.588	34781.43
708.932	34593.41
709.277	34592.73
709.621	34541.89
709.966	34348.9
710.31	34456.01
710.654	34049.92
710.998	34199.75
711.342	34216.7
711.687	34103.03
712.031	33938.29
712.375	33696.26
712.719	33984.39
713.063	33765.64
713.407	33832.3
713.75	33698.97
714.094	33673.89
714.438	33421.24
714.782	33481.58
715.125	33347.34
715.469	33317.29
715.812	33108.25
716.156	33101.93
716.499	33133.79
716.843	33142.83
717.186	32806.57
717.53	33029.84
717.873	33007.47
718.216	32807.24
718.559	32676.85
718.902	32686.12
719.246	32567.7
719.589	32446.58
719.932	32385.56
720.275	32410.87
720.617	32439.12
720.96	32280.03
721.303	32390.98
721.646	32257.88
721.989	32148.73
722.331	32278.67
722.674	32087.26
723.016	32229.86
723.359	32134.04
723.701	32195.51
724.044	31848.85
724.386	31787.16
724.729	31899.7
725.071	31795.52
725.413	31642.98
725.755	31836.87
726.097	31622.87
726.439	31507.17
726.782	31502.19
727.124	31588.29
727.465	31395.08
727.807	31430.78
728.149	31381.29
728.491	31324.35
728.833	31343.1
729.175	31159.15
729.516	31182.43
729.858	31132.26
730.199	31111.92
730.541	31040.96
730.882	30967.52
731.224	31015.2
731.565	30845.94
731.906	30831.7
732.248	30860.18
732.589	30742.44
732.93	30515.55
733.271	30653.4
733.612	30600.07
733.953	30645.04
734.294	30518.94
734.635	30466.06
734.976	30532.28
735.317	30255.67
735.658	30363.69
735.999	30231.04
736.339	30185.17
736.68	30367.08
737.021	30129.12
737.361	30061.1
737.702	30048
738.042	30068.11
738.383	30041.22
738.723	30074.44
739.063	29812.52
739.404	29991.05
739.744	29951.5
740.084	29720.55
740.424	29914.67
740.764	29718.06
741.104	29763.93
741.444	29681
741.784	29486.2
742.124	29545.41
742.464	29654.79
742.804	29407.56
743.143	29456.82
743.483	29586.09
743.823	29286.21
744.162	29347.9
744.502	29339.77
744.841	29149.04
745.181	29215.25
745.52	29331.86
745.86	29283.04
746.199	29087.57
746.538	29150.84
746.877	29175.02
747.216	29108.58
747.556	29063.61
747.895	29011.41
748.234	28784.75
748.573	28856.39
748.911	28860.91
749.25	28734.81
749.589	28704.75
749.928	28722.15
750.267	28710.86
750.605	28606.45
750.944	28480.35
751.283	28389.73
751.621	28455.95
751.96	28295.95
752.298	28301.15
752.636	28259.12
752.975	28297.08
753.313	28157.88
753.651	28204.43
753.989	27998.33
754.327	27972.8
754.666	27922.4
755.004	27954.72
755.342	27829.52
755.679	27960.37
756.017	27641.73
756.355	27906.81
756.693	27647.15
757.031	27702.75
