Data from hue_10_FLMS001491_56.txt Node
Date: Mon Feb 06 15:32:09 GMT 2017
User: dcchb
Spectrometer: FLMS00149
Trigger mode: 0
Integration Time (sec): 2.000000E-2
Scans to average: 10
Electric dark correction enabled: true
Nonlinearity correction enabled: false
Boxcar width: 0
XAxis mode: Wavelengths
Number of Pixels in Spectrum: 2048
>>>>>Begin Spectral Data<<<<<
341.393	-4.72
341.776	-4.72
342.16	-4.72
342.543	-76.13
342.927	-70.48
343.31	-75.45
343.693	-97.37
344.077	-53.76
344.46	-56.24
344.843	-51.04
345.226	-40.2
345.61	-48.78
345.993	-44.04
346.376	-20.76
346.759	1.16
347.142	46.13
347.525	37.77
347.908	65.11
348.291	99.46
348.674	89.97
349.057	148.05
349.44	133.36
349.823	142.85
350.206	169.97
350.588	176.75
350.971	204.77
351.354	222.62
351.737	224.88
352.119	220.59
352.502	270.3
352.884	255.61
353.267	259.68
353.65	276.63
354.032	300.36
354.414	314.37
354.797	317.76
355.179	320.25
355.562	330.64
355.944	325.67
356.326	341.49
356.709	317.76
357.091	313.01
357.473	338.32
357.855	351.66
358.238	339.91
358.62	346.91
359.002	346.69
359.384	333.58
359.766	334.71
360.148	323.86
360.53	335.84
360.912	331.09
361.294	342.62
361.676	346.91
362.057	339.45
362.439	334.03
362.821	307.82
363.203	320.47
363.584	321.83
363.966	317.31
364.348	321.6
364.729	347.59
365.111	321.6
365.493	317.76
365.874	306.01
366.256	327.7
366.637	315.73
367.019	317.76
367.4	317.31
367.781	315.95
368.163	284.31
368.544	299.91
368.925	290.64
369.306	334.48
369.688	316.18
370.069	301.26
370.45	297.2
370.831	321.83
371.212	313.47
371.593	316.86
371.974	306.01
372.355	297.87
372.736	323.41
373.117	313.24
373.498	330.64
373.879	306.23
374.26	307.36
374.641	315.27
375.021	307.14
375.402	304.2
375.783	295.16
376.163	321.15
376.544	318.66
376.925	306.23
377.305	312.34
377.686	309.62
378.066	311.88
378.447	323.41
378.827	336.97
379.208	320.7
379.588	328.61
379.968	322.05
380.349	322.28
380.729	323.86
381.109	323.41
381.489	358.44
381.87	327.03
382.25	327.7
382.63	333.58
383.01	353.01
383.39	331.32
383.77	338.55
384.15	330.64
384.53	331.32
384.91	337.65
385.29	322.05
385.67	333.35
386.049	358.44
386.429	348.27
386.809	349.62
387.189	346.01
387.568	340.13
387.948	346.01
388.328	327.7
388.707	332
389.087	348.27
389.466	348.49
389.846	350.75
390.225	359.34
390.605	344.2
390.984	344.88
391.363	338.32
391.743	338.55
392.122	365.67
392.501	346.91
392.881	358.89
393.26	362.96
393.639	388.27
394.018	361.37
394.397	369.74
394.776	375.61
395.155	379.23
395.534	355.05
395.913	351.66
396.292	363.41
396.671	360.02
397.05	382.84
397.429	371.09
397.808	371.54
398.186	360.92
398.565	377.19
398.944	374.03
399.323	386.46
399.701	370.87
400.08	375.84
400.458	382.39
400.837	394.59
401.215	376.52
401.594	377.87
401.972	368.15
402.351	379.91
402.729	389.62
403.107	372
403.486	381.71
403.864	392.56
404.242	382.39
404.62	404.09
404.999	390.07
405.377	401.37
405.755	406.35
406.133	402.05
406.511	401.6
406.889	403.41
407.267	412.9
407.645	412.45
408.023	413.12
408.401	409.51
408.779	415.84
409.156	411.54
409.534	411.99
409.912	412.22
410.29	411.99
410.667	428.72
411.045	436.63
411.422	449.06
411.8	417.19
412.178	427.36
412.555	437.98
412.933	460.36
413.31	439.11
413.687	450.64
414.065	430.3
414.442	447.25
414.819	444.54
415.197	466.68
415.574	445.21
415.951	428.04
416.328	471.2
416.705	457.64
417.082	470.3
417.46	447.25
417.837	464.42
418.214	459.68
418.591	468.72
418.967	480.47
419.344	485.44
419.721	495.83
420.098	480.24
420.475	496.51
420.852	466.68
421.228	505.1
421.605	481.37
421.982	487.25
422.358	494.25
422.735	499.9
423.111	506.46
423.488	509.62
423.864	510.07
424.241	501.48
424.617	516.62
424.994	491.99
425.37	538.09
425.746	513.46
426.123	510.3
426.499	545.78
426.875	561.14
427.251	522.27
427.627	532.9
428.003	540.13
428.379	542.16
428.756	545.78
429.132	551.2
429.507	569.05
429.883	549.39
430.259	563.4
430.635	560.01
431.011	572.22
431.387	562.05
431.763	572.67
432.138	599.56
432.514	591.65
432.89	604.98
433.265	583.06
433.641	616.96
434.016	602.05
434.392	615.83
434.767	635.49
435.143	604.98
435.518	609.05
435.894	625.32
436.269	635.27
436.644	655.38
437.02	643.85
437.395	653.8
437.77	653.34
438.145	640.46
438.52	649.05
438.895	665.77
439.271	664.64
439.646	688.82
440.021	676.17
440.395	666
440.77	679.11
441.145	658.32
441.52	670.97
441.895	688.37
442.27	713
442.645	703.51
443.019	698.77
443.394	706.22
443.769	709.61
444.143	720.69
444.518	712.78
444.892	708.94
445.267	724.08
445.641	710.52
446.016	717.07
446.39	735.6
446.764	728.82
447.139	741.48
447.513	741.48
447.887	757.07
448.262	727.69
448.636	749.39
449.01	782.61
449.384	790.29
449.758	753
450.132	772.66
450.506	771.08
450.88	788.26
451.254	774.7
451.628	772.89
452.002	809.72
452.376	787.13
452.75	782.61
453.123	795.26
453.497	803.4
453.871	793.23
454.244	836.16
454.618	836.39
454.992	862.15
455.365	862.38
455.739	861.47
456.112	870.29
456.486	872.1
456.859	876.16
457.232	903.73
457.606	878.42
457.979	873.68
458.352	908.48
458.725	932.66
459.099	902.6
459.472	941.7
459.845	936.05
460.218	948.03
460.591	957.97
460.964	961.58
461.337	974.01
461.71	980.34
462.083	1020.79
462.456	1023.96
462.829	1000.68
463.201	990.06
463.574	1017.4
463.947	1031.19
464.32	1066.67
464.692	1065.08
465.065	1059.21
465.438	1079.77
465.81	1106.44
466.183	1071.86
466.555	1124.29
466.928	1123.16
467.3	1149.83
467.672	1153.22
468.045	1170.39
468.417	1183.95
468.789	1169.26
469.161	1189.83
469.534	1218.3
469.906	1240
470.278	1254.68
470.65	1241.35
471.022	1263.27
471.394	1307.56
471.766	1291.52
472.138	1310.5
472.51	1350.73
472.882	1362.93
473.253	1377.62
473.625	1401.12
473.997	1447.45
474.369	1404.74
474.74	1456.49
475.112	1494.68
475.484	1494.45
475.855	1499.2
476.227	1544.62
476.598	1593.88
476.97	1584.39
477.341	1622.58
477.713	1650.15
478.084	1660.78
478.455	1711.85
478.827	1741.45
479.198	1777.38
479.569	1799.75
479.94	1835.46
480.311	1858.28
480.682	1885.4
481.053	1911.84
481.424	1965.4
481.795	1966.3
482.166	2048.79
482.537	2062.35
482.908	2124.49
483.279	2138.96
483.65	2188.22
484.021	2224.38
484.391	2234.77
484.762	2271.61
485.133	2302.11
485.503	2299.85
485.874	2362.68
486.244	2399.51
486.615	2441.77
486.985	2480.87
487.356	2533.29
487.726	2573.29
488.097	2626.4
488.467	2602.9
488.837	2686.29
489.207	2691.93
489.578	2761.54
489.948	2812.16
490.318	2801.76
490.688	2842.21
491.058	2889.44
491.428	2925.83
491.798	2975.54
492.168	3030.46
492.538	3051.7
492.908	3070.91
493.278	3141.19
493.648	3158.36
494.017	3186.61
494.387	3223.22
494.757	3216.67
495.126	3233.62
495.496	3311.13
495.866	3358.13
496.235	3360.84
496.605	3392.48
496.974	3429.54
497.344	3443.1
497.713	3450.33
498.082	3535.53
498.452	3544.34
498.821	3586.6
499.19	3553.38
499.559	3629.54
499.928	3622.53
500.298	3669.08
500.667	3713.15
501.036	3676.32
501.405	3718.35
501.774	3721.96
502.143	3773.49
502.512	3796.31
502.88	3826.82
503.249	3859.81
503.618	3870.43
503.987	3867.5
504.356	3921.51
504.724	3914.05
505.093	3932.58
505.462	3920.38
505.83	3948.4
506.199	3982.97
506.567	4057.32
506.936	4056.64
507.304	4091.45
507.672	4077.44
508.041	4120.37
508.409	4123.76
508.777	4157.66
509.145	4201.5
509.514	4165.34
509.882	4241.5
510.25	4239.46
510.618	4280.82
510.986	4260.26
511.354	4263.87
511.722	4307.26
512.09	4328.95
512.458	4361.72
512.826	4358.11
513.193	4378.22
513.561	4415.96
513.929	4380.93
514.297	4450.31
514.664	4454.6
515.032	4459.35
515.4	4514.26
515.767	4510.42
516.135	4528.72
516.502	4543.86
516.869	4638.32
517.237	4622.05
517.604	4593.81
517.972	4655.95
518.339	4620.47
518.706	4696.18
519.073	4641.94
519.44	4665.67
519.808	4747.25
520.175	4758.77
520.542	4800.13
520.909	4764.87
521.276	4775.04
521.643	4822.05
522.009	4895.94
522.376	4895.04
522.743	4902.27
523.11	4856.62
523.477	4935.27
523.843	4993.57
524.21	5040.12
524.577	4983.17
524.943	5053
525.31	5056.39
525.676	5110.63
526.043	5156.95
526.409	5197.41
526.776	5233.56
527.142	5234.24
527.508	5189.95
527.874	5241.92
528.241	5303.17
528.607	5325.31
528.973	5354.46
529.339	5363.5
529.705	5389.49
530.071	5454.35
530.437	5455.03
530.803	5519.21
531.169	5514.46
531.535	5524.85
531.901	5508.13
532.267	5569.6
532.632	5639.2
532.998	5622.25
533.364	5651.41
533.73	5684.85
534.095	5695.7
534.461	5717.39
534.826	5726.88
535.192	5782.48
535.557	5780.44
535.923	5859.99
536.288	5835.13
536.653	5871.29
537.019	5875.13
537.384	5893.43
537.749	5921.23
538.114	5937.5
538.479	5963.04
538.845	5945.18
539.21	5967.33
539.575	5988.8
539.94	6024.95
540.305	6049.13
540.67	6096.14
541.034	6149.7
541.399	6128.68
541.764	6135.01
542.129	6230.6
542.494	6182.01
542.858	6257.49
543.223	6251.62
543.587	6264.95
543.952	6254.55
544.316	6316.02
544.681	6295.46
545.045	6337.71
545.41	6412.52
545.774	6434.44
546.138	6437.37
546.503	6414.32
546.867	6477.6
547.231	6600.08
547.595	6574.32
547.959	6585.84
548.324	6553.53
548.688	6625.16
549.052	6656.58
549.416	6636.69
549.779	6647.09
550.143	6722.11
550.507	6742.9
550.871	6725.73
551.235	6797.82
551.599	6778.83
551.962	6811.37
552.326	6861.99
552.689	6876.01
553.053	6804.82
553.417	6863.8
553.78	6913.97
554.143	6886.4
554.507	6939.51
554.87	6981.31
555.234	7038.94
555.597	7030.35
555.96	7035.55
556.323	7050.69
556.686	7084.36
557.05	7145.83
557.413	7156
557.776	7175.66
558.139	7199.84
558.502	7196.22
558.865	7273.06
559.228	7233.06
559.59	7332.04
559.953	7262.89
560.316	7372.49
560.679	7375.2
561.041	7369.1
561.404	7438.48
561.767	7426.73
562.129	7452.71
562.492	7511.02
562.854	7501.3
563.217	7583.33
563.579	7598.92
563.941	7620.62
564.304	7642.31
564.666	7645.7
565.028	7683.44
565.39	7755.3
565.753	7775.19
566.115	7741.07
566.477	7822.65
566.839	7807.05
567.201	7866.26
567.563	7846.83
567.925	7901.52
568.287	7878.01
568.648	7896.54
569.01	7969.54
569.372	8056.31
569.734	8040.49
570.095	8100.15
570.457	8184.9
570.819	8166.59
571.18	8150.77
571.542	8250.43
571.903	8246.14
572.265	8295.63
572.626	8323.65
572.987	8380.37
573.349	8398
573.71	8473.7
574.071	8425.34
574.432	8547.6
574.794	8693.81
575.155	8656.98
575.516	8658.56
575.877	8730.65
576.238	8794.83
576.599	8862.62
576.96	8870.53
577.32	9010.64
577.681	9064.87
578.042	9146.91
578.403	9162.5
578.763	9215.61
579.124	9339.9
579.485	9413.57
579.845	9529.27
580.206	9559.32
580.566	9789.6
580.927	9812.2
581.287	9920.9
581.648	10011.52
582.008	10118.86
582.368	10241.11
582.728	10383.03
583.089	10537.38
583.449	10635.45
583.809	10798.61
584.169	10943.02
584.529	11057.59
584.889	11345.49
585.249	11402.89
585.609	11483.34
585.969	11682.21
586.329	11854.18
586.688	12116.09
587.048	12240.16
587.408	12496.2
587.768	12653.71
588.127	12831.1
588.487	13028.39
588.846	13232.67
589.206	13460.92
589.565	13727.12
589.925	13920.34
590.284	14125.98
590.643	14424.51
591.003	14723.26
591.362	14914.21
591.721	15130.25
592.08	15344.94
592.44	15677.36
592.799	15977.46
593.158	16057.69
593.517	16370.67
593.876	16675.75
594.235	16825.12
594.593	17060.37
594.952	17390.53
595.311	17692.44
595.67	17992.55
596.029	18280.45
596.387	18636.15
596.746	18896.71
597.104	19015.8
597.463	19348.22
597.822	19791.82
598.18	19856.91
598.538	20137.35
598.897	20539.38
599.255	20554.97
599.613	21154.05
599.972	21296.42
600.33	21666.13
600.688	21736.63
601.046	22100.69
601.404	22516.5
601.762	22569.38
602.12	22981.12
602.478	23169.14
602.836	23559.41
603.194	23612.06
603.552	23902.45
603.91	24023.8
604.268	24449.55
604.625	24593.05
604.983	24951.24
605.341	25018.81
605.698	25377.67
606.056	25742.63
606.413	25866.01
606.771	26098.33
607.128	26463.29
607.485	26497.18
607.843	26780.34
608.2	27046.32
608.557	27389.14
608.914	27429.59
609.272	27816.02
609.629	28028.9
609.986	28319.74
610.343	28400.64
610.7	28698.26
611.057	28813.28
611.414	28880.85
611.771	29174.63
612.127	29391.35
612.484	29529.65
612.841	29817.1
613.198	29907.72
613.554	30006.02
613.911	30461.6
614.267	30549.51
614.624	30656.62
614.98	30826.56
615.337	31134.35
615.693	31209.6
616.05	31303.16
616.406	31576.37
616.762	31654.11
617.118	31897.95
617.475	32002.12
617.831	32208.67
618.187	32141.78
618.543	32389.69
618.899	32664.48
619.255	32617.25
619.611	32781.54
619.967	32917.13
620.323	33051.14
620.678	33052.04
621.034	33142.43
621.39	33098.37
621.746	33267.85
622.101	33685.02
622.457	33726.37
622.812	33770.67
623.168	34025.35
623.523	33961.85
623.879	34149.41
624.234	34019.02
624.589	34232.57
624.945	34379.69
625.3	34489.52
625.655	34612
626.01	34593.69
626.365	34641.6
626.72	34706.69
627.075	34743.07
627.43	34732.67
627.785	34706.91
628.14	34900.81
628.495	34932.67
628.85	34960.24
629.205	34920.47
629.559	35115.26
629.914	34952.56
630.269	35023.06
630.623	35092.66
630.978	35106.45
631.332	35253.79
631.687	35457.63
632.041	35367.23
632.396	35322.04
632.75	35301.47
633.104	35323.39
633.459	35254.02
633.813	35379.66
634.167	35408.14
634.521	35321.81
634.875	35409.04
635.229	35351.64
635.583	35373.34
635.937	35310.29
636.291	35357.52
636.645	35447.46
636.999	35381.47
637.352	35393.45
637.706	35259.21
638.06	35540.79
638.413	35336.05
638.767	35395.03
639.121	35444.75
639.474	35223.73
639.828	35230.29
640.181	35414.24
640.534	35419.89
640.888	35148.48
641.241	35120.69
641.594	35281.36
641.947	35297.86
642.301	35187.35
642.654	35355.03
643.007	35217.18
643.36	35197.29
643.713	35307.35
644.066	35361.81
644.419	35220.35
644.771	34979.67
645.124	34530.42
645.477	34707.14
645.83	34335.17
646.182	34300.6
646.535	34233.03
646.888	34293.59
647.24	34208.62
647.593	34247.94
647.945	34346.47
648.298	34085.46
648.65	34082.3
649.002	33956.42
649.355	34062.18
649.707	34077.1
650.059	34212.69
650.411	34570.42
650.763	34734.71
651.115	35066.22
651.467	34941.71
651.819	34903.52
652.171	34866
652.523	34730.87
652.875	34809.28
653.227	34704.88
653.578	34964.53
653.93	34875.27
654.282	34537.43
654.633	34613.36
654.985	34749.62
655.337	34665.78
655.688	34661.72
656.039	34681.38
656.391	34478.9
656.742	34570.42
657.094	34472.12
657.445	34647.48
657.796	34631.43
658.147	34538.56
658.498	34598.89
658.849	34583.3
659.2	34611.32
659.551	34476.64
659.902	34586.69
660.253	34542.17
660.604	34651.09
660.955	34379.46
661.306	34534.26
661.656	34469.18
662.007	34440.93
662.358	34493.13
662.708	34571.32
663.059	34588.95
663.409	34216.98
663.76	34530.65
664.11	34456.3
664.461	34488.16
664.811	34485
665.161	34454.26
665.511	34414.04
665.862	34422.63
666.212	34563.41
666.562	34475.73
666.912	34400.93
667.262	34441.38
667.612	34326.58
667.962	34425.34
668.312	34355.28
668.662	34533.58
669.011	34425.11
669.361	34407.03
669.711	34374.72
670.06	34328.17
670.41	34296.08
670.76	34223.54
671.109	34482.74
671.459	34420.37
671.808	34153.93
672.157	34376.53
672.507	33962.98
672.856	34158
673.205	34237.32
673.554	34277.55
673.904	34080.26
674.253	34397.09
674.602	34075.52
674.951	33549.88
675.3	33479.37
675.649	34084.56
675.998	34065.8
676.346	34207.04
676.695	34212.69
677.044	33772.93
677.393	34097.44
677.741	34028.29
678.09	34039.59
678.438	33862.87
678.787	34009.53
679.135	33846.37
679.484	33702.64
679.832	34010.89
680.181	33670.56
680.529	33740.61
680.877	33652.48
681.225	33705.81
681.573	33906.93
681.922	33471.92
682.27	33399.83
682.618	33463.33
682.966	33438.02
683.314	33485.25
683.661	33289.77
684.009	33250.68
684.357	33186.73
684.705	33116.9
685.053	33143.34
685.4	33074.41
685.748	33011.14
686.095	32947.41
686.443	32845.49
686.79	32795.32
687.138	32906.06
687.485	32912.16
687.832	32759.84
688.18	32697.47
688.527	32651.37
688.874	32494.09
689.221	32500.42
689.568	32358.27
689.915	32431.72
690.262	32478.5
690.609	32198.96
690.956	32125.29
691.303	32069.24
691.65	31961
691.997	31930.26
692.344	31712.87
692.69	31745.86
693.037	31812.75
693.383	31622.25
693.73	31581.8
694.077	31435.36
694.423	31427.22
694.769	31369.82
695.116	31257.29
695.462	31091.87
695.808	31185.42
696.155	31168.47
696.501	30953.34
696.847	30917.63
697.193	30688.26
697.539	30732.33
697.885	30725.32
698.231	30527.36
698.577	30504.54
698.923	30468.61
699.269	30348.38
699.614	30194.26
699.96	30129.63
700.306	30269.97
700.651	30052.57
700.997	29940.26
701.342	29932.35
701.688	29930.09
702.033	29764.9
702.379	29645.8
702.724	29580.27
703.069	29667.5
703.415	29304.57
703.76	29407.84
704.105	29318.81
704.45	29205.36
704.795	29078.81
705.14	29031.58
705.485	28930.57
705.83	28797.92
706.175	28888.31
706.52	28860.29
706.865	28651.93
707.209	28734.41
707.554	28592.27
707.899	28706.39
708.243	28625.04
708.588	28594.53
708.932	28368.55
709.277	28256.01
709.621	28243.35
709.966	28112.74
710.31	28195.9
710.654	27857.15
710.998	27913.42
711.342	27986.86
711.687	27877.04
712.031	27783.03
712.375	27590.72
712.719	27860.31
713.063	27710.03
713.407	27823.7
713.75	27504.39
714.094	27618.06
714.438	27446.99
714.782	27548
715.125	27463.71
715.469	27484.73
715.812	27252.19
716.156	27014.46
716.499	27194.57
716.843	27058.07
717.186	26975.14
717.53	27009.04
717.873	27059.66
718.216	27001.13
718.559	26895.59
718.902	26667.12
719.246	26767.23
719.589	26614.7
719.932	26642.27
720.275	26471.2
720.617	26494.47
720.96	26491.31
721.303	26498.54
721.646	26481.37
721.989	26284.31
722.331	26298.77
722.674	26300.58
723.016	26284.31
723.359	26334.03
723.701	26244.31
724.044	26031.89
724.386	25910.99
724.729	26138.1
725.071	25938.1
725.413	26028.5
725.755	25990.53
726.097	25988.05
726.439	25777.2
726.782	25811.55
727.124	25803.87
727.465	25786.02
727.807	25746.7
728.149	25644.55
728.491	25636.42
728.833	25557.1
729.175	25581.28
729.516	25374.73
729.858	25391.9
730.199	25372.92
730.541	25309.65
730.882	25333.6
731.224	25332.92
731.565	25168.41
731.906	25183.09
732.248	25236.88
732.589	25084.79
732.93	24913.72
733.271	25101.52
733.612	25050.44
733.953	25096.32
734.294	24919.6
734.635	24895.87
734.976	24890.9
735.317	24759.83
735.658	24842.99
735.999	24838.7
736.339	24765.7
736.68	24802.09
737.021	24718.02
737.361	24628.76
737.702	24771.81
738.042	24760.96
738.383	24586.05
738.723	24671.24
739.063	24579.49
739.404	24652.04
739.744	24499.05
740.084	24414.3
740.424	24406.62
740.764	24421.76
741.104	24516.45
741.444	24264.7
741.784	24321.87
742.124	24159.39
742.464	24215.66
742.804	24089.11
743.143	24106.97
743.483	24089.11
743.823	23973.64
744.162	23971.15
744.502	23980.41
744.841	23959.17
745.181	24027.87
745.52	23842.57
745.86	23962.11
746.199	23757.37
746.538	23830.59
746.877	23904.94
747.216	23822.68
747.556	23765.51
747.895	23715.11
748.234	23757.14
748.573	23637.82
748.911	23727.77
749.25	23621.55
749.589	23447.55
749.928	23502.46
750.267	23520.77
750.605	23511.27
750.944	23380.2
751.283	23290.94
751.621	23305.86
751.96	23111.51
752.298	23168.23
752.636	23188.35
752.975	23104.05
753.313	23045.98
753.651	23121.91
753.989	22947
754.327	22955.13
754.666	22836.72
755.004	22933.21
755.342	22873.55
755.679	22868.13
756.017	22824.96
756.355	22730.28
756.693	22641.69
757.031	22752.42
757.368	22620.22
757.706	22643.5
758.044	22457.74
758.381	22565.99
758.719	22539.32
759.056	22536.61
759.394	22339.1
759.731	22256.39
760.068	22223.17
760.405	22205.32
760.743	22176.85
761.08	22206.45
761.417	21988.83
