Data from hue_00_FLMS001491_17.txt Node
Date: Mon Feb 06 15:29:20 GMT 2017
User: dcchb
Spectrometer: FLMS00149
Trigger mode: 0
Integration Time (sec): 2.000000E-2
Scans to average: 10
Electric dark correction enabled: true
Nonlinearity correction enabled: false
Boxcar width: 0
XAxis mode: Wavelengths
Number of Pixels in Spectrum: 2048
>>>>>Begin Spectral Data<<<<<
341.393	-8.23
341.776	-8.23
342.16	-8.23
342.543	-68.12
342.927	-67.22
343.31	-53.88
343.693	-63.15
344.077	-63.37
344.46	-63.83
344.843	-65.86
345.226	-42.81
345.61	-25.41
345.993	-26.54
346.376	5.32
346.759	2.61
347.142	27.7
347.525	39
347.908	53.69
348.291	69.96
348.674	98.2
349.057	108.37
349.44	131.42
349.823	121.71
350.206	158.54
350.588	183.85
350.971	200.8
351.354	213.91
351.737	207.35
352.119	247.58
352.502	278.54
352.884	259.78
353.267	262.49
353.65	296.62
354.032	315.83
354.414	295.94
354.797	311.98
355.179	325.32
355.562	312.21
355.944	326.9
356.326	330.29
356.709	323.28
357.091	334.81
357.473	323.06
357.855	300.01
358.238	337.52
358.62	344.3
359.002	329.84
359.384	332.55
359.766	345.88
360.148	342.49
360.53	350.85
360.912	331.19
361.294	332.1
361.676	319.89
362.057	322.6
362.439	333
362.821	304.07
363.203	321.25
363.584	325.32
363.966	323.51
364.348	328.93
364.729	320.8
365.111	317.86
365.493	321.02
365.874	318.54
366.256	306.11
366.637	318.08
367.019	317.18
367.4	313.11
367.781	309.95
368.163	299.78
368.544	326.22
368.925	309.72
369.306	321.02
369.688	301.36
370.069	291.64
370.45	301.81
370.831	304.98
371.212	310.85
371.593	310.4
371.974	328.03
372.355	310.4
372.736	314.47
373.117	303.17
373.498	302.04
373.879	313.79
374.26	307.69
374.641	312.21
375.021	304.3
375.402	325.32
375.783	328.25
376.163	329.38
376.544	316.95
376.925	322.6
377.305	332.32
377.686	309.5
378.066	308.14
378.447	304.07
378.827	326.45
379.208	330.74
379.588	315.6
379.968	324.41
380.349	324.86
380.729	332.55
381.109	334.36
381.489	354.69
381.87	342.27
382.25	339.1
382.63	324.86
383.01	340.91
383.39	341.14
383.77	329.38
384.15	332.77
384.53	340.91
384.91	355.37
385.29	338.2
385.67	340.91
386.049	347.69
386.429	345.2
386.809	341.81
387.189	358.99
387.568	331.19
387.948	322.38
388.328	341.81
388.707	372.32
389.087	341.36
389.466	359.21
389.846	353.79
390.225	354.02
390.605	334.13
390.984	346.56
391.363	361.47
391.743	345.43
392.122	367.35
392.501	359.21
392.881	387.46
393.26	367.58
393.639	387.24
394.018	357.86
394.397	388.14
394.776	370.74
395.155	358.31
395.534	358.76
395.913	363.73
396.292	372.32
396.671	361.47
397.05	367.35
397.429	381.36
397.808	388.37
398.186	377.74
398.565	374.58
398.944	365.77
399.323	374.58
399.701	382.04
400.08	395.37
400.458	368.7
400.837	384.52
401.215	384.07
401.594	379.78
401.972	388.14
402.351	396.05
402.729	408.25
403.107	393.79
403.486	394.92
403.864	398.53
404.242	397.4
404.62	380
404.999	397.18
405.377	413.45
405.755	409.83
406.133	405.54
406.511	399.44
406.889	399.89
407.267	397.63
407.645	417.97
408.023	443.05
408.401	440.34
408.779	432.88
409.156	417.74
409.534	420.68
409.912	413.68
410.29	431.53
410.667	434.47
411.045	447.8
411.422	439.89
411.8	451.19
412.178	456.61
412.555	463.62
412.933	448.7
413.31	459.1
413.687	459.32
414.065	435.6
414.442	477.85
414.819	471.75
415.197	474.46
415.574	488.25
415.951	490.28
416.328	479.66
416.705	487.35
417.082	477.63
417.46	489.83
417.837	502.26
418.214	484.63
418.591	500
418.967	508.59
419.344	495.48
419.721	517.63
420.098	507.46
420.475	522.15
420.852	503.62
421.228	515.37
421.605	532.54
421.982	504.52
422.358	522.37
422.735	497.74
423.111	512.2
423.488	534.12
423.864	524.63
424.241	536.38
424.617	528.02
424.994	537.74
425.37	540.45
425.746	552.43
426.123	556.72
426.499	550.62
426.875	549.72
427.251	576.16
427.627	579.77
428.003	565.76
428.379	595.82
428.756	580.68
429.132	587.91
429.507	593.11
429.883	598.76
430.259	606.44
430.635	623.84
431.011	623.61
431.387	600.56
431.763	624.97
432.138	618.87
432.514	622.48
432.89	618.87
433.265	631.75
433.641	651.64
434.016	663.84
434.392	653.9
434.767	691.63
435.143	655.25
435.518	663.84
435.894	683.95
436.269	665.42
436.644	675.36
437.02	681.01
437.395	675.14
437.77	703.16
438.145	719.43
438.52	691.41
438.895	725.31
439.271	708.13
439.646	726.21
440.021	764.4
440.395	726.89
440.77	735.02
441.145	734.12
441.52	766.21
441.895	742.71
442.27	756.72
442.645	757.85
443.019	763.5
443.394	754.68
443.769	769.15
444.143	785.87
444.518	770.28
444.892	784.74
445.267	792.42
445.641	779.77
446.016	779.77
446.39	790.84
446.764	791.29
447.139	796.26
447.513	808.02
447.887	789.94
448.262	811.41
448.636	801.91
449.01	837.17
449.384	835.13
449.758	825.19
450.132	848.24
450.506	822.48
450.88	831.29
451.254	831.52
451.628	858.86
452.002	849.6
452.376	889.6
452.75	868.8
453.123	888.24
453.497	880.56
453.871	901.57
454.244	913.32
454.618	892.31
454.992	888.69
455.365	909.03
455.739	926.43
456.112	921.91
456.486	916.71
456.859	957.84
457.232	961.01
457.606	965.07
457.979	989.93
458.352	998.07
458.725	998.29
459.099	993.1
459.472	1020.89
459.845	1032.87
460.218	1027.44
460.591	1022.02
460.964	1033.55
461.337	1057.73
461.71	1051.17
462.083	1083.04
462.456	1086.65
462.829	1071.51
463.201	1110.61
463.574	1095.69
463.947	1106.99
464.32	1136.37
464.692	1139.76
465.065	1155.35
465.438	1155.8
465.81	1172.3
466.183	1187.67
466.555	1212.52
466.928	1219.98
467.3	1208.91
467.672	1229.02
468.045	1275.57
468.417	1270.83
468.789	1281
469.161	1288.68
469.534	1316.93
469.906	1347.44
470.278	1362.35
470.65	1360.77
471.022	1368.9
471.394	1422.69
471.766	1429.92
472.138	1402.58
472.51	1457.49
472.882	1488
473.253	1493.2
473.625	1530.26
473.997	1560.09
474.369	1551.72
474.74	1600.09
475.112	1587.43
475.484	1656.35
475.855	1672.85
476.227	1702
476.598	1715.56
476.97	1733.19
477.341	1760.31
477.713	1817.25
478.084	1808.67
478.455	1857.03
478.827	1904.03
479.198	1920.98
479.569	1940.87
479.94	2019.74
480.311	2005.95
480.682	2028.77
481.053	2080.52
481.424	2113.97
481.795	2181.54
482.166	2204.36
482.537	2231.93
482.908	2274.87
483.279	2303.8
483.65	2331.82
484.021	2365.49
484.391	2403.23
484.762	2465.37
485.133	2429.44
485.503	2496.11
485.874	2566.16
486.244	2540.85
486.615	2619.49
486.985	2673.28
487.356	2692.03
487.726	2727.29
488.097	2767.29
488.467	2810.22
488.837	2852.03
489.207	2922.99
489.578	2927.73
489.948	2930.45
490.318	3022.65
490.688	3030.33
491.058	3045.47
491.428	3119.37
491.798	3140.61
492.168	3195.07
492.538	3253.15
492.908	3307.16
493.278	3319.81
493.648	3335.63
494.017	3360.26
494.387	3392.58
494.757	3457.44
495.126	3488.17
495.496	3489.3
495.866	3485.69
496.235	3614.72
496.605	3582.41
496.974	3607.94
497.344	3600.03
497.713	3607.49
498.082	3690.88
498.452	3709.86
498.821	3725.9
499.19	3756.86
499.559	3809.97
499.928	3816.3
500.298	3829.4
500.667	3898.1
501.036	3907.82
501.405	3905.34
501.774	3916.41
502.143	3954.37
502.512	3979.46
502.88	4024.43
503.249	4034.15
503.618	4065.33
503.987	4054.71
504.356	4094.26
504.724	4136.29
505.093	4115.27
505.462	4152.79
505.83	4166.35
506.199	4212.45
506.567	4232.11
506.936	4238.89
507.304	4294.48
507.672	4293.35
508.041	4310.3
508.409	4337.19
508.777	4338.32
509.145	4423.51
509.514	4381.25
509.882	4414.47
510.25	4401.59
510.618	4435.94
510.986	4435.94
511.354	4498.09
511.722	4524.08
512.09	4548.93
512.458	4535.83
512.826	4606.33
513.193	4566.56
513.561	4610.18
513.929	4613.79
514.297	4656.05
514.664	4691.53
515.032	4685.2
515.4	4702.83
515.767	4752.09
516.135	4748.25
516.502	4696.05
516.869	4793.22
517.237	4826.21
517.604	4809.49
517.972	4848.36
518.339	4866.89
518.706	4872.09
519.073	4898.98
519.44	4916.16
519.808	4929.04
520.175	4910.96
520.542	4965.42
520.909	4969.26
521.276	5034.35
521.643	5052.2
522.009	5084.74
522.376	5097.17
522.743	5129.71
523.11	5136.49
523.477	5144.4
523.843	5196.15
524.21	5225.75
524.577	5286.99
524.943	5352.08
525.31	5317.5
525.676	5357.95
526.043	5314.11
526.409	5437.05
526.776	5424.17
527.142	5425.75
527.508	5491.28
527.874	5513.43
528.241	5574.22
528.607	5550.04
528.973	5607.44
529.339	5589.81
529.705	5641.33
530.071	5697.15
530.437	5657.61
530.803	5725.17
531.169	5749.58
531.535	5692.18
531.901	5732.63
532.267	5785.74
532.632	5860.31
532.998	5860.09
533.364	5872.29
533.73	5896.24
534.095	5940.08
534.461	5990.93
534.826	5976.02
535.192	6004.26
535.557	6045.84
535.923	6052.4
536.288	6085.84
536.653	6113.64
537.019	6078.39
537.384	6131.49
537.749	6176.91
538.114	6198.83
538.479	6191.38
538.845	6255.78
539.21	6306.63
539.575	6280.64
539.94	6296.01
540.305	6409.22
540.67	6367.64
541.034	6352.28
541.399	6350.24
541.764	6406.29
542.129	6449
542.494	6484.93
542.858	6537.36
543.223	6563.34
543.587	6565.38
543.952	6606.73
544.316	6626.39
544.681	6632.95
545.045	6694.64
545.41	6737.35
545.774	6687.18
546.138	6790.01
546.503	6752.04
546.867	6768.31
547.231	6803.56
547.595	6781.42
547.959	6881.53
548.324	6871.58
548.688	6872.26
549.052	6915.65
549.416	6978.93
549.779	7006.5
550.143	6969.66
550.507	6948.87
550.871	7084.01
551.235	7026.16
551.599	7084.01
551.962	7153.39
552.326	7130.34
552.689	7189.09
553.053	7111.35
553.417	7193.61
553.78	7334.85
554.143	7222.76
554.507	7300.27
554.87	7355.87
555.234	7374.17
555.597	7327.62
555.96	7381.63
556.323	7367.17
556.686	7351.12
557.05	7434.96
557.413	7505.92
557.776	7466.82
558.139	7517.22
558.502	7521.74
558.865	7524
559.228	7573.94
559.59	7642.64
559.953	7648.29
560.316	7729.64
560.679	7687.61
561.041	7774.61
561.404	7805.35
561.767	7796.53
562.129	7834.05
562.492	7900.26
562.854	7854.84
563.217	7872.69
563.579	7939.35
563.941	7962.63
564.304	7982.29
564.666	8009.63
565.028	8030.42
565.39	8132.57
565.753	8124.43
566.115	8118.56
566.477	8155.17
566.839	8166.69
567.201	8244.43
567.563	8273.81
567.925	8257.76
568.287	8233.58
568.648	8327.14
569.01	8342.96
569.372	8434.71
569.734	8404.65
570.095	8446.01
570.457	8543.41
570.819	8510.86
571.18	8545.89
571.542	8587.47
571.903	8581.6
572.265	8711.31
572.626	8756.51
572.987	8781.14
573.349	8826.11
573.71	8862.49
574.071	8910.85
574.432	8906.79
574.794	9118.53
575.155	9064.3
575.516	9072.43
575.877	9104.07
576.238	9222.71
576.599	9295.02
576.96	9286.66
577.32	9466.77
577.681	9489.14
578.042	9547.67
578.403	9674
578.763	9714.9
579.124	9835.12
579.485	9958.74
579.845	10023.82
580.206	10046.19
580.566	10171.39
580.927	10290.48
581.287	10446.63
581.648	10484.37
582.008	10653.63
582.368	10748.32
582.728	10894.3
583.089	11028.09
583.449	11126.61
583.809	11261.07
584.169	11534.29
584.529	11499.03
584.889	11773.15
585.249	11925.01
585.609	12095.63
585.969	12338.79
586.329	12433.25
586.688	12708.49
587.048	12828.49
587.408	13021.48
587.768	13151.42
588.127	13357.74
588.487	13656.27
588.846	13855.81
589.206	13946.2
589.565	14242.92
589.925	14521.78
590.284	14756.8
590.643	15008.77
591.003	15127.41
591.362	15496.89
591.721	15744.35
592.08	15911.35
592.44	16214.16
592.799	16455.06
593.158	16622.06
593.517	16879.91
593.876	17171.2
594.235	17446
594.593	17693.9
594.952	18049.37
595.311	18233.32
595.67	18549.92
596.029	18892.06
596.387	19158.04
596.746	19347.87
597.104	19563.23
597.463	19810.45
597.822	20143.33
598.18	20348.07
598.538	20681.17
598.897	21068.27
599.255	21200.93
599.613	21653.34
599.972	21743.74
600.33	22117.74
600.688	22202.48
601.046	22525.18
601.404	22924.95
601.762	23009.69
602.12	23382.79
602.478	23614.2
602.836	23943.23
603.194	23997.91
603.552	24306.15
603.91	24409.43
604.268	24747.72
604.625	24972.58
604.983	25248.5
605.341	25267.71
605.698	25775.49
606.056	26063.17
606.413	26187.46
606.771	26475.36
607.128	26697.05
607.485	26765.75
607.843	27021.34
608.2	27348.11
608.557	27582.9
608.914	27629.01
609.272	27985.15
609.629	28199.84
609.986	28522.77
610.343	28364.81
610.7	28798.92
611.057	28964.56
611.414	29077.1
611.771	29234.61
612.127	29534.94
612.484	29893.58
612.841	29834.37
613.198	30004.76
613.554	30077.53
613.911	30471.64
614.267	30603.39
614.624	30680
614.98	30820.11
615.337	31146.88
615.693	31274.56
616.05	31314.11
616.406	31638.84
616.762	31668.45
617.118	31783.25
617.475	31970.13
617.831	32075.67
618.187	32222.78
618.543	32411.48
618.899	32646.05
619.255	32675.2
619.611	32743.45
619.967	32819.38
620.323	33244.9
620.678	33039.94
621.034	33151.35
621.39	33174.17
621.746	33284.45
622.101	33723.08
622.457	33496.87
622.812	33641.05
623.168	33850.54
623.523	33864.55
623.879	34110.64
624.234	34109.51
624.589	34060.25
624.945	34224.09
625.3	34353.8
625.655	34453.23
626.01	34463.4
626.365	34445.32
626.72	34562.16
627.075	34627.24
627.43	34706.56
627.785	34647.8
628.14	34690.29
628.495	34874.46
628.85	34852.09
629.205	34782.49
629.559	34930.06
629.914	34935.03
630.269	34953.11
630.623	34897.97
630.978	34929.15
631.332	35062.71
631.687	35287.11
632.041	35150.16
632.396	35127.11
632.75	35111.29
633.104	35144.97
633.459	35154.46
633.813	35161.69
634.167	35045.99
634.521	35041.69
634.875	35256.6
635.229	35216.15
635.583	35080.79
635.937	35131.86
636.291	35180.67
636.645	35177.28
636.999	35275.81
637.352	35255.92
637.706	35020.22
638.06	35222.7
638.413	35253.66
638.767	35049.83
639.121	35118.3
639.474	34968.47
639.828	35144.29
640.181	35220.44
640.534	35245.53
640.888	35040.11
641.241	34952.88
641.594	35082.59
641.947	35095.93
642.301	34959.21
642.654	35016.83
643.007	35118.75
643.36	35049.15
643.713	34982.94
644.066	35127.34
644.419	35015.25
644.771	34689.38
645.124	34340.02
645.477	34409.62
645.83	34208.04
646.182	34132.79
646.535	34018.22
646.888	34028.38
647.24	33955.62
647.593	34041.04
647.945	34033.81
648.298	33857.09
648.65	33904.32
649.002	33862.06
649.355	34020.02
649.707	33988.84
650.059	34024.32
650.411	34383.86
650.763	34515.83
651.115	34914.69
651.467	34662.94
651.819	34668.37
652.171	34583.85
652.523	34516.73
652.875	34532.78
653.227	34471.76
653.578	34728.93
653.93	34454.81
654.282	34464.08
654.633	34357.64
654.985	34592.44
655.337	34481.93
655.688	34511.99
656.039	34615.94
656.391	34307.93
656.742	34294.59
657.094	34462.95
657.445	34531.87
657.796	34418.88
658.147	34356.51
658.498	34393.12
658.849	34488.03
659.2	34278.1
659.551	34171.43
659.902	34372.33
660.253	34500.01
660.604	34375.95
660.955	34299.56
661.306	34451.65
661.656	34396.06
662.007	34245.78
662.358	34203.97
662.708	34334.14
663.059	34374.36
663.409	34151.55
663.76	34371.88
664.11	34384.08
664.461	34291.43
664.811	34373.91
665.161	34247.36
665.511	34295.04
665.862	34271.32
666.212	34364.65
666.562	34359.22
666.912	34210.3
667.262	34302.95
667.612	34351.99
667.962	34307.25
668.312	34299.79
668.662	34408.49
669.011	34123.75
669.361	34095.05
669.711	34130.98
670.06	34012.57
670.41	34067.71
670.76	34155.61
671.109	34144.99
671.459	34198.55
671.808	34161.94
672.157	34126.69
672.507	33920.14
672.856	33959.01
673.205	34042.85
673.554	33870.65
673.904	33961.72
674.253	34096.63
674.602	33940.7
674.951	33478.57
675.3	33355.86
675.649	33871.78
675.998	33979.57
676.346	33791.55
676.695	33990.87
677.044	33751.78
677.393	33941.16
677.741	33932.12
678.09	33781.84
678.438	33731.22
678.787	33771.22
679.135	33752.01
679.484	33572.8
679.832	33589.3
680.181	33513.14
680.529	33597.66
680.877	33590.2
681.225	33394.5
681.573	33779.35
681.922	33358.57
682.27	33291.23
682.618	33364.9
682.966	33295.3
683.314	33355.18
683.661	33234.06
684.009	33029.54
684.357	32940.28
684.705	33009.65
685.053	33110.44
685.4	32843.33
685.748	32845.37
686.095	32768.53
686.443	32701.41
686.79	32620.51
687.138	32800.62
687.485	32740.06
687.832	32610.34
688.18	32642.66
688.527	32347.07
688.874	32440.4
689.221	32326.73
689.568	32255.55
689.915	32168.32
690.262	32188.43
690.609	32089
690.956	31984.82
691.303	31976.69
691.65	31910.93
691.997	31837.71
692.344	31719.97
692.69	31602.23
693.037	31627.32
693.383	31495.34
693.73	31505.29
694.077	31309.81
694.423	31339.87
694.769	31200.89
695.116	31234.56
695.462	31153.21
695.808	31160.44
696.155	31066.43
696.501	30886.32
696.847	30893.1
697.193	30588.25
697.539	30837.96
697.885	30443.85
698.231	30388.03
698.577	30392.77
698.923	30373.11
699.269	30193.46
699.614	30218.54
699.96	29995.5
700.306	29999.56
700.651	29807.7
700.997	29819.23
701.342	29786.46
701.688	29770.19
702.033	29549.86
702.379	29672.12
702.724	29487.26
703.069	29680.02
703.415	29277.1
703.76	29364.1
704.105	29260.83
704.45	29328.17
704.795	29100.6
705.14	28939.71
705.485	28970.89
705.83	28889.99
706.175	28903.1
706.52	28790.78
706.865	28648.87
707.209	28680.95
707.554	28464.46
707.899	28639.6
708.243	28401.87
708.588	28417.23
708.932	28245.26
709.277	28154.19
709.621	28203.91
709.966	28092.72
710.31	28142.44
710.654	27787.65
710.998	28047.07
711.342	27942.44
711.687	27940.18
712.031	27717.14
712.375	27511.49
712.719	27678.04
713.063	27689.34
713.407	27720.75
713.75	27550.82
714.094	27534.77
714.438	27387.43
714.782	27417.26
715.125	27301.33
715.469	27185.85
715.812	27209.36
716.156	27046.2
716.499	27058.85
716.843	27094.78
717.186	26920.32
717.53	26976.59
717.873	27020.66
718.216	26909.93
718.559	26823.6
718.902	26549.94
719.246	26712.19
719.589	26625.64
719.932	26505.19
720.275	26547
720.617	26504.74
720.96	26420.9
721.303	26534.57
721.646	26518.53
721.989	26205.54
722.331	26445.08
722.674	26283.28
723.016	26223.39
723.359	26147.46
723.701	26204.64
724.044	26004.19
724.386	25877.86
724.729	26029.27
725.071	25896.62
725.413	25966.22
725.755	25848.26
726.097	25831.31
726.439	25697.98
726.782	25653.69
727.124	25658.89
727.465	25676.51
727.807	25637.42
728.149	25548.83
728.491	25461.15
728.833	25441.27
729.175	25421.38
729.516	25363.08
729.858	25370.99
730.199	25296.19
730.541	25412.34
730.882	25192.23
731.224	25340.7
731.565	25185.23
731.906	25077.89
732.248	25159.92
732.589	24987.72
732.93	25090.99
733.271	25021.84
733.612	25051.22
733.953	24979.36
734.294	24956.76
734.635	24834.73
734.976	24872.24
735.317	24882.41
735.658	24789.53
735.999	24746.6
736.339	24634.73
736.68	24684.9
737.021	24602.19
737.361	24640.84
737.702	24495.98
738.042	24565.13
738.383	24608.29
738.723	24540.95
739.063	24424.34
739.404	24466.6
739.744	24424.12
740.084	24278.13
740.424	24489.65
740.764	24256.66
741.104	24415.76
741.444	24234.74
741.784	24166.95
742.124	24118.59
742.464	24199.04
742.804	24081.3
743.143	24034.07
743.483	24159.72
743.823	24026.84
744.162	23983.68
744.502	24059.61
744.841	23900.97
745.181	23958.59
745.52	23867.75
745.86	23952.27
746.199	23788.43
746.538	23746.4
746.877	23888.31
747.216	23803.8
747.556	23699.84
747.895	23691.93
748.234	23627.08
748.573	23555.67
748.911	23543.24
749.25	23555.21
749.589	23411.04
749.928	23409.91
750.267	23505.5
750.605	23347.08
750.944	23290.14
751.283	23294.43
751.621	23358.61
751.96	23185.05
752.298	23168.78
752.636	23126.75
752.975	23145.73
753.313	22873.2
753.651	23041.33
753.989	22950.48
754.327	22960.43
754.666	22795.69
755.004	22883.82
755.342	22880.88
755.679	22713.88
756.017	22619.87
756.355	22718.4
756.693	22505.07
757.031	22472.53
757.368	22533.09
757.706	22417.84
758.044	22325.87
758.381	22433.21
758.719	22357.73
759.056	22280.22
759.394	22185.31
759.731	22120.45
760.068	22035.93
760.405	22027.34
760.743	21948.25
761.08	21930.62
