Data from hue_50_FLMS001491_25.txt Node
Date: Mon Feb 06 15:09:49 GMT 2017
User: dcchb
Spectrometer: FLMS00149
Trigger mode: 0
Integration Time (sec): 2.000000E-2
Scans to average: 10
Electric dark correction enabled: true
Nonlinearity correction enabled: false
Boxcar width: 0
XAxis mode: Wavelengths
Number of Pixels in Spectrum: 2048
>>>>>Begin Spectral Data<<<<<
341.393	-8.15
341.776	-8.15
342.16	-8.15
342.543	-55.38
342.927	-71.88
343.31	-72.55
343.693	-77.98
344.077	-47.47
344.46	-38.43
344.843	-66.91
345.226	-41.59
345.61	-38.66
345.993	-19.67
346.376	-18.54
346.759	6.31
347.142	45.63
347.525	45.63
347.908	51.28
348.291	90.38
348.674	73.2
349.057	109.36
349.44	130.15
349.823	133.09
350.206	160.43
350.588	174.9
350.971	217.61
351.354	216.03
351.737	236.36
352.119	250.37
352.502	274.78
352.884	271.39
353.267	285.4
353.65	289.7
354.032	310.26
354.414	303.03
354.797	312.29
355.179	301.67
355.562	333.76
355.944	321.33
356.326	333.76
356.709	346.19
357.091	314.55
357.473	330.15
357.855	337.6
358.238	350.03
358.62	333.54
359.002	319.53
359.384	344.38
359.766	346.19
360.148	328.11
360.53	328.79
360.912	340.32
361.294	345.97
361.676	331.05
362.057	321.33
362.439	338.51
362.821	315.46
363.203	319.98
363.584	328.56
363.966	307.32
364.348	329.47
364.729	330.82
365.111	323.37
365.493	316.81
365.874	306.42
366.256	321.79
366.637	308
367.019	316.14
367.4	319.07
367.781	306.64
368.163	311.84
368.544	310.03
368.925	326.53
369.306	312.75
369.688	302.12
370.069	301.45
370.45	306.42
370.831	311.16
371.212	318.85
371.593	314.1
371.974	315.46
372.355	299.19
372.736	322.24
373.117	324.5
373.498	309.36
373.879	296.48
374.26	296.02
374.641	296.25
375.021	315.68
375.402	329.69
375.783	335.34
376.163	311.39
376.544	300.32
376.925	335.8
377.305	302.8
377.686	310.49
378.066	321.56
378.447	334.67
378.827	311.84
379.208	348
379.588	336.93
379.968	338.51
380.349	323.82
380.729	331.95
381.109	333.99
381.489	315.91
381.87	329.24
382.25	333.08
382.63	343.48
383.01	343.03
383.39	318.85
383.77	338.28
384.15	345.51
384.53	345.06
384.91	319.53
385.29	341.67
385.67	327.66
386.049	347.77
386.429	350.94
386.809	352.74
387.189	321.33
387.568	342.8
387.948	356.13
388.328	348.9
388.707	353.65
389.087	347.1
389.466	370.6
389.846	350.94
390.225	364.27
390.605	359.75
390.984	337.6
391.363	356.36
391.743	357.26
392.122	369.02
392.501	353.2
392.881	371.5
393.26	340.09
393.639	352.74
394.018	375.8
394.397	355.91
394.776	374.89
395.155	372.63
395.534	352.29
395.913	370.6
396.292	359.07
396.671	374.67
397.05	366.98
397.429	370.15
397.808	365.63
398.186	366.98
398.565	391.39
398.944	372.41
399.323	380.77
399.701	355
400.08	373.99
400.458	402.91
400.837	379.18
401.215	401.56
401.594	396.81
401.972	393.2
402.351	380.31
402.729	386.87
403.107	404.5
403.486	383.7
403.864	409.92
404.242	393.87
404.62	400.43
404.999	404.72
405.377	403.14
405.755	407.88
406.133	399.07
406.511	398.17
406.889	415.34
407.267	414.89
407.645	415.12
408.023	412.4
408.401	416.02
408.779	410.82
409.156	439.52
409.534	427.09
409.912	413.76
410.29	446.08
410.667	443.36
411.045	430.71
411.422	438.39
411.8	429.13
412.178	445.62
412.555	437.26
412.933	450.14
413.31	464.83
413.687	441.33
414.065	436.81
414.442	447.66
414.819	464.61
415.197	454.89
415.574	473.19
415.951	448.56
416.328	474.78
416.705	471.61
417.082	482.01
417.46	446.98
417.837	490.59
418.214	492.85
418.591	480.2
418.967	461.89
419.344	460.31
419.721	496.24
420.098	483.36
420.475	496.7
420.852	496.92
421.228	515.45
421.605	518.62
421.982	506.64
422.358	513.19
422.735	511.61
423.111	498.28
423.488	513.42
423.864	525.4
424.241	524.04
424.617	524.72
424.994	526.3
425.37	526.53
425.746	531.72
426.123	533.31
426.499	551.38
426.875	531.72
427.251	538.95
427.627	547.77
428.003	525.85
428.379	576.92
428.756	552.51
429.132	548.45
429.507	564.94
429.883	562.46
430.259	585.06
430.635	588.44
431.011	580.99
431.387	586.41
431.763	569.24
432.138	604.04
432.514	585.28
432.89	585.73
433.265	605.62
433.641	619.86
434.016	612.17
434.392	626.18
434.767	637.71
435.143	630.93
435.518	624.38
435.894	640.42
436.269	639.52
436.644	663.02
437.02	656.92
437.395	642.68
437.77	637.03
438.145	667.54
438.52	672.51
438.895	666.64
439.271	677.03
439.646	692.85
440.021	673.19
440.395	697.82
440.77	700.31
441.145	697.59
441.52	693.98
441.895	708.44
442.27	726.52
442.645	702.11
443.019	737.82
443.394	703.02
443.769	712.74
444.143	728.55
444.518	719.06
444.892	756.8
445.267	744.15
445.641	758.84
446.016	751.83
446.39	753.64
446.764	757.03
447.139	748.21
447.513	744.83
447.887	743.02
448.262	744.15
448.636	766.52
449.01	763.58
449.384	753.86
449.758	773.98
450.132	791.83
450.506	792.73
450.88	796.8
451.254	818.5
451.628	803.13
452.002	827.76
452.376	842.22
452.75	825.95
453.123	815.11
453.497	811.94
453.871	831.15
454.244	887.19
454.618	856.01
454.992	875.44
455.365	874.09
455.739	893.75
456.112	872.28
456.486	900.3
456.859	919.28
457.232	933.97
457.606	923.58
457.979	927.19
458.352	954.76
458.725	962.22
459.099	958.38
459.472	984.37
459.845	978.04
460.218	974.65
460.591	1011.26
460.964	1030.24
461.337	1031.82
461.71	1012.84
462.083	1047.42
462.456	1059.17
462.829	1052.39
463.201	1074.31
463.574	1081.99
463.947	1101.2
464.32	1113.18
464.692	1134.42
465.065	1138.26
465.438	1184.81
465.81	1162.67
466.183	1173.97
466.555	1241.99
466.928	1225.49
467.3	1241.99
467.672	1242.21
468.045	1266.85
468.417	1288.99
468.789	1292.83
469.161	1328.09
469.534	1340.29
469.906	1381.87
470.278	1383.9
470.65	1404.02
471.022	1447.86
471.394	1474.07
471.766	1479.04
472.138	1484.69
472.51	1571.47
472.882	1605.37
473.253	1674.52
473.625	1637.23
473.997	1679.72
474.369	1721.97
474.74	1751.13
475.112	1785.7
475.484	1810.33
475.855	1864.12
476.227	1882.2
476.598	1985.92
476.97	1998.13
477.341	2059.82
477.713	2143.43
478.084	2134.17
478.455	2203.54
478.827	2239.02
479.198	2338.46
479.569	2374.84
479.94	2417.1
480.311	2516.3
480.682	2589.07
481.053	2646.92
481.424	2763.76
481.795	2789.29
482.166	2880.14
482.537	2949.96
482.908	3053.92
483.279	3124.2
483.65	3174.82
484.021	3344.08
484.391	3409.39
484.762	3444.19
485.133	3557.63
485.503	3638.76
485.874	3732.54
486.244	3850.73
486.615	3984.51
486.985	4050.73
487.356	4204.62
487.726	4296.37
488.097	4434.22
488.467	4471.05
488.837	4652.52
489.207	4783.36
489.578	4879.63
489.948	4997.37
490.318	5137.93
490.688	5222.45
491.058	5353.29
491.428	5475.1
491.798	5551.7
492.168	5783.79
492.538	5840.28
492.908	5973.16
493.278	6116.21
493.648	6230.56
494.017	6379.03
494.387	6470.1
494.757	6639.36
495.126	6710.77
495.496	6873.03
495.866	6948.96
496.235	7114.6
496.605	7235.73
496.974	7339.45
497.344	7430.07
497.713	7564.98
498.082	7705.55
498.452	7856.73
498.821	7960.68
499.19	8002.71
499.559	8174.23
499.928	8305.08
500.298	8337.62
500.667	8550.27
501.036	8620.1
501.405	8743.94
501.774	8817.61
502.143	8960.2
502.512	9046.53
502.88	9256.01
503.249	9243.13
503.618	9331.04
503.987	9516.57
504.356	9613.97
504.724	9721.09
505.093	9824.81
505.462	9880.4
505.83	9971.48
506.199	10127.18
506.567	10255.08
506.936	10286.95
507.304	10457.79
507.672	10523.32
508.041	10626.6
508.409	10738.23
508.777	10941.62
509.145	11021.17
509.514	10990.43
509.882	11123.08
510.25	11218.45
510.618	11326.92
510.986	11386.81
511.354	11543.19
511.722	11687.59
512.09	11833.12
512.458	11815.49
512.826	11958.09
513.193	12086.45
513.561	12093
513.929	12229.27
514.297	12345.88
514.664	12418.19
515.032	12448.92
515.4	12653.89
515.767	12681.01
516.135	12798.07
516.502	12794.45
516.869	12994.22
517.237	13051.85
517.604	13125.97
517.972	13193.54
518.339	13372.97
518.706	13383.81
519.073	13433.98
519.44	13547.88
519.808	13616.8
520.175	13679.85
520.542	13946.06
520.909	14041.88
521.276	14027.87
521.643	14199.39
522.009	14272.6
522.376	14339.04
522.743	14545.82
523.11	14663.56
523.477	14794.4
523.843	14851.8
524.21	15075.07
524.577	15124.11
524.943	15186.93
525.31	15370.66
525.676	15415.85
526.043	15591.89
526.409	15633.7
526.776	15772
527.142	15844.09
527.508	15929.96
527.874	16097.42
528.241	16179.45
528.607	16186.23
528.973	16363.17
529.339	16442.49
529.705	16550.29
530.071	16695.82
530.437	16796.15
530.803	16734.24
531.169	16967.22
531.535	16993.21
531.901	17082.02
532.267	17081.34
532.632	17209.7
532.998	17267.55
533.364	17379.42
533.73	17402.24
534.095	17603.59
534.461	17658.28
534.826	17656.02
535.192	17778.95
535.557	17951.38
535.923	17951.15
536.288	18142.33
536.653	18174.42
537.019	18103.01
537.384	18282.44
537.749	18404.25
538.114	18424.81
538.479	18439.5
538.845	18518.37
539.21	18563.34
539.575	18600.63
539.94	18641.98
540.305	18758.59
540.67	18820.73
541.034	18904.12
541.399	18959.26
541.764	18942.76
542.129	19150.44
542.494	19194.06
542.858	19144.12
543.223	19190.89
543.587	19409.87
543.952	19350.89
544.316	19473.37
544.681	19479.02
545.045	19495.07
545.41	19708.85
545.774	19753.82
546.138	19709.3
546.503	19897.54
546.867	19836.53
547.231	20100.47
547.595	19973.92
547.959	20162.39
548.324	20111.1
548.688	20232.22
549.052	20262.05
549.416	20345.67
549.779	20525.1
550.143	20460.92
550.507	20549.28
550.871	20586.34
551.235	20670.85
551.599	20818.65
551.962	20854.35
552.326	20929.61
552.689	21024.07
553.053	20911.98
553.417	21067.45
553.78	21303.38
554.143	21267.68
554.507	21355.13
554.87	21493.66
555.234	21639.42
555.597	21452.53
555.96	21561.9
556.323	21717.61
556.686	21781.79
557.05	21939.52
557.413	22006.64
557.776	21998.5
558.139	22244.82
558.502	22107.2
558.865	22184.49
559.228	22459.28
559.59	22521.43
559.953	22588.77
560.316	22754.87
560.679	22775.21
561.041	22906.73
561.404	23044.35
561.767	23061.98
562.129	23105.37
562.492	23180.17
562.854	23320.95
563.217	23268.75
563.579	23446.83
563.941	23532.47
564.304	23710.55
564.666	23906.02
565.028	23887.49
565.39	23907.38
565.753	24035.74
566.115	24183.98
566.477	24271.21
566.839	24249.07
567.201	24469.17
567.563	24456.97
567.925	24649.51
568.287	24638.89
568.648	24778.32
569.01	24864.64
569.372	25012.89
569.734	25024.19
570.095	25110.06
570.457	25203.16
570.819	25467.34
571.18	25393.44
571.542	25461.46
571.903	25592.53
572.265	25670.95
572.626	25749.82
572.987	25948.46
573.349	25994.1
573.71	26073.88
574.071	26119.53
574.432	26193.65
574.794	26397.48
575.155	26486.52
575.516	26493.3
575.877	26578.72
576.238	26671.6
576.599	26805.16
576.96	26940.29
577.32	26918.37
577.681	27001.76
578.042	27225.03
578.403	27121.53
578.763	27235.2
579.124	27287.4
579.485	27486.04
579.845	27584.35
580.206	27573.05
580.566	27658.92
580.927	27820.95
581.287	27855.98
581.648	28069.76
582.008	28169.41
582.368	28095.74
582.728	28204.89
583.089	28290.77
583.449	28302.07
583.809	28482.85
584.169	28623.19
584.529	28659.57
584.889	28986.34
585.249	28877.87
585.609	28857.53
585.969	29248.48
586.329	29182.72
586.688	29252.78
587.048	29364.64
587.408	29444.86
587.768	29488.25
588.127	29513.79
588.487	29705.65
588.846	29960.1
589.206	29833.33
589.565	29930.05
589.925	30266.31
590.284	30186.99
590.643	30329.58
591.003	30504.27
591.362	30586.53
591.721	30561.44
592.08	30709.46
592.44	30912.17
592.799	30946.52
593.158	31048.44
593.517	31134.08
593.876	31178.83
594.235	31194.42
594.593	31384.25
594.952	31416.11
595.311	31521.87
595.67	31682.77
596.029	31907.85
596.387	31902.88
596.746	32065.13
597.104	31985.13
597.463	32083.44
597.822	32322.53
598.18	32302.19
598.538	32263.09
598.897	32555.74
599.255	32420.83
599.613	32784.66
599.972	32702.4
600.33	32884.77
600.688	32917.09
601.046	33004.32
601.404	33144.43
601.762	33120.92
602.12	33308.94
602.478	33345.32
602.836	33359.11
603.194	33375.61
603.552	33472.33
603.91	33468.03
604.268	33557.07
604.625	33643.85
604.983	33907.79
605.341	33684.3
605.698	34027.79
606.056	34077.51
606.413	33940.11
606.771	34190.73
607.128	34355.01
607.485	34148.69
607.843	34296.26
608.2	34590.49
608.557	34726.3
608.914	34539.19
609.272	34788
609.629	34987.99
609.986	35057.14
610.343	34978.73
610.7	35301.2
611.057	35146.41
611.414	35231.6
611.771	35276.35
612.127	35384.59
612.484	35507.98
612.841	35575.1
613.198	35605.15
613.554	35461.43
613.911	35852.83
614.267	35749.1
614.624	35684.7
614.98	35786.16
615.337	36099.15
615.693	35947.29
616.05	35901.87
616.406	36140.05
616.762	36161.97
617.118	36261.63
617.475	36187.06
617.831	36491.23
618.187	36350.22
618.543	36564.9
618.899	36669.98
619.255	36684.45
619.611	36766.93
619.967	36906.59
620.323	36864.33
620.678	36748.4
621.034	36754.73
621.39	36670.21
621.746	36789.75
622.101	37220.48
622.457	36968.51
622.812	37168.95
623.168	37069.07
623.523	37140.7
623.879	37292.56
624.234	37066.81
624.589	37249.18
624.945	37400.58
625.3	37426.8
625.655	37442.39
626.01	37429.96
626.365	37460.7
626.72	37346.57
627.075	37523.74
627.43	37338.67
627.785	37319
628.14	37401.04
628.495	37485.55
628.85	37368.04
629.205	37475.84
629.559	37543.18
629.914	37306.35
630.269	37470.64
630.623	37324.65
630.978	37330.53
631.332	37482.39
631.687	37370.08
632.041	37356.29
632.396	37563.29
632.75	37271.32
633.104	37442.84
633.459	37298.67
633.813	37315.16
634.167	37321.49
634.521	37275.39
634.875	37377.76
635.229	37359.91
635.583	37237.88
635.937	37052.34
636.291	37078.33
636.645	37281.04
636.999	37079.46
637.352	37286.01
637.706	36999.92
638.06	37154.04
638.413	36993.14
638.767	37061.38
639.121	37099.12
639.474	36738.68
639.828	36895.29
640.181	36975.28
640.534	36941.61
640.888	36848.06
641.241	36777.55
641.594	36799.02
641.947	36827.72
642.301	36685.8
642.654	36731.45
643.007	36779.58
643.36	36658.01
643.713	36777.78
644.066	36827.94
644.419	36632.92
644.771	36281.07
645.124	36036.78
645.477	36082.65
645.83	35806.95
646.182	35635.21
646.535	35513.18
646.888	35629.11
647.24	35419.17
647.593	35637.69
647.945	35672.72
648.298	35383.46
648.65	35385.5
649.002	35253.52
649.355	35333.52
649.707	35294.43
650.059	35452.16
650.411	35968.98
650.763	35983.9
651.115	36350.44
651.467	36068.42
651.819	36182.99
652.171	36109.09
652.523	35943.45
652.875	36200.39
653.227	35800.4
653.578	36247.17
653.93	36073.84
654.282	35997.68
654.633	35771.47
654.985	35886.95
655.337	35879.04
655.688	35778.25
656.039	36025.25
656.391	35626.62
656.742	35675.21
657.094	35878.14
657.445	35931.02
657.796	35929.21
658.147	35753.62
658.498	35734.41
658.849	35731.25
659.2	35646.05
659.551	35640.4
659.902	35820.96
660.253	35744.81
660.604	35650.35
660.955	35534.42
661.306	35764.02
661.656	35594.53
662.007	35635.43
662.358	35584.36
662.708	35549.11
663.059	35508.43
663.409	35412.84
663.76	35668.2
664.11	35619.61
664.461	35734.19
664.811	35680.18
665.161	35588.88
665.511	35563.8
665.862	35488.54
666.212	35727.86
666.562	35690.35
666.912	35604.47
667.262	35552.5
667.612	35520.63
667.962	35580.75
668.312	35617.58
668.662	35605.83
669.011	35506.62
669.361	35374.65
669.711	35492.61
670.06	35302.79
670.41	35263.92
670.76	35350.02
671.109	35468.21
671.459	35391.37
671.808	35302.11
672.157	35369
672.507	35143.69
672.856	35157.93
673.205	35250.13
673.554	35386.17
673.904	35328.1
674.253	35370.36
674.602	35283.8
674.951	34776.47
675.3	34569.25
675.649	35155.45
675.998	35279.96
676.346	35165.39
676.695	35238.38
677.044	35079.97
677.393	35089.46
677.741	35175.11
678.09	35062.11
678.438	35036.13
678.787	34972.17
679.135	35046.75
679.484	34710.49
679.832	34914.1
680.181	34644.05
680.529	34804.49
680.877	34645.85
681.225	34635.69
681.573	34806.08
681.922	34718.17
682.27	34545.29
682.618	34513.65
682.966	34478.4
683.314	34569.47
683.661	34390.95
684.009	34300.55
684.357	34165.64
684.705	34075.25
685.053	34232.76
685.4	34135.59
685.748	33982.6
686.095	34035.25
686.443	33941.69
686.79	33777.63
687.138	33812.66
687.485	33843.84
687.832	33707.12
688.18	33849.94
688.527	33548.26
688.874	33566.33
689.221	33623.28
689.568	33485.21
689.915	33425.55
690.262	33258.77
690.609	33273.46
690.956	33092.68
691.303	33247.7
691.65	32998.67
691.997	32943.07
692.344	32866.24
692.69	32734.94
693.037	32741.5
693.383	32468.74
693.73	32669.41
694.077	32521.16
694.423	32465.35
694.769	32326.59
695.116	32250.66
695.462	32240.95
695.808	32128.63
696.155	32224.68
696.501	31917.56
696.847	32094.74
697.193	31740.39
697.539	31843.89
697.885	31485.49
698.231	31623.34
698.577	31592.6
698.923	31496.33
699.269	31312.16
699.614	31244.81
699.96	31063.58
700.306	31108.09
700.651	30981.32
700.997	30789.91
701.342	30932.96
701.688	30953.97
702.033	30692.74
702.379	30724.38
702.724	30613.64
703.069	30661.55
703.415	30263.14
703.76	30320.32
704.105	30311.73
704.45	30257.72
704.795	30088.46
705.14	29948.58
705.485	29922.81
705.83	29985.64
706.175	29836.94
706.52	29716.27
706.865	29639.21
707.209	29679.43
707.554	29617.51
707.899	29685.31
708.243	29380.91
708.588	29421.81
708.932	29170.52
709.277	29219.33
709.621	29333.9
709.966	29017.75
710.31	29111.99
710.654	28885.1
710.998	28904.76
711.342	28919.9
711.687	28805.56
712.031	28653.24
712.375	28558.78
712.719	28787.7
713.063	28659.12
713.407	28678.33
713.75	28486.47
714.094	28458.45
714.438	28293.71
714.782	28389.52
715.125	28223.65
715.469	28356.75
715.812	28149.08
716.156	28019.59
716.499	27938.23
716.843	28084.9
717.186	27930.78
717.53	28091
717.873	27967.39
718.216	27922.87
718.559	27735.3
718.902	27597
719.246	27690.11
719.589	27623.44
719.932	27498.47
720.275	27482.88
720.617	27526.04
720.96	27387.97
721.303	27400.62
721.646	27343.9
721.989	27263
722.331	27237.01
722.674	27190.91
723.016	27121.76
723.359	27065.94
723.701	27058.94
724.044	26860.75
724.386	26725.61
724.729	26987.52
725.071	26913.18
725.413	26707.53
725.755	26818.04
726.097	26696.23
726.439	26559.06
726.782	26619.85
727.124	26650.81
727.465	26493.75
727.807	26565.39
728.149	26610.13
728.491	26246.75
728.833	26460.31
729.175	26321.55
729.516	26221.44
729.858	26363.13
730.199	26322.68
730.541	26192.07
730.882	26212.4
731.224	26112.75
731.565	25973.77
731.906	26108.23
732.248	26163.37
732.589	25891.28
732.93	25776.94
733.271	25968.57
733.612	25814
733.953	25857.61
734.294	25642.93
734.635	25617.17
734.976	25757.73
735.317	25585.98
735.658	25631.85
735.999	25640.67
736.339	25416.94
736.68	25632.98
737.021	25475.93
737.361	25324.07
737.702	25489.26
738.042	25495.36
738.383	25392.54
738.723	25440.45
739.063	25283.39
739.404	25228.93
739.744	25223.28
740.084	25114.58
740.424	25244.52
740.764	25205.2
741.104	25233.67
741.444	24993
741.784	24965.43
742.124	24979.89
742.464	24955.26
742.804	25006.33
743.143	24842.95
743.483	24915.94
743.823	24641.15
744.162	24617.42
744.502	24717.3
744.841	24595.27
745.181	24773.12
745.52	24561.15
745.86	24648.15
746.199	24531.32
746.538	24541.26
746.877	24542.62
747.216	24498.1
747.556	24381.04
747.895	24424.88
748.234	24360.02
748.573	24316.86
748.911	24223.3
749.25	24298.33
749.589	24053.82
749.928	24148.73
750.267	24140.14
750.605	24035.96
750.944	24078.45
751.283	24018.34
751.621	24073.03
751.96	23792.13
752.298	23890.21
752.636	23799.81
752.975	23684.11
753.313	23743.54
753.651	23815.86
753.989	23630.55
754.327	23479.37
754.666	23420.16
755.004	23405.25
755.342	23433.72
755.679	23397.11
756.017	23266.72
756.355	23413.16
756.693	23248.87
757.031	23357.56
757.368	23148.3
