Data from hue_36_FLMS001491_00056.txt Node
Date: Tue Feb 07 17:30:00 GMT 2017
User: dcchb
Spectrometer: FLMS00149
Trigger mode: 0
Integration Time (sec): 2.000000E-2
Scans to average: 10
Electric dark correction enabled: true
Nonlinearity correction enabled: false
Boxcar width: 0
XAxis mode: Wavelengths
Number of Pixels in Spectrum: 2048
>>>>>Begin Spectral Data<<<<<
341.393	15.08
341.776	15.08
342.16	15.08
342.543	-78.7
342.927	-85.03
343.31	-88.64
343.693	-67.4
344.077	-44.12
344.46	-57.68
344.843	-62.88
345.226	-31.69
345.61	-24.91
345.993	-10.45
346.376	-3.22
346.759	16.67
347.142	27.06
347.525	22.99
347.908	57.57
348.291	64.8
348.674	86.72
349.057	115.19
349.44	140.5
349.823	147.28
350.206	156.55
350.588	190.67
350.971	218.47
351.354	236.32
351.737	262.76
352.119	279.71
352.502	263.67
352.884	284
353.267	283.78
353.65	302.53
354.032	310.22
354.414	290.56
354.797	306.83
355.179	335.75
355.562	326.71
355.944	332.14
356.326	321.07
356.709	369.43
357.091	346.15
357.473	348.18
357.855	335.98
358.238	345.7
358.62	346.83
359.002	367.84
359.384	363.1
359.766	352.7
360.148	340.5
360.53	345.92
360.912	338.69
361.294	333.49
361.676	342.08
362.057	324.91
362.439	326.71
362.821	332.14
363.203	323.78
363.584	322.42
363.966	337.11
364.348	339.37
364.729	309.31
365.111	317.45
365.493	342.53
365.874	320.39
366.256	325.36
366.637	308.18
367.019	317.68
367.4	311.57
367.781	309.77
368.163	314.96
368.544	316.09
368.925	309.09
369.306	319.94
369.688	321.07
370.069	331.01
370.45	313.38
370.831	297.79
371.212	311.35
371.593	310.67
371.974	308.86
372.355	295.98
372.736	339.14
373.117	332.59
373.498	300.73
373.879	315.42
374.26	312.03
374.641	312.48
375.021	339.37
375.402	341.18
375.783	327.84
376.163	331.01
376.544	334.4
376.925	328.97
377.305	335.08
377.686	316.77
378.066	341.18
378.447	343.21
378.827	328.75
379.208	331.46
379.588	332.82
379.968	325.81
380.349	336.88
380.729	332.59
381.109	323.55
381.489	334.17
381.87	333.27
382.25	335.98
382.63	337.34
383.01	339.37
383.39	342.99
383.77	339.6
384.15	335.75
384.53	341.86
384.91	353.83
385.29	348.18
385.67	338.92
386.049	352.02
386.429	346.15
386.809	333.95
387.189	340.95
387.568	361.29
387.948	368.3
388.328	354.51
388.707	352.48
389.087	358.13
389.466	351.12
389.846	347.96
390.225	378.46
390.605	376.2
390.984	392.7
391.363	360.84
391.743	372.14
392.122	385.92
392.501	375.53
392.881	368.97
393.26	363.1
393.639	398.8
394.018	378.92
394.397	358.8
394.776	373.94
395.155	366.49
395.534	373.49
395.913	371.23
396.292	399.48
396.671	386.83
397.05	386.6
397.429	371.69
397.808	359.03
398.186	402.19
398.565	375.07
398.944	408.75
399.323	404.9
399.701	380.05
400.08	372.36
400.458	375.07
400.837	374.85
401.215	383.66
401.594	388.41
401.972	406.94
402.351	420.72
402.729	415.07
403.107	402.19
403.486	404.68
403.864	423.66
404.242	394.51
404.62	400.84
404.999	401.06
405.377	412.14
405.755	424.11
406.133	410.55
406.511	401.06
406.889	421.85
407.267	421.18
407.645	414.4
408.023	417.56
408.401	414.62
408.779	406.71
409.156	429.99
409.534	426.15
409.912	419.59
410.29	428.86
410.667	436.54
411.045	448.75
411.422	446.71
411.8	441.29
412.178	448.75
412.555	449.65
412.933	452.14
413.31	461.85
413.687	475.86
414.065	467.5
414.442	452.81
414.819	470.67
415.197	464.11
415.574	492.81
415.951	483.77
416.328	458.01
416.705	454.85
417.082	488.97
417.46	484.22
417.837	484.68
418.214	490.1
418.591	465.24
418.967	495.3
419.344	484.68
419.721	491.91
420.098	492.81
420.475	494.85
420.852	511.79
421.228	499.37
421.605	536.88
421.982	524.68
422.358	509.76
422.735	512.47
423.111	555.18
423.488	513.6
423.864	528.97
424.241	544.56
424.617	528.52
424.994	551.79
425.37	528.97
425.746	526.48
426.123	533.71
426.499	566.03
426.875	566.71
427.251	560.61
427.627	545.92
428.003	557.22
428.379	556.99
428.756	555.64
429.132	568.06
429.507	576.43
429.883	559.02
430.259	560.15
430.635	600.15
431.011	597.89
431.387	580.49
431.763	612.13
432.138	595.86
432.514	600.83
432.89	609.19
433.265	612.13
433.641	626.14
434.016	620.72
434.392	643.99
434.767	632.7
435.143	645.35
435.518	651.45
435.894	660.49
436.269	648.51
436.644	652.13
437.02	686.25
437.395	654.84
437.77	671.11
438.145	646.48
438.52	670.89
438.895	681.28
439.271	656.65
439.646	678.34
440.021	693.48
440.395	688.51
440.77	691
441.145	693.03
441.52	707.27
441.895	728.06
442.27	763.09
442.645	716.53
443.019	718.79
443.394	716.53
443.769	724.22
444.143	737.33
444.518	739.81
444.892	731
445.267	747.95
445.641	754.27
446.016	724.9
446.39	782.75
446.764	746.36
447.139	763.09
447.513	763.99
447.887	783.88
448.262	761.96
448.636	776.65
449.01	797.66
449.384	785.91
449.758	781.62
450.132	798.57
450.506	808.06
450.88	805.12
451.254	810.09
451.628	809.87
452.002	826.14
452.376	800.37
452.75	827.27
453.123	848.28
453.497	862.52
453.871	864.1
454.244	854.84
454.618	866.36
454.992	863.42
455.365	890.54
455.739	891.9
456.112	909.75
456.486	907.26
456.859	890.32
457.232	927.15
457.606	934.61
457.979	920.15
458.352	966.25
458.725	954.95
459.099	954.04
459.472	984.55
459.845	975.29
460.218	991.33
460.591	1009.41
460.964	1045.57
461.337	1053.48
461.71	1054.15
462.083	1068.16
462.456	1066.81
462.829	1056.41
463.201	1094.83
463.574	1077.88
463.947	1102.06
464.32	1123.3
464.692	1151.1
465.065	1163.53
465.438	1163.53
465.81	1171.21
466.183	1184.55
466.555	1204.21
466.928	1207.6
467.3	1231.55
467.672	1235.84
468.045	1260.93
468.417	1267.48
468.789	1302.51
469.161	1297.76
469.534	1301.83
469.906	1354.03
470.278	1369.85
470.65	1397.19
471.022	1434.48
471.394	1434.48
471.766	1465.44
472.138	1472.9
472.51	1542.5
472.882	1562.39
473.253	1572.78
473.625	1600.35
473.997	1674.7
474.369	1653.46
474.74	1676.74
475.112	1713.12
475.484	1758.54
475.855	1812.78
476.227	1834.47
476.598	1889.39
476.97	1891.65
477.341	1949.95
477.713	1981.81
478.084	2053.67
478.455	2122.6
478.827	2128.7
479.198	2249.83
479.569	2264.74
479.94	2336.61
480.311	2360.56
480.682	2422.93
481.053	2501.8
481.424	2572.53
481.795	2653.89
482.166	2690.72
482.537	2755.8
482.908	2839.19
483.279	2898.85
483.65	2965.97
484.021	3095.46
484.391	3109.24
484.762	3190.59
485.133	3282.8
485.503	3340.65
485.874	3449.12
486.244	3528.66
486.615	3667.19
486.985	3723.24
487.356	3753.07
487.726	3839.16
488.097	4007.07
488.467	4043.68
488.837	4153.96
489.207	4240.06
489.578	4360.51
489.948	4411.58
490.318	4519.6
490.688	4606.15
491.058	4715.3
491.428	4839.82
491.798	4952.13
492.168	5035.74
492.538	5097.89
492.908	5226.02
493.278	5347.83
493.648	5380.14
494.017	5569.06
494.387	5583.53
494.757	5678.21
495.126	5821.49
495.496	5841.82
495.866	5896.96
496.235	5991.2
496.605	6091.08
496.974	6219.67
497.344	6320.91
497.713	6387.57
498.082	6495.59
498.452	6577.62
498.821	6693.33
499.19	6771.29
499.559	6824.85
499.928	6941.46
500.298	6929.93
500.667	7094.9
501.036	7112.52
501.405	7242.46
501.774	7209.47
502.143	7374.21
502.512	7436.81
502.88	7503.25
503.249	7561.1
503.618	7632.51
503.987	7730.36
504.356	7834.09
504.724	7863.47
505.093	7948.66
505.462	7991.37
505.83	8104.59
506.199	8152.27
506.567	8337.35
506.936	8323.57
507.304	8498.7
507.672	8488.76
508.041	8587.74
508.409	8691.69
508.777	8738.02
509.145	8761.07
509.514	8808.98
509.882	8906.15
510.25	8924.45
510.618	8994.06
510.986	9046.49
511.354	9111.34
511.722	9147.27
512.09	9311.56
512.458	9333.48
512.826	9348.4
513.193	9427.49
513.561	9476.3
513.929	9530.31
514.297	9642.4
514.664	9760.36
515.032	9773.47
515.4	9881.49
515.767	9837.88
516.135	9999.91
516.502	9942.28
516.869	10047.81
517.237	10148.6
517.604	10108.83
517.972	10277.19
518.339	10356.51
518.706	10347.02
519.073	10364.64
519.44	10422.49
519.808	10587.24
520.175	10514.7
520.542	10678.76
520.909	10710.17
521.276	10722.15
521.643	10860.67
522.009	10948.58
522.376	10957.17
522.743	11039.43
523.11	11153.55
523.477	11265.64
523.843	11325.97
524.21	11373.66
524.577	11461.56
524.943	11449.81
525.31	11671.95
525.676	11771.61
526.043	11759.86
526.409	11840.08
526.776	11913.3
527.142	11971.38
527.508	12044.37
527.874	12120.98
528.241	12191.71
528.607	12287.08
528.973	12367.53
529.339	12277.59
529.705	12474.42
530.071	12520.52
530.437	12689.33
530.803	12655.2
531.169	12768.65
531.535	12730.68
531.901	12856.55
532.267	12815.88
532.632	13044.8
532.998	12955.54
533.364	13016.55
533.73	13157.11
534.095	13251.57
534.461	13287.73
534.826	13359.82
535.192	13422.87
535.557	13426.03
535.923	13513.94
536.288	13546.93
536.653	13578.34
537.019	13580.83
537.384	13713.03
537.749	13709.64
538.114	13757.1
538.479	13727.94
538.845	13981.95
539.21	13920.03
539.575	13952.35
539.94	13941.5
540.305	14021.5
540.67	14062.85
541.034	14153.7
541.399	14230.08
541.764	14257.42
542.129	14337.19
542.494	14432.56
542.858	14315.73
543.223	14516.17
543.587	14590.75
543.952	14626.45
544.316	14639.33
544.681	14622.84
545.045	14795.94
545.41	14784.41
545.774	14898.76
546.138	14910.29
546.503	14971.3
546.867	14936.73
547.231	15141.92
547.595	15173.56
547.959	15130.62
548.324	15247.23
548.688	15318.18
549.052	15269.37
549.416	15385.08
549.779	15437.05
550.143	15439.54
550.507	15570.61
550.871	15581.45
551.235	15649.7
551.599	15783.03
551.962	15761.56
552.326	15772.41
552.689	15857.15
553.053	15883.82
553.417	15859.87
553.78	16076.13
554.143	16067.77
554.507	16224.83
554.87	16173.98
555.234	16343.24
555.597	16238.84
555.96	16301.89
556.323	16443.8
556.686	16428.89
557.05	16518.83
557.413	16453.75
557.776	16509.79
558.139	16707.98
558.502	16780.75
558.865	16787.98
559.228	16807.64
559.59	17034.52
559.953	16938.03
560.316	17090.34
560.679	17125.37
561.041	17199.27
561.404	17206.04
561.767	17419.37
562.129	17349.54
562.492	17508.86
562.854	17543.66
563.217	17456.89
563.579	17602.19
563.941	17647.84
564.304	17802.19
564.666	17869.08
565.028	17891.9
565.39	17976.42
565.753	18004.89
566.115	18140.71
566.477	18173.7
566.839	18282.63
567.201	18335.96
567.563	18387.03
567.925	18438.78
568.287	18500.93
568.648	18495.28
569.01	18679.23
569.372	18794.03
569.734	18737.3
570.095	18918.99
570.457	19019.56
570.819	19096.84
571.18	19096.16
571.542	19202.38
571.903	19224.52
572.265	19307.01
572.626	19432.43
572.987	19470.17
573.349	19566.21
573.71	19643.04
574.071	19767.33
574.432	19896.6
574.794	19964.39
575.155	20086.65
575.516	20055.91
575.877	20288
576.238	20277.38
576.599	20392.4
576.96	20539.52
577.32	20502.23
577.681	20731.83
578.042	20796.01
578.403	20968.43
578.763	21026.51
579.124	21178.14
579.485	21387.63
579.845	21476.21
580.206	21610.45
580.566	21725.02
580.927	21894.74
581.287	22214.27
581.648	22147.61
582.008	22377.89
582.368	22525.9
582.728	22657.43
583.089	22809.06
583.449	22898.1
583.809	23048.83
584.169	23333.12
584.529	23456.28
584.889	23727
585.249	23820.11
585.609	23931.52
585.969	24300.55
586.329	24370.15
586.688	24616.7
587.048	24850.59
587.408	25038.61
587.768	25168.55
588.127	25366.28
588.487	25571.47
588.846	25838.81
589.206	25900.28
589.565	26189.54
589.925	26422.3
590.284	26579.81
590.643	26907.71
591.003	27117.42
591.362	27391.99
591.721	27618.2
592.08	27704.3
592.44	27914.69
592.799	28159.43
593.158	28416.15
593.517	28550.38
593.876	28788.34
594.235	29003.02
594.593	29209.57
594.952	29485.27
595.311	29564.36
595.67	29883
596.029	30184.91
596.387	30386.94
596.746	30607.95
597.104	30725.69
597.463	31030.31
597.822	31223.98
598.18	31271.21
598.538	31568.38
598.897	31962.94
599.255	31735.61
599.613	32554.57
599.972	32447.68
600.33	32656.03
600.688	32768.12
601.046	32992.97
601.404	33110.26
601.762	33307.77
602.12	33592.05
602.478	33643.58
602.836	33912.27
603.194	33834.99
603.552	34224.58
603.91	34188.88
604.268	34445.59
604.625	34544.57
604.983	34825.47
605.341	34900.04
605.698	34962.19
606.056	35284.89
606.413	35335.29
606.771	35686.24
607.128	35755.61
607.485	35764.43
607.843	36074.25
608.2	36288.03
608.557	36419.1
608.914	36396.95
609.272	36724.85
609.629	36933.66
609.986	36907.22
610.343	36974.79
610.7	37383.59
611.057	37362.35
611.414	37486.19
611.771	37621.1
612.127	37979.96
612.484	37905.84
612.841	38024.93
613.198	38184.02
613.554	38312.61
613.911	38577.23
614.267	38508.76
614.624	38624.92
614.98	38807.74
615.337	39111.91
615.693	39021.52
616.05	38922.31
616.406	39451.79
616.762	39250.44
617.118	39400.26
617.475	39444.1
617.831	39536.98
618.187	39705.57
618.543	39718
618.899	40080.25
619.255	39970.19
619.611	40050.64
619.967	40212.9
620.323	40310.97
620.678	40209.28
621.034	40062.39
621.39	40265.1
621.746	40289.05
622.101	40835.25
622.457	40610.85
622.812	40622.15
623.168	40893.11
623.523	40802.26
623.879	41166.09
624.234	40788.48
624.589	41005.19
624.945	40956.38
625.3	41113.89
625.655	41140.1
626.01	41236.15
626.365	41203.83
626.72	41358.86
627.075	41293.1
627.43	41191.63
627.785	41301.68
628.14	41445.18
628.495	41368.8
628.85	41293.32
629.205	41434.56
629.559	41521.34
629.914	41447.89
630.269	41534.67
630.623	41402.24
630.978	41363.38
631.332	41588.68
631.687	41729.24
632.041	41520.89
632.396	41556.82
632.75	41390.49
633.104	41491.73
633.459	41337.39
633.813	41457.84
634.167	41478.63
634.521	41421.23
634.875	41495.35
635.229	41518.4
635.583	41357.73
635.937	41457.61
636.291	41454.67
636.645	41519.98
636.999	41442.24
637.352	41531.73
637.706	41271.17
638.06	41435.01
638.413	41435.92
638.767	41258.52
639.121	41376.26
639.474	41141.69
639.828	41099.2
640.181	41346.43
640.534	41193.21
640.888	41140.78
641.241	40987.57
641.594	41086.77
641.947	41211.97
642.301	41082.93
642.654	41178.97
643.007	41183.95
643.36	41133.55
643.713	41000.67
644.066	41208.35
644.419	40961.13
644.771	40826.44
645.124	40381.48
645.477	40408.15
645.83	40079.79
646.182	39997.54
646.535	39931.55
646.888	39855.62
647.24	39761.16
647.593	40037.53
647.945	39912.57
648.298	39752.12
648.65	39790.54
649.002	39590.77
649.355	39702.18
649.707	39697.2
650.059	39814.49
650.411	40279.11
650.763	40332.44
651.115	40657.86
651.467	40478.2
651.819	40618.99
652.171	40569.05
652.523	40457.41
652.875	40452.44
653.227	40422.16
653.578	40517.75
653.93	40547.35
654.282	40296.06
654.633	40218.55
654.985	40323.4
655.337	40337.64
655.688	40259.68
656.039	40464.87
656.391	40283.4
656.742	40310.75
657.094	40245.89
657.445	40469.16
657.796	40358.66
658.147	40270.75
658.498	40283.86
658.849	40341.03
659.2	40229.17
659.551	40077.08
659.902	40328.6
660.253	40219.9
660.604	40315.95
660.955	40044.09
661.306	40293.35
661.656	40190.53
662.007	40139.91
662.358	40130.87
662.708	40206.12
663.059	40066.69
663.409	39907.59
663.76	40185.55
664.11	40031.43
664.461	40144.42
664.811	40136.06
665.161	40121.83
665.511	40027.37
665.862	39967.25
666.212	40145.78
666.562	40195.5
666.912	40055.84
667.262	39987.37
667.612	40000.93
667.962	40167.25
668.312	39944.88
668.662	40243.18
669.011	40090.41
669.361	40021.26
669.711	39964.99
670.06	39910.08
670.41	39774.49
670.76	39886.8
671.109	40043.64
671.459	39784.43
671.808	39732.23
672.157	39836.64
672.507	39758.22
672.856	39729.07
673.205	39941.04
673.554	40010.87
673.904	39706.02
674.253	39975.84
674.602	39902.62
674.951	39323.43
675.3	39082.08
675.649	39673.7
675.998	39642.74
676.346	39735.85
676.695	39837.09
677.044	39632.8
677.393	39726.58
677.741	39822.17
678.09	39607.49
678.438	39593.48
678.787	39656.08
679.135	39582.63
679.484	39176.31
679.832	39569.52
680.181	39176.31
680.529	39406.82
680.877	39206.6
681.225	39208.86
681.573	39377.89
681.922	39094.06
682.27	38992.59
682.618	39101.06
682.966	38909.43
683.314	38886.83
683.661	38856.55
684.009	38745.37
684.357	38614.3
684.705	38711.69
685.053	38574.07
685.4	38495.2
685.748	38542.21
686.095	38460.18
686.443	38312.83
686.79	38344.25
687.138	38315.77
687.485	38295.66
687.832	38191.03
688.18	38280.97
688.527	38054.08
688.874	37945.16
689.221	38049.11
689.568	37956.91
689.915	37807.99
690.262	37877.14
690.609	37725.28
690.956	37610.25
691.303	37527.09
691.65	37430.82
691.997	37522.12
692.344	37208.23
692.69	37168.68
693.037	37216.37
693.383	36758.3
693.73	36977.5
694.077	36757.62
694.423	36767.34
694.769	36731.86
695.116	36637.62
695.462	36556.27
695.808	36400.79
696.155	36431.3
696.501	36215.94
696.847	36161.25
697.193	36029.28
697.539	36020.47
697.885	35847.81
698.231	35765.56
698.577	35838.32
698.923	35749.74
699.269	35534.15
699.614	35442.18
699.96	35349.3
700.306	35330.99
700.651	35283.76
700.997	35107.95
701.342	35082.86
701.688	35014.16
702.033	34927.39
702.379	34891.46
702.724	34728.3
703.069	34881.74
703.415	34437.68
703.76	34476.55
704.105	34544.12
704.45	34450.56
704.795	34141.19
705.14	34040.4
705.485	34092.38
705.83	33918.37
706.175	33905.49
706.52	33878.37
706.865	33846.74
707.209	33675.67
707.554	33604.94
707.899	33618.72
708.243	33556.35
708.588	33496.92
708.932	33218.51
709.277	33228.22
709.621	33309.58
709.966	33079.98
710.31	33163.59
710.654	32841.57
710.998	32877.72
711.342	32882.69
711.687	32800.89
712.031	32646.54
712.375	32493.1
712.719	32537.17
713.063	32532.2
713.407	32554.57
713.75	32471.63
714.094	32407.45
714.438	32274.12
714.782	32282.71
715.125	32124.3
715.469	32250.62
715.812	31985.54
716.156	31926.34
716.499	31833.91
716.843	31887.47
717.186	31604.76
717.53	31977.18
717.873	31847.69
718.216	31729.5
718.559	31549.62
718.902	31411.32
719.246	31539.45
719.589	31340.81
719.932	31252
720.275	31327.71
720.617	31211.33
720.96	31134.04
721.303	31087.94
721.646	31247.03
721.989	30922.75
722.331	31137.2
722.674	30918.68
723.016	30972.69
723.359	30765.46
723.701	30963.2
724.044	30807.72
724.386	30650.89
724.729	30874.84
725.071	30587.16
725.413	30668.97
725.755	30563.21
726.097	30430.78
726.439	30361.86
726.782	30356.89
727.124	30537.9
727.465	30226.72
727.807	30243.44
728.149	30181.97
728.491	30125.25
728.833	30077.57
729.175	30018.59
729.516	29970.91
729.858	29962.09
730.199	30050.45
730.541	29945.6
730.882	29869.21
731.224	29840.74
731.565	29656.56
731.906	29697.47
732.248	29698.82
732.589	29572.05
732.93	29433.75
733.271	29486.4
733.612	29549.9
733.953	29584.48
734.294	29321.88
734.635	29304.03
734.976	29575.66
735.317	29186.52
735.658	29138.84
735.999	29300.64
736.339	29069.46
736.68	29282.11
737.021	29108.1
737.361	28943.14
737.702	29084.6
738.042	28886.87
738.383	29040.76
738.723	28942.46
739.063	28856.81
739.404	28918.96
739.744	28867.89
740.084	28577.72
740.424	28816.13
740.764	28767.1
741.104	28721
741.444	28530.94
741.784	28507.67
742.124	28565.07
742.464	28568.01
742.804	28493.88
743.143	28384.96
743.483	28421.57
743.823	28249.14
744.162	28283.49
744.502	28181.8
744.841	28264.74
745.181	28204.85
745.52	28112.42
745.86	28151.97
746.199	28073.56
746.538	28017.51
746.877	28082.59
747.216	28037.17
747.556	27978.19
747.895	28042.37
748.234	27818.42
748.573	27837.86
748.911	27687.8
749.25	27800.79
749.589	27587.01
749.928	27621.36
750.267	27637.86
750.605	27628.37
750.944	27576.62
751.283	27361.71
751.621	27446.68
751.96	27300.24
752.298	27236.52
752.636	27249.4
752.975	27124.88
753.313	27133.47
753.651	27227.48
753.989	27047.82
754.327	27033.58
754.666	26865.45
755.004	26895.96
755.342	26963.75
755.679	26870.2
756.017	26701.39
756.355	26678.79
756.693	26639.7
757.031	26635.63
757.368	26487.38
757.706	26505.69
