Data from hue_30_FLMS001491_85.txt Node
Date: Mon Feb 06 15:06:12 GMT 2017
User: dcchb
Spectrometer: FLMS00149
Trigger mode: 0
Integration Time (sec): 2.000000E-2
Scans to average: 10
Electric dark correction enabled: true
Nonlinearity correction enabled: false
Boxcar width: 0
XAxis mode: Wavelengths
Number of Pixels in Spectrum: 2048
>>>>>Begin Spectral Data<<<<<
341.393	-9.53
341.776	-9.53
342.16	-9.53
342.543	-75.29
342.927	-67.84
343.31	-73.26
343.693	-70.32
344.077	-70.1
344.46	-69.19
344.843	-40.72
345.226	-38.91
345.61	-34.17
345.993	-16.31
346.376	-0.72
346.759	24.59
347.142	26.4
347.525	44.48
347.908	49.67
348.291	71.82
348.674	86.96
349.057	109.79
349.44	124.02
349.823	147.07
350.206	164.25
350.588	198.37
350.971	203.57
351.354	219.61
351.737	223
352.119	240.86
352.502	243.12
352.884	280.63
353.267	257.35
353.65	300.97
354.032	290.35
354.414	314.53
354.797	297.58
355.179	320.85
355.562	320.18
355.944	321.31
356.326	310.68
356.709	320.63
357.091	340.74
357.473	335.77
357.855	355.43
358.238	347.52
358.62	340.51
359.002	326.5
359.384	348.42
359.766	336.9
360.148	340.51
360.53	327.86
360.912	343
361.294	349.1
361.676	340.51
362.057	337.12
362.439	318.82
362.821	320.18
363.203	319.27
363.584	321.98
363.966	321.53
364.348	328.31
364.729	340.06
365.111	348.42
365.493	301.87
365.874	319.27
366.256	323.11
366.637	322.21
367.019	317.92
367.4	313.17
367.781	324.92
368.163	311.36
368.544	327.63
368.925	315.2
369.306	340.51
369.688	314.07
370.069	328.99
370.45	319.05
370.831	314.98
371.212	316.33
371.593	291.25
371.974	307.75
372.355	313.62
372.736	335.32
373.117	306.84
373.498	340.06
373.879	315.66
374.26	326.28
374.641	320.4
375.021	333.96
375.402	328.08
375.783	297.8
376.163	339.38
376.544	325.15
376.925	325.37
377.305	321.08
377.686	350.46
378.066	341.64
378.447	319.72
378.827	339.16
379.208	325.37
379.588	355.65
379.968	349.1
380.349	342.1
380.729	335.77
381.109	344.58
381.489	351.59
381.87	357.69
382.25	344.13
382.63	343.45
383.01	357.69
383.39	339.61
383.77	362.43
384.15	339.38
384.53	354.75
384.91	342.32
385.29	376.9
385.67	360.85
386.049	338.93
386.429	351.59
386.809	376.9
387.189	361.08
387.568	350.68
387.948	340.51
388.328	371.02
388.707	370.12
389.087	382.32
389.466	363.34
389.846	379.61
390.225	374.86
390.605	392.26
390.984	367.86
391.363	396.33
391.743	378.7
392.122	382.32
392.501	409.21
392.881	385.26
393.26	408.76
393.639	369.21
394.018	381.19
394.397	395.2
394.776	407.18
395.155	382.55
395.534	401.3
395.913	391.81
396.292	398.82
396.671	396.33
397.05	403.11
397.429	401.98
397.808	412.15
398.186	420.74
398.565	392.04
398.944	384.13
399.323	403.56
399.701	392.49
400.08	393.62
400.458	417.57
400.837	412.38
401.215	411.47
401.594	413.28
401.972	408.76
402.351	418.93
402.729	429.78
403.107	418.03
403.486	419.83
403.864	441.75
404.242	420.74
404.62	439.27
404.999	431.13
405.377	449.66
405.755	437.01
406.133	445.14
406.511	451.92
406.889	469.55
407.267	466.84
407.645	444.24
408.023	452.38
408.401	464.13
408.779	478.59
409.156	475.43
409.534	472.04
409.912	478.36
410.29	481.75
410.667	486.5
411.045	479.72
411.422	491.02
411.8	490.79
412.178	500.96
412.555	512.94
412.933	517.46
413.31	492.83
413.687	513.39
414.065	517.46
414.442	516.55
414.819	517.91
415.197	508.87
415.574	526.5
415.951	523.33
416.328	526.05
416.705	537.34
417.082	540.96
417.46	533.73
417.837	557.46
418.214	558.81
418.591	568.98
418.967	573.05
419.344	585.7
419.721	550.68
420.098	559.26
420.475	575.76
420.852	564.69
421.228	564.01
421.605	573.95
421.982	591.58
422.358	594.29
422.735	597.23
423.111	608.76
423.488	594.74
423.864	606.5
424.241	613.73
424.617	609.21
424.994	587.06
425.37	589.32
425.746	622.31
426.123	638.36
426.499	641.97
426.875	620.51
427.251	634.74
427.627	637.91
428.003	664.12
428.379	675.42
428.756	658.47
429.132	675.65
429.507	678.58
429.883	687.85
430.259	684.46
430.635	680.17
431.011	702.99
431.387	724.01
431.763	717.68
432.138	702.54
432.514	728.07
432.89	735.31
433.265	739.83
433.641	742.09
434.016	747.96
434.392	748.64
434.767	760.39
435.143	772.82
435.518	751.12
435.894	799.94
436.269	776.21
436.644	822.99
437.02	779.37
437.395	811.01
437.77	818.92
438.145	817.56
438.52	844.91
438.895	830.44
439.271	834.06
439.646	847.17
440.021	840.61
440.395	844.68
440.77	852.36
441.145	853.27
441.52	847.17
441.895	875.87
442.27	865.02
442.645	858.01
443.019	879.26
443.394	890.33
443.769	893.27
444.143	894.62
444.518	909.99
444.892	917.45
445.267	940.27
445.641	898.01
446.016	911.12
446.39	961.51
446.764	947.73
447.139	919.93
447.513	933.49
447.887	948.63
448.262	951.12
448.636	979.59
449.01	966.94
449.384	981.63
449.758	1005.35
450.132	994.28
450.506	1017.33
450.88	1007.39
451.254	994.51
451.628	1015.98
452.002	1039.93
452.376	1037.67
452.75	1053.72
453.123	1027.5
453.497	1072.47
453.871	1076.77
454.244	1086.48
454.618	1097.78
454.992	1122.19
455.365	1108.4
455.739	1122.19
456.112	1137.55
456.486	1152.47
456.859	1156.99
457.232	1181.17
457.606	1173.94
457.979	1178.23
458.352	1214.61
458.725	1188.63
459.099	1240.83
459.472	1262.07
459.845	1277.21
460.218	1291.68
460.591	1274.73
460.964	1308.17
461.337	1312.24
461.71	1392.92
462.083	1365.35
462.456	1367.38
462.829	1372.58
463.201	1393.14
463.574	1379.13
463.947	1418.23
464.32	1457.55
464.692	1443.76
465.065	1433.59
465.438	1476.75
465.81	1504.32
466.183	1532.12
466.555	1537.54
466.928	1547.71
467.3	1538.67
467.672	1606.7
468.045	1628.84
468.417	1661.16
468.789	1650.99
469.161	1646.24
469.534	1692.34
469.906	1731.66
470.278	1733.92
470.65	1728.73
471.022	1772.57
471.394	1829.29
471.766	1835.39
472.138	1880.59
472.51	1902.05
472.882	1913.58
473.253	1980.92
473.625	2009.17
473.997	2036.97
474.369	2056.4
474.74	2089.62
475.112	2091.2
475.484	2161.48
475.855	2174.82
476.227	2220.69
476.598	2304.98
476.97	2325.32
477.341	2341.82
477.713	2417.52
478.084	2436.28
478.455	2530.06
478.827	2553.79
479.198	2591.3
479.569	2653.45
479.94	2714.46
480.311	2761.92
480.682	2815.25
481.053	2855.48
481.424	2927.34
481.795	3010.95
482.166	3030.39
482.537	3085.53
482.908	3159.2
483.279	3224.73
483.65	3283.26
484.021	3366.87
484.391	3409.81
484.762	3458.62
485.133	3515.35
485.503	3562.35
485.874	3664.95
486.244	3739.29
486.615	3754.21
486.985	3854.09
487.356	3960.98
487.726	3965.96
488.097	4067.42
488.467	4162.79
488.837	4238.04
489.207	4300.86
489.578	4402.1
489.948	4406.62
490.318	4513.74
490.688	4518.26
491.058	4609.55
491.428	4729.32
491.798	4805.93
492.168	4906.72
492.538	4956.89
492.908	4990.56
493.278	5086.6
493.648	5138.13
494.017	5202.76
494.387	5287.73
494.757	5327.05
495.126	5368.63
495.496	5436.42
495.866	5456.31
496.235	5579.47
496.605	5590.09
496.974	5737.66
497.344	5756.87
497.713	5804.32
498.082	5808.62
498.452	5925.68
498.821	6015.62
499.19	6032.79
499.559	6103.75
499.928	6145.56
500.298	6173.13
500.667	6290.64
501.036	6245.9
501.405	6351.88
501.774	6354.14
502.143	6422.16
502.512	6476.62
502.88	6512.33
503.249	6504.65
503.618	6595.49
503.987	6611.76
504.356	6705.54
504.724	6689.5
505.093	6727.69
505.462	6842.49
505.83	6875.26
506.199	6844.98
506.567	6975.37
506.936	6987.12
507.304	7127.45
507.672	7089.94
508.041	7175.59
508.409	7243.83
508.777	7228.92
509.145	7334
509.514	7289.94
509.882	7376.71
510.25	7432.53
510.618	7459.65
510.986	7483.6
511.354	7538.06
511.722	7588.01
512.09	7761.56
512.458	7665.97
512.826	7785.06
513.193	7746.87
513.561	7839.3
513.929	7912.52
514.297	7947.55
514.664	8048.11
515.032	8013.98
515.4	8013.76
515.767	8087.65
516.135	8132.63
516.502	8051.5
516.869	8280.19
517.237	8232.74
517.604	8250.59
517.972	8346.4
518.339	8395.67
518.706	8396.35
519.073	8401.32
519.44	8483.12
519.808	8541.2
520.175	8580.07
520.542	8649.22
520.909	8705.72
521.276	8663.01
521.643	8824.36
522.009	8768.99
522.376	8906.39
522.743	8940.74
523.11	8993.85
523.477	9046.73
523.843	9086.05
524.21	9202.2
524.577	9230.68
524.943	9256.66
525.31	9279.04
525.676	9424.12
526.043	9420.95
526.409	9473.83
526.776	9579.59
527.142	9552.93
527.508	9632.02
527.874	9692.58
528.241	9778.01
528.607	9802.41
528.973	9849.19
529.339	9845.8
529.705	9933.03
530.071	10022.29
530.437	10062.74
530.803	10124.21
531.169	10195.62
531.535	10220.03
531.901	10258.9
532.267	10284.88
532.632	10363.98
532.998	10365.56
533.364	10478.33
533.73	10481.49
534.095	10517.42
534.461	10642.84
534.826	10575.95
535.192	10655.5
535.557	10740.92
535.923	10759
536.288	10794.25
536.653	10900.46
537.019	10834.25
537.384	10881.03
537.749	10924.87
538.114	11001.25
538.479	10988.14
538.845	11093.45
539.21	11067.92
539.575	11163.51
539.94	11217.29
540.305	11265.88
540.67	11302.49
541.034	11362.82
541.399	11444.18
541.764	11484.4
542.129	11498.86
542.494	11521.91
542.858	11643.04
543.223	11548.35
543.587	11638.52
543.952	11633.55
544.316	11765.98
544.681	11755.13
545.045	11910.83
545.41	11874.45
545.774	11909.7
546.138	12043.26
546.503	12037.16
546.867	11977.5
547.231	12153.99
547.595	12146.98
547.959	12178.62
548.324	12194.44
548.688	12223.59
549.052	12323.7
549.416	12322.12
549.779	12352.85
550.143	12459.29
550.507	12386.07
550.871	12542
551.235	12573.86
551.599	12551.94
551.962	12624.71
552.326	12709.91
552.689	12788.77
553.053	12806.17
553.417	12772.96
553.78	12959.16
554.143	12873.74
554.507	12992.61
554.87	12956
555.234	13093.85
555.597	12997.58
555.96	13125.04
556.323	13152.38
556.686	13208.42
557.05	13264.24
557.413	13297.01
557.776	13385.37
558.139	13438.7
558.502	13333.62
558.865	13402.77
559.228	13566.83
559.59	13593.27
559.953	13563.89
560.316	13777.67
560.679	13673.27
561.041	13816.32
561.404	13946.03
561.767	13925.92
562.129	13897.67
562.492	14023.54
562.854	14070.1
563.217	14105.35
563.579	14112.58
563.941	14214.27
564.304	14335.63
564.666	14319.36
565.028	14374.72
565.39	14381.05
565.753	14513.25
566.115	14554.15
566.477	14524.32
566.839	14632.57
567.201	14632.12
567.563	14609.52
567.925	14753.69
568.287	14755.95
568.648	14772.45
569.01	14920.47
569.372	15078.66
569.734	15067.58
570.095	15072.56
570.457	15226.9
570.819	15210.86
571.18	15295.15
571.542	15354.13
571.903	15337.41
572.265	15445.2
572.626	15456.95
572.987	15567.46
573.349	15662.14
573.71	15796.15
574.071	15809.71
574.432	15905.98
574.794	16030.72
575.155	16075.24
575.516	16028.69
575.877	16205.18
576.238	16272.52
576.599	16376.25
576.96	16501.67
577.32	16628.22
577.681	16696.47
578.042	16876.12
578.403	16982.11
578.763	16971.26
579.124	17186.62
579.485	17342.55
579.845	17501.87
580.206	17533.96
580.566	17718.59
580.927	17823.22
581.287	18113.83
581.648	18028.18
582.008	18418
582.368	18415.97
582.728	18703.19
583.089	18859.35
583.449	18977.76
583.809	19316.51
584.169	19461.82
584.529	19549.73
584.889	19938.42
585.249	19957.85
585.609	20135.7
585.969	20550.15
586.329	20772.74
586.688	20963.93
587.048	21238.72
587.408	21303.13
587.768	21606.17
588.127	21818.82
588.487	21920.29
588.846	22404.34
589.206	22557.56
589.565	22851.79
589.925	23168.16
590.284	23359.12
590.643	23633.91
591.003	23906.45
591.362	24358.64
591.721	24545.75
592.08	24779.42
592.44	25104.16
592.799	25449.68
593.158	25642.45
593.517	26010.8
593.876	26370.11
594.235	26577.79
594.593	26766.49
594.952	27174.61
595.311	27295.29
595.67	27676.07
596.029	28096.17
596.387	28458.64
596.746	28776.6
597.104	28875.81
597.463	29116.03
597.822	29494.78
598.18	29622.91
598.538	29891.38
598.897	30379.5
599.255	30500.62
599.613	31226.93
599.972	31263.54
600.33	31558.68
600.688	31712.12
601.046	32067.59
601.404	32441.14
601.762	32548.48
602.12	33034.8
602.478	33198.63
602.836	33512.3
603.194	33526.99
603.552	33930.59
603.91	34032.96
604.268	34427.98
604.625	34483.12
604.983	34930.11
605.341	34917.23
605.698	35287.17
606.056	35605.8
606.413	35842.86
606.771	36090.99
607.128	36347.48
607.485	36355.16
607.843	36577.98
608.2	37078.76
608.557	37261.12
608.914	37315.59
609.272	37730.72
609.629	38004.16
609.986	38266.07
610.343	38226.3
610.7	38780.18
611.057	38815.66
611.414	38958.26
611.771	39087.29
612.127	39310.34
612.484	39426.04
612.841	39805.01
613.198	39726.6
613.554	39916.2
613.911	40176.53
614.267	40416.07
614.624	40451.1
614.98	40634.37
615.337	40881.37
615.693	41016.05
616.05	41064.64
616.406	41398.42
616.762	41411.3
617.118	41609.03
617.475	41531.07
617.831	41677.51
618.187	41997.72
618.543	42247.89
618.899	42406.98
619.255	42449.24
619.611	42500.76
619.967	42658.95
620.323	42971.03
620.678	42677.25
621.034	42762.22
621.39	42889.9
621.746	43004.02
622.101	43397.46
622.457	43198.6
622.812	43367.4
623.168	43574.63
623.523	43539.6
623.879	43650.34
624.234	43485.37
624.589	43630.22
624.945	43904.11
625.3	43924.9
625.655	43948.18
626.01	44026.82
626.365	44265.91
626.72	44169.19
627.075	44241.05
627.43	44224.11
627.785	44253.03
628.14	44469.07
628.495	44418
628.85	44446.92
629.205	44349.75
629.559	44689.86
629.914	44404.44
630.269	44613.02
630.623	44469.3
630.978	44359.47
631.332	44607.37
631.687	44783.41
632.041	44643.98
632.396	44695.05
632.75	44644.43
633.104	44532.35
633.459	44565.34
633.813	44437.43
634.167	44579.8
634.521	44736.86
634.875	44702.51
635.229	44566.7
635.583	44568.96
635.937	44540.48
636.291	44583.64
636.645	44549.75
636.999	44461.16
637.352	44678.78
637.706	44510.43
638.06	44680.59
638.413	44572.8
638.767	44392.69
639.121	44531.44
639.474	44387.04
639.828	44488.96
640.181	44479.24
640.534	44466.81
640.888	44352.69
641.241	44288.51
641.594	44395.17
641.947	44276.31
642.301	44268.85
642.654	44327.61
643.007	44287.61
643.36	44282.41
643.713	44214.61
644.066	44339.36
644.419	44072.7
644.771	43883.32
645.124	43480.17
645.477	43484.01
645.83	43125.38
646.182	43086.06
646.535	43039.5
646.888	43174.42
647.24	42913.18
647.593	43116.56
647.945	43012.39
648.298	42808.1
648.65	42931.94
649.002	42798.83
649.355	43043.57
649.707	42785.27
650.059	43067.98
650.411	43370.34
650.763	43558.59
651.115	43970.33
651.467	43691.92
651.819	43793.83
652.171	43784.57
652.523	43643.1
652.875	43569.43
653.227	43618.02
653.578	43821.63
653.93	43657.57
654.282	43439.04
654.633	43425.03
654.985	43607.62
655.337	43465.71
655.688	43452.6
656.039	43784.34
656.391	43210.35
656.742	43391.59
657.094	43455.99
657.445	43435.43
657.796	43439.49
658.147	43441.08
658.498	43245.37
658.849	43408.76
659.2	43335.54
659.551	43281.31
659.902	43411.25
660.253	43206.96
660.604	43217.13
660.955	43108.2
661.306	43288.31
661.656	43118.82
662.007	43335.77
662.358	43262.77
662.708	43242.44
663.059	43189.78
663.409	42886.06
663.76	43174.87
664.11	43188.88
664.461	43390.46
664.811	43255.09
665.161	43253.51
665.511	43093.97
665.862	43271.14
666.212	43257.8
666.562	43404.92
666.912	43188.65
667.262	43110.91
667.612	43051.26
667.962	43112.27
668.312	43062.78
668.662	43380.29
669.011	43078.6
669.361	43037.7
669.711	43031.37
670.06	42938.26
670.41	42788.21
670.76	42758.16
671.109	43062.55
671.459	42810.36
671.808	42837.25
672.157	42952.95
672.507	42778.72
672.856	42902.33
673.205	42712.05
673.554	42931.03
673.904	42775.1
674.253	43007.19
674.602	42862.33
674.951	42298.96
675.3	42024.39
675.649	42736.01
675.998	42659.4
676.346	42732.85
676.695	42898.04
677.044	42507.09
677.393	42674.54
677.741	42706.86
678.09	42487.88
678.438	42502.57
678.787	42670.93
679.135	42554.32
679.484	42303.48
679.832	42388.67
680.181	42203.59
680.529	42387.09
680.877	42232.52
681.225	42170.6
681.573	42321.78
681.922	42037.27
682.27	41944.17
682.618	42041.11
682.966	41945.3
683.314	41916.37
683.661	41809.25
684.009	41668.69
684.357	41728.8
684.705	41540.11
685.053	41497.17
685.4	41505.31
685.748	41388.02
686.095	41329.27
686.443	41228.03
686.79	41128.82
687.138	41327.01
687.485	41251.98
687.832	41028.03
688.18	41169.04
688.527	40840.69
688.874	40728.38
689.221	40755.27
689.568	40708.49
689.915	40563.86
690.262	40483.86
690.609	40547.37
690.956	40363.87
691.303	40264.66
691.65	40251.1
691.997	40231.22
692.344	40009.98
692.69	39871.68
693.037	39864.9
693.383	39626.26
693.73	39738.35
694.077	39507.39
694.423	39567.96
694.769	39333.61
695.116	39296.55
695.462	39203.45
695.808	39149.44
696.155	39089.1
696.501	38859.5
696.847	38939.72
697.193	38615.21
697.539	38779.95
697.885	38513.52
698.231	38278.95
698.577	38470.58
698.923	38274.66
699.269	38203.92
699.614	38029.47
699.96	37968.9
700.306	37923.71
700.651	37893.42
700.997	37829.92
701.342	37714.22
701.688	37674.9
702.033	37407.34
702.379	37422.02
702.724	37291.86
703.069	37356.49
703.415	36897.29
703.76	36900.68
704.105	37029.94
704.45	36824.75
704.795	36706.56
705.14	36544.99
705.485	36630.86
705.83	36366.91
706.175	36503.63
706.52	36233.36
706.865	36234.03
707.209	36245.78
707.554	36042.63
707.899	36235.84
708.243	36150.87
708.588	35982.97
708.932	35680.15
709.277	35550.44
709.621	35679.02
709.966	35480.83
710.31	35591.11
710.654	35296.43
710.998	35277.67
711.342	35347.5
711.687	35142.76
712.031	35101.18
712.375	34790.23
712.719	35086.04
713.063	34908.87
713.407	34954.29
713.75	34878.81
714.094	34762.21
714.438	34562.21
714.782	34759.5
715.125	34557.24
715.469	34540.97
715.812	34371.94
716.156	34205.16
716.499	34188.66
716.843	34319.73
717.186	33930.59
717.53	34094.88
717.873	34133.75
718.216	34057.59
718.559	33928.33
718.902	33636.14
719.246	33735.57
719.589	33711.39
719.932	33435.46
720.275	33585.29
720.617	33618.73
720.96	33535.35
721.303	33471.39
721.646	33389.59
721.989	33209.71
722.331	33312.98
722.674	33261.68
723.016	33270.04
723.359	33056.49
723.701	33201.34
724.044	32921.35
724.386	32833.67
724.729	32935.36
725.071	32829.15
725.413	32765.42
725.755	32707.35
726.097	32602.72
726.439	32448.82
726.782	32603.17
727.124	32566.78
727.465	32475.04
727.807	32341.03
728.149	32291.99
728.491	32268.49
728.833	32338.54
729.175	32267.13
729.516	32032.34
729.858	32210.86
730.199	31936.29
730.541	32045.89
730.882	31900.36
731.224	31978.1
731.565	31780.14
731.906	31798.44
732.248	31840.25
732.589	31708.5
732.93	31565.68
733.271	31605.68
733.612	31617.66
733.953	31682.51
734.294	31565.91
734.635	31330.89
734.976	31460.83
735.317	31306.71
735.658	31253.37
735.999	31351.9
736.339	31221.06
736.68	31306.25
737.021	31235.52
737.361	31040.72
737.702	31340.6
738.042	31046.82
738.383	31054.06
738.723	30983.32
739.063	30986.71
739.404	30913.72
739.744	30855.19
740.084	30733.84
740.424	30855.64
740.764	30670.79
741.104	30737.68
741.444	30605.03
741.784	30497.69
742.124	30569.32
742.464	30628.98
742.804	30497.91
743.143	30373.17
743.483	30292.49
743.823	30200.52
744.162	30208.43
744.502	30297.24
744.841	30081.88
745.181	30267.18
745.52	30049.56
745.86	30135.44
746.199	30031.48
746.538	30024.48
746.877	30067.64
747.216	29902.22
747.556	29889.12
747.895	29989.45
748.234	29810.25
748.573	29677.14
748.911	29754.88
749.25	29571.61
749.589	29598.5
749.928	29605.05
750.267	29539.29
750.605	29384.95
750.944	29384.72
751.283	29304.05
751.621	29517.6
751.96	29278.96
752.298	29132.98
752.636	29160.77
752.975	29021.12
753.313	28943.15
753.651	29056.14
753.989	28885.75
754.327	28816.38
754.666	28791.52
755.004	28771.86
755.342	28796.94
755.679	28697.28
756.017	28573.67
756.355	28617.06
756.693	28461.58
757.031	28514.91
757.368	28363.73
