Data from hue_00_FLMS001491_5.txt Node
Date: Mon Feb 06 15:29:11 GMT 2017
User: dcchb
Spectrometer: FLMS00149
Trigger mode: 0
Integration Time (sec): 2.000000E-2
Scans to average: 10
Electric dark correction enabled: true
Nonlinearity correction enabled: false
Boxcar width: 0
XAxis mode: Wavelengths
Number of Pixels in Spectrum: 2048
>>>>>Begin Spectral Data<<<<<
341.393	-31.57
341.776	-31.57
342.16	-31.57
342.543	-65.24
342.927	-44.9
343.31	-58.91
343.693	-56.88
344.077	-66.14
344.46	-39.7
344.843	-48.29
345.226	-62.75
345.61	-29.76
345.993	-33.6
346.376	-17.1
346.759	8.21
347.142	34.87
347.525	49.79
347.908	58.83
348.291	64.7
348.674	89.56
349.057	107.19
349.44	125.94
349.823	134.53
350.206	172.95
350.588	210.46
350.971	208.88
351.354	211.59
351.737	238.03
352.119	241.42
352.502	259.72
352.884	273.51
353.267	272.38
353.65	281.65
354.032	295.43
354.414	287.97
354.797	325.71
355.179	330.68
355.562	319.16
355.944	332.04
356.326	321.64
356.709	325.26
357.091	318.48
357.473	344.69
357.855	323.68
358.238	337.69
358.62	355.32
359.002	334.75
359.384	350.8
359.766	343.11
360.148	323.9
360.53	336.56
360.912	344.02
361.294	322.32
361.676	331.36
362.057	320.97
362.439	343.11
362.821	333.17
363.203	320.51
363.584	344.24
363.966	318.03
364.348	331.14
364.729	308.54
365.111	313.73
365.493	320.74
365.874	322.55
366.256	304.24
366.637	317.35
367.019	307.41
367.4	314.19
367.781	320.29
368.163	326.62
368.544	313.96
368.925	306.5
369.306	328.42
369.688	306.05
370.069	320.97
370.45	297.69
370.831	325.71
371.212	305.83
371.593	290.91
371.974	317.8
372.355	316.9
372.736	306.96
373.117	307.18
373.498	315.99
373.879	306.73
374.26	331.14
374.641	313.06
375.021	322.32
375.402	336.33
375.783	319.38
376.163	319.61
376.544	333.17
376.925	323.68
377.305	323.23
377.686	346.05
378.066	330.91
378.447	314.86
378.827	340.17
379.208	320.51
379.588	314.19
379.968	314.86
380.349	327.29
380.729	340.4
381.109	318.25
381.489	330.91
381.87	337.91
382.25	321.87
382.63	341.53
383.01	337.69
383.39	348.08
383.77	337.69
384.15	339.27
384.53	354.64
384.91	339.27
385.29	326.39
385.67	345.6
386.049	341.3
386.429	351.47
386.809	349.44
387.189	365.94
387.568	349.67
387.948	368.87
388.328	363.68
388.707	366.39
389.087	363.68
389.466	352.15
389.846	355.99
390.225	363
390.605	366.84
390.984	357.58
391.363	358.03
391.743	360.51
392.122	356.67
392.501	367.07
392.881	385.15
393.26	367.97
393.639	368.87
394.018	369.55
394.397	345.82
394.776	373.85
395.155	392.83
395.534	366.61
395.913	361.87
396.292	372.26
396.671	378.14
397.05	384.02
397.429	382.89
397.808	375.65
398.186	380.4
398.565	383.34
398.944	396.9
399.323	377.01
399.701	392.6
400.08	385.82
400.458	382.21
400.837	396.67
401.215	398.25
401.594	381.76
401.972	405.71
402.351	395.09
402.729	393.05
403.107	393.96
403.486	394.64
403.864	413.85
404.242	414.97
404.62	406.84
404.999	412.72
405.377	408.87
405.755	406.84
406.133	428.99
406.511	410.68
406.889	435.54
407.267	430.12
407.645	429.89
408.023	411.81
408.401	431.25
408.779	419.04
409.156	433.28
409.534	437.57
409.912	441.87
410.29	432.83
410.667	456.78
411.045	471.24
411.422	468.53
411.8	440.96
412.178	450.45
412.555	471.47
412.933	458.59
413.31	453.84
413.687	476.44
414.065	466.27
414.442	493.84
414.819	483.45
415.197	487.29
415.574	489.55
415.951	488.19
416.328	493.16
416.705	501.75
417.082	476.67
417.46	504.92
417.837	485.71
418.214	508.08
418.591	501.98
418.967	500.4
419.344	497.01
419.721	508.31
420.098	512.37
420.475	504.24
420.852	498.59
421.228	521.41
421.605	528.87
421.982	518.7
422.358	532.26
422.735	536.1
423.111	545.59
423.488	554.18
423.864	561.86
424.241	562.77
424.617	568.87
424.994	544.92
425.37	558.7
425.746	557.57
426.123	562.32
426.499	565.93
426.875	574.07
427.251	570.9
427.627	579.94
428.003	587.85
428.379	598.92
428.756	614.97
429.132	606.16
429.507	604.12
429.883	609.77
430.259	619.72
430.635	606.83
431.011	627.62
431.387	643.22
431.763	637.79
432.138	635.31
432.514	645.25
432.89	638.7
433.265	654.97
433.641	660.62
434.016	665.14
434.392	675.31
434.767	698.58
435.143	675.31
435.518	675.08
435.894	684.57
436.269	684.35
436.644	698.58
437.02	702.43
437.395	720.05
437.77	706.49
438.145	710.56
438.52	736.55
438.895	733.38
439.271	721.41
439.646	720.73
440.021	760.28
440.395	714.85
440.77	758.02
441.145	738.81
441.52	764.34
441.895	765.02
442.27	765.25
442.645	764.57
443.019	787.62
443.394	800.05
443.769	788.3
444.143	782.65
444.518	817
444.892	782.65
445.267	771.12
445.641	802.99
446.016	772.03
446.39	794.85
446.764	824
447.139	819.03
447.513	817.9
447.887	821.97
448.262	817.68
448.636	844.79
449.01	790.56
449.384	848.41
449.758	860.61
450.132	870.1
450.506	854.29
450.88	859.71
451.254	854.51
451.628	872.59
452.002	899.03
452.376	894.74
452.75	886.37
453.123	920.27
453.497	904.91
453.871	908.75
454.244	938.8
454.618	935.64
454.992	946.94
455.365	948.52
455.739	946.26
456.112	967.28
456.486	989.65
456.859	971.8
457.232	971.8
457.606	997.78
457.979	1021.74
458.352	996.43
458.725	1020.83
459.099	1045.24
459.472	1044.56
459.845	1062.64
460.218	1055.64
460.591	1082.3
460.964	1031.46
461.337	1084.11
461.71	1101.06
462.083	1097.44
462.456	1118.46
462.829	1109.87
463.201	1129.08
463.574	1129.98
463.947	1152.13
464.32	1185.8
464.692	1190.32
465.065	1199.14
465.438	1222.41
465.81	1220.6
466.183	1247.5
466.555	1263.77
466.928	1245.01
467.3	1263.54
467.672	1283.2
468.045	1316.19
468.417	1320.49
468.789	1313.93
469.161	1337.21
469.534	1356.65
469.906	1364.1
470.278	1372.01
470.65	1387.83
471.022	1398.9
471.394	1422.63
471.766	1445
472.138	1489.3
472.51	1521.84
472.882	1502.4
473.253	1532.91
473.625	1581.72
473.997	1586.7
474.369	1608.84
474.74	1617.66
475.112	1657.2
475.484	1685
475.855	1713.25
476.227	1724.32
476.598	1739.46
476.97	1766.13
477.341	1806.12
477.713	1872.79
478.084	1828.05
478.455	1920.25
478.827	1908.5
479.198	1976.74
479.569	1977.65
479.94	2043.86
480.311	2059
480.682	2103.07
481.053	2120.01
481.424	2159.56
481.795	2166.34
482.166	2178.09
482.537	2234.81
482.908	2258.99
483.279	2322.95
483.65	2382.83
484.021	2408.59
484.391	2423.06
484.762	2449.27
485.133	2533.11
485.503	2514.58
485.874	2573.34
486.244	2579.66
486.615	2636.84
486.985	2682.71
487.356	2750.05
487.726	2799.32
488.097	2822.14
488.467	2869.83
488.837	2915.7
489.207	2901.69
489.578	2992.99
489.948	3021.23
490.318	3067.56
490.688	3098.75
491.058	3118.86
491.428	3170.16
491.798	3192.76
492.168	3243.6
492.538	3266.88
492.908	3331.28
493.278	3355.91
493.648	3354.56
494.017	3390.72
494.387	3434.33
494.757	3489.24
495.126	3500.77
495.496	3514.33
495.866	3579.19
496.235	3613.53
496.605	3618.73
496.974	3646.53
497.344	3680.2
497.713	3703.48
498.082	3705.28
498.452	3795.9
498.821	3824.83
499.19	3817.6
499.559	3837.94
499.928	3875.45
500.298	3873.19
500.667	3906.63
501.036	3964.26
501.405	3968.33
501.774	3979.85
502.143	4023.92
502.512	4024.82
502.88	4073.41
503.249	4048.33
503.618	4100.53
503.987	4110.02
504.356	4178.49
504.724	4174.65
505.093	4188.21
505.462	4197.02
505.83	4211.03
506.199	4279.05
506.567	4330.13
506.936	4304.14
507.304	4350.69
507.672	4318.83
508.041	4378.94
508.409	4401.08
508.777	4436.34
509.145	4455.09
509.514	4418.03
509.882	4471.59
510.25	4489.67
510.618	4517.69
510.986	4535.32
511.354	4585.03
511.722	4588.88
512.09	4638.82
512.458	4639.27
512.826	4675.43
513.193	4680.4
513.561	4613.06
513.929	4734.86
514.297	4785.26
514.664	4785.93
515.032	4758.59
515.4	4827.97
515.767	4872.03
516.135	4826.61
516.502	4834.29
516.869	4935.76
517.237	4912.94
517.604	4909.32
517.972	4960.62
518.339	4970.34
518.706	4952.26
519.073	4989.09
519.44	5056.89
519.808	5067.06
520.175	5072.71
520.542	5076.77
520.909	5092.37
521.276	5110.22
521.643	5168.52
522.009	5189.09
522.376	5220.05
522.743	5226.15
523.11	5275.86
523.477	5322.87
523.843	5333.72
524.21	5371.23
524.577	5405.35
524.943	5444.22
525.31	5423.88
525.676	5493.03
526.043	5513.82
526.409	5523.77
526.776	5532.35
527.142	5553.14
527.508	5554.73
527.874	5641.28
528.241	5728.96
528.607	5709.53
528.973	5771.44
529.339	5784.1
529.705	5835.62
530.071	5897.54
530.437	5899.35
530.803	5895.96
531.169	5948.61
531.535	5959.69
531.901	5949.07
532.267	5990.65
532.632	6022.51
532.998	6106.12
533.364	6099.8
533.73	6113.58
534.095	6143.41
534.461	6154.71
534.826	6193.13
535.192	6261.83
535.557	6272
535.923	6297.98
536.288	6325.55
536.653	6371.88
537.019	6304.76
537.384	6372.11
537.749	6392.44
538.114	6391.09
538.479	6410.52
538.845	6459.11
539.21	6439.45
539.575	6474.48
539.94	6536.4
540.305	6592.21
540.67	6547.02
541.034	6607.35
541.399	6624.98
541.764	6690.06
542.129	6635.38
542.494	6714.47
542.858	6747.69
543.223	6736.39
543.587	6776.39
543.952	6789.27
544.316	6836.73
544.681	6800.57
545.045	6871.53
545.41	6950.17
545.774	6909.27
546.138	6959.66
546.503	6983.62
546.867	6944.52
547.231	7041.47
547.595	7096.83
547.959	7109.26
548.324	7152.65
548.688	7133.44
549.052	7182.48
549.416	7208.92
549.779	7212.54
550.143	7177.51
550.507	7254.8
550.871	7289.37
551.235	7324.62
551.599	7290.05
551.962	7315.36
552.326	7368.69
552.689	7424.06
553.053	7500.66
553.417	7455.02
553.78	7519.42
554.143	7450.95
554.507	7497.95
554.87	7513.77
555.234	7614.56
555.597	7581.34
555.96	7607.1
556.323	7696.82
556.686	7586.09
557.05	7699.08
557.413	7685.74
557.776	7703.6
558.139	7804.39
558.502	7801.9
558.865	7847.32
559.228	7862.91
559.59	7915.57
559.953	7919.86
560.316	7991.27
560.679	7940.2
561.041	8070.14
561.404	8060.2
561.767	8065.62
562.129	8085.06
562.492	8201.66
562.854	8189.23
563.217	8216.58
563.579	8236.69
563.941	8262
564.304	8247.76
564.666	8320.76
565.028	8339.29
565.39	8354.2
565.753	8419.51
566.115	8480.53
566.477	8450.7
566.839	8487.76
567.201	8588.77
567.563	8573.4
567.925	8647.53
568.287	8601.2
568.648	8633.52
569.01	8681.88
569.372	8720.75
569.734	8746.96
570.095	8815.88
570.457	8792.83
570.819	8850.01
571.18	8894.07
571.542	8872.61
571.903	8988.53
572.265	8934.75
572.626	9110.11
572.987	9070.34
573.349	9106.72
573.71	9168.19
574.071	9213.39
574.432	9306.04
574.794	9387.17
575.155	9368.86
575.516	9444.79
575.877	9499.03
576.238	9515.75
576.599	9626.71
576.96	9642.53
577.32	9735.41
577.681	9767.27
578.042	9835.74
578.403	9953.71
578.763	9969.75
579.124	10060.6
579.485	10209.97
579.845	10275.05
580.206	10393.7
580.566	10387.14
580.927	10514.82
581.287	10659.68
581.648	10734.7
582.008	10862.61
582.368	10934.7
582.728	11073.68
583.089	11154.81
583.449	11318.42
583.809	11516.6
584.169	11663.72
584.529	11688.8
584.889	11999.76
585.249	12095.35
585.609	12189.81
585.969	12434.09
586.329	12581.66
586.688	12758.83
587.048	12912.73
587.408	13081.99
587.768	13282.89
588.127	13434.07
588.487	13591.35
588.846	13911.12
589.206	14031.34
589.565	14219.58
589.925	14516.75
590.284	14733.69
590.643	15024.08
591.003	15232.21
591.362	15371.19
591.721	15658.19
592.08	15888.69
592.44	16084.17
592.799	16422.46
593.158	16520.99
593.517	16832.62
593.876	17026.74
594.235	17288.88
594.593	17606.16
594.952	17778.81
595.311	18085.24
595.67	18322.3
596.029	18743.08
596.387	18991.89
596.746	19242.73
597.104	19412.44
597.463	19677.52
597.822	20101.01
598.18	20221.23
598.538	20418.74
598.897	20740.09
599.255	20940.08
599.613	21381.88
599.972	21603.57
600.33	21945.26
600.688	22098.25
601.046	22350.9
601.404	22694.39
601.762	22839.02
602.12	23076.75
602.478	23421.83
602.836	23655.72
603.194	23768.26
603.552	24037.4
603.91	24208.25
604.268	24524.85
604.625	24697.73
604.983	25061.78
605.341	25172.06
605.698	25419.29
606.056	25797.36
606.413	25908.77
606.771	26283.45
607.128	26416.1
607.485	26497.23
607.843	26765.02
608.2	27115.06
608.557	27298.56
608.914	27329.07
609.272	27741.26
609.629	27833.24
609.986	28175.37
610.343	28249.27
610.7	28570.84
611.057	28637.28
611.414	28816.71
611.771	29089.93
612.127	29366.76
612.484	29483.36
612.841	29701.44
613.198	29758.61
613.554	29912.96
613.911	30276.34
614.267	30412.6
614.624	30543.22
614.98	30693.27
615.337	30958.13
615.693	30961.06
616.05	31094.39
616.406	31343.2
616.762	31338.68
617.118	31533.25
617.475	31594.04
617.831	31834.71
618.187	31975.05
618.543	32218.21
618.899	32348.82
619.255	32473.79
619.611	32556.95
619.967	32699.1
620.323	33040.78
620.678	32864.97
621.034	32906.55
621.39	33138.18
621.746	33098.64
622.101	33563.71
622.457	33337.95
622.812	33493.43
623.168	33621.56
623.523	33690.94
623.879	33861.78
624.234	33694.78
624.589	33950.36
624.945	33957.82
625.3	34111.49
625.655	34192.62
626.01	34286.17
626.365	34403.01
626.72	34308.77
627.075	34401.88
627.43	34490.46
627.785	34484.36
628.14	34506.73
628.495	34782.43
628.85	34685.03
629.205	34697.46
629.559	34818.36
629.914	34745.15
630.269	34837.35
630.623	34803.22
630.978	34835.09
631.332	35080.05
631.687	35044.35
632.041	34908.31
632.396	35046.15
632.75	34951.02
633.104	35012.71
633.459	34969.77
633.813	34952.37
634.167	35048.41
634.521	34957.12
634.875	34995.53
635.229	35085.7
635.583	35020.17
635.937	35065.59
636.291	35014.97
636.645	35115.76
636.999	34893.39
637.352	35085.7
637.706	34969.77
638.06	35076.21
638.413	35148.07
638.767	35029.43
639.121	35162.76
639.474	34848.87
639.828	34859.49
640.181	34956.21
640.534	35056.32
640.888	35005.93
641.241	34866.27
641.594	34785.82
641.947	35012.71
642.301	34729.78
642.654	35011.13
643.007	34951.92
643.36	35045.48
643.713	34850.45
644.066	35017.45
644.419	34830.79
644.771	34560.29
645.124	34221.54
645.477	34335.21
645.83	34034.88
646.182	33863.36
646.535	33989.91
646.888	33911.5
647.24	33825.4
647.593	34011.61
647.945	33984.04
648.298	33816.36
648.65	33779.75
649.002	33731.39
649.355	33861.78
649.707	33791.95
650.059	33860.2
650.411	34314.65
650.763	34430.35
651.115	34588.09
651.467	34549.22
651.819	34555.32
652.171	34564.81
652.523	34411.14
652.875	34521.87
653.227	34466.06
653.578	34590.35
653.93	34402.33
654.282	34309
654.633	34147.65
654.985	34354.65
655.337	34362.33
655.688	34379.73
656.039	34500.63
656.391	33986.75
656.742	34304.03
657.094	34334.99
657.445	34353.29
657.796	34340.64
658.147	34329.34
658.498	34392.39
658.849	34282.56
659.2	34139.96
659.551	34297.47
659.902	34305.61
660.253	34180.87
660.604	34278.27
660.955	34077.37
661.306	34196.23
661.656	34123.47
662.007	34171.83
662.358	34135.22
662.708	34152.84
663.059	34072.17
663.409	33949.01
663.76	34223.58
664.11	34089.34
664.461	34195.78
664.811	34129.34
665.161	34145.84
665.511	34126.4
665.862	34257.25
666.212	34185.39
666.562	34193.07
666.912	34094.32
667.262	34007.09
667.612	34026.52
667.962	34224.71
668.312	34172.73
668.662	34209.11
669.011	34108.78
669.361	34012.74
669.711	34005.73
670.06	33991.27
670.41	33887.32
670.76	33995.11
671.109	34064.49
671.459	34020.87
671.808	33791.5
672.157	34101.09
672.507	33759.63
672.856	33757.15
673.205	33880.31
673.554	33833.08
673.904	33748.79
674.253	34059.29
674.602	33896.58
674.951	33391.73
675.3	33214.11
675.649	33763.25
675.998	33680.09
676.346	33709.24
676.695	33944.04
677.044	33508.12
677.393	33697.94
677.741	33696.59
678.09	33589.24
678.438	33537.27
678.787	33693.87
679.135	33624.5
679.484	33338.4
679.832	33454.33
680.181	33350.38
680.529	33465.18
680.877	33494.33
681.225	33371.85
681.573	33576.59
681.922	33272.19
682.27	33192.42
682.618	33132.98
682.966	33104.51
683.314	33154.23
683.661	33022.25
684.009	32903.61
684.357	32908.36
684.705	32815.03
685.053	32782.71
685.4	32789.72
685.748	32702.94
686.095	32674.01
686.443	32551.76
686.79	32672.88
687.138	32559.89
687.485	32598.76
687.832	32455.71
688.18	32542.49
688.527	32314.7
688.874	32368.94
689.221	32176.85
689.568	32082.84
689.915	31992.68
690.262	32102.28
690.609	31921.72
690.956	31876.75
691.303	31736.86
691.65	31762.4
691.997	31622.97
692.344	31463.2
692.69	31492.58
693.037	31470.88
693.383	31164.22
693.73	31280.15
694.077	31196.54
694.423	31098.91
694.769	31189.31
695.116	30982.08
695.462	31004.91
695.808	30835.87
696.155	30950.22
696.501	30694.18
696.847	30717.23
697.193	30460.06
697.539	30617.12
697.885	30439.27
698.231	30372.15
698.577	30302.55
698.923	30364.92
699.269	30147.07
699.614	29889.45
699.96	29879.96
700.306	30017.13
700.651	29799.51
700.997	29724.49
701.342	29604.94
701.688	29658.27
702.033	29637.26
702.379	29567.43
702.724	29459.18
703.069	29546.64
703.415	29063.94
703.76	29240.43
704.105	29129.25
704.45	29098.51
704.795	28892.42
705.14	28826.43
705.485	28760.22
705.83	28704.4
706.175	28820.78
706.52	28594.57
706.865	28628.7
707.209	28625.08
707.554	28404.52
707.899	28526.33
708.243	28288.37
708.588	28270.29
708.932	28160.91
709.277	28150.74
709.621	28219.67
709.966	27911.88
710.31	28086.11
710.654	27753.47
710.998	27904.2
711.342	27834.59
711.687	27733.13
712.031	27565.45
712.375	27663.75
712.719	27460.82
713.063	27579.91
713.407	27519.12
713.75	27273.03
714.094	27440.71
714.438	27271.22
714.782	27341.95
715.125	27194.38
715.469	27311.89
715.812	27045.91
716.156	26930.66
716.499	26971.56
716.843	26993.26
717.186	26842.53
717.53	26929.76
717.873	26916.65
718.216	26785.36
718.559	26784.68
718.902	26529.54
719.246	26480.05
719.589	26433.73
719.932	26354.41
720.275	26507.4
720.617	26279.83
720.96	26260.4
721.303	26241.19
721.646	26328.19
721.989	26146.28
722.331	26244.8
722.674	26096.79
723.016	26127.97
723.359	26118.48
723.701	26184.69
724.044	26043.91
724.386	25699.28
724.729	26070.57
725.071	25854.31
725.413	25845.27
725.755	25680.75
726.097	25733.86
726.439	25640.98
726.782	25631.04
727.124	25815.89
727.465	25607.53
727.807	25486.41
728.149	25440.31
728.491	25496.12
728.833	25543.58
729.175	25309.91
729.516	25287.54
729.858	25293.19
730.199	25426.97
730.541	25212.52
730.882	25179.07
731.224	25305.17
731.565	25082.12
731.906	25033.99
732.248	25191.72
732.589	24989.24
732.93	24925.74
733.271	24996.02
733.612	24904.73
733.953	24892.75
734.294	24893.2
734.635	24795.8
734.976	24890.94
735.317	24635.58
735.658	24706.09
735.999	24737.5
736.339	24726.2
736.68	24584.73
737.021	24621.8
737.361	24445.3
737.702	24531.18
738.042	24498.18
738.383	24450.05
738.723	24502.93
739.063	24383.61
739.404	24405.08
739.744	24316.49
740.084	24242.15
740.424	24271.07
740.764	24144.75
741.104	24161.47
741.444	24164.18
741.784	24050.96
742.124	24087.8
742.464	24044.86
742.804	23985.2
743.143	23933.45
743.483	23925.77
743.823	23851.19
744.162	24003.51
744.502	23957.63
744.841	23939.78
745.181	23877.86
745.52	23658.66
745.86	23735.04
746.199	23769.84
746.538	23731.42
746.877	23716.51
747.216	23711.54
747.556	23667.92
747.895	23634.7
748.234	23440.58
748.573	23475.61
748.911	23420.47
749.25	23420.47
749.589	23319.46
749.928	23356.97
750.267	23342.28
750.605	23182.74
750.944	23165.56
751.283	23172.79
751.621	23171.21
751.96	23080.59
752.298	23088.5
752.636	23102.06
752.975	22883.99
753.313	22813.71
753.651	23072.68
753.989	22759.02
754.327	22810.54
754.666	22714.73
755.004	22789.08
755.342	22724.22
755.679	22657.1
756.017	22535.07
756.355	22473.83
756.693	22493.49
757.031	22392.25
757.368	22397.67
757.706	22363.55
758.044	22236.77
758.381	22280.16
758.719	22268.19
759.056	22259.82
759.394	22092.82
759.731	21927.63
760.068	22020.96
760.405	21933.73
