Data from hue_260_FLMS001491_00003.txt Node
Date: Tue Feb 07 15:58:28 GMT 2017
User: dcchb
Spectrometer: FLMS00149
Trigger mode: 0
Integration Time (sec): 2.000000E-2
Scans to average: 10
Electric dark correction enabled: true
Nonlinearity correction enabled: false
Boxcar width: 0
XAxis mode: Wavelengths
Number of Pixels in Spectrum: 2048
>>>>>Begin Spectral Data<<<<<
341.393	-4.86
341.776	-4.86
342.16	-4.86
342.543	-85.08
342.927	-53.22
343.31	-43.73
343.693	-67.91
344.077	-64.29
344.46	-77.63
344.843	-66.78
345.226	-37.17
345.61	-47.8
345.993	-12.09
346.376	10.51
346.759	7.8
347.142	23.16
347.525	36.72
347.908	66.78
348.291	68.36
348.674	105.42
349.057	98.64
349.44	122.14
349.823	132.54
350.206	132.54
350.588	194.68
350.971	189.03
351.354	215.25
351.737	237.62
352.119	235.36
352.502	244.17
352.884	276.94
353.267	265.42
353.65	278.3
354.032	270.61
354.414	291.86
354.797	302.03
355.179	304.06
355.562	304.06
355.944	342.93
356.326	329.6
356.709	324.85
357.091	308.58
357.473	337.28
357.855	323.04
358.238	318.97
358.62	351.52
359.002	330.05
359.384	331.63
359.766	337.05
360.148	318.52
360.53	333.66
360.912	327.11
361.294	318.07
361.676	334.12
362.057	338.64
362.439	331.63
362.821	299.77
363.203	305.64
363.584	312.65
363.966	326.21
364.348	321.46
364.729	298.86
365.111	309.94
365.493	328.47
365.874	295.92
366.256	304.96
366.637	316.71
367.019	304.74
367.4	307
367.781	313.1
368.163	312.65
368.544	310.61
368.925	325.98
369.306	301.35
369.688	306.77
370.069	309.48
370.45	320.56
370.831	299.54
371.212	299.99
371.593	318.07
371.974	305.42
372.355	307
372.736	307.68
373.117	319.2
373.498	309.48
373.879	322.82
374.26	320.1
374.641	315.81
375.021	304.06
375.402	304.29
375.783	325.53
376.163	326.66
376.544	309.26
376.925	334.34
377.305	313.78
377.686	303.16
378.066	323.72
378.447	323.72
378.827	299.77
379.208	303.16
379.588	318.52
379.968	329.14
380.349	326.66
380.729	332.31
381.109	318.97
381.489	344.06
381.87	341.35
382.25	344.96
382.63	323.49
383.01	326.21
383.39	343.15
383.77	347.9
384.15	324.62
384.53	340.22
384.91	344.74
385.29	344.96
385.67	351.74
386.049	348.13
386.429	345.41
386.809	341.12
387.189	346.32
387.568	335.02
387.948	358.52
388.328	355.13
388.707	334.79
389.087	376.6
389.466	367.11
389.846	382.93
390.225	354.68
390.605	372.08
390.984	365.75
391.363	376.15
391.743	380.89
392.122	365.98
392.501	354
392.881	387.9
393.26	379.09
393.639	387.22
394.018	372.08
394.397	365.3
394.776	381.35
395.155	389.26
395.534	379.54
395.913	390.84
396.292	398.29
396.671	396.49
397.05	415.47
397.429	398.07
397.808	399.65
398.186	388.8
398.565	421.8
398.944	405.3
399.323	440.55
399.701	417.73
400.08	406.43
400.458	431.29
400.837	429.71
401.215	401.91
401.594	422.93
401.972	441.68
402.351	420.67
402.729	459.31
403.107	449.59
403.486	434.23
403.864	457.5
404.242	446.43
404.62	449.14
404.999	455.24
405.377	457.05
405.755	449.82
406.133	475.81
406.511	455.47
406.889	465.64
407.267	460.67
407.645	467.45
408.023	474
408.401	497.73
408.779	497.73
409.156	495.02
409.534	498.4
409.912	515.81
410.29	521.23
410.667	510.38
411.045	537.5
411.422	521.68
411.8	548.57
412.178	549.93
412.555	575.24
412.933	558.97
413.31	575.24
413.687	589.48
414.065	596.26
414.442	600.78
414.819	585.41
415.197	588.35
415.574	607.55
415.951	634.67
416.328	645.97
416.705	639.42
417.082	649.81
417.46	665.86
417.837	645.52
418.214	644.39
418.591	665.63
418.967	667.67
419.344	687.33
419.721	708.12
420.098	706.54
420.475	715.57
420.852	712.86
421.228	726.2
421.605	751.51
421.982	764.84
422.358	765.74
422.735	762.13
423.111	766.87
423.488	794.67
423.864	804.84
424.241	820.2
424.617	829.92
424.994	818.62
425.37	855.23
425.746	837.83
426.123	843.48
426.499	878.96
426.875	866.98
427.251	903.37
427.627	882.12
428.003	927.32
428.379	937.72
428.756	930.71
429.132	936.13
429.507	979.97
429.883	961.44
430.259	990.6
430.635	948.34
431.011	1013.42
431.387	1026.53
431.763	1050.71
432.138	1034.66
432.514	1058.84
432.89	1084.6
433.265	1121.44
433.641	1115.11
434.016	1135.9
434.392	1139.74
434.767	1148.11
435.143	1207.31
435.518	1175.68
435.894	1201.66
436.269	1230.82
436.644	1239.18
437.02	1286.41
437.395	1266.52
437.77	1310.81
438.145	1326.86
438.52	1342.9
438.895	1338.61
439.271	1335.45
439.646	1365.05
440.021	1403.01
440.395	1400.53
440.77	1391.71
441.145	1456.57
441.52	1451.6
441.895	1490.24
442.27	1499.28
442.645	1497.93
443.019	1498.15
443.394	1497.7
443.769	1512.39
444.143	1514.65
444.518	1560.98
444.892	1573.4
445.267	1548.55
445.641	1574.99
446.016	1625.38
446.39	1657.47
446.764	1622.9
447.139	1610.92
447.513	1664.48
447.887	1660.86
448.262	1630.35
448.636	1650.92
449.01	1692.05
449.384	1692.72
449.758	1722.33
450.132	1734.53
450.506	1727.98
450.88	1750.12
451.254	1764.59
451.628	1791.7
452.002	1814.53
452.376	1825.6
452.75	1847.07
453.123	1831.7
453.497	1886.39
453.871	1905.37
454.244	1918.03
454.618	1906.73
454.992	1925.71
455.365	1941.08
455.739	1993.73
456.112	2012.49
456.486	2031.92
456.859	2018.37
457.232	2048.65
457.606	2074.86
457.979	2069.89
458.352	2139.49
458.725	2147.18
459.099	2138.36
459.472	2212.48
459.845	2202.31
460.218	2231.47
460.591	2280.51
460.964	2240.96
461.337	2308.98
461.71	2344.01
462.083	2377.23
462.456	2376.77
462.829	2388.98
463.201	2442.76
463.574	2486.6
463.947	2465.58
464.32	2498.35
464.692	2507.39
465.065	2564.11
465.438	2567.96
465.81	2577.9
466.183	2628.97
466.555	2655.64
466.928	2711.68
467.3	2689.31
467.672	2767.95
468.045	2803.88
468.417	2793.49
468.789	2812.24
469.161	2866.03
469.534	2898.12
469.906	2980.83
470.278	2951
470.65	2999.58
471.022	3044.1
471.394	3118
471.766	3141.05
472.138	3147.6
472.51	3216.07
472.882	3265.34
473.253	3248.16
473.625	3290.2
473.997	3391.44
474.369	3388.5
474.74	3414.49
475.112	3472.79
475.484	3524.09
475.855	3605.89
476.227	3569.06
476.598	3724.31
476.97	3721.82
477.341	3788.04
477.713	3809.28
478.084	3834.81
478.455	3921.59
478.827	3931.31
479.198	4061.25
479.569	4135.6
479.94	4158.42
480.311	4212.66
480.682	4317.97
481.053	4317.06
481.424	4409.04
481.795	4444.52
482.166	4483.38
482.537	4541.91
482.908	4620.78
483.279	4640.67
483.65	4746.88
484.021	4846.54
484.391	4854.45
484.762	4893.32
485.133	4979.87
485.503	4989.36
485.874	5133.31
486.244	5116.59
486.615	5197.72
486.985	5226.42
487.356	5364.27
487.726	5376.69
488.097	5408.78
488.467	5491.27
488.837	5599.51
489.207	5597.03
489.578	5661.43
489.948	5745.27
490.318	5791.83
490.688	5801.77
491.058	5842.9
491.428	5995.21
491.798	6011.71
492.168	6136
492.538	6139.84
492.908	6151.14
493.278	6249.21
493.648	6240.4
494.017	6346.84
494.387	6342.55
494.757	6401.98
495.126	6448.53
495.496	6496.44
495.866	6497.34
496.235	6554.06
496.605	6608.98
496.974	6618.92
497.344	6643.1
497.713	6657.11
498.082	6767.39
498.452	6832.7
498.821	6860.95
499.19	6854.4
499.559	6897.33
499.928	6956.77
500.298	6917.45
500.667	7028.85
501.036	6987.05
501.405	7118.12
501.774	7062.98
502.143	7078.12
502.512	7181.85
502.88	7156.99
503.249	7154.95
503.618	7179.59
503.987	7225.91
504.356	7283.99
504.724	7319.02
505.093	7247.61
505.462	7313.14
505.83	7377.09
506.199	7388.39
506.567	7505.45
506.936	7484.44
507.304	7489.18
507.672	7510.2
508.041	7565.79
508.409	7608.05
508.777	7650.31
509.145	7709.51
509.514	7658.44
509.882	7671.32
510.25	7688.05
510.618	7705
510.986	7752
511.354	7748.38
511.722	7847.82
512.09	7823.64
512.458	7829.96
512.826	7843.97
513.193	7886.69
513.561	7900.92
513.929	7932.56
514.297	7973.69
514.664	8029.28
515.032	8036.06
515.4	8065.66
515.767	8027.47
516.135	8117.19
516.502	7973.01
516.869	8139.79
517.237	8127.13
517.604	8152.22
517.972	8174.36
518.339	8169.84
518.706	8169.16
519.073	8201.48
519.44	8230.86
519.808	8291.19
520.175	8234.92
520.542	8394.92
520.909	8340.68
521.276	8364.64
521.643	8359.44
522.009	8386.11
522.376	8329.39
522.743	8423.62
523.11	8516.27
523.477	8515.14
523.843	8546.1
524.21	8532.77
524.577	8622.49
524.943	8539.1
525.31	8648.7
525.676	8673.78
526.043	8690.96
526.409	8746.1
526.776	8775.02
527.142	8767.57
527.508	8768.92
527.874	8841.69
528.241	8900.9
528.607	8798.75
528.973	8862.7
529.339	8829.49
529.705	8868.58
530.071	8984.74
530.437	8895.92
530.803	9010.27
531.169	8941.57
531.535	8919.88
531.901	8963.27
532.267	8972.53
532.632	9054.34
532.998	8976.15
533.364	9010.5
533.73	9016.83
534.095	9035.13
534.461	8970.72
534.826	9076.71
535.192	9079.2
535.557	9063.38
535.923	9109.93
536.288	9126.88
536.653	9125.07
537.019	9049.82
537.384	9037.84
537.749	9102.25
538.114	9071.74
538.479	9083.49
538.845	9117.16
539.21	9052.53
539.575	9037.84
539.94	9070.38
540.305	9107.22
540.67	9061.12
541.034	9025.86
541.399	9089.82
541.764	9052.76
542.129	9044.39
542.494	9091.63
542.858	9076.94
543.223	9004.62
543.587	9060.44
543.952	9075.13
544.316	9039.88
544.681	8967.56
545.045	9041.91
545.41	9123.71
545.774	9011.4
546.138	8966.66
546.503	9015.7
546.867	9007.11
547.231	9058.41
547.595	9025.64
547.959	9030.38
548.324	9018.41
548.688	9024.51
549.052	8935.47
549.416	8988.8
549.779	8989.26
550.143	8970.95
550.507	8973.66
550.871	9036.26
551.235	8982.7
551.599	8986.77
551.962	9009.37
552.326	9021.57
552.689	9068.8
553.053	8945.41
553.417	8980.67
553.78	9055.02
554.143	8966.66
554.507	8981.8
554.87	9037.16
555.234	9045.98
555.597	8999.88
555.96	8984.28
556.323	9128.46
556.686	9044.39
557.05	9092.98
557.413	9062.02
557.776	9026.09
558.139	9093.21
558.502	9069.71
558.865	9064.06
559.228	9102.47
559.59	9178.85
559.953	9123.04
560.316	9264.73
560.679	9198.97
561.041	9259.53
561.404	9215.24
561.767	9314.22
562.129	9217.27
562.492	9432.63
562.854	9266.31
563.217	9252.75
563.579	9293.65
563.941	9342.92
564.304	9326.87
564.666	9410.94
565.028	9415.91
565.39	9429.7
565.753	9457.04
566.115	9434.89
566.477	9523.7
566.839	9469.47
567.201	9595.34
567.563	9588.56
567.925	9602.57
568.287	9582.91
568.648	9534.33
569.01	9623.59
569.372	9712.4
569.734	9654.32
570.095	9690.25
570.457	9739.29
570.819	9739.29
571.18	9751.72
571.542	9827.2
571.903	9784.26
572.265	9888.44
572.626	9849.8
572.987	9943.35
573.349	9913.98
573.71	9939.51
574.071	9990.13
574.432	9954.88
574.794	10071.26
575.155	10007.76
575.516	9982.22
575.877	10177.92
576.238	10134.54
576.599	10092.73
576.96	10124.59
577.32	10177.92
577.681	10146.74
578.042	10233.97
578.403	10171.6
578.763	10223.35
579.124	10275.78
579.485	10280.97
579.845	10358.71
580.206	10302.67
580.566	10330.01
580.927	10322.33
581.287	10437.8
581.648	10396.68
582.008	10407.07
582.368	10457.24
582.728	10447.3
583.089	10452.49
583.449	10454.53
583.809	10512.15
584.169	10527.75
584.529	10517.8
584.889	10613.39
585.249	10575.43
585.609	10496.56
585.969	10645.93
586.329	10639.61
586.688	10635.77
587.048	10656.1
587.408	10678.48
587.768	10687.29
588.127	10645.26
588.487	10742.43
588.846	10716.67
589.206	10646.39
589.565	10701.3
589.925	10755.54
590.284	10788.76
590.643	10811.81
591.003	10814.29
591.362	10886.38
591.721	10844.12
592.08	10793.95
592.44	10908.07
592.799	10889.09
593.158	10860.39
593.517	10841.64
593.876	10868.3
594.235	10893.16
594.593	10928.87
594.952	10886.61
595.311	10947.85
595.67	10970.45
596.029	11006.15
596.387	10999.6
596.746	11065.81
597.104	10972.48
597.463	10977.68
597.822	10999.37
598.18	10941.97
598.538	11040.27
598.897	11086.6
599.255	10947.85
599.613	11071.91
599.972	11001.63
600.33	11045.02
600.688	11032.14
601.046	11045.47
601.404	11177.45
601.762	11049.09
602.12	11165.92
602.478	11170.21
602.836	11120.72
603.194	11136.77
603.552	11165.24
603.91	11072.82
604.268	11197.56
604.625	11074.4
604.983	11109.43
605.341	11141.06
605.698	11230.78
606.056	11252.25
606.413	11215.19
606.771	11197.78
607.128	11260.16
607.485	11130.44
607.843	11181.97
608.2	11255.64
608.557	11252.47
608.914	11197.33
609.272	11336.99
609.629	11308.74
609.986	11386.03
610.343	11339.25
610.7	11415.41
611.057	11317.33
611.414	11325.24
611.771	11372.24
612.127	11423.54
612.484	11423.32
612.841	11398.46
613.198	11450.43
613.554	11407.95
613.911	11501.05
614.267	11440.04
614.624	11455.41
614.98	11525.23
615.337	11514.39
615.693	11437.33
616.05	11471.68
616.406	11522.3
616.762	11496.53
617.118	11477.1
617.475	11501.28
617.831	11547.83
618.187	11516.42
618.543	11529.98
618.899	11629.86
619.255	11567.04
619.611	11542.86
619.967	11607.72
620.323	11628.51
620.678	11533.14
621.034	11568.17
621.39	11577.89
621.746	11515.06
622.101	11652.91
622.457	11572.46
622.812	11549.19
623.168	11634.61
623.523	11609.07
623.879	11699.69
624.234	11526.14
624.589	11556.65
624.945	11613.59
625.3	11668.96
625.655	11598.9
626.01	11569.3
626.365	11595.74
626.72	11656.76
627.075	11543.54
627.43	11517.1
627.785	11558.91
628.14	11518.23
628.495	11545.57
628.85	11582.18
629.205	11511.9
629.559	11541.73
629.914	11595.29
630.269	11486.59
630.623	11505.35
630.978	11517.55
631.332	11477.55
631.687	11543.99
632.041	11453.15
632.396	11446.37
632.75	11427.61
633.104	11493.82
633.459	11408.63
633.813	11343.77
634.167	11412.92
634.521	11339.7
634.875	11371.79
635.229	11352.36
635.583	11312.81
635.937	11328.4
636.291	11381.73
636.645	11348.06
636.999	11275.97
637.352	11356.2
637.706	11176.54
638.06	11280.04
638.413	11226.94
638.767	11154.4
639.121	11233.94
639.474	11242.76
639.828	11226.94
640.181	11185.58
640.534	11209.31
640.888	11090.22
641.241	11084.12
641.594	11210.21
641.947	11172.47
642.301	11120.27
642.654	11120.5
643.007	11065.81
643.36	11087.73
643.713	11035.98
644.066	11017.9
644.419	11021.07
644.771	10956.44
645.124	10877.57
645.477	10837.79
645.83	10788.76
646.182	10820.39
646.535	10701.07
646.888	10743.11
647.24	10660.85
647.593	10722.09
647.945	10765.25
648.298	10686.16
648.65	10645.71
649.002	10602.77
649.355	10715.99
649.707	10652.26
650.059	10744.92
650.411	10897.45
650.763	10895.42
651.115	10923.89
651.467	10889.54
651.819	10912.59
652.171	10882.09
652.523	10842.54
652.875	10851.81
653.227	10834.63
653.578	10974.97
653.93	10902.88
654.282	10859.04
654.633	10743.11
654.985	10843.9
655.337	10803.44
655.688	10928.41
656.039	10940.16
656.391	10777.46
656.742	10896.55
657.094	10879.15
657.445	10899.26
657.796	10852.26
658.147	10906.49
658.498	10792.37
658.849	10852.03
659.2	10885.7
659.551	10805.93
659.902	10896.55
660.253	10831.24
660.604	10827.4
660.955	10822.2
661.306	10889.54
661.656	10843.9
662.007	10867.85
662.358	10809.09
662.708	10852.71
663.059	10883.67
663.409	10793.73
663.76	10871.01
664.11	10903.78
664.461	10839.15
664.811	10902.2
665.161	10856.32
665.511	10794.18
665.862	10914.63
666.212	10904.23
666.562	10858.13
666.912	10885.48
667.262	10856.1
667.612	10885.7
667.962	10888.87
668.312	10938.58
668.662	10955.76
669.011	10894.06
669.361	10817
669.711	10866.04
670.06	10848.87
670.41	10824.24
670.76	10854.29
671.109	10879.6
671.459	10801.64
671.808	10786.27
672.157	10826.04
672.507	10758.02
672.856	10766.61
673.205	10754.18
673.554	10785.37
673.904	10729.1
674.253	10763.67
674.602	10763.67
674.951	10649.32
675.3	10599.83
675.649	10688.19
675.998	10682.77
676.346	10612.94
676.695	10709.44
677.044	10556.45
677.393	10647.97
677.741	10649.1
678.09	10638.7
678.438	10590.34
678.787	10664.92
679.135	10616.11
679.484	10529.55
679.832	10562.55
680.181	10442.78
680.529	10484.36
680.877	10533.85
681.225	10491.59
681.573	10559.16
681.922	10428.54
682.27	10390.57
682.618	10417.47
682.966	10445.94
683.314	10428.99
683.661	10396.9
684.009	10276.23
684.357	10321.42
684.705	10286.85
685.053	10261.54
685.4	10309.9
685.748	10275.32
686.095	10191.48
686.443	10184.03
686.79	10189.9
687.138	10155.33
687.485	10153.52
687.832	10078.94
688.18	10127.53
688.527	10051.83
688.874	10062.45
689.221	10032.84
689.568	10016.8
689.915	9942.45
690.262	9913.98
690.609	9939.29
690.956	9799.86
691.303	9860.64
691.65	9744.94
691.997	9727.09
692.344	9730.03
692.69	9679.86
693.037	9664.49
693.383	9638.73
693.73	9695
694.077	9532.52
694.423	9592.86
694.769	9527.77
695.116	9523.93
695.462	9434.44
695.808	9470.15
696.155	9453.2
696.501	9443.03
696.847	9337.27
697.193	9333.65
697.539	9383.37
697.885	9232.64
698.231	9181.79
698.577	9248.23
698.923	9171.17
699.269	9187.89
699.614	9134.11
699.96	9049.14
700.306	9086.2
700.651	9061.57
700.997	9002.59
701.342	9049.37
701.688	9017.5
702.033	8873.55
702.379	8914.91
702.724	8932.99
703.069	8924.17
703.415	8784.51
703.76	8783.61
704.105	8768.02
704.45	8775.25
704.795	8677.85
705.14	8632.43
705.485	8709.04
705.83	8594.46
706.175	8599.89
706.52	8563.28
706.865	8515.6
707.209	8570.74
707.554	8476.5
707.899	8480.12
708.243	8407.58
708.588	8365.77
708.932	8346.56
709.277	8336.62
709.621	8379.1
709.966	8278.77
710.31	8347.24
710.654	8244.19
710.998	8286.9
711.342	8252.55
711.687	8185.21
712.031	8169.39
712.375	8142.95
712.719	8190.86
713.063	8122.84
713.407	8208.26
713.75	8122.16
714.094	8129.62
714.438	8078.09
714.782	8087.13
715.125	8038.55
715.469	8083.52
715.812	8103.63
716.156	8023.18
716.499	7988.6
716.843	8043.97
717.186	7928.49
717.53	7932.79
717.873	7994.93
718.216	7963.75
718.559	7913.35
718.902	7874.71
719.246	7895.95
719.589	7858.21
719.932	7913.13
720.275	7857.53
720.617	7852.34
720.96	7804.65
721.303	7785.9
721.646	7814.82
721.989	7801.26
722.331	7787.48
722.674	7856.18
723.016	7789.51
723.359	7786.12
723.701	7767.37
724.044	7781.83
724.386	7739.8
724.729	7780.7
725.071	7748.16
725.413	7730.98
725.755	7706.8
726.097	7705.9
726.439	7651.21
726.782	7637.2
727.124	7723.53
727.465	7725.79
727.807	7625.45
728.149	7620.93
728.491	7558.56
728.833	7705.67
729.175	7600.59
729.516	7675.39
729.858	7679.91
730.199	7653.25
730.541	7633.13
730.882	7619.57
731.224	7634.26
731.565	7593.81
731.906	7560.14
732.248	7583.64
732.589	7576.86
732.93	7480.59
733.271	7556.07
733.612	7600.82
733.953	7566.02
734.294	7510.2
734.635	7538.67
734.976	7550.42
735.317	7587.94
735.658	7535.51
735.999	7557.2
736.339	7471.55
736.68	7548.62
737.021	7530.76
737.361	7460.48
737.702	7581.38
738.042	7562.4
738.383	7556.98
738.723	7564.89
739.063	7486.7
739.404	7607.14
739.744	7560.37
740.084	7580.48
740.424	7657.54
740.764	7627.71
741.104	7639.46
741.444	7610.99
741.784	7658.22
742.124	7650.53
742.464	7665.45
742.804	7613.7
743.143	7667.03
743.483	7657.09
743.823	7600.37
744.162	7719.46
744.502	7694.83
744.841	7676.75
745.181	7770.76
745.52	7751.1
745.86	7800.59
746.199	7866.57
746.538	7890.53
746.877	7921.49
747.216	7898.44
747.556	7925.78
747.895	7988.6
748.234	8035.83
748.573	8025.21
748.911	8066.12
749.25	8163.51
749.589	8129.62
749.928	8241.7
750.267	8267.92
750.605	8337.97
750.944	8351.98
751.283	8415.71
751.621	8500
751.96	8544.07
752.298	8626.55
752.636	8659.77
752.975	8721.69
753.313	8794.23
753.651	8972.31
753.989	8976.15
754.327	9125.3
754.666	9100.89
755.004	9255.24
755.342	9384.27
755.679	9403.03
756.017	9619.97
756.355	9641.44
756.693	9795.56
757.031	9858.61
757.368	9953.75
757.706	10069.23
758.044	10161.43
758.381	10311.93
758.719	10402.78
759.056	10607.29
759.394	10681.64
759.731	10807.96
760.068	10901.07
760.405	10899.04
760.743	11135.41
761.08	11271.68
761.417	11329.31
761.754	11439.81
762.091	11607.94
762.428	11715.96
762.765	11770.42
763.102	12001.15
