Data from hue_300_FLMS001491_00064.txt Node
Date: Tue Feb 07 15:51:03 GMT 2017
User: dcchb
Spectrometer: FLMS00149
Trigger mode: 0
Integration Time (sec): 2.000000E-2
Scans to average: 10
Electric dark correction enabled: true
Nonlinearity correction enabled: false
Boxcar width: 0
XAxis mode: Wavelengths
Number of Pixels in Spectrum: 2048
>>>>>Begin Spectral Data<<<<<
341.393	-5.38
341.776	-5.38
342.16	-5.38
342.543	-57.81
342.927	-76.34
343.31	-84.25
343.693	-64.59
344.077	-64.59
344.46	-58.71
344.843	-58.04
345.226	-29.79
345.61	-16.45
345.993	-1.99
346.376	12.92
346.759	-3.57
347.142	30.1
347.525	46.37
347.908	45.24
348.291	54.73
348.674	77.1
349.057	115.52
349.44	149.64
349.823	149.42
350.206	167.27
350.588	202.75
350.971	209.53
351.354	213.82
351.737	214.95
352.119	240.26
352.502	269.64
352.884	280.71
353.267	259.92
353.65	289.07
354.032	301.96
354.414	302.63
354.797	317.77
355.179	298.34
355.562	303.54
355.944	318.45
356.326	325.68
356.709	320.49
357.091	329.3
357.473	318.68
357.855	336.08
358.238	331.56
358.62	334.95
359.002	351.22
359.384	338.34
359.766	315.29
360.148	359.13
360.53	354.61
360.912	331.79
361.294	319.13
361.676	315.51
362.057	322.97
362.439	336.98
362.821	320.49
363.203	339.92
363.584	367.72
363.966	324.78
364.348	315.06
364.729	308.73
365.111	330.88
365.493	318
365.874	312.8
366.256	310.54
366.637	314.84
367.019	326.59
367.4	306.02
367.781	331.11
368.163	307.38
368.544	334.04
368.925	298.11
369.306	324.55
369.688	318.68
370.069	316.87
370.45	335.85
370.831	314.61
371.212	325.23
371.593	312.35
371.974	305.35
372.355	305.57
372.736	311.67
373.117	318.68
373.498	326.36
373.879	305.12
374.26	298.11
374.641	319.36
375.021	318.45
375.402	313.25
375.783	324.78
376.163	335.63
376.544	324.1
376.925	329.3
377.305	336.53
377.686	329.3
378.066	326.14
378.447	337.66
378.827	335.63
379.208	334.72
379.588	347.15
379.968	334.72
380.349	346.7
380.729	335.85
381.109	349.41
381.489	354.38
381.87	336.98
382.25	332.69
382.63	315.97
383.01	349.41
383.39	339.92
383.77	362.07
384.15	321.62
384.53	336.08
384.91	350.09
385.29	336.98
385.67	355.51
386.049	358.45
386.429	354.61
386.809	368.85
387.189	369.52
387.568	385.34
387.948	361.84
388.328	360.94
388.707	359.35
389.087	374.5
389.466	385.57
389.846	370.88
390.225	362.97
390.605	360.94
390.984	383.99
391.363	379.69
391.743	385.79
392.122	362.29
392.501	372.46
392.881	378.79
393.26	375.17
393.639	373.14
394.018	360.03
394.397	385.12
394.776	376.76
395.155	388.28
395.534	389.64
395.913	403.42
396.292	390.09
396.671	385.34
397.05	391.9
397.429	405.68
397.808	394.61
398.186	390.09
398.565	418.56
398.944	411.33
399.323	410.2
399.701	421.5
400.08	414.72
400.458	434.16
400.837	424.66
401.215	415.4
401.594	439.8
401.972	425.79
402.351	431.22
402.729	448.17
403.107	441.39
403.486	426.25
403.864	421.05
404.242	459.01
404.62	463.53
404.999	475.96
405.377	468.28
405.755	477.77
406.133	469.18
406.511	455.4
406.889	494.49
407.267	485.68
407.645	501.27
408.023	515.74
408.401	496.75
408.779	525.9
409.156	520.03
409.534	509.86
409.912	525.68
410.29	532.01
410.667	533.59
411.045	532.01
411.422	565.45
411.8	547.15
412.178	566.58
412.555	576.52
412.933	583.53
413.31	584.89
413.687	595.28
414.065	599.8
414.442	620.82
414.819	622.4
415.197	623.53
415.574	647.71
415.951	629.63
416.328	640.7
416.705	658.56
417.082	662.17
417.46	684.32
417.837	661.95
418.214	701.94
418.591	692.91
418.967	698.78
419.344	727.93
419.721	722.51
420.098	728.84
420.475	743.98
420.852	767.03
421.228	761.15
421.605	763.41
421.982	763.86
422.358	806.57
422.735	791.43
423.111	797.54
423.488	797.76
423.864	823.07
424.241	829.17
424.617	840.92
424.994	860.36
425.37	852.22
425.746	888.15
426.123	881.38
426.499	876.18
426.875	870.75
427.251	900.36
427.627	903.97
428.003	912.11
428.379	959.11
428.756	937.87
429.132	937.42
429.507	966.34
429.883	964.31
430.259	985.55
430.635	989.85
431.011	1021.71
431.387	1021.48
431.763	1047.7
432.138	1048.38
432.514	1045.66
432.89	1076.62
433.265	1084.31
433.641	1119.33
434.016	1109.62
434.392	1121.82
434.767	1148.71
435.143	1144.87
435.518	1144.19
435.894	1155.27
436.269	1188.71
436.644	1212.89
437.02	1217.86
437.395	1221.03
437.77	1237.75
438.145	1250.18
438.52	1228.94
438.895	1274.36
439.271	1288.82
439.646	1309.84
440.021	1273.46
440.395	1281.59
440.77	1288.6
441.145	1303.74
441.52	1328.82
441.895	1342.61
442.27	1340.8
442.645	1339.44
443.019	1337.63
443.394	1351.65
443.769	1350.52
444.143	1352.32
444.518	1342.15
444.892	1350.29
445.267	1394.81
445.641	1397.07
446.016	1381.93
446.39	1436.39
446.764	1393.9
447.139	1395.49
447.513	1422.83
447.887	1412.66
448.262	1414.02
448.636	1416.73
449.01	1442.94
449.384	1457.86
449.758	1465.31
450.132	1490.17
450.506	1478.2
450.88	1511.87
451.254	1484.07
451.628	1508.03
452.002	1510.96
452.376	1506.9
452.75	1508.93
453.123	1547.57
453.497	1546.44
453.871	1553.45
454.244	1595.71
454.618	1584.41
454.992	1611.53
455.365	1597.51
455.739	1608.36
456.112	1618.08
456.486	1652.65
456.859	1656.95
457.232	1663.05
457.606	1662.15
457.979	1665.54
458.352	1703.95
458.725	1710.96
459.099	1733.56
459.472	1750.96
459.845	1739.88
460.218	1762.48
460.591	1802.93
460.964	1778.75
461.337	1801.35
461.71	1834.12
462.083	1863.5
462.456	1860.78
462.829	1842.48
463.201	1879.77
463.574	1882.25
463.947	1886.77
464.32	1919.54
464.692	1939.65
465.065	1954.79
465.438	1971.97
465.81	1962.25
466.183	1993.44
466.555	2058.29
466.928	2020.55
467.3	2045.64
467.672	2055.81
468.045	2096.03
468.417	2119.53
468.789	2096.48
469.161	2126.31
469.534	2135.81
469.906	2146.2
470.278	2180.32
470.65	2207.44
471.022	2265.29
471.394	2262.36
471.766	2305.07
472.138	2366.76
472.51	2314.33
472.882	2369.47
473.253	2388.23
473.625	2381.22
473.997	2427.78
474.369	2437.04
474.74	2436.36
475.112	2458.06
475.484	2500.77
475.855	2552.29
476.227	2578.28
476.598	2572.18
476.97	2601.33
477.341	2672.29
477.713	2703.02
478.084	2688.11
478.455	2721.78
478.827	2775.11
479.198	2796.35
479.569	2836.58
479.94	2827.31
480.311	2874.09
480.682	2959.29
481.053	2990.7
481.424	3034.99
481.795	3046.97
482.166	3056.46
482.537	3101.66
482.908	3126.51
483.279	3184.37
483.65	3207.87
484.021	3238.83
484.391	3279.73
484.762	3267.98
485.133	3303.01
485.503	3351.14
485.874	3399.73
486.244	3417.58
486.615	3476.11
486.985	3479.72
487.356	3533.51
487.726	3596.56
488.097	3609.44
488.467	3574.86
488.837	3695.76
489.207	3709.78
489.578	3708.19
489.948	3750.23
490.318	3822.77
490.688	3787.06
491.058	3835.65
491.428	3862.31
491.798	3889.88
492.168	3972.82
492.538	3978.02
492.908	3981.18
493.278	4006.94
493.648	4048.98
494.017	4091.23
494.387	4088.52
494.757	4165.81
495.126	4188.63
495.496	4175.3
495.866	4192.02
496.235	4239.7
496.605	4264.79
496.974	4258.46
497.344	4302.53
497.713	4360.38
498.082	4368.74
498.452	4370.77
498.821	4412.58
499.19	4394.28
499.559	4465.46
499.928	4466.37
500.298	4504.78
500.667	4490.55
501.036	4456.2
501.405	4566.25
501.774	4564.67
502.143	4567.61
502.512	4589.3
502.88	4620.49
503.249	4557.66
503.618	4641.95
503.987	4626.59
504.356	4693.03
504.724	4686.7
505.093	4765.79
505.462	4730.99
505.83	4726.7
506.199	4773.93
506.567	4810.99
506.936	4808.5
507.304	4833.81
507.672	4861.84
508.041	4871.55
508.409	4850.99
508.777	4927.37
509.145	4937.77
509.514	4966.92
509.882	4956.07
510.25	4999.23
510.618	5000.81
510.986	5003.3
511.354	5032.9
511.722	5090.53
512.09	5130.75
512.458	5048.5
512.826	5096.18
513.193	5136.86
513.561	5156.74
513.929	5168.27
514.297	5181.6
514.664	5198.78
515.032	5209.17
515.4	5238.77
515.767	5222.5
516.135	5297.08
516.502	5178.89
516.869	5306.8
517.237	5284.88
517.604	5305.21
517.972	5320.13
518.339	5351.09
518.706	5380.92
519.073	5331.43
519.44	5424.53
519.808	5448.03
520.175	5417.53
520.542	5457.07
520.909	5453.01
521.276	5496.4
521.643	5530.74
522.009	5551.08
522.376	5606
522.743	5594.25
523.11	5628.37
523.477	5671.31
523.843	5682.6
524.21	5717.41
524.577	5739.55
524.943	5732.77
525.31	5792.21
525.676	5824.52
526.043	5851.64
526.409	5860.23
526.776	5871.53
527.142	5914.69
527.508	5990.39
527.874	6008.02
528.241	5986.78
528.607	6058.87
528.973	6095.93
529.339	6116.49
529.705	6122.14
530.071	6170.95
530.437	6263.83
530.803	6187.45
531.169	6298.41
531.535	6253.89
531.901	6268.8
532.267	6306.54
532.632	6365.3
532.998	6424.05
533.364	6466.31
533.73	6485.97
534.095	6482.36
534.461	6521.45
534.826	6525.29
535.192	6556.25
535.557	6545.63
535.923	6570.94
536.288	6589.7
536.653	6643.03
537.019	6650.26
537.384	6659.53
537.749	6672.18
538.114	6803.25
538.479	6788.79
538.845	6817.49
539.21	6746.76
539.575	6770.71
539.94	6913.53
540.305	6866.53
540.67	6847.77
541.034	6889.35
541.399	6940.88
541.764	6951.05
542.129	7059.97
542.494	7048.67
542.858	7051.38
543.223	7065.17
543.587	7142.45
543.952	7159.4
544.316	7150.36
544.681	7167.31
545.045	7236.46
545.41	7271.26
545.774	7258.16
546.138	7310.13
546.503	7284.6
546.867	7301.55
547.231	7367.76
547.595	7408.44
547.959	7446.17
548.324	7389.9
548.688	7475.1
549.052	7473.74
549.416	7535.66
549.779	7557.36
550.143	7546.06
550.507	7571.82
550.871	7596
551.235	7679.39
551.599	7686.62
551.962	7690.01
552.326	7729.56
552.689	7757.35
553.053	7651.37
553.417	7708.77
553.78	7813.4
554.143	7825.15
554.507	7844.36
554.87	7848.2
555.234	7914.86
555.597	7889.78
555.96	7948.99
556.323	7928.65
556.686	7927.07
557.05	8005.93
557.413	7993.5
557.776	8038.02
558.139	8076.44
558.502	8091.36
558.865	8092.48
559.228	8144.69
559.59	8137
559.953	8193.95
560.316	8279.82
560.679	8248.41
561.041	8332.93
561.404	8365.25
561.767	8423.1
562.129	8331.12
562.492	8368.86
562.854	8435.75
563.217	8429.65
563.579	8421.06
563.941	8494.06
564.304	8564.34
564.666	8612.25
565.028	8572.25
565.39	8564.34
565.753	8610.89
566.115	8566.37
566.477	8714.84
566.839	8695.41
567.201	8771.56
567.563	8748.96
567.925	8790.77
568.287	8867.38
568.648	8873.03
569.01	8955.29
569.372	8953.25
569.734	9007.72
570.095	9086.58
570.457	9038.67
570.819	9114.6
571.18	9145.79
571.542	9170.87
571.903	9280.48
572.265	9276.86
572.626	9303.53
572.987	9336.97
573.349	9351.43
573.71	9503.75
574.071	9454.48
574.432	9567.93
574.794	9689.51
575.155	9673.69
575.516	9710.97
575.877	9804.76
576.238	9859.9
576.599	9921.59
576.96	10016.28
577.32	10096.73
577.681	10100.79
578.042	10244.29
578.403	10358.87
578.763	10422.37
579.124	10488.58
579.485	10721.57
579.845	10765.18
580.206	10828.01
580.566	10893.32
580.927	11076.59
581.287	11270.93
581.648	11336.02
582.008	11531.26
582.368	11654.65
582.728	11889.22
583.089	11928.09
583.449	12130.34
583.809	12239.04
584.169	12438.36
584.529	12660.73
584.889	12953.6
585.249	12949.53
585.609	13210.99
585.969	13507.94
586.329	13644.2
586.688	13944.08
587.048	14056.62
587.408	14343.17
587.768	14601.69
588.127	14775.02
588.487	14984.28
588.846	15456.59
589.206	15526.64
589.565	15643.92
589.925	16085.27
590.284	16349.67
590.643	16586.05
591.003	16956.66
591.362	17204.56
591.721	17400.49
592.08	17708.28
592.44	18089.96
592.799	18317.98
593.158	18637.07
593.517	18852.43
593.876	19227.56
594.235	19491.73
594.593	19777.83
594.952	20141.66
595.311	20299.62
595.67	20670.01
596.029	20991.13
596.387	21335.07
596.746	21715.63
597.104	21947.26
597.463	22204.2
597.822	22492.33
598.18	22729.61
598.538	23014.58
598.897	23434.68
599.255	23579.08
599.613	24066.98
599.972	24246.86
600.33	24585.84
600.688	24765.27
601.046	25132.71
601.404	25583.78
601.762	25744.9
602.12	26178.11
602.478	26367.26
602.836	26561.15
603.194	26750.07
603.552	27059.9
603.91	27218.76
604.268	27564.74
604.625	27697.39
604.983	28103.26
605.341	28096.25
605.698	28566.97
606.056	28773.75
606.413	28860.98
606.771	29294.87
607.128	29535.54
607.485	29427.52
607.843	29810.11
608.2	30189.53
608.557	30493.03
608.914	30563.53
609.272	30976.63
609.629	31172.56
609.986	31424.98
610.343	31479.44
610.7	31849.37
611.057	32090.05
611.414	32237.84
611.771	32331.62
612.127	32733.64
612.484	32864.26
612.841	33004.15
613.198	33139.74
613.554	33300.18
613.911	33572.49
614.267	33742.21
614.624	33931.81
614.98	34017.68
615.337	34383.77
615.693	34400.27
616.05	34513.71
616.406	34800.94
616.762	34729.75
617.118	35061.72
617.475	35076.18
617.831	35261.26
618.187	35473.01
618.543	35491.09
618.899	35846.78
619.255	35798.2
619.611	35884.97
619.967	36216.27
620.323	36384.4
620.678	36390.27
621.034	36350.27
621.39	36484.51
621.746	36457.84
622.101	37032.06
622.457	36819.87
622.812	36971.05
623.168	37260.98
623.523	37284.49
623.879	37499.17
624.234	37186.18
624.589	37483.12
624.945	37583.69
625.3	37548.66
625.655	37755.66
626.01	37700.52
626.365	37805.38
626.72	37943.45
627.075	37912.27
627.43	38102.54
627.785	37968.76
628.14	38054.41
628.495	38147.06
628.85	38193.39
629.205	38057.35
629.559	38475.41
629.914	38158.14
630.269	38414.63
630.623	38386.83
630.978	38283.33
631.332	38530.78
631.687	38507.5
632.041	38346.6
632.396	38474.51
632.75	38493.27
633.104	38601.29
633.459	38563.32
633.813	38460.05
634.167	38575.98
634.521	38447.39
634.875	38726.71
635.229	38644
635.583	38229.77
635.937	38508.86
636.291	38545.02
636.645	38447.17
636.999	38525.13
637.352	38635.41
637.706	38399.71
638.06	38469.99
638.413	38476.54
638.767	38471.12
639.121	38368.98
639.474	38283.1
639.828	38311.13
640.181	38493.95
640.534	38480.84
640.888	38308.64
641.241	38220.05
641.594	38366.49
641.947	38487.84
642.301	38435.64
642.654	38373.04
643.007	38289.21
643.36	38399.48
643.713	38316.1
644.066	38471.57
644.419	38250.11
644.771	38037.23
645.124	37710.01
645.477	37601.09
645.83	37507.98
646.182	37472.05
646.535	37258.05
646.888	37303.92
647.24	37242.68
647.593	37397.25
647.945	37270.47
648.298	37172.4
648.65	37096.92
649.002	37077.71
649.355	37187.09
649.707	37177.82
650.059	37371.49
650.411	37662.33
650.763	37717.02
651.115	38079.72
651.467	38021.87
651.819	38164.91
652.171	37952.49
652.523	37964.92
652.875	37821.65
653.227	37789.56
653.578	37869.56
653.93	37948.88
654.282	37962.66
654.633	37611.71
654.985	37784.81
655.337	37784.59
655.688	37794.53
656.039	38018.48
656.391	37675.89
656.742	37783.46
657.094	37833.62
657.445	37954.07
657.796	37855.09
658.147	37720.18
658.498	37760.63
658.849	37761.54
659.2	37772.16
659.551	37601.99
659.902	37863.45
660.253	37744.36
660.604	37811.03
660.955	37641.54
661.306	37651.26
661.656	37595.44
662.007	37700.97
662.358	37578.26
662.708	37676.57
663.059	37637.24
663.409	37486.06
663.76	37790.91
664.11	37609
664.461	37743.68
664.811	37728.09
665.161	37648.32
665.511	37538.94
665.862	37633.63
666.212	37634.53
666.562	37679.73
666.912	37725.38
667.262	37697.81
667.612	37667.3
667.962	37789.78
668.312	37583.69
668.662	37770.57
669.011	37745.26
669.361	37594.76
669.711	37688.99
670.06	37589.11
670.41	37585.04
670.76	37561.77
671.109	37694.64
671.459	37475.44
671.808	37449.45
672.157	37640.41
672.507	37148.67
672.856	37304.15
673.205	37445.16
673.554	37472.73
673.904	37391.15
674.253	37459.85
674.602	37315.9
674.951	36830.94
675.3	36761.56
675.649	37244.71
675.998	37184.15
676.346	37307.08
676.695	37362.22
677.044	37016.02
677.393	37106.41
677.741	37270.47
678.09	37182.34
678.438	37050.82
678.787	37225.28
679.135	37200.42
679.484	36996.13
679.832	37052.85
680.181	36900.54
680.529	37068.45
680.877	36900.09
681.225	36724.73
681.573	37125.39
681.922	36758.4
682.27	36673.65
682.618	36720.43
682.966	36524.51
683.314	36695.12
683.661	36498.07
684.009	36435.92
684.357	36375.81
684.705	36166.1
685.053	36242.03
685.4	36265.53
685.748	36115.02
686.095	36020.56
686.443	35915.71
686.79	35854.24
687.138	35801.81
687.485	35998.19
687.832	35793.9
688.18	35827.12
688.527	35633.68
688.874	35570.86
689.221	35445.66
689.568	35416.06
689.915	35359.34
690.262	35335.38
690.609	35108.27
690.956	35090.65
691.303	35104.43
691.65	34877.54
691.997	34960.93
692.344	34848.39
692.69	34797.55
693.037	34727.94
693.383	34481.62
693.73	34559.81
694.077	34421.06
694.423	34470.77
694.769	34219.48
695.116	34233.72
695.462	34173.61
695.808	34072.14
696.155	34005.93
696.501	33694.07
696.847	33871.47
697.193	33671.47
697.539	33714.18
697.885	33458.37
698.231	33482.33
698.577	33391.71
698.923	33372.05
699.269	33257.02
699.614	32972.51
699.96	32932.51
700.306	32964.83
700.651	32796.47
700.997	32804.6
701.342	32679.18
701.688	32696.81
702.033	32602.8
702.379	32490.71
702.724	32482.8
703.069	32403.71
703.415	32033.32
703.76	32239.42
704.105	32142.25
704.45	32034.68
704.795	31974.12
705.14	31734.8
705.485	31771.64
705.83	31601.92
706.175	31748.81
706.52	31588.14
706.865	31606.44
707.209	31508.82
707.554	31264.76
707.899	31342.04
708.243	31183.86
708.588	31188.15
708.932	30962.17
709.277	31004.42
709.621	30980.02
709.966	30826.12
710.31	30891.43
710.654	30641.5
710.998	30664.77
711.342	30736.86
711.687	30509.52
712.031	30352.46
712.375	30279.25
712.719	30472.46
713.063	30298.23
713.407	30363.99
713.75	30199.7
714.094	30123.32
714.438	30054.62
714.782	30022.53
715.125	29962.19
715.469	29953.83
715.812	29836.77
716.156	29613.73
716.499	29719.94
716.843	29717
717.186	29488.53
717.53	29684.46
717.873	29646.95
718.216	29522.66
718.559	29451.25
718.902	29291.7
719.246	29326.95
719.589	29119.95
719.932	29166.28
720.275	29117.24
720.617	29195.88
720.96	29061.88
721.303	29075.44
721.646	29077.92
721.989	28841.77
722.331	28917.02
722.674	28808.78
723.016	28850.58
723.359	28715.9
723.701	28712.73
724.044	28595.9
724.386	28530.59
724.729	28486.3
725.071	28389.35
725.413	28496.24
725.755	28547.99
726.097	28287.43
726.439	28108
726.782	28255.8
727.124	28326.3
727.465	28082.02
727.807	28132.41
728.149	28109.81
728.491	28074.11
728.833	28035.01
729.175	27974.22
729.516	27875.69
729.858	27908.91
730.199	28004.73
730.541	27776.49
730.882	27862.59
731.224	27846.09
731.565	27639.99
731.906	27766.77
732.248	27691.74
732.589	27639.77
732.93	27509.6
733.271	27525.19
733.612	27654
733.953	27526.78
734.294	27435.71
734.635	27362.71
734.976	27419.89
735.317	27325.65
735.658	27280.46
735.999	27268.93
736.339	27238.2
736.68	27342.83
737.021	27270.51
737.361	27106.9
737.702	27257.18
738.042	27159.1
738.383	27092.21
738.723	27131.76
739.063	26972.67
739.404	27045.88
739.744	26869.84
740.084	26849.05
740.424	26855.16
740.764	26746.01
741.104	26892.44
741.444	26721.37
741.784	26666.23
742.124	26636.18
742.464	26742.39
742.804	26675.05
743.143	26573.13
743.483	26589.85
743.823	26443.64
744.162	26406.81
744.502	26380.37
744.841	26392.12
745.181	26407.03
745.52	26349.18
745.86	26302.18
746.199	26267.83
746.538	26304.44
746.877	26416.07
747.216	26248.39
747.556	26268.73
747.895	26213.82
748.234	26073.26
748.573	26109.86
748.911	26071
749.25	26195.96
749.589	26064.22
749.928	25994.84
750.267	26057.21
750.605	25987.16
750.944	26007.49
751.283	25840.04
751.621	25843.66
751.96	25798.23
752.298	25840.94
752.636	25885.01
752.975	25699.48
753.313	25725.69
753.651	25732.02
753.989	25487.96
754.327	25544.46
754.666	25509.65
755.004	25588.75
755.342	25555.08
755.679	25454.29
756.017	25340.84
756.355	25333.84
756.693	25285.71
757.031	25537.22
757.368	25173.17
757.706	25306.72
758.044	25235.99
758.381	25153.05
758.719	25057.46
