Data from hue_60_FLMS001491_54.txt Node
Date: Mon Feb 06 15:17:35 GMT 2017
User: dcchb
Spectrometer: FLMS00149
Trigger mode: 0
Integration Time (sec): 2.000000E-2
Scans to average: 10
Electric dark correction enabled: true
Nonlinearity correction enabled: false
Boxcar width: 0
XAxis mode: Wavelengths
Number of Pixels in Spectrum: 2048
>>>>>Begin Spectral Data<<<<<
341.393	-0.04
341.776	-0.04
342.16	-0.04
342.543	-54.96
342.927	-79.36
343.31	-77.55
343.693	-66.26
344.077	-65.58
344.46	-59.25
344.843	-56.54
345.226	-31.68
345.61	-22.87
345.993	-18.8
346.376	10.8
346.759	18.26
347.142	24.14
347.525	15.32
347.908	56.68
348.291	68.2
348.674	94.42
349.057	110.69
349.44	103.91
349.823	159.95
350.206	152.5
350.588	207.64
350.971	212.16
351.354	236.11
351.737	223.45
352.119	244.92
352.502	286.28
352.884	263.23
353.267	270.91
353.65	300.06
354.032	307.52
354.414	314.75
354.797	323.56
355.179	316.79
355.562	319.95
355.944	333.06
356.326	341.19
356.709	340.06
357.091	351.13
357.473	347.75
357.855	333.96
358.238	339.84
358.62	340.51
359.002	353.17
359.384	334.19
359.766	350.23
360.148	343.9
360.53	348.2
360.912	349.78
361.294	337.12
361.676	329.21
362.057	313.4
362.439	319.5
362.821	320.85
363.203	340.29
363.584	314.75
363.966	316.56
364.348	321.31
364.729	326.73
365.111	323.79
365.493	323.56
365.874	308.88
366.256	315.2
366.637	307.75
367.019	299.61
367.4	321.08
367.781	317.46
368.163	308.42
368.544	325.15
368.925	316.79
369.306	332.15
369.688	319.95
370.069	291.02
370.45	303.45
370.831	318.59
371.212	332.38
371.593	297.58
371.974	310.68
372.355	311.59
372.736	315.43
373.117	307.07
373.498	315.88
373.879	315.88
374.26	322.44
374.641	322.66
375.021	300.51
375.402	328.31
375.783	337.12
376.163	324.24
376.544	319.72
376.925	340.74
377.305	321.53
377.686	339.16
378.066	337.35
378.447	322.21
378.827	328.76
379.208	323.56
379.588	324.69
379.968	317.24
380.349	331.93
380.729	318.14
381.109	334.19
381.489	336.67
381.87	319.72
382.25	332.6
382.63	363.79
383.01	337.12
383.39	316.33
383.77	340.74
384.15	347.97
384.53	342.77
384.91	348.88
385.29	343
385.67	352.94
386.049	356.11
386.429	345.49
386.809	343.23
387.189	338.03
387.568	354.98
387.948	357.24
388.328	344.58
388.707	365.37
389.087	343.23
389.466	335.99
389.846	367.18
390.225	376.67
390.605	373.06
390.984	349.78
391.363	346.39
391.743	367.41
392.122	365.15
392.501	355.2
392.881	361.76
393.26	376.44
393.639	340.29
394.018	373.96
394.397	358.82
394.776	365.37
395.155	367.18
395.534	386.39
395.913	359.72
396.292	371.02
396.671	372.15
397.05	367.86
397.429	380.06
397.808	368.31
398.186	395.88
398.565	395.43
398.944	399.5
399.323	389.33
399.701	374.64
400.08	389.78
400.458	378.25
400.837	396.56
401.215	381.19
401.594	382.77
401.972	366.05
402.351	389.55
402.729	397.69
403.107	406.95
403.486	393.62
403.864	412.6
404.242	382.09
404.62	392.94
404.999	426.39
405.377	408.53
405.755	423.45
406.133	394.3
406.511	396.78
406.889	408.53
407.267	408.99
407.645	420.96
408.023	410.79
408.401	421.42
408.779	443.11
409.156	424.13
409.534	432.49
409.912	432.49
410.29	424.13
410.667	434.52
411.045	418.48
411.422	432.26
411.8	435.2
412.178	426.16
412.555	448.31
412.933	461.64
413.31	445.37
413.687	448.99
414.065	470.23
414.442	466.84
414.819	471.36
415.197	481.75
415.574	472.94
415.951	469.78
416.328	452.38
416.705	467.52
417.082	474.07
417.46	473.84
417.837	492.37
418.214	488.31
418.591	494.86
418.967	484.24
419.344	490.34
419.721	489.44
420.098	504.13
420.475	493.5
420.852	486.95
421.228	498.7
421.605	495.99
421.982	515.42
422.358	535.08
422.735	504.13
423.111	514.97
423.488	514.07
423.864	538.93
424.241	528.08
424.617	549.1
424.994	513.39
425.37	530.34
425.746	543.9
426.123	533.73
426.499	532.6
426.875	537.57
427.251	540.06
427.627	558.36
428.003	567.17
428.379	559.04
428.756	561.3
429.132	580.96
429.507	582.09
429.883	589.09
430.259	582.54
430.635	587.29
431.011	596.55
431.387	599.72
431.763	615.31
432.138	615.08
432.514	602.43
432.89	632.48
433.265	622.99
433.641	629.09
434.016	597.68
434.392	635.42
434.767	630.9
435.143	622.31
435.518	649.43
435.894	633.16
436.269	653.73
436.644	654.4
437.02	665.02
437.395	637
437.77	666.61
438.145	650.11
438.52	663.67
438.895	692.14
439.271	670
439.646	691.46
440.021	690.11
440.395	705.48
440.77	719.03
441.145	716.32
441.52	723.78
441.895	695.53
442.27	697.79
442.645	707.96
443.019	743.89
443.394	725.14
443.769	740.73
444.143	722.2
444.518	726.04
444.892	728.53
445.267	732.82
445.641	749.32
446.016	730.79
446.39	743.89
446.764	754.29
447.139	750.45
447.513	773.27
447.887	750.9
448.262	776.66
448.636	792.93
449.01	802.2
449.384	775.98
449.758	791.58
450.132	799.48
450.506	810.33
450.88	800.39
451.254	805.81
451.628	820.5
452.002	828.18
452.376	843.78
452.75	832.48
453.123	833.38
453.497	834.96
453.871	858.47
454.244	874.06
454.618	907.28
454.992	877.22
455.365	875.19
455.739	898.92
456.112	909.99
456.486	925.58
456.859	927.16
457.232	933.49
457.606	944.34
457.979	925.13
458.352	935.98
458.725	983.89
459.099	949.76
459.472	982.98
459.845	1020.27
460.218	1036.99
460.591	995.64
460.964	1016.65
461.337	1060.49
461.71	1051.91
462.083	1065.47
462.456	1090.1
462.829	1046.26
463.201	1082.19
463.574	1087.61
463.947	1123.77
464.32	1132.81
464.692	1179.81
465.065	1146.37
465.438	1199.02
465.81	1197.44
466.183	1211.9
466.555	1228.17
466.928	1236.76
467.3	1244.9
467.672	1260.94
468.045	1296.42
468.417	1295.74
468.789	1302.97
469.161	1346.81
469.534	1360.83
469.906	1424.33
470.278	1436.76
470.65	1440.6
471.022	1490.77
471.394	1515.85
471.766	1514.72
472.138	1527.38
472.51	1590.88
472.882	1607.6
473.253	1668.61
473.625	1678.33
473.997	1727.37
474.369	1746.8
474.74	1831.55
475.112	1834.94
475.484	1901.38
475.855	1931.43
476.227	1968.72
476.598	2063.86
476.97	2063.18
477.341	2102.73
477.713	2165.32
478.084	2195.83
478.455	2318.54
478.827	2338.2
479.198	2420.68
479.569	2423.85
479.94	2584.75
480.311	2619.55
480.682	2719.43
481.053	2802.37
481.424	2892.76
481.795	2957.85
482.166	3024.51
482.537	3116.26
482.908	3273.54
483.279	3319.64
483.65	3416.36
484.021	3487.32
484.391	3607.55
484.762	3704.49
485.133	3768.67
485.503	3880.31
485.874	4046.18
486.244	4119.4
486.615	4310.58
486.985	4343.57
487.356	4506.28
487.726	4629.44
488.097	4763.45
488.467	4817.01
488.837	5036.66
489.207	5138.13
489.578	5328.41
489.948	5411.57
490.318	5541.28
490.688	5678.68
491.058	5789.41
491.428	5996.18
491.798	6110.08
492.168	6317.53
492.538	6376.29
492.908	6569.95
493.278	6755.26
493.648	6795.94
494.017	6983.28
494.387	7147.34
494.757	7301.91
495.126	7473.21
495.496	7537.39
495.866	7677.72
496.235	7926.08
496.605	7978.73
496.974	8148.44
497.344	8382.11
497.713	8503.46
498.082	8670.69
498.452	8848.09
498.821	8910.91
499.19	9055.54
499.559	9227.06
499.928	9369.88
500.298	9535.75
500.667	9667.05
501.036	9716.09
501.405	9957.44
501.774	10036.98
502.143	10204.21
502.512	10310.42
502.88	10460.93
503.249	10540.7
503.618	10690.3
503.987	10817.53
504.356	10989.05
504.724	11099.55
505.093	11298.42
505.462	11365.08
505.83	11451.86
506.199	11650.05
506.567	11847.78
506.936	11930.72
507.304	12172.52
507.672	12213.2
508.041	12365.96
508.409	12522.79
508.777	12649.79
509.145	12914.42
509.514	12847.53
509.882	12993.74
510.25	13193.74
510.618	13404.8
510.986	13395.76
511.354	13690.22
511.722	13735.42
512.09	13802.98
512.458	13908.29
512.826	14194.61
513.193	14224.67
513.561	14248.62
513.929	14418.34
514.297	14680.7
514.664	14814.03
515.032	14872.56
515.4	15032.78
515.767	15047.92
516.135	15200.91
516.502	15217.64
516.869	15557.06
517.237	15628.7
517.604	15583.05
517.972	15913.66
518.339	16033.43
518.706	16029.37
519.073	16133.54
519.44	16377.15
519.808	16516.36
520.175	16556.81
520.542	16746.41
520.909	16915.22
521.276	17059.85
521.643	17235.21
522.009	17302.1
522.376	17451.25
522.743	17519.05
523.11	17840.84
523.477	17924.91
523.843	18062.99
524.21	18226.6
524.577	18322.64
524.943	18450.77
525.31	18508.62
525.676	18816.86
526.043	18936.41
526.409	18985
526.776	19346.12
527.142	19231.32
527.508	19436.96
527.874	19602.38
528.241	19737.07
528.607	19907.68
528.973	20048.92
529.339	20042.37
529.705	20198.97
530.071	20422.02
530.437	20441.91
530.803	20599.64
531.169	20711.28
531.535	20708.11
531.901	20896.36
532.267	20904.04
532.632	21102.23
532.998	21226.97
533.364	21255.9
533.73	21332.96
534.095	21548.54
534.461	21671.7
534.826	21781.08
535.192	21868.08
535.557	21986.72
535.923	22053.62
536.288	22173.84
536.653	22155.99
537.019	22158.47
537.384	22422.64
537.749	22442.08
538.114	22487.73
538.479	22496.54
538.845	22623.32
539.21	22646.59
539.575	22767.72
539.94	22868.28
540.305	23000.71
540.67	22941.28
541.034	23081.16
541.399	23181.95
541.764	23223.08
542.129	23393.47
542.494	23475.05
542.858	23520.92
543.223	23463.75
543.587	23675.27
543.952	23607.92
544.316	23903.28
544.681	23788.48
545.045	24029.16
545.41	24007.69
545.774	24190.96
546.138	24074.13
546.503	24183.05
546.867	24225.76
547.231	24437.51
547.595	24481.57
547.959	24548.46
548.324	24555.02
548.688	24720.21
549.052	24757.27
549.416	24801.57
549.779	24849.25
550.143	24957.95
550.507	25116.81
550.871	25223.25
551.235	25191.84
551.599	25448.33
551.962	25430.93
552.326	25466.18
552.689	25649.23
553.053	25559.51
553.417	25663.01
553.78	25998.6
554.143	25927.19
554.507	26104.58
554.87	26150.23
555.234	26461.63
555.597	26328.98
555.96	26372.15
556.323	26542.08
556.686	26669.99
557.05	26783.89
557.413	26860.49
557.776	26971.23
558.139	27058.23
558.502	27051.22
558.865	27212.58
559.228	27367.15
559.59	27499.12
559.953	27620.25
560.316	27959.45
560.679	27853.91
561.041	28124.64
561.404	28176.62
561.767	28382.04
562.129	28292.77
562.492	28584.06
562.854	28586.1
563.217	28677.4
563.579	28783.16
563.941	28923.49
564.304	29078.06
564.666	29207.1
565.028	29296.36
565.39	29402.8
565.753	29560.99
566.115	29556.24
566.477	29660.19
566.839	29950.81
567.201	30076.23
567.563	30189.45
567.925	30209.33
568.287	30258.37
568.648	30475.54
569.01	30551.02
569.372	30782.2
569.734	30651.13
570.095	30943.78
570.457	31044.34
570.819	31116.2
571.18	31070.78
571.542	31359.81
571.903	31342.18
572.265	31480.03
572.626	31549.86
572.987	31659.24
573.349	31727.26
573.71	31934.49
574.071	31973.81
574.432	31955.5
574.794	32247.02
575.155	32209.51
575.516	32078.21
575.877	32381.93
576.238	32258.54
576.599	32464.19
576.96	32516.62
577.32	32519.78
577.681	32626.22
578.042	32728.59
578.403	32886.78
578.763	32790.06
579.124	32886.32
579.485	32932.88
579.845	32988.92
580.206	32945.31
580.566	33102.14
580.927	33103.49
581.287	33164.28
581.648	33162.93
582.008	33275.92
582.368	33316.14
582.728	33408.57
583.089	33340.32
583.449	33290.16
583.809	33352.98
584.169	33481.79
584.529	33342.36
584.889	33601.33
585.249	33517.27
585.609	33458.29
585.969	33609.92
586.329	33549.36
586.688	33660.77
587.048	33620.77
587.408	33527.21
587.768	33490.15
588.127	33587.55
588.487	33419.42
588.846	33796.81
589.206	33592.07
589.565	33572.18
589.925	33809.46
590.284	33767.21
590.643	33739.41
591.003	33755.23
591.362	33928.78
591.721	33751.39
592.08	33792.97
592.44	33983.47
592.799	33884.49
593.158	33928.33
593.517	33891.27
593.876	34005.39
594.235	33895.11
594.593	33841.33
594.952	34176.69
595.311	33950.7
595.67	33987.09
596.029	34219.85
596.387	34274.99
596.746	34289.9
597.104	34120.64
597.463	34194.31
597.822	34398.6
598.18	34223.92
598.538	34333.07
598.897	34422.56
599.255	34198.61
599.613	34804.69
599.972	34376.23
600.33	34635.88
600.688	34351.37
601.046	34536.68
601.404	34747.97
601.762	34560.63
602.12	34836.33
602.478	34873.39
602.836	34761.08
603.194	34678.37
603.552	34790.23
603.91	34619.39
604.268	34938.47
604.625	34829.78
604.983	34957
605.341	34803.79
605.698	35036.55
606.056	35106.61
606.413	35124.01
606.771	35194.06
607.128	35269.09
607.485	35189.77
607.843	35312.7
608.2	35464.56
608.557	35579.59
608.914	35538.01
609.272	35527.16
609.629	35841.73
609.986	35804.21
610.343	35691
610.7	35926.92
611.057	35998.33
611.414	35924.44
611.771	36092.79
612.127	36070.65
612.484	36042.17
612.841	36272.45
613.198	36194.71
613.554	36185.9
613.911	36331.21
614.267	36416.85
614.624	36304.31
614.98	36322.84
615.337	36598.54
615.693	36730.07
616.05	36521.71
616.406	36784.75
616.762	36575.49
617.118	36697.52
617.475	36739.33
617.831	36962.15
618.187	36894.58
618.543	36918.53
618.899	37178.87
619.255	36978.19
619.611	37057.97
619.967	37136.16
620.323	37267.9
620.678	37102.03
621.034	37075.37
621.39	37032.2
621.746	37207.11
622.101	37565.3
622.457	37236.94
622.812	37389.03
623.168	37416.83
623.523	37474.23
623.879	37611.62
624.234	37303.38
624.589	37446.2
624.945	37600.78
625.3	37608.69
625.655	37719.87
626.01	37482.81
626.365	37604.17
626.72	37650.72
627.075	37499.99
627.43	37659.76
627.785	37557.61
628.14	37597.61
628.495	37736.14
628.85	37659.76
629.205	37497.95
629.559	37803.03
629.914	37735.46
630.269	37667.67
630.623	37582.47
630.978	37506.09
631.332	37778.4
631.687	37803.03
632.041	37678.97
632.396	37769.36
632.75	37412.31
633.104	37608.23
633.459	37468.12
633.813	37347.22
634.167	37493.66
634.521	37486.43
634.875	37410.5
635.229	37487.79
635.583	37225.19
635.937	37258.19
636.291	37205.31
636.645	37272.65
636.999	37191.07
637.352	37446.2
637.706	37155.82
638.06	37252.99
638.413	37159.21
638.767	37104.29
639.121	37133.44
639.474	36970.74
639.828	37012.54
640.181	37049.83
640.534	36999.44
640.888	36898.2
641.241	36750.86
641.594	36974.8
641.947	37044.63
642.301	36849.38
642.654	36868.14
643.007	36853.68
643.36	36772.32
643.713	36732.55
644.066	36940.46
644.419	36668.37
644.771	36269.51
645.124	35875.62
645.477	36057.09
645.83	35847.6
646.182	35763.09
646.535	35631.11
646.888	35686.93
647.24	35481.96
647.593	35698.45
647.945	35502.3
648.298	35465.47
648.65	35471.12
649.002	35205.13
649.355	35466.82
649.707	35321.06
650.059	35514.5
650.411	35966.47
650.763	35882.18
651.115	36260.93
651.467	36121.95
651.819	36137.76
652.171	36043.76
652.523	36218.44
652.875	36073.59
653.227	35870.88
653.578	36221.6
653.93	35905
654.282	35860.94
654.633	35900.71
654.985	35872.91
655.337	35827.72
655.688	35850.09
656.039	36070.65
656.391	35690.32
656.742	35788.17
657.094	35863.87
657.445	36109.74
657.796	35898
658.147	35817.09
658.498	35718.11
658.849	35857.32
659.2	35748.17
659.551	35675.63
659.902	35889.86
660.253	35808.51
660.604	35854.83
660.955	35653.48
661.306	35626.14
661.656	35679.92
662.007	35590.89
662.358	35569.19
662.708	35720.15
663.059	35649.87
663.409	35335.53
663.76	35789.07
664.11	35711.56
664.461	35598.57
664.811	35709.98
665.161	35701.62
665.511	35452.13
665.862	35551.34
666.212	35766.93
666.562	35713.82
666.912	35754.27
667.262	35577.78
667.612	35460.27
667.962	35581.62
668.312	35521.06
668.662	35611.68
669.011	35607.38
669.361	35378.91
669.711	35487.61
670.06	35367.16
670.41	35454.39
670.76	35287.84
671.109	35454.39
671.459	35376.43
671.808	35315.87
672.157	35465.24
672.507	35069.77
672.856	35183.67
673.205	35284.91
673.554	35348.18
673.904	35225.47
674.253	35477.89
674.602	35285.36
674.951	34770.79
675.3	34674.3
675.649	35171.01
675.998	35134.18
676.346	35131.24
676.695	35243.78
677.044	34910.45
677.393	35076.78
677.741	35149.54
678.09	34927.85
678.438	34858.7
678.787	35015.99
679.135	35001.3
679.484	34698.25
679.832	34841.08
680.181	34567.41
680.529	34706.62
680.877	34683.79
681.225	34642.66
681.573	34896.44
681.922	34483.57
682.27	34380.07
682.618	34599.73
682.966	34483.12
683.314	34541.87
683.661	34335.78
684.009	34300.07
684.357	34262.56
684.705	34079.06
685.053	34105.05
685.4	34084.26
685.748	34048.55
686.095	34039.51
686.443	33856.47
686.79	33819.86
687.138	33808.33
687.485	33762.23
687.832	33724.27
688.18	33839.75
688.527	33480.21
688.874	33531.51
689.221	33492.86
689.568	33392.98
689.915	33398.85
690.262	33272.53
690.609	33123.61
690.956	33011.97
691.303	33042.7
691.65	32901.69
691.997	33034.57
692.344	32729.94
692.69	32690.85
693.037	32662.83
693.383	32564.3
693.73	32562.27
694.077	32325.89
694.423	32453.79
694.769	32347.36
695.116	32175.16
695.462	32233.46
695.808	32042.28
696.155	32157.3
696.501	31892.68
696.847	31922.06
697.193	31606.36
697.539	31879.57
697.885	31589.41
698.231	31517.77
698.577	31428.28
698.923	31375.18
699.269	31242.98
699.614	31085.24
699.96	31035.98
700.306	31018.13
700.651	30939.48
700.997	30907.85
701.342	30730.68
701.688	30776.78
702.033	30703.56
702.379	30628.98
702.724	30555.31
703.069	30653.84
703.415	30227.41
703.76	30176.57
704.105	30256.34
704.45	30100.41
704.795	30042.56
705.14	30027.64
705.485	29927.31
705.83	29794.88
706.175	29849.79
706.52	29787.65
706.865	29685.05
707.209	29554.43
707.554	29560.99
707.899	29476.92
708.243	29295.68
708.588	29388.79
708.932	29152.64
709.277	29200.55
709.621	29086.2
709.966	28934.79
710.31	29124.16
710.654	28787.45
710.998	28888.92
711.342	28853.44
711.687	28752.87
712.031	28609.37
712.375	28489.38
712.719	28603.5
713.063	28533.44
713.407	28680.79
713.75	28412.09
714.094	28481.92
714.438	28291.19
714.782	28285.99
715.125	28179.33
715.469	28230.4
715.812	28003.97
716.156	27842.84
716.499	28111.99
716.843	27982.72
717.186	27714.71
717.53	27992.44
717.873	27893.46
718.216	27770.07
718.559	27638.78
718.902	27582.51
719.246	27701.15
719.589	27462.06
719.932	27459.8
720.275	27409.63
720.617	27372.8
720.96	27238.79
721.303	27287.15
721.646	27264.33
721.989	27145.46
722.331	27129.19
722.674	27035.86
723.016	27188.62
723.359	26939.36
723.701	27094.16
724.044	26759.03
724.386	26681.29
724.729	26936.88
725.071	26745.24
725.413	26721.29
725.755	26674.74
726.097	26578.02
726.439	26458.02
726.782	26546.38
727.124	26581.86
727.465	26491.24
727.807	26434.52
728.149	26359.72
728.491	26320.17
728.833	26325.59
729.175	26242.88
729.516	26272.04
729.858	26135.54
730.199	26210.12
730.541	26116.56
730.882	26084.7
731.224	26138.93
731.565	25894.64
731.906	26032.72
732.248	25901.2
732.589	25915.43
732.93	25789.34
733.271	25722.67
733.612	25743.46
733.953	25680.86
734.294	25635.44
734.635	25594.99
734.976	25787.08
735.317	25472.51
735.658	25520.87
735.999	25565.16
736.339	25465.5
736.68	25472.96
737.021	25350.48
737.361	25350.93
737.702	25583.24
738.042	25329.01
738.383	25234.32
738.723	25283.59
739.063	25208.33
739.404	25250.37
739.744	25248.11
740.084	25055.12
740.424	25056.25
740.764	24959.75
741.104	25118.17
741.444	24917.27
741.784	24867.1
742.124	24851.51
742.464	24884.73
742.804	24798.63
743.143	24853.99
743.483	24807.89
743.823	24559.09
744.162	24707.56
744.502	24729.7
744.841	24471.86
745.181	24653.77
745.52	24515.7
745.86	24504.17
746.199	24388.92
746.538	24354.12
746.877	24476.38
747.216	24447.9
747.556	24398.86
747.895	24338.98
748.234	24239.32
748.573	24244.07
748.911	24183.95
749.25	24171.07
749.589	24009.72
749.928	24015.15
750.267	24134.24
750.605	23970.63
750.944	23942.83
751.283	23833.46
751.621	23923.4
751.96	23688.83
752.298	23738.54
752.636	23806.34
752.975	23663.29
753.313	23449.06
753.651	23611.99
753.989	23478.44
754.327	23515.5
754.666	23289.97
755.004	23483.63
755.342	23337.65
755.679	23272.79
756.017	23174.72
756.355	23308.72
