Data from hue_290_FLMS001491_00004.txt Node
Date: Tue Feb 07 15:52:07 GMT 2017
User: dcchb
Spectrometer: FLMS00149
Trigger mode: 0
Integration Time (sec): 2.000000E-2
Scans to average: 10
Electric dark correction enabled: true
Nonlinearity correction enabled: false
Boxcar width: 0
XAxis mode: Wavelengths
Number of Pixels in Spectrum: 2048
>>>>>Begin Spectral Data<<<<<
341.393	-11.45
341.776	-11.45
342.16	-11.45
342.543	-51.68
342.927	-59.81
343.31	-72.24
343.693	-53.94
344.077	-70.89
344.46	-77.44
344.843	-54.39
345.226	-49.87
345.61	-30.21
345.993	-18.91
346.376	4.59
346.759	20.86
347.142	28.09
347.525	53.4
347.908	61.09
348.291	60.63
348.674	82.78
349.057	116.45
349.44	123.46
349.823	157.35
350.206	171.14
350.588	170.46
350.971	207.07
351.354	212.49
351.737	222.89
352.119	230.57
352.502	268.31
352.884	278.26
353.267	274.41
353.65	287.29
354.032	290.46
354.414	319.38
354.797	304.92
355.179	323.23
355.562	282.55
355.944	314.19
356.326	356.67
356.709	344.92
357.091	322.77
357.473	334.75
357.855	355.77
358.238	353.51
358.62	332.72
359.002	347.18
359.384	350.34
359.766	331.14
360.148	340.85
360.53	337.24
360.912	317.58
361.294	316.67
361.676	319.61
362.057	344.02
362.439	311.02
362.821	327.97
363.203	329.55
363.584	323
363.966	311.7
364.348	317.58
364.729	304.7
365.111	325.03
365.493	340.4
365.874	320.29
366.256	327.75
366.637	319.16
367.019	299.05
367.4	302.89
367.781	290.23
368.163	309.89
368.544	331.36
368.925	291.14
369.306	310.12
369.688	323.45
370.069	287.52
370.45	301.31
370.831	294.98
371.212	322.1
371.593	325.94
371.974	302.66
372.355	301.08
372.736	299.05
373.117	304.02
373.498	318.48
373.879	324.81
374.26	308.09
374.641	303.79
375.021	318.25
375.402	311.93
375.783	326.39
376.163	309.22
376.544	308.76
376.925	318.71
377.305	317.8
377.686	315.32
378.066	340.63
378.447	317.8
378.827	322.55
379.208	314.19
379.588	326.62
379.968	322.1
380.349	316.45
380.729	345.15
381.109	334.75
381.489	325.03
381.87	336.11
382.25	328.65
382.63	333.17
383.01	338.37
383.39	350.57
383.77	354.64
384.15	353.06
384.53	337.24
384.91	334.53
385.29	365.71
385.67	334.07
386.049	340.63
386.429	357.8
386.809	338.14
387.189	348.08
387.568	358.25
387.948	357.8
388.328	359.38
388.707	341.76
389.087	358.93
389.466	376.11
389.846	354.86
390.225	367.52
390.605	367.29
390.984	395.99
391.363	388.31
391.743	357.8
392.122	374.07
392.501	379.04
392.881	364.13
393.26	376.78
393.639	381.98
394.018	361.64
394.397	382.66
394.776	379.5
395.155	401.42
395.534	386.73
395.913	391.47
396.292	396.22
396.671	400.96
397.05	390.34
397.429	381.76
397.808	416.78
398.186	386.05
398.565	411.36
398.944	396.22
399.323	431.25
399.701	414.07
400.08	415.43
400.458	425.6
400.837	400.29
401.215	447.52
401.594	425.82
401.972	420.17
402.351	434.18
402.729	410.46
403.107	419.27
403.486	461.53
403.864	447.97
404.242	418.82
404.62	429.21
404.999	452.26
405.377	455.88
405.755	468.31
406.133	462.88
406.511	464.47
406.889	459.04
407.267	484.35
407.645	494.07
408.023	501.75
408.401	490.68
408.779	491.58
409.156	484.8
409.534	493.62
409.912	506.05
410.29	522.54
410.667	550.79
411.045	533.39
411.422	554.18
411.8	561.64
412.178	560.96
412.555	562.77
412.933	573.39
413.31	566.16
413.687	588.98
414.065	597.34
414.442	592.82
414.819	591.24
415.197	612.26
415.574	605.93
415.951	620.39
416.328	620.39
416.705	647.29
417.082	646.16
417.46	619.49
417.837	661.52
418.214	673.95
418.591	675.99
418.967	695.87
419.344	688.19
419.721	679.37
420.098	710.56
420.475	691.13
420.852	735.87
421.228	732.25
421.605	713.5
421.982	730.9
422.358	732.25
422.735	760.73
423.111	771.58
423.488	779.71
423.864	791.91
424.241	791.24
424.617	805.47
424.994	805.25
425.37	813.16
425.746	843.44
426.123	841.86
426.499	842.31
426.875	832.14
427.251	868.75
427.627	888.41
428.003	899.26
428.379	889.31
428.756	888.86
429.132	904.45
429.507	907.17
429.883	932.25
430.259	959.14
430.635	975.41
431.011	978.8
431.387	1004.79
431.763	1032.81
432.138	1036.88
432.514	1007.73
432.89	1045.47
433.265	1069.2
433.641	1067.39
434.016	1087.05
434.392	1090.66
434.767	1094.96
435.143	1109.65
435.518	1126.14
435.894	1139.02
436.269	1168.18
436.644	1148.74
437.02	1168.85
437.395	1186.71
437.77	1188.97
438.145	1233.03
438.52	1241.17
438.895	1228.06
439.271	1253.82
439.646	1286.82
440.021	1256.53
440.395	1288.4
440.77	1266.7
441.145	1295.86
441.52	1317.32
441.895	1324.33
442.27	1331.56
442.645	1312.8
443.019	1332.46
443.394	1321.17
443.769	1363.42
444.143	1349.87
444.518	1350.77
444.892	1374.5
445.267	1384.89
445.641	1369.07
446.016	1406.14
446.39	1416.98
446.764	1423.99
447.139	1398.23
447.513	1416.98
447.887	1434.16
448.262	1415.17
448.636	1441.16
449.01	1449.3
449.384	1456.76
449.758	1446.36
450.132	1475.06
450.506	1469.41
450.88	1512.8
451.254	1492.46
451.628	1510.99
452.002	1536.3
452.376	1545.57
452.75	1552.35
453.123	1548.28
453.497	1528.39
453.871	1562.29
454.244	1580.14
454.618	1594.15
454.992	1626.92
455.365	1603.87
455.739	1649.74
456.112	1688.84
456.486	1650.87
456.859	1659.46
457.232	1683.42
457.606	1703.53
457.979	1714.15
458.352	1748.27
458.725	1750.08
459.099	1764.54
459.472	1779.23
459.845	1809.74
460.218	1814.26
460.591	1807.71
460.964	1807.25
461.337	1834.37
461.71	1879.8
462.083	1884.31
462.456	1885.44
462.829	1915.73
463.201	1949.85
463.574	1938.32
463.947	1935.84
464.32	1990.98
464.692	1992.79
465.065	2018.32
465.438	2037.53
465.81	2077.53
466.183	2044.76
466.555	2096.96
466.928	2113.91
467.3	2120.92
467.672	2136.29
468.045	2175.83
468.417	2164.08
468.789	2163.18
469.161	2208.15
469.534	2244.76
469.906	2255.15
470.278	2252.44
470.65	2288.37
471.022	2327.47
471.394	2330.4
471.766	2362.49
472.138	2386.22
472.51	2396.84
472.882	2467.12
473.253	2466.67
473.625	2503.06
473.997	2508.25
474.369	2512.77
474.74	2554.35
475.112	2556.16
475.484	2617.18
475.855	2659.89
476.227	2659.44
476.598	2715.25
476.97	2689.49
477.341	2770.85
477.713	2812.43
478.084	2807.91
478.455	2834.8
478.827	2926.32
479.198	2961.8
479.569	2969.71
479.94	3006.09
480.311	3029.14
480.682	3079.31
481.053	3112.53
481.424	3146.2
481.795	3192.76
482.166	3226.65
482.537	3235.69
482.908	3262.58
483.279	3298.97
483.65	3354.56
484.021	3412.18
484.391	3427.55
484.762	3456.25
485.133	3472.3
485.503	3503.93
485.874	3574.21
486.244	3561.11
486.615	3644.95
486.985	3675.91
487.356	3706.87
487.726	3750.71
488.097	3769.69
488.467	3810.59
488.837	3873.19
489.207	3904.83
489.578	3949.8
489.948	3899.63
490.318	4051.72
490.688	4031.6
491.058	4043.13
491.428	4091.26
491.798	4159.06
492.168	4209.68
492.538	4224.82
492.908	4255.78
493.278	4232.28
493.648	4235.89
494.017	4348.43
494.387	4331.48
494.757	4383.23
495.126	4410.8
495.496	4416
495.866	4454.64
496.235	4440.86
496.605	4526.73
496.974	4522.89
497.344	4565.37
497.713	4556.33
498.082	4632.94
498.452	4646.73
498.821	4666.61
499.19	4630.23
499.559	4710.68
499.928	4669.33
500.298	4709.33
500.667	4720.17
501.036	4752.04
501.405	4791.81
501.774	4815.09
502.143	4823.45
502.512	4801.98
502.88	4870.45
503.249	4878.59
503.618	4894.86
503.987	4874.52
504.356	4957.91
504.724	4913.84
505.093	4937.79
505.462	4987.28
505.83	5028.41
506.199	5062.31
506.567	5089.2
506.936	5055.76
507.304	5103.21
507.672	5107.05
508.041	5131.69
508.409	5185.47
508.777	5185.92
509.145	5202.19
509.514	5185.7
509.882	5229.31
510.25	5252.81
510.618	5263.44
510.986	5276.99
511.354	5361.29
511.722	5364.22
512.09	5398.35
512.458	5398.12
512.826	5410.55
513.193	5408.29
513.561	5394.28
513.929	5415.3
514.297	5493.94
514.664	5503.43
515.032	5483.54
515.4	5488.51
515.767	5526.93
516.135	5559.7
516.502	5467.5
516.869	5560.83
517.237	5597.66
517.604	5588.4
517.972	5678.11
518.339	5699.36
518.706	5640.15
519.073	5618.68
519.44	5662.29
519.808	5684.89
520.175	5737.09
520.542	5779.13
520.909	5782.74
521.276	5796.98
521.643	5818.45
522.009	5851.44
522.376	5828.84
522.743	5918.33
523.11	5872.91
523.477	5985
523.843	5989.97
524.21	6022.74
524.577	6077.88
524.943	6080.81
525.31	6049.18
525.676	6082.4
526.043	6175.5
526.409	6141.38
526.776	6258.66
527.142	6218.89
527.508	6266.57
527.874	6229.06
528.241	6326.68
528.607	6316.97
528.973	6367.13
529.339	6371.65
529.705	6449.17
530.071	6467.7
530.437	6465.66
530.803	6485.78
531.169	6543.4
531.535	6485.1
531.901	6500.46
532.267	6564.19
532.632	6581.37
532.998	6609.16
533.364	6661.36
533.73	6623.17
534.095	6712.44
534.461	6681.48
534.826	6746.11
535.192	6803.96
535.557	6823.85
535.923	6785.2
536.288	6749.05
536.653	6798.31
537.019	6797.41
537.384	6859.78
537.749	6824.98
538.114	6923.5
538.479	6916.5
538.845	6927.35
539.21	6924.86
539.575	7011.86
539.94	6998.08
540.305	7037.63
540.67	6982.49
541.034	7028.81
541.399	7100.45
541.764	7158.07
542.129	7105.19
542.494	7094.35
542.858	7184.06
543.223	7176.61
543.587	7223.84
543.952	7159.88
544.316	7220.45
544.681	7268.35
545.045	7277.17
545.41	7324.17
545.774	7337.28
546.138	7304.74
546.503	7329.82
546.867	7391.74
547.231	7444.39
547.595	7365.75
547.959	7461.8
548.324	7452.76
548.688	7406.43
549.052	7487.33
549.416	7484.17
549.779	7558.06
550.143	7535.24
550.507	7569.36
550.871	7620.89
551.235	7592.64
551.599	7610.94
551.962	7607.33
552.326	7699.76
552.689	7712.64
553.053	7679.64
553.417	7650.72
553.78	7780.43
554.143	7710.15
554.507	7757.83
554.87	7703.6
555.234	7818.17
555.597	7814.78
555.96	7813.65
556.323	7847.32
556.686	7874.67
557.05	7853.65
557.413	7888.45
557.776	7864.04
558.139	7919.41
558.502	7967.09
558.865	8017.03
559.228	7979.52
559.59	8046.86
559.953	8067.66
560.316	8148.1
560.679	8111.04
561.041	8147.65
561.404	8180.87
561.767	8223.13
562.129	8191.27
562.492	8262.9
562.854	8238.95
563.217	8301.32
563.579	8359.17
563.941	8350.36
564.304	8427.19
564.666	8428.55
565.028	8424.03
565.39	8444.14
565.753	8481.43
566.115	8533.86
566.477	8544.03
566.839	8554.2
567.201	8653.85
567.563	8592.61
567.925	8706.73
568.287	8732.04
568.648	8726.17
569.01	8738.37
569.372	8855.21
569.734	8781.31
570.095	8874.19
570.457	8877.8
570.819	8879.39
571.18	8939.72
571.542	8976.56
571.903	8930.23
572.265	9085.71
572.626	9072.6
572.987	9091.81
573.349	9152.15
573.71	9213.39
574.071	9184.91
574.432	9237.34
574.794	9330.45
575.155	9324.35
575.516	9300.39
575.877	9395.3
576.238	9474.17
576.599	9505.13
576.96	9513.04
577.32	9600.04
577.681	9629.2
578.042	9721.17
578.403	9650.44
578.763	9704.67
579.124	9822.19
579.485	10001.84
579.845	10019.47
580.206	10017.43
580.566	10114.83
580.927	10212.91
581.287	10288.61
581.648	10292.46
582.008	10419.68
582.368	10460.59
582.728	10549.4
583.089	10589.85
583.449	10702.84
583.809	10828.49
584.169	10925.66
584.529	10938.54
584.889	11185.09
585.249	11145.77
585.609	11197.74
585.969	11411.07
586.329	11460.79
586.688	11706.88
587.048	11713.89
587.408	11790.72
587.768	11924.5
588.127	12066.65
588.487	12157.49
588.846	12405.17
589.206	12441.78
589.565	12598.16
589.925	12675.22
590.284	12820.75
590.643	12961.76
591.003	13142.1
591.362	13269.78
591.721	13374.41
592.08	13520.17
592.44	13583.67
592.799	13883.1
593.158	13911.57
593.517	14012.58
593.876	14208.96
594.235	14294.84
594.593	14411.67
594.952	14582.74
595.311	14613.47
595.67	14801.26
596.029	15025.89
596.387	15173.68
596.746	15374.36
597.104	15339.33
597.463	15521.92
597.822	15678.53
598.18	15707.45
598.538	15782.48
598.897	16025.41
599.255	16070.83
599.613	16450.26
599.972	16404.84
600.33	16562.12
600.688	16546.3
601.046	16744.04
601.404	17010.7
601.762	16962.34
602.12	17194.19
602.478	17297.69
602.836	17383.57
603.194	17418.37
603.552	17539.5
603.91	17549.21
604.268	17736.78
604.625	17858.13
604.983	17982.65
605.341	17876.89
605.698	18079.14
606.056	18276.43
606.413	18363.66
606.771	18440.49
607.128	18485.01
607.485	18522.75
607.843	18639.81
608.2	18881.38
608.557	18965.67
608.914	18912.79
609.272	19084.54
609.629	19196.18
609.986	19283.63
610.343	19257.87
610.7	19503.29
611.057	19523.17
611.414	19485.21
611.771	19635.03
612.127	19757.97
612.484	19798.87
612.841	19939.43
613.198	19893.78
613.554	19958.87
613.911	20104.4
614.267	20127.45
614.624	20132.65
614.98	20293.1
615.337	20377.84
615.693	20378.29
616.05	20374.22
616.406	20543.26
616.762	20470.94
617.118	20516.37
617.475	20541.45
617.831	20648.34
618.187	20787.09
618.543	20696.7
618.899	20974.89
619.255	20962.68
619.611	20921.33
619.967	21063.7
620.323	21121.32
620.678	21033.42
621.034	20985.96
621.39	21081.55
621.746	21103.24
622.101	21452.61
622.457	21104.37
622.812	21265.73
623.168	21383.46
623.523	21419.85
623.879	21444.7
624.234	21326.52
624.589	21529.45
624.945	21551.37
625.3	21493.29
625.655	21457.81
626.01	21531.71
626.365	21586.17
626.72	21640.86
627.075	21577.58
627.43	21649.67
627.785	21511.14
628.14	21547.53
628.495	21674.98
628.85	21674.53
629.205	21524.93
629.559	21742.55
629.914	21567.64
630.269	21640.86
630.623	21547.75
630.978	21491.48
631.332	21686.73
631.687	21737.35
632.041	21669.56
632.396	21617.81
632.75	21555.21
633.104	21595.89
633.459	21614.64
633.813	21596.56
634.167	21564.02
634.521	21485.61
634.875	21506.17
635.229	21510.24
635.583	21338.72
635.937	21482.67
636.291	21387.53
636.645	21455.55
636.999	21348.66
637.352	21352.96
637.706	21335.78
638.06	21403.12
638.413	21354.09
638.767	21380.98
639.121	21341.66
639.474	21249.46
639.828	21215.33
640.181	21295.56
640.534	21288.55
640.888	21260.98
641.241	21240.64
641.594	21173.53
641.947	21389.11
642.301	21258.49
642.654	21277.25
643.007	21298.04
643.36	21327.42
643.713	21312.05
644.066	21309.11
644.419	21145.96
644.771	21050.14
645.124	20857.6
645.477	20851.05
645.83	20681.33
646.182	20705.74
646.535	20615.57
646.888	20597.95
647.24	20548.91
647.593	20691.73
647.945	20579.87
648.298	20654.67
648.65	20502.58
649.002	20495.12
649.355	20665.52
649.707	20547.55
650.059	20683.59
650.411	20836.36
650.763	20948.9
651.115	21150.02
651.467	21086.52
651.819	21020.76
652.171	21002.23
652.523	21043.36
652.875	20927.43
653.227	20855.79
653.578	21077.03
653.93	20901.67
654.282	20917.03
654.633	20900.99
654.985	21014.66
655.337	20937.6
655.688	20868.67
656.039	21090.14
656.391	20946.19
656.742	21029.35
657.094	20914.32
657.445	21145.96
657.796	20976.24
658.147	20987.54
658.498	20891.72
658.849	21072.51
659.2	21032.51
659.551	20945.51
659.902	21160.19
660.253	20956.58
660.604	21111.61
660.955	20992.51
661.306	21027.54
661.656	21011.95
662.007	21059.18
662.358	20991.84
662.708	20979.41
663.059	21053.3
663.409	21009.91
663.76	21204.03
664.11	21104.15
664.461	21121.55
664.811	21133.98
665.161	21154.32
665.511	21026.18
665.862	21117.26
666.212	21181.21
666.562	21187.31
666.912	21123.36
667.262	21113.64
667.612	21085.17
667.962	21153.41
668.312	21004.49
668.662	21218.5
669.011	21014.66
669.361	21070.93
669.711	20991.84
670.06	21052.62
670.41	21020.08
670.76	20938.28
671.109	20990.25
671.459	21004.72
671.808	20964.27
672.157	21130.81
672.507	20769.24
672.856	20884.95
673.205	20907.09
673.554	21030.03
673.904	20919.52
674.253	21001.78
674.602	21004.04
674.951	20609.92
675.3	20511.62
675.649	20914.1
675.998	20851.73
676.346	20836.13
676.695	20959.07
677.044	20789.13
677.393	20779.86
677.741	20842.01
678.09	20760.88
678.438	20653.31
678.787	20655.8
679.135	20673.43
679.484	20612.18
679.832	20683.37
680.181	20500.32
680.529	20587.33
680.877	20542.36
681.225	20462.81
681.573	20586.87
681.922	20326.99
682.27	20388.01
682.618	20344.39
682.966	20329.25
683.314	20387.33
683.661	20348.01
684.009	20150.05
684.357	20138.52
684.705	20162.48
685.053	20063.5
685.4	20115.7
685.748	20000.22
686.095	20014.91
686.443	19898.3
686.79	19896.27
687.138	19870.28
687.485	19939.89
687.832	19781.25
688.18	19847.68
688.527	19770.85
688.874	19755.48
689.221	19671.42
689.568	19647.69
689.915	19525.66
690.262	19488.15
690.609	19476.62
690.956	19394.14
691.303	19325.21
691.65	19235.95
691.997	19310.98
692.344	19040.7
692.69	19082.73
693.037	18994.15
693.383	18960.48
693.73	18982.4
694.077	18866.02
694.423	18836.19
694.769	18744.44
695.116	18705.12
695.462	18682.74
695.808	18645
696.155	18646.36
696.501	18503.54
696.847	18550.54
697.193	18369.98
697.539	18431
697.885	18277.33
698.231	18206.82
698.577	18145.13
698.923	18118.69
699.269	18012.03
699.614	17936.77
699.96	17863.78
700.306	17898.36
700.651	17784.91
700.997	17813.16
701.342	17711.7
701.688	17685.71
702.033	17547.63
702.379	17661.3
702.724	17416.11
703.069	17535.65
703.415	17391.7
703.76	17341.54
704.105	17354.42
704.45	17241.65
704.795	17126.17
705.14	17085.5
705.485	17010.02
705.83	16938.38
706.175	16987.87
706.52	16941.09
706.865	16847.09
707.209	16766.18
707.554	16697.48
707.899	16777.26
708.243	16700.65
708.588	16661.78
708.932	16564.15
709.277	16488
709.621	16445.06
709.966	16473.99
710.31	16385.4
710.654	16266.08
710.998	16315.35
711.342	16374.78
711.687	16257.27
712.031	16231.51
712.375	16198.74
712.719	16160.1
713.063	16116.48
713.407	16160.32
713.75	16009.59
714.094	16079.87
714.438	15927.34
714.782	15989.93
715.125	15897.51
715.469	15947.9
715.812	15823.84
716.156	15675.59
716.499	15823.16
716.843	15823.16
717.186	15694.8
717.53	15754.46
717.873	15713.56
718.216	15668.36
718.559	15636.27
718.902	15553.79
719.246	15613.9
719.589	15512.21
719.932	15477.4
720.275	15448.7
720.617	15411.87
720.96	15425.2
721.303	15413
721.646	15566.21
721.989	15309.72
722.331	15437.63
722.674	15359.89
723.016	15318.31
723.359	15271.31
723.701	15320.8
724.044	15226.79
724.386	15178.65
724.729	15252.78
725.071	15232.66
725.413	15246
725.755	15198.99
726.097	15235.15
726.439	15048.04
726.782	15002.84
727.124	15270.86
727.465	15042.84
727.807	15006.46
728.149	15025.21
728.491	15010.52
728.833	15106.57
729.175	15058.88
729.516	14925.55
729.858	14982.5
730.199	15027.25
730.541	14922.16
730.882	14975.95
731.224	14990.64
731.565	14833.8
731.906	14977.3
732.248	14963.97
732.589	14873.8
732.93	14895.5
733.271	14931.2
733.612	14924.65
733.953	14946.12
734.294	14892.33
734.635	14896.4
734.976	14925.1
735.317	14947.02
735.658	14852.34
735.999	14905.67
736.339	14804.88
736.68	14851.43
737.021	14913.58
737.361	14852.34
737.702	14884.2
738.042	14890.3
738.383	14809.4
738.723	14847.59
739.063	14896.18
739.404	14903.63
739.744	14931.2
740.084	14902.5
740.424	14895.05
740.764	14886.68
741.104	15043.52
741.444	14911.32
741.784	14820.47
742.124	14936.85
742.464	14933.24
742.804	14933.46
743.143	14941.82
743.483	14944.76
743.823	14899.34
744.162	14977.3
744.502	14937.76
744.841	15051.43
745.181	15123.06
745.52	15041.71
745.86	15144.08
746.199	15152.67
746.538	15195.6
746.877	15291.65
747.216	15257.97
747.556	15407.58
747.895	15383.62
748.234	15356.28
748.573	15350.18
748.911	15470.85
749.25	15584.97
749.589	15646.66
749.928	15653.22
750.267	15808.02
750.605	15784.97
750.944	15861.12
751.283	15913.55
751.621	16026.99
751.96	16015.24
752.298	16139.08
752.636	16257.95
752.975	16269.02
753.313	16373.88
753.651	16561.67
753.989	16518.28
754.327	16545.4
754.666	16655
755.004	16856.12
755.342	16969.79
755.679	16984.26
756.017	17148.55
756.355	17349.67
756.693	17247.98
757.031	17588.31
757.368	17519.84
757.706	17656.33
758.044	17713.05
758.381	17911.01
758.719	17944.68
759.056	18132.25
759.394	18174.06
