Data from hue_350_FLMS001491_4.txt Node
Date: Mon Feb 06 15:37:28 GMT 2017
User: dcchb
Spectrometer: FLMS00149
Trigger mode: 0
Integration Time (sec): 2.000000E-2
Scans to average: 10
Electric dark correction enabled: true
Nonlinearity correction enabled: false
Boxcar width: 0
XAxis mode: Wavelengths
Number of Pixels in Spectrum: 2048
>>>>>Begin Spectral Data<<<<<
341.393	-13.63
341.776	-13.63
342.16	-13.63
342.543	-41.2
342.927	-59.73
343.31	-71.03
343.693	-63.8
344.077	-66.96
344.46	-71.48
344.843	-36.68
345.226	-51.59
345.61	-38.04
345.993	-9.79
346.376	-2.78
346.759	-14.76
347.142	26.14
347.525	54.17
347.908	59.59
348.291	64.56
348.674	100.94
349.057	121.51
349.44	129.64
349.823	145.01
350.206	166.25
350.588	197.21
350.971	214.39
351.354	217.32
351.737	235.4
352.119	252.35
352.502	267.27
352.884	274.95
353.267	265.91
353.65	286.25
354.032	294.38
354.414	305.01
354.797	307.94
355.179	295.51
355.562	302.75
355.944	341.84
356.326	334.38
356.709	340.49
357.091	319.47
357.473	334.61
357.855	324.21
358.238	354.72
358.62	330.09
359.002	339.81
359.384	319.92
359.766	345.91
360.148	349.3
360.53	319.69
360.912	314.95
361.294	318.11
361.676	316.98
362.057	323.31
362.439	329.64
362.821	322.18
363.203	329.19
363.584	316.76
363.966	321.5
364.348	336.87
364.729	323.76
365.111	317.66
365.493	313.14
365.874	299.58
366.256	321.95
366.637	310.66
367.019	284.89
367.4	303.2
367.781	320.6
368.163	318.79
368.544	312.92
368.925	298.68
369.306	321.73
369.688	291.67
370.069	306.59
370.45	291.9
370.831	298.23
371.212	295.06
371.593	296.64
371.974	313.59
372.355	307.27
372.736	305.23
373.117	325.8
373.498	310.43
373.879	313.14
374.26	289.64
374.641	300.03
375.021	320.82
375.402	324.44
375.783	322.63
376.163	330.09
376.544	323.76
376.925	334.84
377.305	315.4
377.686	327.15
378.066	312.01
378.447	330.77
378.827	312.92
379.208	327.6
379.588	305.91
379.968	343.42
380.349	310.66
380.729	333.71
381.109	336.42
381.489	329.19
381.87	325.57
382.25	320.37
382.63	337.32
383.01	322.86
383.39	343.2
383.77	340.03
384.15	342.29
384.53	344.33
384.91	342.97
385.29	325.57
385.67	345.23
386.049	339.36
386.429	329.41
386.809	344.55
387.189	351.11
387.568	348.39
387.948	360.82
388.328	345.23
388.707	361.05
389.087	352.46
389.466	357.43
389.846	347.26
390.225	363.54
390.605	346.59
390.984	354.5
391.363	361.73
391.743	376.42
392.122	364.44
392.501	349.52
392.881	385.46
393.26	385.46
393.639	381.16
394.018	358.56
394.397	359.92
394.776	371.9
395.155	371.45
395.534	361.28
395.913	370.77
396.292	379.35
396.671	405.57
397.05	371.67
397.429	380.03
397.808	383.42
398.186	378.22
398.565	379.58
398.944	377.09
399.323	382.07
399.701	387.94
400.08	378.45
400.458	369.86
400.837	401.05
401.215	397.43
401.594	382.29
401.972	390.65
402.351	391.78
402.729	405.34
403.107	409.86
403.486	414.83
403.864	412.8
404.242	395.85
404.62	403.99
404.999	403.31
405.377	415.06
405.755	420.71
406.133	420.03
406.511	396.76
406.889	416.87
407.267	410.09
407.645	440.6
408.023	423.87
408.401	458.45
408.779	421.84
409.156	437.66
409.534	455.28
409.912	441.05
410.29	438.56
410.667	455.51
411.045	461.16
411.422	452.8
411.8	448.05
412.178	479.46
412.555	481.05
412.933	461.61
413.31	483.76
413.687	480.82
414.065	497.32
414.442	486.92
414.819	486.7
415.197	498.45
415.574	499.58
415.951	499.13
416.328	516.07
416.705	521.27
417.082	502.52
417.46	503.87
417.837	515.4
418.214	512.01
418.591	539.35
418.967	529.63
419.344	525.57
419.721	547.71
420.098	523.76
420.475	528.73
420.852	527.37
421.228	566.92
421.605	547.26
421.982	575.28
422.358	542.51
422.735	571.44
423.111	586.81
423.488	553.59
423.864	575.06
424.241	569.41
424.617	606.69
424.994	573.7
425.37	564.43
425.746	575.96
426.123	577.77
426.499	579.12
426.875	592.91
427.251	592
427.627	600.82
428.003	620.93
428.379	599.46
428.756	610.76
429.132	610.76
429.507	629.97
429.883	638.78
430.259	646.92
430.635	637.43
431.011	648.05
431.387	651.66
431.763	675.62
432.138	660.93
432.514	687.37
432.89	672.91
433.265	694.37
433.641	693.47
434.016	689.4
434.392	717.42
434.767	710.87
435.143	692.79
435.518	721.72
435.894	732.79
436.269	745.45
436.644	743.86
437.02	730.08
437.395	752.45
437.77	744.32
438.145	749.97
438.52	758.55
438.895	774.6
439.271	769.63
439.646	777.31
440.021	787.71
440.395	799.46
440.77	809.63
441.145	787.48
441.52	820.02
441.895	795.39
442.27	818.89
442.645	809.63
443.019	835.16
443.394	814.37
443.769	802.17
444.143	835.61
444.518	828.38
444.892	837.65
445.267	842.62
445.641	845.56
446.016	843.07
446.39	863.41
446.764	878.55
447.139	833.58
447.513	873.13
447.887	854.6
448.262	865.22
448.636	872
449.01	915.16
449.384	896.18
449.758	903.86
450.132	919.23
450.506	894.37
450.88	889.17
451.254	927.59
451.628	928.49
452.002	920.13
452.376	939.34
452.75	970.07
453.123	936.4
453.497	931.43
453.871	988.6
454.244	970.53
454.618	989.51
454.992	1000.81
455.365	979.56
455.739	968.94
456.112	1011.2
456.486	1026.57
456.859	1039.45
457.232	1037.87
457.606	1024.99
457.979	1058.88
458.352	1070.86
458.725	1100.69
459.099	1091.88
459.472	1123.52
459.845	1118.09
460.218	1117.19
460.591	1107.92
460.964	1132.78
461.337	1161.71
461.71	1151.54
462.083	1165.32
462.456	1188.15
462.829	1179.11
463.201	1209.62
463.574	1196.51
463.947	1208.94
464.32	1235.83
464.692	1243.96
465.065	1222.72
465.438	1272.89
465.81	1297.97
466.183	1295.04
466.555	1308.6
466.928	1342.27
467.3	1337.07
467.672	1343.62
468.045	1374.36
468.417	1408.03
468.789	1379.78
469.161	1391.08
469.534	1448.93
469.906	1477.4
470.278	1486.67
470.65	1487.35
471.022	1531.41
471.394	1541.81
471.766	1544.75
472.138	1536.39
472.51	1590.62
472.882	1599.21
473.253	1609.83
473.625	1650.28
473.997	1645.99
474.369	1682.82
474.74	1724.4
475.112	1738.41
475.484	1750.17
475.855	1789.71
476.227	1798.53
476.598	1854.57
476.97	1870.39
477.341	1891.18
477.713	1947
478.084	1947.67
478.455	1995.81
478.827	2048.92
479.198	2063.15
479.569	2068.8
479.94	2141.12
480.311	2154.67
480.682	2189.02
481.053	2260.66
481.424	2302.24
481.795	2319.64
482.166	2317.16
482.537	2373.65
482.908	2430.37
483.279	2465.4
483.65	2481.9
484.021	2463.59
484.391	2594.89
484.762	2586.75
485.133	2596.92
485.503	2675.34
485.874	2728.45
486.244	2724.15
486.615	2762.79
486.985	2818.39
487.356	2885.73
487.726	2918.72
488.097	2955.56
488.467	2941.77
488.837	3040.98
489.207	3036.23
489.578	3107.19
489.948	3141.77
490.318	3218.6
490.688	3217.7
491.058	3243.01
491.428	3309.9
491.798	3313.74
492.168	3397.81
492.538	3451.59
492.908	3464.02
493.278	3506.05
493.648	3510.57
494.017	3571.81
494.387	3596.22
494.757	3666.73
495.126	3665.6
495.496	3715.54
495.866	3745.14
496.235	3766.16
496.605	3782.2
496.974	3805.48
497.344	3868.3
497.713	3853.61
498.082	3887.51
498.452	3937
498.821	3983.55
499.19	3975.19
499.559	3974.29
499.928	4030.11
500.298	4052.25
500.667	4064.91
501.036	4111.01
501.405	4137.67
501.774	4135.87
502.143	4203.21
502.512	4201.85
502.88	4259.25
503.249	4238.91
503.618	4265.35
503.987	4341.96
504.356	4334.73
504.724	4304.45
505.093	4362.75
505.462	4376.09
505.83	4422.19
506.199	4413.82
506.567	4504.44
506.936	4489.3
507.304	4537.89
507.672	4587.38
508.041	4513.03
508.409	4559.36
508.777	4601.84
509.145	4661.73
509.514	4654.95
509.882	4642.75
510.25	4677.55
510.618	4675.29
510.986	4730.43
511.354	4787.83
511.722	4759.58
512.09	4866.02
512.458	4795.51
512.826	4873.02
513.193	4882.29
513.561	4875.28
513.929	4879.35
514.297	4912.57
514.664	4940.14
515.032	4958.44
515.4	4962.96
515.767	5017.65
516.135	5038.44
516.502	5021.27
516.869	5068.04
517.237	5082.06
517.604	5093.13
517.972	5098.1
518.339	5126.35
518.706	5169.28
519.073	5157.99
519.44	5195.95
519.808	5210.19
520.175	5190.08
520.542	5284.54
520.909	5310.75
521.276	5291.77
521.643	5353.46
522.009	5382.16
522.376	5378.55
522.743	5387.81
523.11	5402.95
523.477	5467.81
523.843	5464.64
524.21	5557.07
524.577	5583.74
524.943	5621.48
525.31	5630.06
525.676	5637.97
526.043	5714.58
526.409	5735.6
526.776	5693.79
527.142	5752.55
527.508	5791.64
527.874	5833.45
528.241	5831.41
528.607	5918.19
528.973	5920.23
529.339	5943.05
529.705	5998.87
530.071	6052.88
530.437	6008.58
530.803	6078.64
531.169	6124.29
531.535	6118.19
531.901	6127.9
532.267	6190.73
532.632	6221.23
532.998	6195.25
533.364	6258.75
533.73	6244.96
534.095	6328.12
534.461	6335.58
534.826	6367.22
535.192	6428.46
535.557	6459.19
535.923	6447.9
536.288	6509.14
536.653	6541
537.019	6528.8
537.384	6529.7
537.749	6593.65
538.114	6599.08
538.479	6596.59
538.845	6642.47
539.21	6566.76
539.575	6671.39
539.94	6687.44
540.305	6705.97
540.67	6733.54
541.034	6758.4
541.399	6833.65
541.764	6855.79
542.129	6897.6
542.494	6868.22
542.858	6917.71
543.223	6899.41
543.587	7007.2
543.952	7010.37
544.316	7031.61
544.681	7049.91
545.045	7079.29
545.41	7130.59
545.774	7203.81
546.138	7183.92
546.503	7180.53
546.867	7193.19
547.231	7205.16
547.595	7248.55
547.959	7256.69
548.324	7284.48
548.688	7341.66
549.052	7391.6
549.416	7397.25
549.779	7351.15
550.143	7364.03
550.507	7499.85
550.871	7503.69
551.235	7496.91
551.599	7565.83
551.962	7529.45
552.326	7614.19
552.689	7641.76
553.053	7608.77
553.417	7626.62
553.78	7665.72
554.143	7677.02
554.507	7752.49
554.87	7748.43
555.234	7847.18
555.597	7793.62
555.96	7804.47
556.323	7831.14
556.686	7827.29
557.05	7970.34
557.413	7905.26
557.776	7902.32
558.139	8023.9
558.502	7966.5
558.865	8055.31
559.228	8015.31
559.59	8097.57
559.953	8151.35
560.316	8199.94
560.679	8159.49
561.041	8217.57
561.404	8344.12
561.767	8302.31
562.129	8291.01
562.492	8359.94
562.854	8397.67
563.217	8386.15
563.579	8365.59
563.941	8420.27
564.304	8462.98
564.666	8464.34
565.028	8534.17
565.39	8539.59
565.753	8601.51
566.115	8600.83
566.477	8677.67
566.839	8643.77
567.201	8785.01
567.563	8720.38
567.925	8740.49
568.287	8893.25
568.648	8869.07
569.01	8784.33
569.372	8915.63
569.734	8879.92
570.095	9025.23
570.457	9059.35
570.819	8997.43
571.18	9165.79
571.542	9195.62
571.903	9197.65
572.265	9222.51
572.626	9227.71
572.987	9263.19
573.349	9348.84
573.71	9463.64
574.071	9514.26
574.432	9546.35
574.794	9566.23
575.155	9641.71
575.516	9691.43
575.877	9688.94
576.238	9778.2
576.599	9815.94
576.96	9941.14
577.32	9964.87
577.681	10081.25
578.042	10083.05
578.403	10214.58
578.763	10310.84
579.124	10353.33
579.485	10547
579.845	10530.95
580.206	10699.31
580.566	10796.26
580.927	10873.09
581.287	11036.48
581.648	11066.08
582.008	11238.5
582.368	11310.14
582.728	11530.7
583.089	11611.15
583.449	11747.64
583.809	11960.74
584.169	12109.22
584.529	12244.13
584.889	12525.02
585.249	12594.17
585.609	12765.47
585.969	13005.46
586.329	13135.4
586.688	13373.36
587.048	13571.78
587.408	13723.86
587.768	13953.69
588.127	14146.9
588.487	14374.69
588.846	14717.06
589.206	14788.02
589.565	15029.82
589.925	15318.85
590.284	15566.07
590.643	15835.67
591.003	16132.84
591.362	16383.45
591.721	16461.42
592.08	16834.51
592.44	17203.09
592.799	17367.16
593.158	17580.26
593.517	17965.11
593.876	18244.65
594.235	18431.99
594.593	18735.03
594.952	18985.87
595.311	19246.2
595.67	19601
596.029	19965.05
596.387	20338.6
596.746	20558.71
597.104	20702.66
597.463	20958.47
597.822	21375.19
598.18	21571.79
598.538	21792.58
598.897	22209.74
599.255	22257.42
599.613	22951.19
599.972	22995.03
600.33	23206.55
600.688	23510.05
601.046	23886.53
601.404	24193.42
601.762	24382.57
602.12	24722.9
602.478	25052.38
602.836	25206.27
603.194	25303.22
603.552	25713.83
603.91	25803.54
604.268	26242.18
604.625	26366.02
604.983	26696.85
605.341	26801.03
605.698	27236.28
606.056	27438.08
606.413	27695.92
606.771	28029.47
607.128	28172.97
607.485	28326.87
607.843	28612.96
608.2	28963.46
608.557	29187.86
608.914	29231.25
609.272	29662.43
609.629	29827.85
609.986	30094.51
610.343	30146.03
610.7	30623.76
611.057	30670.99
611.414	30752.12
611.771	30998.89
612.127	31284.53
612.484	31404.08
612.841	31672.32
613.198	31573.79
613.554	31909.15
613.911	32195.02
614.267	32330.15
614.624	32514.1
614.98	32656.02
615.337	32986.86
615.693	33021.66
616.05	33077.25
616.406	33496.68
616.762	33428.43
617.118	33580.06
617.475	33699.61
617.831	33927.4
618.187	34060.73
618.543	34200.39
618.899	34502.98
619.255	34435.86
619.611	34641.96
619.967	34802.63
620.323	34997.88
620.678	35013.47
621.034	34961.04
621.39	35203.07
621.746	35265.44
622.101	35730.52
622.457	35431.31
622.812	35663.4
623.168	35855.48
623.523	35877.18
623.879	36087.79
624.234	35828.82
624.589	36122.6
624.945	36110.62
625.3	36291.63
625.655	36253.67
626.01	36366.43
626.365	36485.07
626.72	36392.64
627.075	36481.46
627.43	36721.9
627.785	36617.5
628.14	36808.91
628.495	36816.81
628.85	36792.18
629.205	36838.06
629.559	37114.89
629.914	37008.22
630.269	37044.61
630.623	36908.79
630.978	36987.88
631.332	37190.82
631.687	37167.54
632.041	37098.39
632.396	37134.09
632.75	37019.07
633.104	37191.04
633.459	37072.63
633.813	37265.16
634.167	37116.02
634.521	37143.36
634.875	37291.15
635.229	37159.86
635.583	37129.35
635.937	37161.44
636.291	37187.88
636.645	37247.31
636.999	37117.15
637.352	37306.52
637.706	37023.81
638.06	37285.5
638.413	37228.56
638.767	37060.88
639.121	37143.81
639.474	36984.72
639.828	37152.4
640.181	37109.46
640.534	37243.24
640.888	37055.9
641.241	36901.33
641.594	37118.5
641.947	37107.88
642.301	37167.31
642.654	37169.12
643.007	37157.6
643.36	36967.32
643.713	36981.78
644.066	37253.41
644.419	36816.81
644.771	36669.02
645.124	36340.67
645.477	36310.84
645.83	36263.38
646.182	36122.82
646.535	35918.31
646.888	35918.53
647.24	35937.97
647.593	35961.92
647.945	35977.51
648.298	35911.53
648.65	35854.35
649.002	35652.78
649.355	35921.47
649.707	35789.95
650.059	35977.29
650.411	36410.05
650.763	36430.38
651.115	36823.37
651.467	36676.03
651.819	36777.49
652.171	36677.61
652.523	36648.23
652.875	36590.61
653.227	36428.8
653.578	36648.46
653.93	36614.79
654.282	36489.82
654.633	36401.01
654.985	36540.21
655.337	36420.67
655.688	36545.41
656.039	36527.33
656.391	36311.07
656.742	36406.66
657.094	36235.13
657.445	36504.28
657.796	36491.4
658.147	36347.67
658.498	36470.61
658.849	36413.21
659.2	36323.95
659.551	36284.85
659.902	36429.71
660.253	36270.61
660.604	36412.53
660.955	36245.3
661.306	36363.27
661.656	36280.56
662.007	36210.73
662.358	36215.47
662.708	36325.08
663.059	36203.5
663.409	35962.83
663.76	36186.55
664.11	36251.18
664.461	36357.62
664.811	36211.41
665.161	36084.4
665.511	36041.92
665.862	36175.02
666.212	36230.39
666.562	36277.17
666.912	36218.64
667.262	36109.04
667.612	36189.71
667.962	36251.86
668.312	36131.41
668.662	36193.1
669.011	36237.85
669.361	36160.56
669.711	36099.77
670.06	36049.83
670.41	35876.95
670.76	35938.19
671.109	36091.86
671.459	36084.4
671.808	36081.69
672.157	35975.93
672.507	35886.67
672.856	35794.47
673.205	35921.7
673.554	36003.05
673.904	35832.43
674.253	36127.34
674.602	35894.58
674.951	35400.13
675.3	35372.11
675.649	35888.25
675.998	35769.84
676.346	35838.54
676.695	35872.66
677.044	35594.93
677.393	35789.72
677.741	35855.03
678.09	35803.28
678.438	35683.96
678.787	35590.63
679.135	35706.34
679.484	35392.9
679.832	35490.07
680.181	35285.78
680.529	35573.68
680.877	35356.97
681.225	35404.2
681.573	35555.38
681.922	35283.3
682.27	35155.84
682.618	35263.63
682.966	34984.55
683.314	35213.69
683.661	35038.78
684.009	34866.58
684.357	34898.9
684.705	34712.01
685.053	34791.56
685.4	34755.85
685.748	34676.31
686.095	34645.57
686.443	34574.61
686.79	34551.34
687.138	34578.23
687.485	34592.01
687.832	34511.11
688.18	34457.55
688.527	34314.96
688.874	34189.09
689.221	34086.26
689.568	34034.97
689.915	34042.88
690.262	34057.34
690.609	33936.44
690.956	33805.82
691.303	33774.86
691.65	33594.75
691.997	33566.05
692.344	33376.45
692.69	33485.38
693.037	33315.21
693.383	33131.04
693.73	33240.86
694.077	32996.8
694.423	33135.78
694.769	32820.54
695.116	32896.69
695.462	32689.47
695.808	32819.18
696.155	32787.09
696.501	32608.79
696.847	32555.46
697.193	32304.62
697.539	32445.18
697.885	32103.27
698.231	32158.41
698.577	32007.22
698.923	32072.08
699.269	31866.44
699.614	31675.03
699.96	31764.52
700.306	31818.08
700.651	31507.12
700.997	31432.55
701.342	31384.19
701.688	31449.95
702.033	31181.48
702.379	31267.58
702.724	31112.78
703.069	31258.32
703.415	30840.02
703.76	30875.05
704.105	30908.95
704.45	30916.63
704.795	30614.27
705.14	30601.84
705.485	30484.1
705.83	30368.4
706.175	30478.45
706.52	30348.28
706.865	30185.12
707.209	30155.75
707.554	30187.16
707.899	30236.2
708.243	29985.13
708.588	30057.9
708.932	29763.89
709.277	29759.6
709.621	29769.54
709.966	29627.85
710.31	29576.78
710.654	29424.01
710.998	29543.33
711.342	29443.9
711.687	29367.97
712.031	29252.04
712.375	29180.41
712.719	29177.47
713.063	29249.56
713.407	29192.61
713.75	29138.82
714.094	29052.72
714.438	28844.37
714.782	28980.64
715.125	28757.14
715.469	28739.29
715.812	28671.72
716.156	28448.67
716.499	28487.54
716.843	28605.5
717.186	28396.7
717.53	28546.3
717.873	28528.9
718.216	28353.99
718.559	28243.03
718.902	28073.09
719.246	28195.12
719.589	28182.69
719.932	27965.52
720.275	27961.23
720.617	27910.61
720.96	27948.35
721.303	27860.44
721.646	27962.13
721.989	27703.16
722.331	27767.11
722.674	27654.57
723.016	27668.81
723.359	27590.62
723.701	27640.33
724.044	27471.52
724.386	27228.59
724.729	27471.98
725.071	27351.3
725.413	27262.04
725.755	27245.77
726.097	27179.55
726.439	27039.67
726.782	27109.73
727.124	27252.55
727.465	27004.19
727.807	27090.74
728.149	26985.66
728.491	26954.47
728.833	26933.68
729.175	26821.15
729.516	26848.04
729.858	26840.81
730.199	26895.04
730.541	26696.4
730.882	26822.27
731.224	26756.74
731.565	26641.04
731.906	26640.36
732.248	26536.63
732.589	26482.17
732.93	26463.64
733.271	26500.93
733.612	26420.7
733.953	26491.66
734.294	26185.68
734.635	26003.77
734.976	26293.93
735.317	26123.31
735.658	26107.72
735.999	26097.55
736.339	26067.04
736.68	26068.62
737.021	26019.58
737.361	25896.2
737.702	26034.05
738.042	25857.78
738.383	25871.57
738.723	25903.2
739.063	25723.09
739.404	25847.39
739.744	25824.11
740.084	25565.36
740.424	25688.07
740.764	25644.68
741.104	25707.95
741.444	25522.2
741.784	25474.06
742.124	25555.42
742.464	25605.58
742.804	25314.74
743.143	25301.64
743.483	25388.64
743.823	25178.48
744.162	25346.61
744.502	25357
744.841	25114.98
745.181	25255.76
745.52	25026.84
745.86	25162.21
746.199	25150.91
746.538	24965.37
746.877	25099.83
747.216	25094.64
747.556	25006.5
747.895	24973.74
748.234	24867.3
748.573	24816.9
748.911	24859.61
749.25	24856.22
749.589	24594.08
749.928	24615.33
750.267	24654.65
750.605	24618.94
750.944	24513.86
751.283	24425.95
751.621	24605.84
751.96	24385.5
752.298	24372.17
752.636	24455.56
752.975	24311.61
753.313	24160.2
753.651	24298.73
753.989	24121.1
754.327	24132.4
754.666	24072.06
755.004	24089.47
755.342	24115.68
755.679	23933.99
756.017	23857.83
756.355	23923.82
756.693	23849.25
757.031	23778.51
757.368	23612.42
757.706	23665.07
758.044	23613.55
758.381	23649.93
758.719	23545.75
759.056	23494.68
759.394	23414.23
759.731	23365.87
760.068	23105.31
760.405	23141.92
