Data from hue_24_FLMS001491_00092.txt Node
Date: Tue Feb 07 17:13:00 GMT 2017
User: dcchb
Spectrometer: FLMS00149
Trigger mode: 0
Integration Time (sec): 2.000000E-2
Scans to average: 10
Electric dark correction enabled: true
Nonlinearity correction enabled: false
Boxcar width: 0
XAxis mode: Wavelengths
Number of Pixels in Spectrum: 2048
>>>>>Begin Spectral Data<<<<<
341.393	8.8
341.776	8.8
342.16	8.8
342.543	-60.35
342.927	-66.91
343.31	-67.13
343.693	-68.03
344.077	-69.39
344.46	-68.94
344.843	-38.21
345.226	-42.95
345.61	-26.68
345.993	-25.1
346.376	-5.66
346.759	24.62
347.142	43.83
347.525	44.05
347.908	53.09
348.291	44.5
348.674	93.54
349.057	108.46
349.44	106.65
349.823	151.85
350.206	164.5
350.588	211.05
350.971	223.93
351.354	245.63
351.737	231.17
352.119	247.44
352.502	270.71
352.884	273.65
353.267	293.99
353.65	308.23
354.032	314.55
354.414	308
354.797	308.23
355.179	329.47
355.562	357.94
355.944	338.73
356.326	336.47
356.709	362.91
357.091	328.56
357.473	357.04
357.855	346.64
358.238	350.49
358.62	364.04
359.002	355.91
359.384	370.15
359.766	371.05
360.148	348.9
360.53	350.49
360.912	347.1
361.294	356.81
361.676	328.34
362.057	341.9
362.439	340.32
362.821	329.69
363.203	336.02
363.584	339.64
363.966	332.63
364.348	333.99
364.729	338.51
365.111	336.47
365.493	344.38
365.874	328.11
366.256	321.11
366.637	339.41
367.019	327.21
367.4	319.53
367.781	330.82
368.163	331.28
368.544	325.85
368.925	333.99
369.306	315.68
369.688	326.3
370.069	302.12
370.45	338.96
370.831	328.56
371.212	337.38
371.593	352.74
371.974	335.8
372.355	319.07
372.736	344.38
373.117	332.63
373.498	349.81
373.879	321.56
374.26	330.6
374.641	322.01
375.021	344.61
375.402	340.99
375.783	335.34
376.163	345.97
376.544	350.49
376.925	321.11
377.305	328.79
377.686	348.9
378.066	348.23
378.447	356.13
378.827	340.32
379.208	344.61
379.588	363.14
379.968	363.37
380.349	351.84
380.729	353.87
381.109	357.94
381.489	359.98
381.87	367.21
382.25	359.75
382.63	353.87
383.01	368.34
383.39	373.08
383.77	331.5
384.15	373.31
384.53	385.29
384.91	379.86
385.29	367.43
385.67	387.09
386.049	388.22
386.429	380.31
386.809	378.28
387.189	392.07
387.568	369.92
387.948	378.28
388.328	387.09
388.707	366.3
389.087	376.47
389.466	389.35
389.846	384.38
390.225	385.06
390.605	411.95
390.984	379.64
391.363	403.59
391.743	400.88
392.122	398.17
392.501	408.79
392.881	403.37
393.26	405.17
393.639	420.99
394.018	407.88
394.397	431.61
394.776	406.3
395.155	416.7
395.534	416.7
395.913	420.09
396.292	445.85
396.671	448.11
397.05	423.25
397.429	433.65
397.808	416.02
398.186	430.03
398.565	418.28
398.944	444.95
399.323	443.82
399.701	440.88
400.08	414.89
400.458	444.95
400.837	458.73
401.215	441.1
401.594	452.86
401.972	462.57
402.351	449.47
402.729	424.83
403.107	463.7
403.486	463.25
403.864	442.23
404.242	481.78
404.62	450.6
404.999	477.71
405.377	475.23
405.755	482.01
406.133	475.68
406.511	472.06
406.889	480.65
407.267	468.9
407.645	488.56
408.023	460.76
408.401	494.89
408.779	493.53
409.156	494.89
409.534	509.58
409.912	508.45
410.29	518.84
410.667	522.01
411.045	515
411.422	522.46
411.8	538.73
412.178	540.99
412.555	518.16
412.933	542.57
413.31	542.8
413.687	552.29
414.065	573.08
414.442	573.53
414.819	566.52
415.197	561.1
415.574	568.78
415.951	591.16
416.328	585.96
416.705	592.51
417.082	588.67
417.46	586.64
417.837	573.08
418.214	605.39
418.591	611.27
418.967	603.81
419.344	619.63
419.721	609.01
420.098	610.82
420.475	632.74
420.852	622.34
421.228	616.47
421.605	621.21
421.982	632.74
422.358	629.12
422.735	653.3
423.111	634.09
423.488	672.06
423.864	659.86
424.241	661.21
424.617	679.52
424.994	669.35
425.37	688.33
425.746	669.8
426.123	671.83
426.499	695.79
426.875	691.49
427.251	718.39
427.627	712.74
428.003	716.58
428.379	712.28
428.756	722.9
429.132	733.07
429.507	748.89
429.883	761.55
430.259	737.37
430.635	761.77
431.011	773.07
431.387	778.04
431.763	785.73
432.138	780.98
432.514	803.81
432.89	799.96
433.265	821.89
433.641	838.61
434.016	837.48
434.392	826.18
434.767	838.38
435.143	839.96
435.518	855.33
435.894	849.23
436.269	871.83
436.644	874.54
437.02	898.04
437.395	910.7
437.77	883.35
438.145	934.2
438.52	931.03
438.895	910.7
439.271	907.53
439.646	954.76
440.021	916.35
440.395	954.54
440.77	947.98
441.145	961.77
441.52	960.41
441.895	963.8
442.27	1000.41
442.645	978.94
443.019	1003.35
443.394	983.91
443.769	977.59
444.143	957.93
444.518	1006.51
444.892	1009.68
445.267	1019.39
445.641	1039.28
446.016	1029.11
446.39	1039.73
446.764	1070.92
447.139	1061.65
447.513	1074.99
447.887	1070.69
448.262	1073.4
448.636	1080.41
449.01	1110.69
449.384	1110.47
449.758	1121.54
450.132	1122.44
450.506	1091.93
450.88	1126.96
451.254	1123.57
451.628	1131.26
452.002	1164.02
452.376	1163.35
452.75	1167.64
453.123	1187.07
453.497	1208.77
453.871	1220.74
454.244	1226.85
454.618	1209.67
454.992	1237.69
455.365	1258.03
455.739	1277.01
456.112	1303.91
456.486	1283.79
456.859	1329.89
457.232	1330.57
457.606	1335.77
457.979	1348.88
458.352	1351.59
458.725	1364.24
459.099	1393.62
459.472	1418.71
459.845	1419.84
460.218	1420.74
460.591	1441.98
460.964	1454.86
461.337	1485.82
461.71	1498.25
462.083	1518.59
462.456	1504.81
462.829	1555.88
463.201	1571.92
463.574	1561.3
463.947	1575.76
464.32	1627.06
464.692	1616.44
465.065	1638.13
465.438	1681.52
465.81	1681.52
466.183	1726.27
466.555	1739.6
466.928	1728.98
467.3	1779.15
467.672	1778.47
468.045	1807.62
468.417	1842.88
468.789	1868.86
469.161	1861.63
469.534	1881.74
469.906	1932.14
470.278	1964.91
470.65	1949.54
471.022	2047.84
471.394	2050.33
471.766	2044.9
472.138	2067.95
472.51	2138.91
472.882	2185.01
473.253	2207.16
473.625	2218.68
473.997	2284.9
474.369	2314.73
474.74	2320.38
475.112	2390.66
475.484	2392.92
475.855	2465.68
476.227	2453.03
476.598	2551.11
476.97	2566.47
477.341	2646.24
477.713	2669.07
478.084	2666.81
478.455	2764.66
478.827	2798.33
479.198	2858.44
479.569	2870.64
479.94	2942.96
480.311	3018.21
480.682	3108.38
481.053	3181.6
481.424	3154.48
481.795	3256.85
482.166	3292.33
482.537	3356.51
482.908	3437.86
483.279	3458.65
483.65	3524.19
484.021	3660.91
484.391	3685.99
484.762	3668.36
485.133	3775.48
485.503	3834.91
485.874	3883.95
486.244	3946.32
486.615	4053.44
486.985	4067.9
487.356	4154.68
487.726	4183.38
488.097	4268.12
488.467	4294.11
488.837	4401.45
489.207	4476.03
489.578	4520.09
489.948	4611.39
490.318	4669.47
490.688	4683.93
491.058	4801.67
491.428	4799.63
491.798	4918.5
492.168	4981.1
492.538	5039.63
492.908	5097.48
493.278	5149.68
493.648	5218.83
494.017	5243.92
494.387	5330.69
494.757	5391.93
495.126	5461.76
495.496	5452.72
495.866	5537.02
496.235	5572.49
496.605	5631.02
496.974	5676.22
497.344	5754.64
497.713	5788.08
498.082	5840.28
498.452	5902.88
498.821	5923.9
499.19	5896.55
499.559	5990.56
499.928	5999.6
500.298	6128.41
500.667	6113.5
501.036	6186.26
501.405	6181.29
501.774	6213.16
502.143	6330.44
502.512	6293.15
502.88	6379.25
503.249	6393.72
503.618	6451.57
503.987	6449.31
504.356	6527.05
504.724	6519.14
505.093	6541.51
505.462	6638.68
505.83	6635.29
506.199	6693.82
506.567	6825.34
506.936	6760.94
507.304	6825.57
507.672	6874.61
508.041	6895.17
508.409	7011.1
508.777	6977.2
509.145	7049.52
509.514	7095.17
509.882	7141.49
510.25	7117.31
510.618	7198.89
510.986	7207.03
511.354	7280.47
511.722	7304.2
512.09	7375.39
512.458	7399.79
512.826	7404.99
513.193	7490.64
513.561	7408.83
513.929	7483.4
514.297	7603.18
514.664	7573.35
515.032	7611.76
515.4	7729.95
515.767	7764.98
516.135	7764.53
516.502	7729.95
516.869	7896.95
517.237	7847.92
517.604	7894.24
517.972	8013.33
518.339	8002.26
518.706	7976.73
519.073	8037.51
519.44	8105.31
519.808	8187.57
520.175	8125.42
520.542	8254.01
520.909	8217.4
521.276	8284.29
521.643	8385.53
522.009	8391.63
522.376	8429.82
522.743	8503.94
523.11	8597.05
523.477	8646.09
523.843	8669.36
524.21	8823.03
524.577	8836.59
524.943	8823.93
525.31	8871.62
525.676	8955.68
526.043	8976.92
526.409	8990.03
526.776	9103.02
527.142	9174.89
527.508	9208.56
527.874	9263.92
528.241	9306.41
528.607	9338.72
528.973	9432.28
529.339	9438.38
529.705	9493.75
530.071	9584.37
530.437	9637.02
530.803	9700.75
531.169	9735.78
531.535	9735.78
531.901	9749.11
532.267	9723.8
532.632	9902.1
532.998	9889.67
533.364	10012.83
533.73	10008.76
534.095	10115.88
534.461	10113.39
534.826	10202.43
535.192	10183.9
535.557	10225.25
535.923	10291.01
536.288	10375.08
536.653	10332.6
537.019	10328.75
537.384	10391.35
537.749	10418.02
538.114	10536.66
538.479	10516.77
538.845	10597
539.21	10578.92
539.575	10561.52
539.94	10646.26
540.305	10808.29
540.67	10738.46
541.034	10864.56
541.399	10867.04
541.764	10883.09
542.129	10970.09
542.494	11013.03
542.858	11088.96
543.223	11078.56
543.587	11143.2
543.952	11131.22
544.316	11241.95
544.681	11219.13
545.045	11316.75
545.41	11257.77
545.774	11428.16
546.138	11408.27
546.503	11482.17
546.867	11481.04
547.231	11563.52
547.595	11601.26
547.959	11624.31
548.324	11587.48
548.688	11685.55
549.052	11809.17
549.416	11791.99
549.779	11821.37
550.143	11818.43
550.507	11914.93
550.871	11959.9
551.235	11980.46
551.599	12083.96
551.962	12008.26
552.326	12095.49
552.689	12174.81
553.053	12142.49
553.417	12196.05
553.78	12310.17
554.143	12283.5
554.507	12372.09
554.87	12487.12
555.234	12557.4
555.597	12529.83
555.96	12519.66
556.323	12583.38
556.686	12553.78
557.05	12636.26
557.413	12705.64
557.776	12659.99
558.139	12818.18
558.502	12836.94
558.865	12869.7
559.228	12965.52
559.59	13084.61
559.953	13012.75
560.316	13136.36
560.679	13148.79
561.041	13247.77
561.404	13331.16
561.767	13451.84
562.129	13373.87
562.492	13394.44
562.854	13450.03
563.217	13447.54
563.579	13449.35
563.941	13570.02
564.304	13642.11
564.666	13660.42
565.028	13830.36
565.39	13809.79
565.753	13843.01
566.115	13836.91
566.477	14016.34
566.839	13976.34
567.201	14012.5
567.563	14154.87
567.925	14299.72
568.287	14191.93
568.648	14228.09
569.01	14299.5
569.372	14464.92
569.734	14351.7
570.095	14492.49
570.457	14566.61
570.819	14574.29
571.18	14613.61
571.542	14743.55
571.903	14821.29
572.265	14789.2
572.626	14944.9
572.987	14975.19
573.349	15007.27
573.71	15044.34
574.071	15165.24
574.432	15317.32
574.794	15334.5
575.155	15405.68
575.516	15485.23
575.877	15546.7
576.238	15607.49
576.599	15758.89
576.96	15777.2
577.32	15856.07
577.681	15947.59
578.042	16083.4
578.403	16157.53
578.763	16291.53
579.124	16333.34
579.485	16525.65
579.845	16680.68
580.206	16827.57
580.566	16984.85
580.927	16990.73
581.287	17251.51
581.648	17379.19
582.008	17520.88
582.368	17652.63
582.728	17812.17
583.089	17985.28
583.449	18106.18
583.809	18312.72
584.169	18561.31
584.529	18614.64
584.889	19051.91
585.249	19154.51
585.609	19308.86
585.969	19637.44
586.329	19736.19
586.688	20037.2
587.048	20243.3
587.408	20441.48
587.768	20769.84
588.127	20894.35
588.487	21238.52
588.846	21633.54
589.206	21756.48
589.565	22017.49
589.925	22396.01
590.284	22661.08
590.643	22981.3
591.003	23355.76
591.362	23737.21
591.721	23961.84
592.08	24199.58
592.44	24624.65
592.799	24985.09
593.158	25232.77
593.517	25519.99
593.876	26025.97
594.235	26253.08
594.593	26544.37
594.952	26951.14
595.311	27321.75
595.67	27716.55
596.029	28127.61
596.387	28464.77
596.746	28827.02
597.104	28898.66
597.463	29260.23
597.822	29846.21
598.18	30074.68
598.538	30409.58
598.897	30839.85
599.255	30934.99
599.613	31817
599.972	32007.96
600.33	32331.79
600.688	32565.68
601.046	32975.16
601.404	33401.82
601.762	33664.41
602.12	34203.38
602.478	34424.39
602.836	34816.92
603.194	34889.01
603.552	35329.23
603.91	35454.19
604.268	36092.82
604.625	36194.06
604.983	36747.27
605.341	36820.49
605.698	37306.35
606.056	37559.9
606.413	37789.5
606.771	38270.62
607.128	38611.85
607.485	38603.94
607.843	38943.59
608.2	39425.39
608.557	39624.71
608.914	39667.42
609.272	40244.8
609.629	40621.52
609.986	40903.77
610.343	40976.08
610.7	41447.26
611.057	41723.86
611.414	41835.95
611.771	41980.12
612.127	42443.16
612.484	42647.45
612.841	42923.38
613.198	42965.41
613.554	43163.82
613.911	43684.49
614.267	43806.97
614.624	43771.49
614.98	44000.64
615.337	44361.53
615.693	44535.09
616.05	44711.8
616.406	45018.46
616.762	45046.03
617.118	45312.92
617.475	45384.56
617.831	45740.25
618.187	45819.57
618.543	46175.27
618.899	46423.62
619.255	46296.17
619.611	46615.48
619.967	46716.95
620.323	46767.12
620.678	46910.62
621.034	46810.96
621.39	46878.3
621.746	47094.11
622.101	47626.98
622.457	47295.01
622.812	47480.32
623.168	47675.34
623.523	47724.83
623.879	47999.63
624.234	47933.64
624.589	48108.55
624.945	48166.63
625.3	48369.11
625.655	48384.02
626.01	48512.83
626.365	48475.1
626.72	48519.16
627.075	48607.07
627.43	48611.36
627.785	48593.74
628.14	48798.93
628.495	48883.45
628.85	48880.28
629.205	48781.75
629.559	49088.19
629.914	48993.05
630.269	49079.15
630.623	48979.49
630.978	48929.09
631.332	49144.23
631.687	49286.6
632.041	49053.61
632.396	49240.05
632.75	49136.32
633.104	49320.27
633.459	49167.05
633.813	49216.54
634.167	49227.17
634.521	49104.91
634.875	49393.04
635.229	49355.52
635.583	49088.64
635.937	49202.76
636.291	49173.16
636.645	49187.17
636.999	49249.99
637.352	49308.75
637.706	49144.91
638.06	49221.06
638.413	49238.01
638.767	49063.1
639.121	49159.6
639.474	48998.47
639.828	49134.97
640.181	49177.22
640.534	49200.5
640.888	49113.04
641.241	48974.97
641.594	49143.1
641.947	49184
642.301	49106.49
642.654	49086.15
643.007	49106.27
643.36	49140.61
643.713	49096.32
644.066	49188.3
644.419	48944.91
644.771	48692.04
645.124	48407.07
645.477	48337.7
645.83	48160.75
646.182	48141.09
646.535	47836.69
646.888	48120.53
647.24	47843.47
647.593	48066.74
647.945	47979.52
648.298	47875.11
648.65	47731.61
649.002	47685.96
649.355	47826.75
649.707	47796.47
650.059	48011.6
650.411	48455.43
650.763	48454.08
651.115	48823.11
651.467	48785.14
651.819	48830.79
652.171	48681.42
652.523	48535.66
652.875	48626.5
653.227	48402.33
653.578	48793.73
653.93	48656.79
654.282	48501.76
654.633	48287.3
654.985	48532.04
655.337	48483.91
655.688	48558.48
656.039	48671.93
656.391	48368.88
656.742	48516.68
657.094	48411.14
657.445	48579.05
657.796	48370.24
658.147	48338.83
658.498	48351.48
658.849	48410.92
659.2	48401.43
659.551	48374.76
659.902	48480.07
660.253	48380.86
660.604	48439.62
660.955	48112.17
661.306	48412.95
661.656	48275.55
662.007	48262.9
662.358	48291.15
662.708	48397.58
663.059	48417.24
663.409	48083.47
663.76	48279.39
664.11	48321.88
664.461	48331.37
664.811	48421.54
665.161	48301.77
665.511	48185.61
665.862	48291.82
666.212	48387.41
666.562	48262.9
666.912	48187.19
667.262	48212.05
667.612	48169.34
667.962	48135.22
668.312	48235.1
668.662	48327.53
669.011	48179.74
669.361	48142.67
669.711	48147.87
670.06	48142.9
670.41	48073.98
670.76	47995.56
671.109	48206.63
671.459	48066.52
671.808	48080.3
672.157	48129.34
672.507	47841.89
672.856	47898.39
673.205	47981.1
673.554	48110.59
673.904	47959.4
674.253	48123.69
674.602	47988.78
674.951	47577.72
675.3	47261.34
675.649	47917.14
675.998	47838.5
676.346	47821.78
676.695	47941.78
677.044	47687.32
677.393	47681.44
677.741	47912.85
678.09	47712.4
678.438	47593.08
678.787	47660.88
679.135	47630.37
679.484	47328.46
679.832	47691.16
680.181	47349.93
680.529	47422.47
680.877	47384.28
681.225	47319.42
681.573	47535.69
681.922	47226.77
682.27	47091.18
682.618	47214.56
682.966	46980.22
683.314	47111.06
683.661	46964.4
684.009	46883.95
684.357	46811.41
684.705	46855.25
685.053	46802.82
685.4	46857.28
685.748	46562.38
686.095	46424.98
686.443	46424.98
686.79	46307.47
687.138	46428.6
687.485	46440.12
687.832	46371.65
688.18	46352.89
688.527	46131.43
688.874	46141.6
689.221	45996.97
689.568	45951.32
689.915	45803.75
690.262	45896.63
690.609	45605.11
690.956	45500.03
691.303	45431.11
691.65	45245.12
691.997	45332.35
692.344	45039.71
692.69	45036.99
693.037	45078.12
693.383	44690.11
693.73	44889.43
694.077	44688.98
694.423	44603.33
694.769	44578.02
695.116	44435.88
695.462	44296
695.808	44133.51
696.155	44256.22
696.501	43960.64
696.847	43949.11
697.193	43789.57
697.539	43866.4
697.885	43711.6
698.231	43498.73
698.577	43490.14
698.923	43630.7
699.269	43279.75
699.614	43098.74
699.96	43001.57
700.306	43020.32
700.651	42831.4
700.997	42743.27
701.342	42799.76
701.688	42639.54
702.033	42450.62
702.379	42471.86
702.724	42365.2
703.069	42461.47
703.415	42006.11
703.76	42109.16
704.105	42026.68
704.45	42006.79
704.795	41725.44
705.14	41562.73
705.485	41660.81
705.83	41493.13
706.175	41505.79
706.52	41401.16
706.865	41195.74
707.209	41223.08
707.554	41010.66
707.899	41068.96
708.243	40837.33
708.588	40826.93
708.932	40656.32
709.277	40538.58
709.621	40503.33
709.966	40247.06
710.31	40292.03
710.654	40033.06
710.998	40161.19
711.342	40097.91
711.687	40003.23
712.031	39837.58
712.375	39771.37
712.719	39896.34
713.063	39759.84
713.407	39847.75
713.75	39573.86
714.094	39520.75
714.438	39427.42
714.782	39458.38
715.125	39195.57
715.469	39389.23
715.812	39148.79
716.156	38926.87
716.499	38950.15
716.843	38911.28
717.186	38668.57
717.53	38864.05
717.873	38966.64
718.216	38752.87
718.559	38673.55
718.902	38420.67
719.246	38577.28
719.589	38406.89
719.932	38279.21
720.275	38206.89
720.617	38203.05
720.96	38096.84
721.303	38091.19
721.646	38101.36
721.989	37941.81
722.331	37918.54
722.674	37847.58
723.016	37912.66
723.359	37803.06
723.701	37749.95
724.044	37574.14
724.386	37453.92
724.729	37504.08
725.071	37431.32
725.413	37406.01
725.755	37304.77
726.097	37045.34
726.439	36930.31
726.782	36935.51
727.124	37240.81
727.465	36921.73
727.807	37000.59
728.149	36791.11
728.491	36779.58
728.833	36802.86
729.175	36604.9
729.516	36644.22
729.858	36632.47
730.199	36581.17
730.541	36589.31
730.882	36579.36
731.224	36538.46
731.565	36265.02
731.906	36343.89
732.248	36323.78
732.589	36016.44
732.93	36037.23
733.271	36148.41
733.612	36180.5
733.953	36075.42
734.294	35997.46
734.635	35866.61
734.976	35898.48
735.317	35841.98
735.658	35668.43
735.999	35673.17
736.339	35646.96
736.68	35730.35
737.021	35553.85
737.361	35397.7
737.702	35550.24
738.042	35384.82
738.383	35301.2
738.723	35507.75
739.063	35246.06
739.404	35342.56
739.744	35246.29
740.084	35152.73
740.424	35147.54
740.764	34984.15
741.104	35217.36
741.444	35020.08
741.784	34830.48
742.124	35059.85
742.464	34955.45
742.804	34801.1
743.143	34636.82
743.483	34780.54
743.823	34615.12
744.162	34444.96
744.502	34703.48
744.841	34429.36
745.181	34528.34
745.52	34432.75
745.86	34418.97
746.199	34236.15
746.538	34260.55
746.877	34402.25
747.216	34322.25
747.556	34153.21
747.895	34150.05
748.234	33992.54
748.573	33924.74
748.911	34118.18
749.25	33901.69
749.589	33896.5
749.928	33697.86
750.267	33853.33
750.605	33743.96
750.944	33574.02
751.283	33484.3
751.621	33558.88
751.96	33388.03
752.298	33381.03
752.636	33384.87
752.975	33219.23
753.313	33023.07
753.651	33240.24
753.989	33051.09
754.327	33000.93
754.666	32813.59
755.004	32876.41
755.342	32863.53
755.679	32820.37
756.017	32595.29
756.355	32647.26
756.693	32506.48
757.031	32616.53
757.368	32407.5
