Data from hue_320_FLMS001491_39.txt Node
Date: Mon Feb 06 15:47:07 GMT 2017
User: dcchb
Spectrometer: FLMS00149
Trigger mode: 0
Integration Time (sec): 2.000000E-2
Scans to average: 10
Electric dark correction enabled: true
Nonlinearity correction enabled: false
Boxcar width: 0
XAxis mode: Wavelengths
Number of Pixels in Spectrum: 2048
>>>>>Begin Spectral Data<<<<<
341.393	-12.71
341.776	-12.71
342.16	-12.71
342.543	-92.26
342.927	-94.29
343.31	-55.42
343.693	-66.5
344.077	-81.41
344.46	-55.65
344.843	-36.67
345.226	-41.64
345.61	-33.28
345.993	-28.08
346.376	-7.74
346.759	15.99
347.142	20.51
347.525	36.55
347.908	65.25
348.291	80.85
348.674	84.24
349.057	102.99
349.44	131.47
349.823	128.3
350.206	166.72
350.588	209.66
350.971	212.59
351.354	215.31
351.737	239.71
352.119	247.85
352.502	270.22
352.884	256.66
353.267	259.6
353.65	295.3
354.032	280.61
354.414	307.96
354.797	304.79
355.179	326.94
355.562	322.65
355.944	321.52
356.326	298.01
356.709	325.81
357.091	328.52
357.473	338.47
357.855	326.49
358.238	349.76
358.62	345.47
359.002	327.39
359.384	345.7
359.766	330.78
360.148	314.96
360.53	305.7
360.912	335.75
361.294	341.63
361.676	335.98
362.057	335.3
362.439	326.94
362.821	334.17
363.203	323.78
363.584	321.29
363.966	323.55
364.348	345.92
364.729	312.03
365.111	331.01
365.493	324
365.874	309.09
366.256	321.74
366.637	293.5
367.019	299.6
367.4	324.23
367.781	302.53
368.163	321.29
368.544	313.16
368.925	340.73
369.306	320.16
369.688	294.85
370.069	289.88
370.45	317.9
370.831	314.51
371.212	305.25
371.593	314.96
371.974	320.39
372.355	311.8
372.736	304.79
373.117	328.07
373.498	300.5
373.879	328.52
374.26	306.83
374.641	290.56
375.021	331.69
375.402	307.51
375.783	319.03
376.163	319.71
376.544	332.82
376.925	332.59
377.305	357
377.686	299.6
378.066	312.7
378.447	310.9
378.827	317.9
379.208	324.45
379.588	309.77
379.968	330.33
380.349	323.78
380.729	329.88
381.109	332.14
381.489	320.16
381.87	345.47
382.25	321.29
382.63	334.62
383.01	339.6
383.39	332.82
383.77	327.62
384.15	331.01
384.53	330.33
384.91	333.27
385.29	349.54
385.67	347.96
386.049	348.41
386.429	339.14
386.809	364.45
387.189	342.99
387.568	357.67
387.948	364.23
388.328	339.37
388.707	342.53
389.087	361.06
389.466	363.1
389.846	353.15
390.225	333.04
390.605	356.32
390.984	379.37
391.363	355.41
391.743	357.45
392.122	355.19
392.501	356.32
392.881	386.37
393.26	369.2
393.639	364.45
394.018	361.29
394.397	365.13
394.776	389.76
395.155	382.76
395.534	381.18
395.913	372.14
396.292	374.17
396.671	387.5
397.05	376.88
397.429	388.41
397.808	391.35
398.186	394.96
398.565	391.57
398.944	406.49
399.323	376.66
399.701	404
400.08	394.51
400.458	404.9
400.837	408.75
401.215	392.48
401.594	397.9
401.972	418.69
402.351	404.9
402.729	424.11
403.107	389.76
403.486	419.82
403.864	417.11
404.242	417.79
404.62	424.57
404.999	421.4
405.377	422.53
405.755	427.95
406.133	444.23
406.511	453.94
406.889	439.03
407.267	443.77
407.645	439.71
408.023	456.88
408.401	443.32
408.779	479.48
409.156	449.2
409.534	452.36
409.912	463.66
410.29	491.46
410.667	484
411.045	496.88
411.422	488.29
411.8	498.69
412.178	490.78
412.555	495.52
412.933	495.75
413.31	512.02
413.687	522.42
414.065	528.29
414.442	531.91
414.819	550.44
415.197	524.22
415.574	561.96
415.951	538.23
416.328	574.39
416.705	569.19
417.082	580.04
417.46	595.41
417.837	587.27
418.214	599.93
418.591	597.89
418.967	594.5
419.344	609.19
419.721	633.37
420.098	633.15
420.475	629.53
420.852	646.93
421.228	652.13
421.605	624.33
421.982	655.29
422.358	673.6
422.735	653.26
423.111	682.64
423.488	673.6
423.864	690.09
424.241	684.9
424.617	695.74
424.994	691.68
425.37	705.91
425.746	724.44
426.123	718.79
426.499	720.15
426.875	702.75
427.251	727.83
427.627	737.1
428.003	752.01
428.379	756.08
428.756	777.55
429.132	779.36
429.507	794.27
429.883	778.23
430.259	800.37
430.635	810.77
431.011	791.56
431.387	826.59
431.763	832.24
432.138	837.44
432.514	838.57
432.89	836.76
433.265	882.63
433.641	905.68
434.016	887.15
434.392	902.74
434.767	921.95
435.143	906.81
435.518	923.99
435.894	940.94
436.269	945.23
436.644	958.11
437.02	943.2
437.395	973.93
437.77	971.67
438.145	1008.28
438.52	995.62
438.895	989.75
439.271	988.84
439.646	1028.39
440.021	1017.77
440.395	1030.88
440.77	1040.37
441.145	1034.27
441.52	1048.73
441.895	1067.49
442.27	1065.68
442.645	1084.21
443.019	1091.67
443.394	1059.35
443.769	1072.23
444.143	1069.97
444.518	1088.05
444.892	1074.72
445.267	1099.8
445.641	1103.19
446.016	1107.49
446.39	1109.74
446.764	1107.03
447.139	1102.51
447.513	1133.7
447.887	1117.2
448.262	1105.68
448.636	1115.62
449.01	1157.43
449.384	1163.3
449.758	1121.27
450.132	1173.02
450.506	1189.97
450.88	1161.04
451.254	1142.51
451.628	1164.88
452.002	1185
452.376	1207.37
452.75	1194.04
453.123	1208.05
453.497	1210.08
453.871	1214.37
454.244	1222.06
454.618	1229.97
454.992	1271.77
455.365	1255.28
455.739	1270.19
456.112	1291.21
456.486	1293.69
456.859	1283.75
457.232	1328.04
457.606	1269.97
457.979	1328.72
458.352	1336.86
458.725	1349.29
459.099	1358.33
459.472	1380.25
459.845	1377.99
460.218	1384.99
460.591	1390.64
460.964	1396.97
461.337	1441.49
461.71	1430.64
462.083	1449.62
462.456	1452.79
462.829	1456.85
463.201	1445.1
463.574	1455.72
463.947	1498.44
464.32	1543.18
464.692	1531.43
465.065	1497.08
465.438	1524.88
465.81	1590.86
466.183	1558.77
466.555	1561.48
466.928	1584.99
467.3	1581.37
467.672	1615.95
468.045	1651.88
468.417	1650.75
468.789	1622.73
469.161	1666.11
469.534	1674.7
469.906	1753.57
470.278	1729.16
470.65	1746.11
471.022	1761.03
471.394	1749.28
471.766	1787.47
472.138	1772.78
472.51	1812.55
472.882	1884.64
473.253	1872.21
473.625	1879.22
473.997	1893.23
474.369	1885.09
474.74	1945.43
475.112	1961.25
475.484	1977.97
475.855	1988.14
476.227	2030.4
476.598	2054.13
476.97	2080.57
477.341	2103.39
477.713	2156.95
478.084	2164.86
478.455	2183.39
478.827	2199.43
479.198	2236.27
479.569	2240.34
479.94	2274.69
480.311	2295.7
480.682	2353.1
481.053	2391.52
481.424	2380.22
481.795	2388.58
482.166	2425.42
482.537	2492.08
482.908	2492.99
483.279	2503.83
483.65	2529.59
484.021	2629.48
484.391	2636.03
484.762	2623.6
485.133	2636.26
485.503	2640.33
485.874	2718.97
486.244	2716.26
486.615	2799.19
486.985	2759.42
487.356	2866.53
487.726	2882.35
488.097	2874.9
488.467	2895.23
488.837	2980.66
489.207	2962.58
489.578	2999.86
489.948	3057.04
490.318	3083.03
490.688	3089.13
491.058	3123.7
491.428	3138.39
491.798	3124.61
492.168	3224.04
492.538	3228.79
492.908	3304.04
493.278	3309.91
493.648	3302
494.017	3352.4
494.387	3358.73
494.757	3355.79
495.126	3356.69
495.496	3399.63
495.866	3442.79
496.235	3509
496.605	3444.82
496.974	3489.12
497.344	3511.49
497.713	3534.77
498.082	3545.84
498.452	3631.49
498.821	3594.88
499.19	3587.19
499.559	3602.56
499.928	3623.35
500.298	3649.79
500.667	3686.4
501.036	3669.23
501.405	3674.2
501.774	3706.74
502.143	3723.01
502.512	3721.2
502.88	3761.43
503.249	3750.35
503.618	3821.76
503.987	3757.58
504.356	3812.95
504.724	3816.57
505.093	3841.65
505.462	3831.71
505.83	3901.08
506.199	3884.59
506.567	3926.62
506.936	3915.55
507.304	3938.37
507.672	3963
508.041	3950.8
508.409	3997.58
508.777	4012.04
509.145	4020.63
509.514	4035.77
509.882	4091.36
510.25	4041.65
510.618	4086.84
510.986	4099.04
511.354	4125.03
511.722	4111.02
512.09	4160.29
512.458	4122.32
512.826	4142.21
513.193	4165.03
513.561	4188.76
513.929	4231.47
514.297	4271.24
514.664	4195.31
515.032	4263.11
515.4	4286.16
515.767	4246.16
516.135	4270.34
516.502	4264.92
516.869	4287.29
517.237	4301.3
517.604	4322.54
517.972	4355.54
518.339	4358.25
518.706	4285.71
519.073	4351.69
519.44	4389.43
519.808	4416.1
520.175	4423.33
520.542	4424.46
520.909	4478.7
521.276	4459.49
521.643	4471.01
522.009	4520.95
522.376	4504.91
522.743	4540.84
523.11	4570.44
523.477	4555.98
523.843	4591.01
524.21	4678.46
524.577	4649.09
524.943	4670.78
525.31	4706.71
525.676	4698.58
526.043	4733.6
526.409	4736.77
526.776	4781.29
527.142	4754.17
527.508	4830.78
527.874	4848.63
528.241	4825.58
528.607	4894.28
528.973	4905.13
529.339	4913.49
529.705	4929.31
530.071	4981.96
530.437	5013.15
530.803	5009.98
531.169	5042.97
531.535	5012.02
531.901	5068.06
532.267	5109.19
532.632	5093.82
532.998	5145.12
533.364	5172.24
533.73	5147.83
534.095	5241.16
534.461	5283.42
534.826	5239.35
535.192	5303.31
535.557	5346.47
535.923	5359.12
536.288	5363.64
536.653	5348.96
537.019	5340.14
537.384	5429.86
537.749	5460.59
538.114	5460.36
538.479	5447.48
538.845	5463.3
539.21	5457.2
539.575	5465.56
539.94	5522.06
540.305	5582.17
540.67	5562.51
541.034	5576.75
541.399	5613.81
541.764	5596.63
542.129	5646.8
542.494	5695.39
542.858	5674.37
543.223	5720.02
543.587	5695.61
543.952	5737.87
544.316	5752.56
544.681	5744.43
545.045	5825.1
545.41	5851.09
545.774	5908.26
546.138	5939
546.503	5910.52
546.867	5956.62
547.231	6005.44
547.595	6041.14
547.959	5953.91
548.324	6076.17
548.688	6110.97
549.052	6095.83
549.416	6115.26
549.779	6081.59
550.143	6116.17
550.507	6198.2
550.871	6178.99
551.235	6155.04
551.599	6157.52
551.962	6182.83
552.326	6242.27
552.689	6301.47
553.053	6269.38
553.417	6252.66
553.78	6378.98
554.143	6323.62
554.507	6405.2
554.87	6368.36
555.234	6426.67
555.597	6381.47
555.96	6398.65
556.323	6459.43
556.686	6378.98
557.05	6473.67
557.413	6534.46
557.776	6507.57
558.139	6543.73
558.502	6568.81
558.865	6598.19
559.228	6586.66
559.59	6619.2
559.953	6701.69
560.316	6746.66
560.679	6690.39
561.041	6704.4
561.404	6770.61
561.767	6745.98
562.129	6800.44
562.492	6872.98
562.854	6801.12
563.217	6889.03
563.579	6825.53
563.941	6910.27
564.304	6932.64
564.666	6944.39
565.028	7044.96
565.39	7071.62
565.753	7006.31
566.115	7046.31
566.477	7019.65
566.839	7072.75
567.201	7138.51
567.563	7094.9
567.925	7180.09
568.287	7181
568.648	7231.84
569.01	7232.52
569.372	7290.83
569.734	7340.54
570.095	7291.96
570.457	7362.46
570.819	7374.89
571.18	7437.71
571.542	7486.07
571.903	7486.75
572.265	7534.66
572.626	7549.8
572.987	7570.59
573.349	7705.05
573.71	7674.54
574.071	7747.31
574.432	7717.48
574.794	7867.53
575.155	7920.87
575.516	7925.61
575.877	7979.85
576.238	8100.75
576.599	8143.23
576.96	8243.12
577.32	8243.12
577.681	8309.33
578.042	8410.12
578.403	8485.14
578.763	8532.37
579.124	8674.52
579.485	8707.96
579.845	8849.88
580.206	8949.31
580.566	9047.16
580.927	9173.94
581.287	9280.38
581.648	9400.15
582.008	9620.26
582.368	9594.72
582.728	9763.98
583.089	9944.77
583.449	10110.41
583.809	10240.58
584.169	10447.35
584.529	10565.54
584.889	10811.86
585.249	10933.67
585.609	11116.49
585.969	11332.07
586.329	11505.63
586.688	11748.34
587.048	11964.6
587.408	12199.62
587.768	12455.21
588.127	12586.96
588.487	12803.22
588.846	13174.51
589.206	13295.41
589.565	13531.11
589.925	13848.17
590.284	14005
590.643	14406.57
591.003	14639.78
591.362	14943.96
591.721	15200.45
592.08	15449.25
592.44	15655.35
592.799	15947.32
593.158	16244.26
593.517	16484.71
593.876	16870.23
594.235	17055.31
594.593	17505.7
594.952	17706.6
595.311	17980.04
595.67	18301.16
596.029	18653.24
596.387	18908.37
596.746	19292.09
597.104	19436.27
597.463	19795.58
597.822	20164.39
598.18	20354.44
598.538	20598.5
598.897	21064.7
599.255	21085.04
599.613	21705.14
599.972	21787.17
600.33	22297.44
600.688	22327.94
601.046	22710.08
601.404	23005.67
601.762	23224.87
602.12	23698.76
602.478	23937.62
602.836	24203.15
603.194	24273.88
603.552	24628.22
603.91	24829.12
604.268	25154.76
604.625	25327.64
604.983	25639.95
605.341	25815.08
605.698	26208.29
606.056	26542.52
606.413	26618.45
606.771	26967.6
607.128	27292.79
607.485	27248.94
607.843	27565.77
608.2	27925.99
608.557	28092.54
608.914	28292.31
609.272	28670.15
609.629	28832.63
609.986	29067.2
610.343	29122.57
610.7	29688.65
611.057	29758.26
611.414	29832.15
611.771	29991.7
612.127	30317.11
612.484	30655.41
612.841	30800.72
613.198	30939.47
613.554	31159.8
613.911	31376.07
614.267	31491.09
614.624	31691.54
614.98	31827.58
615.337	32116.39
615.693	32129.27
616.05	32317.51
616.406	32618.29
616.762	32648.12
617.118	32696.48
617.475	32957.72
617.831	33217.15
618.187	33188
618.543	33356.13
618.899	33798.6
619.255	33780.98
619.611	33779.85
619.967	34151.36
620.323	34292.38
620.678	34310.23
621.034	34138.03
621.39	34384.35
621.746	34434.07
622.101	34883.09
622.457	34707.28
622.812	34978.68
623.168	35083.77
623.523	35125.8
623.879	35234.05
624.234	35126.25
624.589	35345.68
624.945	35489.18
625.3	35670.19
625.655	35646.69
626.01	35663.64
626.365	35767.59
626.72	35830.41
627.075	35864.99
627.43	36000.35
627.785	35970.07
628.14	36040.58
628.495	36145.43
628.85	36145.89
629.205	36161.25
629.559	36346.33
629.914	36123.74
630.269	36363.28
630.623	36338.65
630.978	36281.25
631.332	36520.79
631.687	36628.36
632.041	36548.81
632.396	36618.19
632.75	36517.4
633.104	36694.57
633.459	36532.99
633.813	36472.43
634.167	36567.12
634.521	36661.13
634.875	36655.7
635.229	36626.1
635.583	36451.64
635.937	36493
636.291	36506.33
636.645	36678.98
636.999	36574.12
637.352	36788.13
637.706	36543.84
638.06	36801.01
638.413	36728.7
638.767	36656.15
639.121	36596.5
639.474	36515.82
639.828	36586.33
640.181	36669.71
640.534	36579.77
640.888	36500.23
641.241	36319.44
641.594	36565.31
641.947	36539.32
642.301	36493
642.654	36533.22
643.007	36519.21
643.36	36537.74
643.713	36421.81
644.066	36633.78
644.419	36536.16
644.771	36199.67
645.124	35883.75
645.477	35822.05
645.83	35718.1
646.182	35664.09
646.535	35544.77
646.888	35612.11
647.24	35437.88
647.593	35664.54
647.945	35650.31
648.298	35377.09
648.65	35438.11
649.002	35246.7
649.355	35440.14
649.707	35279.92
650.059	35544.55
650.411	35876.74
650.763	35942.5
651.115	36360.34
651.467	36170.29
651.819	36117.41
652.171	36155.38
652.523	36140.01
652.875	36086.23
653.227	35900.69
653.578	36269.27
653.93	36150.63
654.282	35849.85
654.633	35858.44
654.985	36037.87
655.337	35975.27
655.688	36002.16
656.039	36154.02
656.391	35693.69
656.742	35872.22
657.094	35805.56
657.445	36009.62
657.796	36013.69
658.147	35894.37
658.498	35879.9
658.849	36087.81
659.2	35973.69
659.551	35676.52
659.902	35952.44
660.253	35822.5
660.604	35999.67
660.955	35818.21
661.306	35831.54
661.656	35792.9
662.007	35881.03
662.358	35827.02
662.708	35723.3
663.059	35687.14
663.409	35566.69
663.76	35926
664.11	35910.19
664.461	35774.82
664.811	35808.49
665.161	35657.54
665.511	35750.64
665.862	35706.12
666.212	35859.57
666.562	35737.99
666.912	35970.98
667.262	35738.44
667.612	35722.39
667.962	35783.41
668.312	35823.86
668.662	35796.74
669.011	35803.97
669.361	35656.41
669.711	35545
670.06	35603.75
670.41	35641.72
670.76	35436.98
671.109	35776.4
671.459	35657.76
671.808	35481.04
672.157	35653.24
672.507	35360.6
672.856	35466.36
673.205	35545.68
673.554	35655.05
673.904	35494.38
674.253	35695.5
674.602	35528.27
674.951	35016.65
675.3	34868.63
675.649	35492.57
675.998	35418
676.346	35331.9
676.695	35395.17
677.044	35129.87
677.393	35313.59
677.741	35424.32
678.09	35251.9
678.438	35275.17
678.787	35237.66
679.135	35351.33
679.484	35150.66
679.832	35051.23
680.181	34983.43
680.529	35066.59
680.877	34920.38
681.225	34924.67
681.573	35106.59
681.922	34861.85
682.27	34745.7
682.618	34804.23
682.966	34678.35
683.314	34857.11
683.661	34890.1
684.009	34509.09
684.357	34603.78
684.705	34497.12
685.053	34368.31
685.4	34394.07
685.748	34302.09
686.095	34221.64
686.443	34124.02
686.79	34100.52
687.138	34051.03
687.485	34192.49
687.832	33912.5
688.18	33995.66
688.527	33795.67
688.874	33770.13
689.221	33779.39
689.568	33566.52
689.915	33711.83
690.262	33658.04
690.609	33525.62
690.956	33343.25
691.303	33394.55
691.65	33299.41
691.997	33328.33
692.344	33183.25
692.69	33055.8
693.037	33098.96
693.383	32844.28
693.73	32921.11
694.077	32832.98
694.423	32619.42
694.769	32580.78
695.116	32615.13
695.462	32528.58
695.808	32473.21
696.155	32418.75
696.501	32183.28
696.847	32268.47
697.193	31998.42
697.539	32165.65
697.885	31899.22
698.231	31915.04
698.577	31812.44
698.923	31686.12
699.269	31602.28
699.614	31509.85
699.96	31514.6
700.306	31490.87
700.651	31330.19
700.997	31193.93
701.342	31306.92
701.688	31149.86
702.033	31009.75
702.379	31038.45
702.724	30878.45
703.069	30981.05
703.415	30590.1
703.76	30587.61
704.105	30558.91
704.45	30545.36
704.795	30390.33
705.14	30242.99
705.485	30315.3
705.83	30161.41
706.175	30262.65
706.52	30163.22
706.865	30050.45
707.209	29944.47
707.554	29871.7
707.899	29956.67
708.243	29816.11
708.588	29737.47
708.932	29628.32
709.277	29560.97
709.621	29520.52
709.966	29450.69
710.31	29378.61
710.654	29105.62
710.998	29287.54
711.342	29125.96
711.687	29135.22
712.031	29006.41
712.375	28923.93
712.719	28892.52
713.063	28809.81
713.407	28792.41
713.75	28754.44
714.094	28814.55
714.438	28705.63
714.782	28670.15
715.125	28548.12
715.469	28551.96
715.812	28409.37
716.156	28275.13
716.499	28183.61
716.843	28350.38
717.186	28095.7
717.53	28292.31
717.873	28270.39
718.216	28204.63
718.559	27956.5
718.902	27799.21
719.246	27961.69
719.589	27800.12
719.932	27764.86
720.275	27782.04
720.617	27696.16
720.96	27620.69
721.303	27680.12
721.646	27598.31
721.989	27445.78
722.331	27608.71
722.674	27361.03
723.016	27551.08
723.359	27529.84
723.701	27379.79
724.044	27227.02
724.386	27114.71
724.729	27325.1
725.071	27107.03
725.413	27123.98
725.755	27184.09
726.097	26992
726.439	26797.43
726.782	26831.78
727.124	27016.41
727.465	26756.98
727.807	26827.71
728.149	26723.53
728.491	26703.65
728.833	26736.42
729.175	26633.82
729.516	26529.19
729.858	26606.02
730.199	26469.53
730.541	26580.71
730.882	26398.35
731.224	26543.43
731.565	26399.93
731.906	26273.15
732.248	26427.05
732.589	26292.13
732.93	26162.42
733.271	26146.37
733.612	26145.7
733.953	26265.92
734.294	26168.75
734.635	26132.36
734.976	26096.88
735.317	26009.43
735.658	25962.88
735.999	25871.58
736.339	25737.35
736.68	25925.14
737.021	25873.39
737.361	25677.01
737.702	25892.6
738.042	25717.46
738.383	25713.17
738.723	25767.4
739.063	25555.2
739.404	25688.53
739.744	25580.74
740.084	25536
740.424	25553.4
740.764	25485.6
741.104	25535.32
741.444	25226.62
741.784	25307.75
742.124	25316.34
742.464	25259.17
742.804	25249
743.143	25185.95
743.483	25141.88
743.823	24987.08
744.162	25091.71
744.502	25096.01
744.841	24966.97
745.181	24984.37
745.52	24843.36
745.86	24913.86
746.199	24894.43
746.538	24837.03
746.877	24869.8
747.216	24811.27
747.556	24694.44
747.895	24747.09
748.234	24707.54
748.573	24552.07
748.911	24544.16
749.25	24547.09
749.589	24531.73
749.928	24539.19
750.267	24594.33
750.605	24421.45
750.944	24323.82
751.283	24321.11
751.621	24369.02
751.96	24143.94
752.298	24132.19
752.636	24146.65
752.975	24055.13
753.313	23971.74
753.651	24147.78
753.989	23848.13
754.327	23881.35
754.666	23750.96
755.004	23900.78
755.342	23851.52
755.679	23677.06
756.017	23614.01
756.355	23706.66
756.693	23541.7
757.031	23567.01
757.368	23482.49
757.706	23495.37
758.044	23304.87
758.381	23386.9
758.719	23239.56
759.056	23299.44
759.394	23092.44
759.731	22977.19
760.068	23046.34
760.405	22943.97
