Data from hue_140_FLMS001491_00002.txt Node
Date: Tue Feb 07 16:55:16 GMT 2017
User: dcchb
Spectrometer: FLMS00149
Trigger mode: 0
Integration Time (sec): 2.000000E-2
Scans to average: 10
Electric dark correction enabled: true
Nonlinearity correction enabled: false
Boxcar width: 0
XAxis mode: Wavelengths
Number of Pixels in Spectrum: 2048
>>>>>Begin Spectral Data<<<<<
341.393	11.68
341.776	11.68
342.16	11.68
342.543	-81.65
342.927	-64.25
343.31	-74.19
343.693	-78.49
344.077	-51.59
344.46	-66.74
344.843	-58.37
345.226	-37.36
345.61	-21.09
345.993	-24.7
346.376	2.42
346.759	4
347.142	36.99
347.525	54.84
347.908	66.82
348.291	73.83
348.674	82.19
349.057	91.45
349.44	130.55
349.823	133.94
350.206	158.12
350.588	198.34
350.971	208.06
351.354	225.46
351.737	227.95
352.119	246.7
352.502	248.51
352.884	276.31
353.267	272.69
353.65	301.16
354.032	308.62
354.414	298.9
354.797	312.69
355.179	296.64
355.562	298.45
355.944	322.63
356.326	316.76
356.709	329.64
357.091	337.32
357.473	340.94
357.855	336.42
358.238	349.98
358.62	339.13
359.002	315.85
359.384	338
359.766	337.1
360.148	337.32
360.53	347.26
360.912	327.6
361.294	331.67
361.676	348.62
362.057	328.73
362.439	332.35
362.821	341.62
363.203	330.54
363.584	333.71
363.966	324.44
364.348	324.44
364.729	322.41
365.111	329.86
365.493	318.79
365.874	300.26
366.256	323.54
366.637	310.43
367.019	323.99
367.4	301.16
367.781	309.75
368.163	302.07
368.544	315.63
368.925	297.1
369.306	314.05
369.688	321.5
370.069	313.14
370.45	329.64
370.831	318.79
371.212	319.69
371.593	307.27
371.974	312.24
372.355	308.17
372.736	306.59
373.117	328.96
373.498	305.01
373.879	321.05
374.26	318.57
374.641	317.21
375.021	302.97
375.402	309.75
375.783	322.41
376.163	332.8
376.544	328.73
376.925	324.89
377.305	322.18
377.686	335.97
378.066	336.19
378.447	316.98
378.827	347.26
379.208	333.48
379.588	346.36
379.968	337.77
380.349	337.32
380.729	319.24
381.109	327.83
381.489	332.12
381.87	330.32
382.25	331.22
382.63	343.88
383.01	326.25
383.39	342.07
383.77	352.69
384.15	349.07
384.53	358.34
384.91	350.65
385.29	352.24
385.67	314.27
386.049	366.93
386.429	348.85
386.809	357.66
387.189	358.34
387.568	342.07
387.948	369.64
388.328	344.78
388.707	378
389.087	338.9
389.466	383.2
389.846	377.09
390.225	363.99
390.605	363.99
390.984	350.2
391.363	370.09
391.743	367.38
392.122	378
392.501	374.38
392.881	378.68
393.26	359.47
393.639	392.69
394.018	354.04
394.397	367.83
394.776	384.78
395.155	375.51
395.534	372.8
395.913	385.91
396.292	383.42
396.671	389.07
397.05	387.94
397.429	392.69
397.808	399.01
398.186	386.36
398.565	397.43
398.944	381.61
399.323	403.31
399.701	396.53
400.08	371.22
400.458	419.13
400.837	420.03
401.215	409.41
401.594	422.07
401.972	415.06
402.351	417.32
402.729	423.65
403.107	408.73
403.486	426.81
403.864	422.52
404.242	432.69
404.62	422.74
404.999	441.95
405.377	435.85
405.755	433.14
406.133	440.14
406.511	411.9
406.889	435.4
407.267	451.67
407.645	444.44
408.023	438.34
408.401	430.2
408.779	449.18
409.156	436.98
409.534	440.82
409.912	454.83
410.29	441.5
410.667	477.43
411.045	466.58
411.422	468.62
411.8	494.38
412.178	464.32
412.555	457.32
412.933	473.59
413.31	464.1
413.687	487.6
414.065	473.14
414.442	512.91
414.819	486.7
415.197	486.7
415.574	490.54
415.951	499.8
416.328	514.04
416.705	502.74
417.082	505
417.46	526.92
417.837	529.86
418.214	522.63
418.591	530.99
418.967	529.18
419.344	542.29
419.721	514.72
420.098	546.58
420.475	518.79
420.852	532.8
421.228	556.75
421.605	533.93
421.982	562.63
422.358	549.97
422.735	551.33
423.111	579.8
423.488	556.3
423.864	552.91
424.241	573.02
424.617	569.18
424.994	551.33
425.37	594.04
425.746	581.83
426.123	581.61
426.499	596.98
426.875	606.92
427.251	607.6
427.627	603.08
428.003	599.69
428.379	637.88
428.756	640.82
429.132	632.23
429.507	624.77
429.883	648.27
430.259	669.74
430.635	647.6
431.011	644.66
431.387	654.38
431.763	655.73
432.138	670.87
432.514	681.95
432.89	675.39
433.265	678.56
433.641	680.82
434.016	695.05
434.392	708.16
434.767	693.47
435.143	686.69
435.518	704.77
435.894	721.94
436.269	745.67
436.644	752.45
437.02	731.44
437.395	752.45
437.77	771.43
438.145	776.63
438.52	774.6
438.895	778.89
439.271	766.46
439.646	789.51
440.021	771.43
440.395	774.6
440.77	806.24
441.145	811.43
441.52	812.56
441.895	837.65
442.27	840.81
442.645	833.58
443.019	830.64
443.394	839.46
443.769	830.87
444.143	823.86
444.518	866.57
444.892	842.62
445.267	848.72
445.641	862.28
446.016	875.84
446.39	902.96
446.764	875.84
447.139	879.23
447.513	886.91
447.887	876.29
448.262	890.98
448.636	915.16
449.01	909.28
449.384	936.18
449.758	916.97
450.132	926.23
450.506	922.84
450.88	913.58
451.254	961.49
451.628	942.73
452.002	982.05
452.376	987.47
452.75	987.02
453.123	987.47
453.497	993.35
453.871	1026.12
454.244	1033.35
454.618	1046.23
454.992	1057.53
455.365	1043.29
455.739	1046.46
456.112	1076.51
456.486	1085.55
456.859	1086.68
457.232	1089.62
457.606	1108.6
457.979	1123.97
458.352	1130.07
458.725	1150.41
459.099	1174.36
459.472	1186.79
459.845	1193.12
460.218	1214.13
460.591	1242.16
460.964	1259.56
461.337	1274.92
461.71	1268.14
462.083	1306.34
462.456	1294.58
462.829	1330.06
463.201	1342.94
463.574	1355.37
463.947	1356.96
464.32	1377.07
464.692	1395.82
465.065	1385.2
465.438	1427.69
465.81	1474.69
466.183	1487.12
466.555	1514.69
466.928	1532.32
467.3	1538.19
467.672	1565.76
468.045	1592.88
468.417	1583.16
468.789	1624.07
469.161	1663.61
469.534	1690.96
469.906	1722.14
470.278	1748.36
470.65	1754.69
471.022	1812.31
471.394	1854.8
471.766	1854.12
472.138	1899.77
472.51	1958.52
472.882	2017.28
473.253	2034.9
473.625	2061.34
473.997	2115.81
474.369	2171.4
474.74	2169.59
475.112	2273.54
475.484	2265.63
475.855	2341.11
476.227	2444.61
476.598	2501.33
476.97	2533.65
477.341	2577.71
477.713	2647.77
478.084	2699.07
478.455	2821.32
478.827	2858.61
479.198	2952.85
479.569	2987.2
479.94	3107.64
480.311	3140.41
480.682	3278.71
481.053	3375.21
481.424	3452.95
481.795	3532.27
482.166	3628.76
482.537	3701.53
482.908	3851.81
483.279	3893.61
483.65	4001.41
484.021	4127.05
484.391	4209.76
484.762	4325.01
485.133	4395.75
485.503	4536.99
485.874	4697.21
486.244	4836.41
486.615	4896.52
486.985	5047.71
487.356	5171.09
487.726	5301.03
488.097	5433.01
488.467	5522.95
488.837	5692.44
489.207	5847.46
489.578	5951.64
489.948	6034.57
490.318	6231.18
490.688	6342.36
491.058	6534.45
491.428	6600.89
491.798	6765.63
492.168	6956.58
492.538	7020.08
492.908	7254.88
493.278	7398.38
493.648	7458.26
494.017	7651.48
494.387	7774.19
494.757	7911.81
495.126	8053.28
495.496	8160.39
495.866	8249.2
496.235	8431.57
496.605	8509.31
496.974	8679.93
497.344	8797.44
497.713	8905.68
498.082	9011.22
498.452	9189.74
498.821	9306.13
499.19	9362.4
499.559	9448.72
499.928	9631.54
500.298	9729.84
500.667	9854.36
501.036	9931.19
501.405	10078.53
501.774	10137.29
502.143	10294.12
502.512	10385.87
502.88	10452.76
503.249	10505.87
503.618	10585.19
503.987	10741.57
504.356	10788.35
504.724	10887.33
505.093	11001.22
505.462	11053.88
505.83	11142.24
506.199	11170.26
506.567	11382.23
506.936	11336.58
507.304	11464.03
507.672	11582.9
508.041	11652.96
508.409	11821.09
508.777	11921.65
509.145	11994.64
509.514	11978.15
509.882	12028.09
510.25	12041.19
510.618	12182.66
510.986	12281.19
511.354	12341.53
511.722	12391.47
512.09	12516.66
512.458	12528.41
512.826	12617.68
513.193	12709.43
513.561	12640.73
513.929	12661.74
514.297	12775.19
514.664	12911
515.032	12866.94
515.4	12992.13
515.767	13071.22
516.135	13090.66
516.502	13060.83
516.869	13207.04
517.237	13140.83
517.604	13117.1
517.972	13319.13
518.339	13232.58
518.706	13320.48
519.073	13313.93
519.44	13403.19
519.808	13519.57
520.175	13430.54
520.542	13571.32
520.909	13603.87
521.276	13590.76
521.643	13695.16
522.009	13695.61
522.376	13743.07
522.743	13844.09
523.11	13911.43
523.477	13963.4
523.843	13918.89
524.21	14020.35
524.577	14047.02
524.943	14086.11
525.31	14117.07
525.676	14244.75
526.043	14176.73
526.409	14177.18
526.776	14235.94
527.142	14262.83
527.508	14237.97
527.874	14348.7
528.241	14304.19
528.607	14290.63
528.973	14451.75
529.339	14345.54
529.705	14447.91
530.071	14480
530.437	14439.32
530.803	14438.19
531.169	14471.64
531.535	14374.01
531.901	14382.6
532.267	14329.95
532.632	14423.96
532.998	14443.84
533.364	14531.52
533.73	14417.4
534.095	14477.06
534.461	14494.92
534.826	14450.4
535.192	14387.57
535.557	14460.34
535.923	14393.9
536.288	14373.11
536.653	14429.61
537.019	14252.21
537.384	14229.84
537.749	14281.59
538.114	14216.73
538.479	14185.09
538.845	14270.97
539.21	14112.33
539.575	14162.49
539.94	14048.37
540.305	14063.97
540.67	14058.54
541.034	13968.15
541.399	14024.42
541.764	13972.22
542.129	13958.66
542.494	13937.64
542.858	13903.29
543.223	13835.95
543.587	13948.72
543.952	13782.17
544.316	13727.03
544.681	13686.8
545.045	13751.21
545.41	13772.67
545.774	13684.77
546.138	13679.8
546.503	13679.57
546.867	13520.7
547.231	13656.52
547.595	13550.31
547.959	13552.79
548.324	13451.78
548.688	13378.56
549.052	13416.3
549.416	13330.43
549.779	13290.88
550.143	13278.68
550.507	13261.95
550.871	13293.82
551.235	13199.36
551.599	13277.55
551.962	13149.87
552.326	13300.37
552.689	13117.1
553.053	13115.29
553.417	13032.36
553.78	13202.07
554.143	13059.02
554.507	13134.95
554.87	13044.11
555.234	13128.85
555.597	13078.91
555.96	13026.48
556.323	12989.42
556.686	12889.08
557.05	12963.66
557.413	12990.55
557.776	13001.17
558.139	13042.07
558.502	12983.77
558.865	12923.66
559.228	12989.19
559.59	13018.12
559.953	12911.45
560.316	13015.41
560.679	13038.68
561.041	12973.83
561.404	13062.18
561.767	13113.71
562.129	13008.63
562.492	13053.6
562.854	12872.59
563.217	13033.94
563.579	12963.2
563.941	13056.76
564.304	13066.03
564.666	13040.49
565.028	13003.43
565.39	13040.72
565.753	13024.22
566.115	13085.46
566.477	13131.34
566.839	13090.43
567.201	13138.57
567.563	13173.37
567.925	13165.68
568.287	13135.4
568.648	13156.87
569.01	13281.84
569.372	13288.85
569.734	13234.38
570.095	13217.21
570.457	13276.87
570.819	13296.98
571.18	13233.03
571.542	13338.34
571.903	13290.2
572.265	13354.15
572.626	13318.9
572.987	13373.14
573.349	13364.55
573.71	13425.57
574.071	13350.76
574.432	13471.44
574.794	13487.71
575.155	13417.2
575.516	13398.9
575.877	13369.3
576.238	13489.74
576.599	13509.4
576.96	13477.54
577.32	13443.42
577.681	13428.05
578.042	13522.29
578.403	13489.97
578.763	13513.92
579.124	13388.05
579.485	13568.84
579.845	13573.81
580.206	13519.12
580.566	13486.13
580.927	13429.86
581.287	13503.3
581.648	13435.51
582.008	13527.48
582.368	13520.25
582.728	13602.06
583.089	13462.63
583.449	13436.64
583.809	13498.33
584.169	13452.01
584.529	13460.14
584.889	13457.43
585.249	13436.64
585.609	13359.13
585.969	13378.11
586.329	13425.11
586.688	13449.97
587.048	13329.75
587.408	13354.83
587.768	13371.1
588.127	13359.13
588.487	13295.85
588.846	13407.71
589.206	13252.01
589.565	13357.77
589.925	13321.16
590.284	13203.42
590.643	13310.54
591.003	13262.18
591.362	13285
591.721	13306.92
592.08	13274.83
592.44	13245.23
592.799	13233.71
593.158	13262.86
593.517	13193.48
593.876	13234.61
594.235	13247.26
594.593	13218.11
594.952	13250.65
595.311	13211.56
595.67	13205.68
596.029	13300.82
596.387	13261.73
596.746	13260.6
597.104	13279.58
597.463	13134.5
597.822	13215.18
598.18	13175.85
598.538	13231.45
598.897	13325.91
599.255	13085.46
599.613	13316.19
599.972	13248.39
600.33	13291.78
600.688	13203.2
601.046	13203.88
601.404	13186.25
601.762	13268.73
602.12	13293.82
602.478	13186.7
602.836	13220.15
603.194	13141.28
603.552	13268.51
603.91	13141.73
604.268	13188.28
604.625	13142.86
604.983	13225.34
605.341	13056.99
605.698	13173.59
606.056	13193.93
606.413	13234.61
606.771	13232.12
607.128	13214.05
607.485	13152.8
607.843	13201.62
608.2	13232.35
608.557	13336.53
608.914	13250.88
609.272	13242.29
609.629	13283.65
609.986	13357.32
610.343	13311.67
610.7	13381.95
611.057	13285.68
611.414	13367.26
611.771	13362.52
612.127	13485.22
612.484	13354.15
612.841	13488.39
613.198	13264.89
613.554	13393.48
613.911	13495.39
614.267	13418.33
614.624	13284.78
614.98	13429.86
615.337	13438.22
615.693	13476.86
616.05	13555.05
616.406	13511.66
616.762	13468.5
617.118	13545.79
617.475	13448.16
617.831	13455.62
618.187	13586.69
618.543	13571.32
618.899	13645.9
619.255	13590.98
619.611	13536.75
619.967	13588.5
620.323	13634.83
620.678	13628.27
621.034	13521.61
621.39	13550.76
621.746	13441.16
622.101	13726.35
622.457	13622.4
622.812	13506.01
623.168	13529.52
623.523	13587.37
623.879	13706.24
624.234	13544.21
624.589	13599.35
624.945	13635.5
625.3	13672.56
625.655	13639.57
626.01	13593.92
626.365	13548.27
626.72	13592.79
627.075	13613.81
627.43	13633.24
627.785	13554.83
628.14	13624.43
628.495	13559.12
628.85	13596.41
629.205	13574.26
629.559	13583.3
629.914	13585.11
630.269	13579.46
630.623	13438.45
630.978	13513.47
631.332	13550.53
631.687	13527.26
632.041	13486.81
632.396	13532.91
632.75	13394.15
633.104	13511.89
633.459	13345.12
633.813	13382.63
634.167	13409.75
634.521	13394.15
634.875	13440.03
635.229	13384.89
635.583	13309.41
635.937	13302.86
636.291	13321.61
636.645	13309.86
636.999	13273.25
637.352	13287.94
637.706	13210.88
638.06	13246.81
638.413	13096.76
638.767	13125.23
639.121	13213.14
639.474	13156.87
639.828	13088.4
640.181	13100.15
640.534	13149.64
640.888	13118
641.241	13001.85
641.594	13045.69
641.947	13140.37
642.301	13069.19
642.654	13070.77
643.007	13008.85
643.36	13095.4
643.713	13079.13
644.066	13085.69
644.419	12973.15
644.771	12988.29
645.124	12762.76
645.477	12806.37
645.83	12736.54
646.182	12744.45
646.535	12567.96
646.888	12717.11
647.24	12687.51
647.593	12723.44
647.945	12605.25
648.298	12559.15
648.65	12531.8
649.002	12590.11
649.355	12621.52
649.707	12552.14
650.059	12641.86
650.411	12775.41
650.763	12786.03
651.115	12957.33
651.467	12885.24
651.819	12967.72
652.171	12869.42
652.523	12816.32
652.875	12864.9
653.227	12776.09
653.578	12948.29
653.93	12851.79
654.282	12823.77
654.633	12744
654.985	12904.9
655.337	12830.33
655.688	12782.64
656.039	12861.96
656.391	12772.47
656.742	12784.9
657.094	12829.42
657.445	12885.47
657.796	12845.92
658.147	12875.75
658.498	12870.78
658.849	12863.77
659.2	12920.72
659.551	12812.25
659.902	12905.13
660.253	12894.28
660.604	12888.4
660.955	12758.69
661.306	12881.4
661.656	12816.32
662.007	12914.62
662.358	12925.24
662.708	12903.32
663.059	12920.49
663.409	12806.15
663.76	12855.64
664.11	12921.17
664.461	12968.63
664.811	12932.92
665.161	12886.37
665.511	12921.17
665.862	12922.3
666.212	12951.68
666.562	12925.01
666.912	12956.2
667.262	12900.61
667.612	12870.78
667.962	12882.53
668.312	12901.06
668.662	12948.29
669.011	12911.45
669.361	12848.18
669.711	12847.05
670.06	12848.86
670.41	12818.35
670.76	12785.13
671.109	12855.41
671.459	12861.29
671.808	12768.63
672.157	12793.04
672.507	12731.35
672.856	12776.09
673.205	12824.9
673.554	12760.05
673.904	12784.9
674.253	12787.16
674.602	12814.51
674.951	12533.39
675.3	12593.5
675.649	12668.07
675.998	12717.34
676.346	12669.2
676.695	12737.67
677.044	12718.24
677.393	12683.44
677.741	12700.84
678.09	12664.91
678.438	12635.53
678.787	12703.1
679.135	12614.74
679.484	12523.22
679.832	12614.29
680.181	12532.26
680.529	12543.55
680.877	12451.81
681.225	12581.07
681.573	12511.01
681.922	12445.03
682.27	12463.1
682.618	12436.89
682.966	12437.34
683.314	12353.95
683.661	12308.76
684.009	12274.63
684.357	12249.55
684.705	12252.71
685.053	12271.47
685.4	12174.75
685.748	12082.78
686.095	12089.1
686.443	12138.82
686.79	12121.19
687.138	12125.03
687.485	12053.62
687.832	12019.73
688.18	12063.79
688.527	11951.48
688.874	11916.9
689.221	11937.69
689.568	11840.07
689.915	11838.26
690.262	11867.19
690.609	11788.09
690.956	11744.48
691.303	11687.98
691.65	11662.45
691.997	11660.19
692.344	11633.07
692.69	11604.6
693.037	11547.42
693.383	11432.4
693.73	11474.2
694.077	11431.72
694.423	11422
694.769	11360.76
695.116	11298.84
695.462	11292.06
695.808	11301.55
696.155	11246.64
696.501	11180.43
696.847	11169.35
697.193	11036.7
697.539	11112.86
697.885	11054.55
698.231	10931.62
698.577	10987.44
698.923	10935.91
699.269	10886.87
699.614	10811.17
699.96	10784.05
700.306	10848.01
700.651	10768.69
700.997	10720.1
701.342	10781.79
701.688	10608.46
702.033	10537.96
702.379	10527.56
702.724	10499.54
703.069	10609.59
703.415	10421.8
703.76	10481.69
704.105	10446.66
704.45	10435.14
704.795	10357.4
705.14	10297.74
705.485	10260.9
705.83	10236.27
706.175	10293.67
706.52	10231.75
706.865	10145.65
707.209	10162.37
707.554	10076.5
707.899	10118.53
708.243	10013.23
708.588	10090.74
708.932	9956.5
709.277	9920.35
709.621	9965.32
709.966	9886.45
710.31	9870.4
710.654	9836.73
710.998	9782.72
711.342	9813.68
711.687	9719.22
712.031	9805.1
712.375	9663.4
712.719	9688.49
713.063	9685.78
713.407	9694.59
713.75	9673.8
714.094	9647.81
714.438	9623.86
714.782	9584.54
715.125	9594.03
715.469	9626.79
715.812	9547.25
716.156	9439
716.499	9502.28
716.843	9466.57
717.186	9444.88
717.53	9533.69
717.873	9462.96
718.216	9478.32
718.559	9435.84
718.902	9387.03
719.246	9415.28
719.589	9362.62
719.932	9321.94
720.275	9330.76
720.617	9290.98
720.96	9282.4
721.303	9277.2
721.646	9290.08
721.989	9291.66
722.331	9305.67
722.674	9221.38
723.016	9272.68
723.359	9213.02
723.701	9253.02
724.044	9169.18
724.386	9173.25
724.729	9239.91
725.071	9167.37
725.413	9167.15
725.755	9178.45
726.097	9098.22
726.439	9104.32
726.782	9146.13
727.124	9122.4
727.465	9044.21
727.807	9044.21
728.149	9066.58
728.491	9034.95
728.833	9051.67
729.175	9085.34
729.516	9013.7
729.858	9093.48
730.199	9076.3
730.541	9089.41
730.882	9033.36
731.224	9090.76
731.565	8986.36
731.906	9018
732.248	9082.63
732.589	8992.69
732.93	8977.09
733.271	8971.9
733.612	8949.75
733.953	9085.34
734.294	9020.94
734.635	9000.6
734.976	9007.15
735.317	8937.77
735.658	8988.39
735.999	9049.86
736.339	9070.2
736.68	9083.31
737.021	9050.09
737.361	8962.18
737.702	9065.91
738.042	9066.13
738.383	9050.99
738.723	9003.53
739.063	9073.14
739.404	9196.07
739.744	9080.37
740.084	9038.34
740.424	9117.2
740.764	9089.86
741.104	9088.5
741.444	9180.48
741.784	9180.48
742.124	9151.1
742.464	9136.86
742.804	9128.28
743.143	9205.11
743.483	9188.61
743.823	9180.7
744.162	9308.61
744.502	9319.23
744.841	9312.68
745.181	9275.84
745.52	9362.62
745.86	9421.83
746.199	9487.59
746.538	9468.83
746.877	9603.29
747.216	9585.67
747.556	9602.84
747.895	9620.69
748.234	9740.24
748.573	9755.15
748.911	9715.83
749.25	9862.04
749.589	9864.3
749.928	10018.42
750.267	10048.7
750.605	10162.6
750.944	10204.63
751.283	10255.93
751.621	10375.25
751.96	10365.31
752.298	10524.85
752.636	10618.63
752.975	10726.43
753.313	10764.17
753.651	10973.88
753.989	10979.08
754.327	11058.85
754.666	11125.96
755.004	11337.71
755.342	11504.94
755.679	11661.54
756.017	11763.24
756.355	11837.13
756.693	11967.3
757.031	12211.81
757.368	12210.91
757.706	12405.03
758.044	12567.28
758.381	12733.61
758.719	12876.2
759.056	13105.35
