Data from hue_40_FLMS001491_54.txt Node
Date: Mon Feb 06 15:08:06 GMT 2017
User: dcchb
Spectrometer: FLMS00149
Trigger mode: 0
Integration Time (sec): 2.000000E-2
Scans to average: 10
Electric dark correction enabled: true
Nonlinearity correction enabled: false
Boxcar width: 0
XAxis mode: Wavelengths
Number of Pixels in Spectrum: 2048
>>>>>Begin Spectral Data<<<<<
341.393	-9.14
341.776	-9.14
342.16	-9.14
342.543	-62.02
342.927	-53.66
343.31	-64.73
343.693	-76.48
344.077	-66.31
344.46	-63.15
344.843	-41.23
345.226	-36.03
345.61	-14.56
345.993	-5.52
346.376	-31.28
346.759	9.39
347.142	41.48
347.525	50.07
347.908	65.44
348.291	59.11
348.674	75.61
349.057	98.2
349.44	123.29
349.823	154.7
350.206	145.21
350.588	207.81
350.971	210.29
351.354	232.66
351.737	245.77
352.119	245.54
352.502	264.07
352.884	279.67
353.267	282.61
353.65	308.37
354.032	325.32
354.414	320.57
354.797	313.11
355.179	314.7
355.562	349.04
355.944	340.01
356.326	325.54
356.709	341.36
357.091	341.14
357.473	339.33
357.855	331.42
358.238	344.98
358.62	350.4
359.002	357.18
359.384	361.7
359.766	349.27
360.148	339.55
360.53	342.72
360.912	342.49
361.294	350.4
361.676	332.32
362.057	349.5
362.439	330.06
362.821	349.95
363.203	332.1
363.584	337.97
363.966	330.97
364.348	327.58
364.729	337.75
365.111	317.86
365.493	347.91
365.874	330.29
366.256	320.57
366.637	323.06
367.019	323.06
367.4	327.35
367.781	322.38
368.163	308.59
368.544	332.77
368.925	335.94
369.306	328.25
369.688	310.18
370.069	315.15
370.45	326.22
370.831	323.73
371.212	323.73
371.593	327.58
371.974	311.31
372.355	329.61
372.736	312.89
373.117	322.6
373.498	338.2
373.879	306.11
374.26	320.34
374.641	314.24
375.021	317.41
375.402	341.36
375.783	326.45
376.163	316.28
376.544	319.67
376.925	345.43
377.305	327.8
377.686	329.84
378.066	330.06
378.447	333.68
378.827	335.26
379.208	328.25
379.588	335.03
379.968	349.04
380.349	324.86
380.729	338.2
381.109	366.45
381.489	351.3
381.87	336.39
382.25	335.94
382.63	343.62
383.01	353.56
383.39	363.96
383.77	356.95
384.15	354.92
384.53	364.19
384.91	358.54
385.29	348.59
385.67	377.29
386.049	361.93
386.429	345.43
386.809	355.82
387.189	367.58
387.568	363.96
387.948	344.98
388.328	384.98
388.707	355.6
389.087	374.81
389.466	368.7
389.846	362.38
390.225	367.58
390.605	375.94
390.984	372.09
391.363	386.56
391.743	378.42
392.122	363.28
392.501	392.43
392.881	379.1
393.26	385.88
393.639	368.93
394.018	355.37
394.397	389.95
394.776	413.22
395.155	400.79
395.534	382.26
395.913	402.38
396.292	379.78
396.671	382.72
397.05	403.96
397.429	385.2
397.808	380.68
398.186	397.4
398.565	399.21
398.944	387.01
399.323	413.45
399.701	386.56
400.08	407.12
400.458	408.93
400.837	401.47
401.215	415.26
401.594	403.73
401.972	424.97
402.351	417.97
402.729	408.25
403.107	416.39
403.486	416.61
403.864	428.14
404.242	411.42
404.62	418.42
404.999	437.63
405.377	434.24
405.755	434.47
406.133	437.86
406.511	427.91
406.889	433.11
407.267	443.96
407.645	444.18
408.023	442.15
408.401	452.77
408.779	452.54
409.156	442.15
409.534	445.77
409.912	448.25
410.29	463.84
410.667	450.28
411.045	467.01
411.422	462.49
411.8	469.72
412.178	484.63
412.555	470.62
412.933	502.26
413.31	482.37
413.687	474.92
414.065	506.1
414.442	511.07
414.819	498.19
415.197	493.67
415.574	507.91
415.951	512.2
416.328	480.57
416.705	497.97
417.082	500.23
417.46	513.56
417.837	523.28
418.214	537.74
418.591	509.49
418.967	503.62
419.344	528.25
419.721	548.36
420.098	530.28
420.475	535.71
420.852	532.09
421.228	545.2
421.605	553.33
421.982	551.75
422.358	538.64
422.735	556.27
423.111	532.77
423.488	548.59
423.864	552.88
424.241	573.22
424.617	589.94
424.994	574.58
425.37	572.54
425.746	572.77
426.123	586.78
426.499	599.89
426.875	603.5
427.251	614.57
427.627	594.46
428.003	601.69
428.379	618.42
428.756	603.28
429.132	622.48
429.507	627.46
429.883	628.81
430.259	633.1
430.635	635.82
431.011	635.36
431.387	635.59
431.763	672.65
432.138	660.22
432.514	687.79
432.89	691.86
433.265	694.35
433.641	677.4
434.016	697.51
434.392	684.4
434.767	708.58
435.143	694.35
435.518	694.57
435.894	699.77
436.269	735.02
436.644	733.89
437.02	716.72
437.395	708.81
437.77	755.36
438.145	738.86
438.52	719.88
438.895	759.66
439.271	747.45
439.646	777.73
440.021	754.23
440.395	752.65
440.77	756.04
441.145	787.23
441.52	791.29
441.895	782.03
442.27	799.88
442.645	784.74
443.019	803.27
443.394	810.5
443.769	801.24
444.143	810.28
444.518	834
444.892	823.61
445.267	828.35
445.641	809.15
446.016	841.46
446.39	830.84
446.764	830.61
447.139	850.05
447.513	863.83
447.887	859.77
448.262	840.78
448.636	871.29
449.01	856.15
449.384	900.44
449.758	888.47
450.132	886.66
450.506	896.83
450.88	902.02
451.254	892.31
451.628	911.52
452.002	925.98
452.376	904.74
452.75	949.25
453.123	937.73
453.497	961.46
453.871	961.91
454.244	951.74
454.618	971.18
454.992	989.25
455.365	1001.23
455.739	1034.22
456.112	1017.73
456.486	1015.02
456.859	1051.17
457.232	1076.26
457.606	1079.42
457.979	1071.29
458.352	1076.03
458.725	1113.32
459.099	1105.18
459.472	1124.84
459.845	1128.01
460.218	1135.46
460.591	1141.57
460.964	1149.7
461.337	1160.32
461.71	1201.68
462.083	1195.58
462.456	1218.63
462.829	1260.88
463.201	1262.24
463.574	1241.45
463.947	1269.02
464.32	1282.35
464.692	1283.03
465.065	1309.25
465.438	1329.13
465.81	1352.63
466.183	1361.67
466.555	1401.45
466.928	1403.93
467.3	1412.97
467.672	1454.55
468.045	1462.46
468.417	1478.96
468.789	1463.14
469.161	1493.87
469.534	1521.44
469.906	1568
470.278	1548.79
470.65	1582.01
471.022	1639.86
471.394	1675.79
471.766	1675.34
472.138	1725.73
472.51	1739.06
472.882	1784.94
473.253	1817.48
473.625	1853.86
473.997	1891.15
474.369	1925.05
474.74	1958.49
475.112	1981.77
475.484	2036.01
475.855	2085.27
476.227	2144.48
476.598	2205.27
476.97	2220.18
477.341	2297.69
477.713	2348.99
478.084	2353.51
478.455	2414.3
478.827	2478.71
479.198	2587.18
479.569	2621.98
479.94	2711.69
480.311	2753.5
480.682	2845.25
481.053	2882.99
481.424	2984
481.795	3076.2
482.166	3130.44
482.537	3157.56
482.908	3328.18
483.279	3379.25
483.65	3450.66
484.021	3555.06
484.391	3675.06
484.762	3706.47
485.133	3814.94
485.503	3855.84
485.874	4048.38
486.244	4051.55
486.615	4202.95
486.985	4251.31
487.356	4436.17
487.726	4537.63
488.097	4646.11
488.467	4686.11
488.837	4852.88
489.207	4940.11
489.578	5081.12
489.948	5181.46
490.318	5263.94
490.688	5340.55
491.058	5481.79
491.428	5569.02
491.798	5709.58
492.168	5863.48
492.538	5933.76
492.908	6092.62
493.278	6218.27
493.648	6240.42
494.017	6403.35
494.387	6458.49
494.757	6616.45
495.126	6661.19
495.496	6771.93
495.866	6900.51
496.235	7046.5
496.605	7198.13
496.974	7259.37
497.344	7368.29
497.713	7402.42
498.082	7555.63
498.452	7676.08
498.821	7771.67
499.19	7896.64
499.559	7952.91
499.928	8055.73
500.298	8167.37
500.667	8291.43
501.036	8297.54
501.405	8441.49
501.774	8415.5
502.143	8534.37
502.512	8649.62
502.88	8773.68
503.249	8834.92
503.618	8937.97
503.987	8989.5
504.356	9100.23
504.724	9140.23
505.093	9264.97
505.462	9337.28
505.83	9372.99
506.199	9507.45
506.567	9681.23
506.936	9714.67
507.304	9803.49
507.672	9902.92
508.041	9951.73
508.409	10077.6
508.777	10162.57
509.145	10223.59
509.514	10247.77
509.882	10349.91
510.25	10402.11
510.618	10576.8
510.986	10551.49
511.354	10654.76
511.722	10808.43
512.09	10876.9
512.458	10885.72
512.826	11044.58
513.193	11038.25
513.561	11125.03
513.929	11183.56
514.297	11297.23
514.664	11413.61
515.032	11387.85
515.4	11548.3
515.767	11582.87
516.135	11718.46
516.502	11666.94
516.869	11827.84
517.237	11860.38
517.604	11892.47
517.972	12045.69
518.339	12109.64
518.706	12180.15
519.073	12195.96
519.44	12252.91
519.808	12391.44
520.175	12390.76
520.542	12566.58
520.909	12696.52
521.276	12710.3
521.643	12851.09
522.009	12861.48
522.376	12954.81
522.743	13048.15
523.11	13132.44
523.477	13233.9
523.843	13356.84
524.21	13407.46
524.577	13568.81
524.943	13560
525.31	13634.12
525.676	13826.2
526.043	13867.33
526.409	13976.93
526.776	14054.67
527.142	14071.4
527.508	14190.94
527.874	14290.6
528.241	14368.56
528.607	14508.67
528.973	14603.13
529.339	14638.84
529.705	14728.55
530.071	14871.6
530.437	14836.8
530.803	14965.61
531.169	15067.53
531.535	15071.14
531.901	15192.5
532.267	15269.1
532.632	15314.07
532.998	15389.78
533.364	15462.55
533.73	15474.3
534.095	15627.74
534.461	15709.32
534.826	15723.33
535.192	15868.41
535.557	16028.86
535.923	15940.95
536.288	16027.5
536.653	16116.31
537.019	16101.62
537.384	16186.37
537.749	16295.97
538.114	16320.15
538.479	16333.26
538.845	16506.13
539.21	16437.44
539.575	16548.17
539.94	16608.05
540.305	16733.25
540.67	16623.19
541.034	16813.92
541.399	16907.25
541.764	16958.1
542.129	17006.01
542.494	17019.34
542.858	17090.75
543.223	17112.67
543.587	17273.35
543.952	17297.07
544.316	17344.76
544.681	17428.14
545.045	17508.14
545.41	17486.9
545.774	17551.53
546.138	17667.69
546.503	17763.73
546.867	17754.24
547.231	17927.57
547.595	17942.48
547.959	17978.19
548.324	17984.06
548.688	18034.91
549.052	18177.05
549.416	18170.95
549.779	18291.62
550.143	18252.3
550.507	18384.73
550.871	18461.79
551.235	18442.58
551.599	18532.97
551.962	18726.19
552.326	18765.96
552.689	18780.88
553.053	18784.27
553.417	18806.64
553.78	19070.81
554.143	19003.92
554.507	19097.25
554.87	19129.34
555.234	19231.71
555.597	19233.29
555.96	19344.03
556.323	19316.68
556.686	19502.21
557.05	19514.19
557.413	19622.44
557.776	19622.21
558.139	19849.32
558.502	19721.19
558.865	19875.08
559.228	19948.53
559.59	20035.76
559.953	20060.16
560.316	20219.93
560.679	20163.44
561.041	20388.97
561.404	20427.61
561.767	20586.93
562.129	20447.95
562.492	20781.5
562.854	20743.31
563.217	20791.44
563.579	20838.45
563.941	20997.54
564.304	21058.1
564.666	21124.09
565.028	21122.96
565.39	21288.38
565.753	21408.6
566.115	21460.13
566.477	21561.37
566.839	21618.32
567.201	21754.36
567.563	21743.28
567.925	21832.1
568.287	21821.25
568.648	21913
569.01	22153.44
569.372	22183.27
569.734	22194.35
570.095	22188.7
570.457	22534.22
570.819	22436.6
571.18	22547.33
571.542	22736.7
571.903	22775.35
572.265	22895.34
572.626	22828
572.987	22993.19
573.349	23123.36
573.71	23272.96
574.071	23347.76
574.432	23406.07
574.794	23583.69
575.155	23595.44
575.516	23470.92
575.877	23735.1
576.238	23856.67
576.599	24013.28
576.96	24067.29
577.32	24166.27
577.681	24294.86
578.042	24478.13
578.403	24547.96
578.763	24692.81
579.124	24803.32
579.485	24891.68
579.845	25162.63
580.206	25294.38
580.566	25476.52
580.927	25523.52
581.287	25721.26
581.648	25647.59
582.008	26008.26
582.368	26045.32
582.728	26248.7
583.089	26251.19
583.449	26510.84
583.809	26768.24
584.169	26808.91
584.529	27005.97
584.889	27355.79
585.249	27370.25
585.609	27384.72
585.969	27759.85
586.329	27922.33
586.688	28048.88
587.048	28146.05
587.408	28325.48
587.768	28498.59
588.127	28802.31
588.487	28868.52
588.846	29257.44
589.206	29190.55
589.565	29546.24
589.925	29773.58
590.284	29889.96
590.643	30123.18
591.003	30295.15
591.362	30737.4
591.721	30659.89
592.08	30929.94
592.44	31159.76
592.799	31413.54
593.158	31345.29
593.517	31701.44
593.876	31885.84
594.235	31964.26
594.593	32163.58
594.952	32303.68
595.311	32438.14
595.67	32672.26
596.029	33018.47
596.387	33155.64
596.746	33428.85
597.104	33374.16
597.463	33681.73
597.822	34054.37
598.18	33970.53
598.538	34189.28
598.897	34481.03
599.255	34365.33
599.613	35005.08
599.972	34874.92
600.33	35076.94
600.688	35200.78
601.046	35357.84
601.404	35595.8
601.762	35638.51
602.12	36114.66
602.478	36219.97
602.836	36212.28
603.194	36186.52
603.552	36418.83
603.91	36480.75
604.268	36707.18
604.625	36725.94
604.983	36971.36
605.341	36929.33
605.698	37198.7
606.056	37428.07
606.413	37397.56
606.771	37603.21
607.128	37690.66
607.485	37628.97
607.843	37646.37
608.2	38061.73
608.557	38426.69
608.914	38207.26
609.272	38523.86
609.629	38798.43
609.986	38887.92
610.343	38849.73
610.7	39172.2
611.057	39257.85
611.414	39239.32
611.771	39335.59
612.127	39671.85
612.484	39656.26
612.841	39736.26
613.198	39941.9
613.554	39774
613.911	40138.05
614.267	40150.03
614.624	40250.37
614.98	40362.46
615.337	40539.63
615.693	40624.37
616.05	40503.02
616.406	40835.21
616.762	40680.19
617.118	40839.96
617.475	40850.8
617.831	41035.43
618.187	41150.23
618.543	41229.33
618.899	41540.96
619.255	41504.57
619.611	41531.92
619.967	41730.1
620.323	41756.09
620.678	41667.05
621.034	41650.33
621.39	41686.94
621.746	41739.59
622.101	42179.13
622.457	41958.35
622.812	41974.39
623.168	42059.59
623.523	42095.07
623.879	42206.47
624.234	42140.49
624.589	42322.86
624.945	42218
625.3	42440.82
625.655	42328.51
626.01	42396.53
626.365	42385.68
626.72	42528.5
627.075	42605.11
627.43	42599.46
627.785	42507.71
628.14	42570.53
628.495	42572.12
628.85	42716.97
629.205	42513.81
629.559	42690.3
629.914	42504.32
630.269	42659.12
630.623	42537.54
630.978	42509.07
631.332	42717.87
631.687	42816.4
632.041	42630.42
632.396	42739.79
632.75	42665.45
633.104	42771.21
633.459	42515.85
633.813	42592.91
634.167	42407.6
634.521	42459.8
634.875	42582.28
635.229	42544.09
635.583	42375.96
635.937	42526.69
636.291	42327.83
636.645	42494.38
636.999	42332.35
637.352	42495.51
637.706	42239.24
638.06	42374.38
638.413	42327.15
638.767	42326.02
639.121	42410.31
639.474	42116.53
639.828	42260.48
640.181	42161.5
640.534	42262.52
640.888	41989.76
641.241	42020.94
641.594	42242.41
641.947	42188.62
642.301	41990.44
642.654	42060.72
643.007	42098
643.36	41990.21
643.713	41991.79
644.066	42110.88
644.419	41824.11
644.771	41721.97
645.124	41241.08
645.477	41093.06
645.83	41011.03
646.182	40843.57
646.535	40945.04
646.888	40752.28
647.24	40592.05
647.593	40828.43
647.945	40839.51
648.298	40625.05
648.65	40482.68
649.002	40502.56
649.355	40688.55
649.707	40615.56
650.059	40706.63
650.411	41190.91
650.763	41313.62
651.115	41586.6
651.467	41591.12
651.819	41496.66
652.171	41367.85
652.523	41255.54
652.875	41306.84
653.227	41140.06
653.578	41432.26
653.93	41310.91
654.282	41165.82
654.633	41057.8
654.985	41201.53
655.337	41166.05
655.688	41126.28
656.039	41344.12
656.391	40921.09
656.742	41017.58
657.094	40918.6
657.445	41122.66
657.796	41058.26
658.147	41059.61
658.498	41094.41
658.849	41075.66
659.2	41126.05
659.551	40925.6
659.902	41070.23
660.253	41049.67
660.604	41045.38
660.955	40936.45
661.306	41073.4
661.656	40972.16
662.007	40980.74
662.358	40933.97
662.708	40827.08
663.059	40900.07
663.409	40700.75
663.76	40998.6
664.11	41010.12
664.461	40913.63
664.811	40881.09
665.161	40790.02
665.511	40722.22
665.862	40774.2
666.212	40909.56
666.562	40780.3
666.912	40874.08
667.262	40826.85
667.612	40797.25
667.962	40726.29
668.312	40679.74
668.662	40851.93
669.011	40745.04
669.361	40685.61
669.711	40719.96
670.06	40493.75
670.41	40535.56
670.76	40516.35
671.109	40710.02
671.459	40622.11
671.808	40643.8
672.157	40531.94
672.507	40409.46
672.856	40352.06
673.205	40513.19
673.554	40703.92
673.904	40591.83
674.253	40615.78
674.602	40409.46
674.951	39974.22
675.3	39870.49
675.649	40404.04
675.998	40347.31
676.346	40329.91
676.695	40494.2
677.044	40160.43
677.393	40356.58
677.741	40219.18
678.09	40221.44
678.438	40180.09
678.787	40193.65
679.135	40301.21
679.484	39876.14
679.832	40078.17
680.181	39860.55
680.529	40127.21
680.877	39854.22
681.225	39827.55
681.573	40106.87
681.922	39856.71
682.27	39744.84
682.618	39671.17
682.966	39645.19
683.314	39627.11
683.661	39502.14
684.009	39404.51
684.357	39348.92
684.705	39208.36
685.053	39332.43
685.4	39197.51
685.748	39148.02
686.095	39054.24
686.443	38938.99
686.79	38856.73
687.138	39084.52
687.485	38854.92
687.832	38848.37
688.18	38759.56
688.527	38560.7
688.874	38583.52
689.221	38559.57
689.568	38472.11
689.915	38366.12
690.262	38279.35
690.609	38202.51
690.956	38029.64
691.303	37935.85
691.65	37955.06
691.997	37843.88
692.344	37607.73
692.69	37568.18
693.037	37664.67
693.383	37299.26
693.73	37513.94
694.077	37359.14
694.423	37249.09
694.769	37215.87
695.116	37035.99
695.462	37035.31
695.808	36935.2
696.155	36997.57
696.501	36696.56
696.847	36864.47
697.193	36625.15
697.539	36606.17
697.885	36381.09
698.231	36296.35
698.577	36279.17
698.923	36103.58
699.269	35947.43
699.614	35946.75
699.96	35660.21
700.306	35772.75
700.651	35641
700.997	35634.67
701.342	35512.41
701.688	35465.86
702.033	35412.98
702.379	35324.17
702.724	35214.12
703.069	35293.21
703.415	34821.81
703.76	34991.3
704.105	34816.61
704.45	34835.6
704.795	34495.94
705.14	34495.04
705.485	34515.15
705.83	34354.7
706.175	34366
706.52	34323.74
706.865	34230.19
707.209	34173.92
707.554	33973.92
707.899	34126.01
708.243	33947.48
708.588	33800.14
708.932	33583.42
709.277	33558.34
709.621	33685.34
709.966	33470.21
710.31	33454.16
710.654	33295.97
710.998	33387.05
711.342	33267.05
711.687	33240.16
712.031	33093.27
712.375	32950.22
712.719	32997
713.063	32941.63
713.407	32931.01
713.75	32758.81
714.094	32812.15
714.438	32681.53
714.782	32648.76
715.125	32467.52
715.469	32472.27
715.812	32245.61
716.156	32222.33
716.499	32234.53
716.843	32181.43
717.186	32087.42
717.53	32238.6
717.873	32293.29
718.216	32214.2
718.559	32064.37
718.902	31698.28
719.246	31978.72
719.589	31763.81
719.932	31618.73
720.275	31542.35
720.617	31566.08
720.96	31515.91
721.303	31537.83
721.646	31462.12
721.989	31218.74
722.331	31387.1
722.674	31324.73
723.016	31171.28
723.359	31099.42
723.701	31169.7
724.044	31060.1
724.386	30821.92
724.729	30976.71
725.071	30935.36
725.413	30892.2
725.755	30870.95
726.097	30861.91
726.439	30611.07
726.782	30604.07
727.124	30799.77
727.465	30646.55
727.807	30605.65
728.149	30496.27
728.491	30404.53
728.833	30614.01
729.175	30330.63
729.516	30271.2
729.858	30278.88
730.199	30328.82
730.541	30188.71
730.882	30040.69
731.224	30308.48
731.565	29934.26
731.906	29987.59
732.248	30023.29
732.589	29848.83
732.93	29663.3
733.271	29753.02
733.612	29793.02
733.953	29758.89
734.294	29646.13
734.635	29639.35
734.976	29627.6
735.317	29471.67
735.658	29429.18
735.999	29510.99
736.339	29342.86
736.68	29443.19
737.021	29399.58
737.361	29235.29
737.702	29450.65
738.042	29270.54
738.383	29245.46
738.723	29330.43
739.063	29189.42
739.404	29115.07
739.744	28981.96
740.084	28952.13
740.424	28913.04
740.764	28830.56
741.104	28999.36
741.444	28782.42
741.784	28755.3
742.124	28779.94
742.464	28780.16
742.804	28596.89
743.143	28637.11
743.483	28517.34
743.823	28409.78
744.162	28497
744.502	28504.46
744.841	28248.42
745.181	28469.66
745.52	28257.24
745.86	28360.29
746.199	28238.03
746.538	28258.14
746.877	28176.34
747.216	28159.39
747.556	28028.77
747.895	28148.99
748.234	28000.75
748.573	27981.99
748.911	27833.97
749.25	27831.03
749.589	27811.6
749.928	27749
750.267	27755.56
750.605	27777.02
750.944	27678.27
751.283	27609.8
751.621	27668.55
751.96	27469.01
752.298	27501.78
752.636	27468.56
752.975	27221.56
753.313	27139.07
753.651	27258.85
753.989	27071.51
754.327	27186.76
754.666	27015.46
755.004	27091.62
755.342	27036.48
755.679	26902.47
756.017	26930.72
756.355	27004.16
756.693	26842.59
757.031	26775.02
