Data from hue_310_FLMS001491_43.txt Node
Date: Mon Feb 06 15:49:44 GMT 2017
User: dcchb
Spectrometer: FLMS00149
Trigger mode: 0
Integration Time (sec): 2.000000E-2
Scans to average: 10
Electric dark correction enabled: true
Nonlinearity correction enabled: false
Boxcar width: 0
XAxis mode: Wavelengths
Number of Pixels in Spectrum: 2048
>>>>>Begin Spectral Data<<<<<
341.393	-15.8
341.776	-15.8
342.16	-15.8
342.543	-54.45
342.927	-87.44
343.31	-72.75
343.693	-62.81
344.077	-56.03
344.46	-60.1
344.843	-46.76
345.226	-54.45
345.61	-42.7
345.993	-22.13
346.376	-3.6
346.759	18.77
347.142	41.59
347.525	42.72
347.908	34.82
348.291	68.03
348.674	104.87
349.057	110.52
349.44	131.54
349.823	141.25
350.206	168.15
350.588	201.14
350.971	238.2
351.354	225.32
351.737	237.3
352.119	262.61
352.502	272.1
352.884	279.55
353.267	273.91
353.65	316.39
354.032	297.86
354.414	307.8
354.797	299.22
355.179	310.29
355.562	318.42
355.944	318.2
356.326	346.22
356.709	339.44
357.091	321.36
357.473	332.66
357.855	343.51
358.238	331.3
358.62	342.15
359.002	349.16
359.384	342.15
359.766	343.06
360.148	323.85
360.53	322.04
360.912	337.63
361.294	338.54
361.676	335.15
362.057	333.34
362.439	308.71
362.821	340.12
363.203	326.56
363.584	338.08
363.966	320.46
364.348	334.24
364.729	322.72
365.111	321.81
365.493	333.79
365.874	328.82
366.256	320.23
366.637	322.94
367.019	311.64
367.4	306.45
367.781	320.68
368.163	323.4
368.544	311.64
368.925	316.39
369.306	304.41
369.688	323.17
370.069	321.59
370.45	316.39
370.831	322.49
371.212	331.53
371.593	319.33
371.974	307.12
372.355	309.61
372.736	322.49
373.117	314.81
373.498	323.4
373.879	307.12
374.26	312.77
374.641	314.58
375.021	319.78
375.402	306.22
375.783	335.82
376.163	343.73
376.544	301.7
376.925	320.46
377.305	324.98
377.686	328.37
378.066	324.98
378.447	315.94
378.827	319.55
379.208	334.02
379.588	327.92
379.968	323.17
380.349	353.23
380.729	336.28
381.109	360.91
381.489	327.01
381.87	336.28
382.25	316.16
382.63	335.37
383.01	343.51
383.39	331.53
383.77	346.22
384.15	350.51
384.53	337.86
384.91	339.21
385.29	349.16
385.67	354.36
386.049	338.31
386.429	336.5
386.809	349.61
387.189	361.59
387.568	355.03
387.948	355.26
388.328	360
388.707	371.53
389.087	374.24
389.466	366.56
389.846	369.5
390.225	364.52
390.605	350.51
390.984	369.27
391.363	377.18
391.743	369.95
392.122	368.14
392.501	372.43
392.881	375.37
393.26	377.41
393.639	393.9
394.018	378.31
394.397	363.62
394.776	391.64
395.155	382.38
395.534	385.99
395.913	391.64
396.292	378.31
396.671	384.64
397.05	395.48
397.429	418.31
397.808	395.48
398.186	392.32
398.565	380.12
398.944	389.61
399.323	393.22
399.701	426.9
400.08	403.85
400.458	395.94
400.837	407.24
401.215	414.69
401.594	395.94
401.972	414.01
402.351	423.96
402.729	401.81
403.107	431.87
403.486	411.53
403.864	424.86
404.242	419.66
404.62	429.16
404.999	435.93
405.377	442.94
405.755	440.23
406.133	422.38
406.511	449.49
406.889	458.31
407.267	458.53
407.645	448.59
408.023	456.5
408.401	470.06
408.779	490.62
409.156	450.17
409.534	486.56
409.912	482.49
410.29	481.58
410.667	488.14
411.045	504.63
411.422	527.46
411.8	507.12
412.178	543.95
412.555	537.63
412.933	522.71
413.31	547.34
413.687	528.36
414.065	566.78
414.442	590.96
414.819	560
415.197	572.43
415.574	567.46
415.951	590.51
416.328	600.45
416.705	601.58
417.082	612.2
417.46	643.39
417.837	621.47
418.214	629.38
418.591	634.57
418.967	632.77
419.344	681.35
419.721	659.88
420.098	666.44
420.475	674.57
420.852	664.4
421.228	692.43
421.605	681.13
421.982	711.86
422.358	721.35
422.735	722.26
423.111	706.66
423.488	736.72
423.864	721.58
424.241	747.11
424.617	759.54
424.994	762.48
425.37	774.91
425.746	751.86
426.123	764.97
426.499	797.96
426.875	802.7
427.251	822.37
427.627	825.08
428.003	821.91
428.379	831.18
428.756	836.83
429.132	871.18
429.507	863.27
429.883	868.69
430.259	894.68
430.635	873.89
431.011	901.91
431.387	912.53
431.763	931.74
432.138	907.11
432.514	949.14
432.89	961.34
433.265	955.02
433.641	963.15
434.016	975.13
434.392	996.15
434.767	1007.22
435.143	1013.32
435.518	1013.09
435.894	1036.6
436.269	1067.56
436.644	1062.13
437.02	1069.14
437.395	1068.69
437.77	1117.5
438.145	1110.04
438.52	1092.64
438.895	1128.57
439.271	1125.41
439.646	1156.59
440.021	1146.42
440.395	1148.01
440.77	1163.15
441.145	1146.65
441.52	1168.57
441.895	1169.93
442.27	1178.29
442.645	1199.76
443.019	1203.15
443.394	1188.23
443.769	1211.73
444.143	1195.24
444.518	1178.06
444.892	1211.28
445.267	1206.54
445.641	1223.94
446.016	1253.77
446.39	1204.5
446.764	1247.21
447.139	1242.02
447.513	1266.65
447.887	1257.83
448.262	1281.79
448.636	1268.46
449.01	1265.97
449.384	1271.85
449.758	1292.64
450.132	1300.54
450.506	1314.1
450.88	1311.39
451.254	1308
451.628	1301.9
452.002	1330.6
452.376	1324.73
452.75	1332.86
453.123	1336.25
453.497	1360.66
453.871	1384.38
454.244	1366.08
454.618	1375.35
454.992	1405.17
455.365	1402.69
455.739	1440.43
456.112	1435.46
456.486	1430.26
456.859	1444.72
457.232	1479.52
457.606	1493.53
457.979	1462.57
458.352	1477.94
458.725	1497.83
459.099	1496.92
459.472	1493.76
459.845	1509.35
460.218	1537.15
460.591	1560.43
460.964	1550.71
461.337	1574.21
461.71	1585.51
462.083	1617.37
462.456	1587.99
462.829	1598.16
463.201	1657.15
463.574	1614.66
463.947	1630.48
464.32	1645.39
464.692	1684.72
465.065	1681.78
465.438	1709.8
465.81	1710.48
466.183	1711.61
466.555	1740.53
466.928	1752.28
467.3	1737.6
467.672	1766.52
468.045	1794.32
468.417	1782.79
468.789	1806.52
469.161	1818.27
469.534	1856.91
469.906	1875.67
470.278	1889.23
470.65	1886.07
471.022	1909.79
471.394	1938.27
471.766	1946.86
472.138	1963.8
472.51	1984.37
472.882	2018.72
473.253	2026.18
473.625	2055.55
473.997	2068.89
474.369	2075.21
474.74	2084.71
475.112	2094.87
475.484	2115.21
475.855	2183.91
476.227	2195.89
476.598	2211.26
476.97	2212.39
477.341	2315.21
477.713	2284.02
478.084	2257.81
478.455	2328.77
478.827	2343.46
479.198	2404.47
479.569	2394.53
479.94	2413.06
480.311	2421.19
480.682	2474.75
481.053	2535.77
481.424	2550.23
481.795	2551.36
482.166	2604.92
482.537	2611.02
482.908	2669.32
483.279	2705.03
483.65	2707.29
484.021	2750.22
484.391	2786.83
484.762	2777.79
485.133	2776.66
485.503	2839.04
485.874	2860.73
486.244	2907.06
486.615	2931.24
486.985	2940.95
487.356	2989.31
487.726	2992.93
488.097	3032.48
488.467	3076.32
488.837	3042.65
489.207	3161.96
489.578	3100.05
489.948	3141.17
490.318	3196.09
490.688	3175.52
491.058	3206.94
491.428	3266.37
491.798	3267.5
492.168	3366.48
492.538	3349.3
492.908	3358.34
493.278	3382.52
493.648	3387.95
494.017	3420.04
494.387	3426.36
494.757	3464.56
495.126	3485.57
495.496	3474.95
495.866	3536.19
496.235	3508.17
496.605	3603.54
496.974	3598.79
497.344	3633.36
497.713	3600.37
498.082	3660.71
498.452	3679.01
498.821	3677.43
499.19	3707.94
499.559	3767.15
499.928	3712.01
500.298	3752.01
500.667	3769.41
501.036	3785.9
501.405	3787.49
501.774	3795.62
502.143	3769.41
502.512	3827.03
502.88	3876.07
503.249	3861.38
503.618	3876.07
503.987	3875.17
504.356	3904.77
504.724	3902.28
505.093	3915.39
505.462	3930.53
505.83	3936.41
506.199	3968.5
506.567	3966.69
506.936	3961.94
507.304	4055.5
507.672	4029.51
508.041	4009.4
508.409	4059.12
508.777	4040.81
509.145	4099.34
509.514	4121.49
509.882	4076.07
510.25	4097.53
510.618	4180.24
510.986	4148.83
511.354	4156.74
511.722	4187.93
512.09	4173.69
512.458	4192.22
512.826	4174.14
513.193	4179.11
513.561	4262.73
513.929	4196.97
514.297	4242.16
514.664	4291.65
515.032	4215.04
515.4	4289.62
515.767	4292.1
516.135	4289.84
516.502	4314.7
516.869	4363.06
517.237	4378.88
517.604	4301.14
517.972	4335.49
518.339	4378.43
518.706	4384.76
519.073	4417.3
519.44	4423.17
519.808	4455.26
520.175	4456.62
520.542	4475.83
520.909	4466.34
521.276	4424.53
521.643	4462.5
522.009	4502.04
522.376	4516.51
522.743	4546.11
523.11	4554.24
523.477	4608.03
523.843	4609.38
524.21	4623.62
524.577	4640.34
524.943	4688.48
525.31	4642.83
525.676	4733.22
526.043	4710.62
526.409	4735.03
526.776	4822.26
527.142	4800.57
527.508	4813.67
527.874	4862.94
528.241	4833.56
528.607	4878.98
528.973	4933.22
529.339	4944.29
529.705	4990.62
530.071	4998.98
530.437	4960.79
530.803	5024.29
531.169	5048.92
531.535	5031.29
531.901	5067.23
532.267	5094.57
532.632	5138.41
532.998	5180.67
533.364	5171.4
533.73	5166.88
534.095	5192.87
534.461	5232.19
534.826	5274.68
535.192	5297.73
535.557	5325.3
535.923	5279.2
536.288	5345.64
536.653	5383.83
537.019	5370.72
537.384	5371.85
537.749	5411.62
538.114	5438.52
538.479	5441.23
538.845	5506.76
539.21	5499.53
539.575	5500.21
539.94	5539.98
540.305	5515.58
540.67	5546.31
541.034	5572.07
541.399	5662.46
541.764	5624.5
542.129	5573.43
542.494	5645.97
542.858	5646.42
543.223	5746.53
543.587	5758.28
543.952	5675.57
544.316	5753.76
544.681	5797.83
545.045	5839.41
545.41	5853.65
545.774	5881.44
546.138	5883.48
546.503	5911.72
546.867	5951.95
547.231	6019.52
547.595	6012.96
547.959	6017.48
548.324	5993.08
548.688	6022.68
549.052	6062.45
549.416	6013.19
549.779	6056.58
550.143	6113.53
550.507	6141.32
550.871	6189.23
551.235	6171.38
551.599	6234.43
551.962	6252.96
552.326	6227.42
552.689	6294.09
553.053	6226.74
553.417	6266.29
553.78	6324.59
554.143	6372.73
554.507	6343.35
554.87	6352.16
555.234	6441.65
555.597	6368.43
555.96	6397.36
556.323	6449.56
556.686	6418.38
557.05	6493.85
557.413	6450.47
557.776	6489.11
558.139	6539.28
558.502	6531.37
558.865	6561.65
559.228	6614.3
559.59	6629.22
559.953	6567.75
560.316	6628.77
560.679	6679.84
561.041	6677.13
561.404	6705.6
561.767	6759.61
562.129	6699.27
562.492	6813.39
562.854	6756.67
563.217	6784.92
563.579	6835.09
563.941	6875.99
564.304	6898.82
564.666	6951.7
565.028	6952.6
565.39	6968.19
565.753	6967.97
566.115	6962.99
566.477	7027.85
566.839	7051.58
567.201	7104.23
567.563	7145.14
567.925	7108.08
568.287	7192.82
568.648	7158.02
569.01	7179.71
569.372	7233.5
569.734	7280.73
570.095	7317.56
570.457	7337.22
570.819	7377
571.18	7337.22
571.542	7460.83
571.903	7416.99
572.265	7445.02
572.626	7543.54
572.987	7541.51
573.349	7652.69
573.71	7725.23
574.071	7737.89
574.432	7766.36
574.794	7873.48
575.155	7859.24
575.516	7870.54
575.877	7983.31
576.238	8058.33
576.599	8067.6
576.96	8171.55
577.32	8262.62
577.681	8296.75
578.042	8435.27
578.403	8477.53
578.763	8564.08
579.124	8685.44
579.485	8761.37
579.845	8893.79
580.206	8990.06
580.566	9021.47
580.927	9170.85
581.287	9348.47
581.648	9441.8
582.008	9579.42
582.368	9685.18
582.728	9885.63
583.089	10009.69
583.449	10145.74
583.809	10356.13
584.169	10503.24
584.529	10691.94
584.889	10925.38
585.249	11017.8
585.609	11229.32
585.969	11474.51
586.329	11663.89
586.688	11954.95
587.048	12095.52
587.408	12303.65
587.768	12570.98
588.127	12737.53
588.487	12862.95
588.846	13304.75
589.206	13462.94
589.565	13710.16
589.925	13972.75
590.284	14333.87
590.643	14558.95
591.003	14915.55
591.362	15136.57
591.721	15346.28
592.08	15674.86
592.44	15889.31
592.799	16195.29
593.158	16358.91
593.517	16725.68
593.876	17108.94
594.235	17319.33
594.593	17614.01
594.952	17943.27
595.311	18195.24
595.67	18535.35
596.029	18875
596.387	19224.82
596.746	19459.84
597.104	19719.5
597.463	20017.57
597.822	20345.47
598.18	20548.4
598.538	20777.55
598.897	21242.62
599.255	21282.39
599.613	21898.87
599.972	22073.78
600.33	22323.95
600.688	22562.13
601.046	22904.27
601.404	23276.24
601.762	23523.46
602.12	23832.38
602.478	24088.42
602.836	24287.06
603.194	24575.87
603.552	24868.51
603.91	24906.03
604.268	25350.99
604.625	25424.88
604.983	25911.65
605.341	26019.44
605.698	26352.77
606.056	26688.8
606.413	26791.17
606.771	27212.18
607.128	27450.82
607.485	27432.74
607.843	27685.39
608.2	28016
608.557	28256.9
608.914	28442.2
609.272	28680.16
609.629	29121.73
609.986	29328.51
610.343	29368.96
610.7	29695.05
611.057	29933.92
611.414	30060.01
611.771	30288.03
612.127	30496.16
612.484	30688.7
612.841	30872.2
613.198	30890.28
613.554	31121.68
613.911	31354.67
614.267	31540.43
614.624	31676.92
614.98	31782
615.337	32101.32
615.693	32189.22
616.05	32259.5
616.406	32694.75
616.762	32617.91
617.118	32796.89
617.475	32970.9
617.831	33117.56
618.187	33312.81
618.543	33431.45
618.899	33753.25
619.255	33661.73
619.611	33875.06
619.967	33987.6
620.323	34239.34
620.678	34291.09
621.034	34209.06
621.39	34408.37
621.746	34516.17
622.101	34903.96
622.457	34638.65
622.812	34961.81
623.168	35137.4
623.523	35120.45
623.879	35349.14
624.234	34971.07
624.589	35314.79
624.945	35402.25
625.3	35586.2
625.655	35678.62
626.01	35739.19
626.365	35790.94
626.72	35747.32
627.075	35884.95
627.43	35922.69
627.785	35898.28
628.14	36034.55
628.495	36136.92
628.85	36167.42
629.205	36133.98
629.559	36368.1
629.914	36191.6
630.269	36332.62
630.623	36280.42
630.978	36258.04
631.332	36580.52
631.687	36520.86
632.041	36479.28
632.396	36624.81
632.75	36466.4
633.104	36623.46
633.459	36462.11
633.813	36557.7
634.167	36538.49
634.521	36537.13
634.875	36677.92
635.229	36595.21
635.583	36450.81
635.937	36674.98
636.291	36514.53
636.645	36568.54
636.999	36472.95
637.352	36716.79
637.706	36382.33
638.06	36688.77
638.413	36538.49
638.767	36539.84
639.121	36565.83
639.474	36455.33
639.828	36549.56
640.181	36565.61
640.534	36568.54
640.888	36497.81
641.241	36446.29
641.594	36432.73
641.947	36729.22
642.301	36356.35
642.654	36471.15
643.007	36437.47
643.36	36404.25
643.713	36428.89
644.066	36621.42
644.419	36361.54
644.771	36182.79
645.124	35803.37
645.477	35816.25
645.83	35625.74
646.182	35463.49
646.535	35366.32
646.888	35516.14
647.24	35279.31
647.593	35531.28
647.945	35438.18
648.298	35392.08
648.65	35351.85
649.002	35200.22
649.355	35257.84
649.707	35356.15
650.059	35523.83
650.411	35875.46
650.763	35821.9
651.115	36289
651.467	36178.05
651.819	36051.72
652.171	36038.39
652.523	36016.69
652.875	36093.3
653.227	35980.54
653.578	36123.81
653.93	36085.62
654.282	36073.19
654.633	35982.8
654.985	36038.39
655.337	35864.16
655.688	36050.59
656.039	36034.77
656.391	35742.58
656.742	35846.76
657.094	35821.22
657.445	36020.76
657.796	35932.4
658.147	35683.14
658.498	35800.65
658.849	35971.72
659.2	35863.93
659.551	35735.12
659.902	35952.06
660.253	35881.78
660.604	35937.37
660.955	35761.56
661.306	35813.54
661.656	35719.53
662.007	35762.92
662.358	35687.89
662.708	35712.07
663.059	35698.06
663.409	35676.59
663.76	35729.47
664.11	35795.91
664.461	35837.94
664.811	35905.06
665.161	35841.33
665.511	35723.37
665.862	35827.77
666.212	35823.93
666.562	35899.41
666.912	35703.71
667.262	35698.74
667.612	35747.77
667.962	35765.85
668.312	35688.57
668.662	35862.57
669.011	35718.62
669.361	35648.57
669.711	35675.69
670.06	35639.08
670.41	35450.83
670.76	35487.89
671.109	35603.37
671.459	35708
671.808	35569.7
672.157	35598.85
672.507	35353.21
672.856	35373.55
673.205	35430.49
673.554	35711.39
673.904	35429.14
674.253	35700.77
674.602	35380.78
674.951	35018.53
675.3	34800
675.649	35359.08
675.998	35366.77
676.346	35267.56
676.695	35572.41
677.044	35203.61
677.393	35296.26
677.741	35446.99
678.09	35283.61
678.438	35248.8
678.787	35334.9
679.135	35284.74
679.484	35076.38
679.832	35260.33
680.181	35032.99
680.529	35074.57
680.877	34968.59
681.225	34992.54
681.573	35140.11
681.922	34918.64
682.27	34835.26
682.618	34839.78
682.966	34730.63
683.314	34738.31
683.661	34740.34
684.009	34538.77
684.357	34483.4
684.705	34498.32
685.053	34489.5
685.4	34427.13
685.748	34294.93
686.095	34288.6
686.443	34320.69
686.79	34066.91
687.138	34179.91
687.485	34211.32
687.832	34068.95
688.18	33996.63
688.527	33859.46
688.874	33763.19
689.221	33757.54
689.568	33763.65
689.915	33588.51
690.262	33497.89
690.609	33595.29
690.956	33462.64
691.303	33465.12
691.65	33253.83
691.997	33240.95
692.344	33050.44
692.69	33031.69
693.037	33190.55
693.383	32944.91
693.73	32899.49
694.077	32769.77
694.423	32874.18
694.769	32730.45
695.116	32547.63
695.462	32523
695.808	32378.82
696.155	32607.97
696.501	32200.75
696.847	32345.6
697.193	31915.33
697.539	32318.71
697.885	31996.01
698.231	31765.96
698.577	31978.38
698.923	31798.95
699.269	31592.86
699.614	31596.47
699.96	31455.91
700.306	31438.74
700.651	31267.89
700.997	31243.49
701.342	31172.08
701.688	31252.3
702.033	31098.41
702.379	31055.69
702.724	30916.72
703.069	31041.23
703.415	30561.24
703.76	30653.67
704.105	30605.99
704.45	30551.98
704.795	30390.63
705.14	30186.57
705.485	30344.08
705.83	30178.2
706.175	30166.23
706.52	30139.11
706.865	29948.83
707.209	29960.58
707.554	29834.48
707.899	30109.28
708.243	29713.36
708.588	29772.56
708.932	29506.81
709.277	29518.33
709.621	29548.84
709.966	29374.16
710.31	29516.53
710.654	29162.64
710.998	29345.91
711.342	29240.15
711.687	29138.01
712.031	28984.11
712.375	28970.33
712.719	29037.22
713.063	28856.88
713.407	28964.45
713.75	28829.31
714.094	28788.41
714.438	28785.25
714.782	28679.26
715.125	28510.22
715.469	28615.98
715.812	28403.11
716.156	28334.86
716.499	28319.5
716.843	28437.23
717.186	28276.11
717.53	28360.85
717.873	28349.78
718.216	28265.03
718.559	28058.49
718.902	28010.13
719.246	27944.14
719.589	27899.85
719.932	27830.47
720.275	27825.5
720.617	27772.39
720.96	27771.26
721.303	27665.05
721.646	27724.48
721.989	27574.88
722.331	27635.22
722.674	27525.62
723.016	27560.42
723.359	27501.44
723.701	27538.05
724.044	27262.35
724.386	27262.57
724.729	27279.07
725.071	27173.99
725.413	27129.7
725.755	27194.33
726.097	27095.12
726.439	26858.97
726.782	26965.41
727.124	26991.17
727.465	26867.1
727.807	26996.37
728.149	26768.35
728.491	26697.84
728.833	26850.61
729.175	26695.58
729.516	26667.34
729.858	26499.43
730.199	26535.14
730.541	26522.03
730.882	26512.99
731.224	26585.98
731.565	26395.25
731.906	26462.6
732.248	26412.65
732.589	26182.38
732.93	26118.42
733.271	26215.82
733.612	26220.34
733.953	26246.33
734.294	26145.77
734.635	26042.49
734.976	26165.88
735.317	26010.63
735.658	25976.05
735.999	26011.53
736.339	25964.98
736.68	26018.99
737.021	25796.85
737.361	25662.84
737.702	25887.47
738.042	25703.75
738.383	25679.56
738.723	25848.83
739.063	25642.73
739.404	25590.75
739.744	25625.1
740.084	25511.43
740.424	25482.73
740.764	25426.69
741.104	25421.49
741.444	25380.36
741.784	25417.88
742.124	25291.55
742.464	25302.17
742.804	25191.89
743.143	25162.06
743.483	25188.96
743.823	25166.58
744.162	25037.32
744.502	25182.85
744.841	24890.66
745.181	25143.08
745.52	24905.35
745.86	24953.71
746.199	24955.29
746.538	24983.54
746.877	24878.91
747.216	24804.11
747.556	24810.21
747.895	24819.93
748.234	24624.68
748.573	24665.35
748.911	24556.66
749.25	24422.42
749.589	24395.76
749.928	24461.07
750.267	24437.56
750.605	24316.21
750.944	24261.98
751.283	24159.6
751.621	24377
751.96	24224.01
752.298	24097.01
752.636	24134.75
752.975	23990.57
753.313	23946.5
753.651	24118.7
753.989	23983.79
754.327	23850.23
754.666	23784.25
755.004	23757.58
755.342	23824.02
755.679	23703.57
756.017	23556.46
756.355	23726.4
756.693	23496.35
757.031	23553.75
757.368	23278.05
757.706	23367.08
758.044	23258.39
758.381	23264.94
758.719	23205.05
759.056	23149.69
759.394	23195.11
