Data from hue_30_FLMS001491_41.txt Node
Date: Mon Feb 06 15:05:22 GMT 2017
User: dcchb
Spectrometer: FLMS00149
Trigger mode: 0
Integration Time (sec): 2.000000E-2
Scans to average: 10
Electric dark correction enabled: true
Nonlinearity correction enabled: false
Boxcar width: 0
XAxis mode: Wavelengths
Number of Pixels in Spectrum: 2048
>>>>>Begin Spectral Data<<<<<
341.393	-9.42
341.776	-9.42
342.16	-9.42
342.543	-72.7
342.927	-68.85
343.31	-64.56
343.693	-78.35
344.077	-69.53
344.46	-67.95
344.843	-38.12
345.226	-37.67
345.61	-24.79
345.993	-27.73
346.376	-8.74
346.759	18.38
347.142	43.91
347.525	40.3
347.908	56.57
348.291	74.87
348.674	83.68
349.057	99.73
349.44	113.29
349.823	137.24
350.206	165.94
350.588	183.57
350.971	214.98
351.354	207.3
351.737	227.41
352.119	266.28
352.502	251.36
352.884	273.96
353.267	298.59
353.65	310.12
354.032	310.57
354.414	331.14
354.797	308.09
355.179	321.42
355.562	337.24
355.944	320.51
356.326	326.84
356.709	340.85
357.091	331.14
357.473	343.11
357.855	328.42
358.238	332.27
358.62	350.34
359.002	328.65
359.384	333.85
359.766	334.53
360.148	335.66
360.53	344.47
360.912	342.66
361.294	340.63
361.676	330.01
362.057	346.5
362.439	327.07
362.821	310.34
363.203	310.57
363.584	331.14
363.966	325.94
364.348	295.2
364.729	322.1
365.111	341.53
365.493	311.02
365.874	332.94
366.256	309.22
366.637	275.77
367.019	297.69
367.4	321.87
367.781	329.55
368.163	304.47
368.544	317.8
368.925	304.7
369.306	318.93
369.688	316.22
370.069	318.93
370.45	321.42
370.831	301.31
371.212	301.98
371.593	309.67
371.974	311.7
372.355	328.2
372.736	315.77
373.117	316.22
373.498	316.9
373.879	326.16
374.26	303.57
374.641	301.98
375.021	312.15
375.402	324.81
375.783	320.74
376.163	337.01
376.544	358.71
376.925	332.04
377.305	307.63
377.686	339.27
378.066	329.55
378.447	320.06
378.827	310.57
379.208	321.19
379.588	325.03
379.968	324.36
380.349	328.88
380.729	353.73
381.109	337.24
381.489	317.58
381.87	326.16
382.25	348.76
382.63	351.47
383.01	346.95
383.39	318.03
383.77	342.43
384.15	340.85
384.53	344.69
384.91	362.77
385.29	326.62
385.67	346.95
386.049	348.76
386.429	313.28
386.809	354.86
387.189	334.53
387.568	352.6
387.948	339.72
388.328	336.33
388.707	336.11
389.087	348.08
389.466	357.12
389.846	350.57
390.225	357.8
390.605	369.78
390.984	352.83
391.363	369.55
391.743	391.25
392.122	341.53
392.501	373.39
392.881	367.29
393.26	389.89
393.639	381.98
394.018	379.5
394.397	374.98
394.776	363
395.155	386.05
395.534	381.08
395.913	367.29
396.292	386.05
396.671	393.51
397.05	379.72
397.429	387.86
397.808	379.95
398.186	385.37
398.565	377.01
398.944	394.86
399.323	387.18
399.701	389.89
400.08	375.2
400.458	382.66
400.837	398.25
401.215	391.7
401.594	418.36
401.972	390.79
402.351	394.41
402.729	393.96
403.107	402.09
403.486	412.72
403.864	411.81
404.242	390.12
404.62	393.96
404.999	399.16
405.377	399.61
405.755	393.96
406.133	418.36
406.511	442.09
406.889	459.95
407.267	422.88
407.645	426.05
408.023	420.85
408.401	428.53
408.779	398.48
409.156	439.38
409.534	404.58
409.912	430.57
410.29	459.72
410.667	450.91
411.045	430.57
411.422	443.22
411.8	455.65
412.178	479.15
412.555	453.39
412.933	441.19
413.31	450.91
413.687	465.37
414.065	451.36
414.442	432.6
414.819	478.48
415.197	468.53
415.574	469.44
415.951	477.35
416.328	469.66
416.705	482.32
417.082	483
417.46	487.52
417.837	475.31
418.214	492.04
418.591	486.61
418.967	508.53
419.344	517.8
419.721	510.79
420.098	508.53
420.475	504.46
420.852	494.07
421.228	515.09
421.605	509.89
421.982	527.51
422.358	532.49
422.735	511.24
423.111	517.35
423.488	514.63
423.864	553.28
424.241	525.25
424.617	536.1
424.994	559.15
425.37	530.68
425.746	535.2
426.123	555.54
426.499	544.92
426.875	548.98
427.251	560.96
427.627	570.68
428.003	574.97
428.379	572.03
428.756	584.01
429.132	567.06
429.507	595.31
429.883	594.18
430.259	580.62
430.635	600.28
431.011	605.93
431.387	602.09
431.763	618.81
432.138	626.72
432.514	624.69
432.89	597.57
433.265	613.61
433.641	651.58
434.016	630.34
434.392	652.93
434.767	649.09
435.143	654.06
435.518	689.54
435.894	650.22
436.269	651.8
436.644	679.37
437.02	665.82
437.395	676.66
437.77	682.54
438.145	684.8
438.52	681.86
438.895	683.67
439.271	690.9
439.646	702.88
440.021	702.65
440.395	732.48
440.77	708.53
441.145	719.83
441.52	717.57
441.895	729.09
442.27	722.31
442.645	776.77
443.019	753.95
443.394	724.57
443.769	762.76
444.143	728.19
444.518	757.34
444.892	752.14
445.267	756.66
445.641	764.12
446.016	760.5
446.39	772.25
446.764	756.66
447.139	770.22
447.513	788.3
447.887	783.33
448.262	780.84
448.636	781.74
449.01	817.22
449.384	797.56
449.758	815.64
450.132	807.28
450.506	809.09
450.88	821.07
451.254	810.67
451.628	833.72
452.002	850.9
452.376	872.59
452.75	859.26
453.123	870.1
453.497	875.3
453.871	875.3
454.244	871.91
454.618	887.28
454.992	900.84
455.365	903.1
455.739	925.7
456.112	908.3
456.486	915.75
456.859	937.45
457.232	953.04
457.606	967.95
457.979	971.57
458.352	997.78
458.725	992.13
459.099	997.33
459.472	1029.2
459.845	1008.86
460.218	1026.26
460.591	1023.09
460.964	1040.04
461.337	1049.53
461.71	1085.47
462.083	1101.51
462.456	1074.62
462.829	1066.26
463.201	1127.72
463.574	1113.94
463.947	1111.23
464.32	1137.67
464.692	1160.94
465.065	1162.3
465.438	1187.16
465.81	1193.26
466.183	1195.07
466.555	1223.32
466.928	1264.67
467.3	1239.59
467.672	1230.32
468.045	1281.62
468.417	1298.34
468.789	1290.88
469.161	1309.19
469.534	1347.38
469.906	1378.79
470.278	1365.68
470.65	1402.07
471.022	1431.45
471.394	1447.49
471.766	1474.61
472.138	1474.38
472.51	1511.67
472.882	1512.57
473.253	1574.49
473.625	1594.6
473.997	1579.24
474.369	1630.76
474.74	1656.75
475.112	1687.03
475.484	1697.2
475.855	1744.21
476.227	1756.86
476.598	1840.25
476.97	1842.06
477.341	1871.43
477.713	1913.69
478.084	1933.58
478.455	1959.57
478.827	1999.79
479.198	2056.51
479.569	2093.35
479.94	2143.74
480.311	2174.25
480.682	2233.01
481.053	2275.94
481.424	2347.13
481.795	2376.51
482.166	2431.65
482.537	2447.01
482.908	2534.24
483.279	2574.92
483.65	2594.13
484.021	2630.51
484.391	2704.18
484.762	2763.39
485.133	2808.13
485.503	2812.2
485.874	2885.87
486.244	2956.83
486.615	3017.62
486.985	3068.92
487.356	3156.37
487.726	3157.73
488.097	3277.72
488.467	3244.73
488.837	3347.1
489.207	3425.52
489.578	3467.1
489.948	3541.67
490.318	3607.66
490.688	3620.09
491.058	3728.11
491.428	3757.49
491.798	3825.05
492.168	3897.6
492.538	3918.39
492.908	4020.76
493.278	4050.81
493.648	4113.63
494.017	4154.31
494.387	4236.57
494.757	4237.25
495.126	4312.5
495.496	4328.54
495.866	4429.56
496.235	4453.51
496.605	4484.92
496.974	4507.75
497.344	4574.19
497.713	4619.38
498.082	4682.89
498.452	4761.75
498.821	4835.2
499.19	4828.42
499.559	4830.23
499.928	4866.38
500.298	4914.97
500.667	4965.59
501.036	5013.5
501.405	5053.72
501.774	5051.01
502.143	5175.53
502.512	5172.59
502.88	5188.18
503.249	5210.1
503.618	5303.89
503.987	5273.15
504.356	5377.33
504.724	5383.21
505.093	5398.57
505.462	5396.76
505.83	5450.32
506.199	5514.5
506.567	5587.04
506.936	5581.39
507.304	5677.89
507.672	5660.03
508.041	5686.93
508.409	5745
508.777	5772.12
509.145	5825
509.514	5861.84
509.882	5934.6
510.25	5924.89
510.618	5957.65
510.986	5956.52
511.354	6020.25
511.722	6114.26
512.09	6090.98
512.458	6124.88
512.826	6143.19
513.193	6193.81
513.561	6210.75
513.929	6261.15
514.297	6310.87
514.664	6340.02
515.032	6302.96
515.4	6354.71
515.767	6477.19
516.135	6469.51
516.502	6379.11
516.869	6484.65
517.237	6519.67
517.604	6564.42
517.972	6560.8
518.339	6641.93
518.706	6638.77
519.073	6619.56
519.44	6660.01
519.808	6770.06
520.175	6719.89
520.542	6765.09
520.909	6841.7
521.276	6792.66
521.643	6882.83
522.009	6918.98
522.376	6997.17
522.743	7007.12
523.11	7025.87
523.477	7134.12
523.843	7173.22
524.21	7157.4
524.577	7208.69
524.943	7259.09
525.31	7325.75
525.676	7343.83
526.043	7460.67
526.409	7417.28
526.776	7445.3
527.142	7516.94
527.508	7567.1
527.874	7570.04
528.241	7593.32
528.607	7625.18
528.973	7679.87
529.339	7741.56
529.705	7775.69
530.071	7878.51
530.437	7896.36
530.803	7907.43
531.169	7925.74
531.535	7959.41
531.901	7984.04
532.267	8071.04
532.632	8053.42
532.998	8158.27
533.364	8181.55
533.73	8142.91
534.095	8233.3
534.461	8258.38
534.826	8285.5
535.192	8290.47
535.557	8309.46
535.923	8406.4
536.288	8383.35
536.653	8497.02
537.019	8440.3
537.384	8537.02
537.749	8504.48
538.114	8611.37
538.479	8668.77
538.845	8612.73
539.21	8639.84
539.575	8718.94
539.94	8749.22
540.305	8817.47
540.67	8784.25
541.034	8892.94
541.399	8843.23
541.764	8882.77
542.129	8917.58
542.494	8977.24
542.858	8988.76
543.223	9060.17
543.587	9064.47
543.952	9179.04
544.316	9194.86
544.681	9124.12
545.045	9167.97
545.41	9287.74
545.774	9285.7
546.138	9290.22
546.503	9395.53
546.867	9320.5
547.231	9517.33
547.595	9438.69
547.959	9574.73
548.324	9525.02
548.688	9565.47
549.052	9584.68
549.416	9644.34
549.779	9670.55
550.143	9669.87
550.507	9729.08
550.871	9759.36
551.235	9802.3
551.599	9809.3
551.962	9871.22
552.326	9838.68
552.689	9914.61
553.053	9932.01
553.417	9961.84
553.78	10065.34
554.143	10039.13
554.507	10032.35
554.87	10129.3
555.234	10174.72
555.597	10099.69
555.96	10155.28
556.323	10246.81
556.686	10258.78
557.05	10261.27
557.413	10386.92
557.776	10309.86
558.139	10383.53
558.502	10450.42
558.865	10456.29
559.228	10514.37
559.59	10521.83
559.953	10560.7
560.316	10620.36
560.679	10639.11
561.041	10751.43
561.404	10845.89
561.767	10854.93
562.129	10820.35
562.492	10887.69
562.854	10830.52
563.217	10872.78
563.579	10960.46
563.941	11026.22
564.304	11018.09
564.666	11086.56
565.028	11098.99
565.39	11151.64
565.753	11128.14
566.115	11197.52
566.477	11216.5
566.839	11295.82
567.201	11321.35
567.563	11357.74
567.925	11435.48
568.287	11477.73
568.648	11502.14
569.01	11555.25
569.372	11641.57
569.734	11595.25
570.095	11668.46
570.457	11741.68
570.819	11732.42
571.18	11799.31
571.542	11928.12
571.903	11860.78
572.265	11961.79
572.626	11945.29
572.987	12089.02
573.349	12171.05
573.71	12252.18
574.071	12267.09
574.432	12327.43
574.794	12438.39
575.155	12485.84
575.516	12507.31
575.877	12642.68
576.238	12659.85
576.599	12819.62
576.96	12734.43
577.32	12879.28
577.681	13000.18
578.042	13130.57
578.403	13179.39
578.763	13258.48
579.124	13324.92
579.485	13435.65
579.845	13621.63
580.206	13755.19
580.566	13836.77
580.927	13973.71
581.287	14113.37
581.648	14232.24
582.008	14473.14
582.368	14503.87
582.728	14724.43
583.089	14888.94
583.449	15029.05
583.809	15249.61
584.169	15358.99
584.529	15515.82
584.889	15786.1
585.249	15805.76
585.609	15968.01
585.969	16228.34
586.329	16352.86
586.688	16676.24
587.048	16807.54
587.408	16957.14
587.768	17243.46
588.127	17510.8
588.487	17693.62
588.846	17986.72
589.206	18068.3
589.565	18271.91
589.925	18679.13
590.284	18855.85
590.643	19093.13
591.003	19285.21
591.362	19597.07
591.721	19846.1
592.08	20073.44
592.44	20300.78
592.799	20583.26
593.158	20899.86
593.517	21059.4
593.876	21315.67
594.235	21519.05
594.593	21849.67
594.952	22138.25
595.311	22224.8
595.67	22473.38
596.029	22944.33
596.387	23108.62
596.746	23406.91
597.104	23456.18
597.463	23722.84
597.822	24145.2
598.18	24275.14
598.538	24507.67
598.897	24803.71
599.255	24852.52
599.613	25439.63
599.972	25516.91
600.33	25806.62
600.688	25887.98
601.046	26222.66
601.404	26633.49
601.762	26679.14
602.12	27058.12
602.478	27235.51
602.836	27432.8
603.194	27534.71
603.552	27792.56
603.91	27861.03
604.268	28159.78
604.625	28350.96
604.983	28591.41
605.341	28625.53
605.698	29033.88
606.056	29213.09
606.413	29467.32
606.771	29570.59
607.128	29903.92
607.485	29810.59
607.843	30064.14
608.2	30313.62
608.557	30627.74
608.914	30654.63
609.272	31028.41
609.629	31113.83
609.986	31495.29
610.343	31435.4
610.7	31804.88
611.057	32039.91
611.414	31970.3
611.771	31987.93
612.127	32333.01
612.484	32448.93
612.841	32647.12
613.198	32749.04
613.554	32915.14
613.911	33119.65
614.267	33182.47
614.624	33302.7
614.98	33479.42
615.337	33643.93
615.693	33891.38
616.05	33780.43
616.406	34067.65
616.762	34281.2
617.118	34177.25
617.475	34219.28
617.831	34546.28
618.187	34653.17
618.543	34835.99
618.899	34978.36
619.255	35003.9
619.611	35224.23
619.967	35290.89
620.323	35463.32
620.678	35240.27
621.034	35192.37
621.39	35407.95
621.746	35403.43
622.101	35936.98
622.457	35694.95
622.812	35857.88
623.168	36062.63
623.523	36039.8
623.879	36186.46
624.234	35906.92
624.589	36282.51
624.945	36266.91
625.3	36416.74
625.655	36391.88
626.01	36562.5
626.365	36429.85
626.72	36530.41
627.075	36600.92
627.43	36644.3
627.785	36606.11
628.14	36727.69
628.495	36760.23
628.85	36760.91
629.205	36611.54
629.559	36918.2
629.914	36802.72
630.269	36908.7
630.623	36756.62
630.978	36916.84
631.332	36991.41
631.687	37075.03
632.041	36844.3
632.396	37027.12
632.75	36966.56
633.104	37107.57
633.459	36796.17
633.813	36862.15
634.167	36901.93
634.521	36861.02
634.875	37112.09
635.229	37105.08
635.583	36895.82
635.937	36848.37
636.291	36851.98
636.645	36850.63
636.999	36876.62
637.352	37092.43
637.706	36789.16
638.06	36956.39
638.413	36858.31
638.767	36781.02
639.121	37003.17
639.474	36845.2
639.828	36878.65
640.181	36887.91
640.534	36859.44
640.888	36722.72
641.241	36627.13
641.594	36753.68
641.947	36920
642.301	36798.2
642.654	36816.5
643.007	36685.21
643.36	36770.4
643.713	36574.93
644.066	36743.29
644.419	36558.43
644.771	36365.22
645.124	36070.31
645.477	36055.85
645.83	35738.79
646.182	35706.93
646.535	35452.02
646.888	35613.6
647.24	35405.92
647.593	35696.08
647.945	35490.89
648.298	35506.93
648.65	35323.66
649.002	35376.99
649.355	35556.42
649.707	35427.39
650.059	35577.44
650.411	35979.46
650.763	36131.55
651.115	36368.83
651.467	36296.07
651.819	36299.23
652.171	36223.07
652.523	36135.39
652.875	36230.3
653.227	36054.94
653.578	36320.25
653.93	36190.53
654.282	36046.81
654.633	36060.82
654.985	36123.19
655.337	36081.61
655.688	36067.82
656.039	36236.86
656.391	35927.94
656.742	36010.65
657.094	35942.18
657.445	36220.14
657.796	35904.21
658.147	35902.18
658.498	35942.85
658.849	36047.26
659.2	35871.67
659.551	35711.45
659.902	35898.34
660.253	35831.9
660.604	36047.48
660.955	35780.6
661.306	35933.36
661.656	35759.36
662.007	35798.68
662.358	35817.21
662.708	35826.7
663.059	35813.14
663.409	35611.79
663.76	35854.04
664.11	35822.18
664.461	35899.69
664.811	35798.23
665.161	35835.51
665.511	35640.72
665.862	35829.19
666.212	35886.58
666.562	35788.96
666.912	35826.93
667.262	35709.64
667.612	35656.08
667.962	35762.52
668.312	35856.3
668.662	35843.65
669.011	35820.15
669.361	35764.1
669.711	35687.49
670.06	35635.52
670.41	35648.62
670.76	35549.64
671.109	35771.33
671.459	35668.29
671.808	35631.9
672.157	35741.73
672.507	35568.85
672.856	35499.7
673.205	35574.95
673.554	35507.39
673.904	35518.01
674.253	35569.98
674.602	35628.29
674.951	35010.68
675.3	34798.03
675.649	35308.52
675.998	35298.13
676.346	35452.92
676.695	35454.96
677.044	35201.18
677.393	35366.82
677.741	35335.19
678.09	35167.06
678.438	35048.41
678.787	35269.2
679.135	35155.76
679.484	34972.94
679.832	35186.04
680.181	34963.45
680.529	35044.12
680.877	35002.31
681.225	34811.58
681.573	35176.55
681.922	34912.82
682.27	34778.82
682.618	34842.09
682.966	34604.13
683.314	34734.07
683.661	34799.83
684.009	34617.69
684.357	34454.98
684.705	34379.73
685.053	34531.14
685.4	34361.88
685.748	34273.97
686.095	34256.35
686.443	34178.83
686.79	34056.35
687.138	34124.15
687.485	34145.39
687.832	33878.95
688.18	34067.42
688.527	33770.48
688.874	33828.11
689.221	33693.42
689.568	33713.31
689.915	33641.22
690.262	33640.99
690.609	33496.82
690.956	33334.11
691.303	33308.12
691.65	33201.68
691.997	33230.84
692.344	33118.75
692.69	33117.84
693.037	32952.2
693.383	32762.37
693.73	32906.1
694.077	32719.89
694.423	32600.8
694.769	32553.79
695.116	32543.62
695.462	32446.68
695.808	32279.9
696.155	32401.93
696.501	32151.54
696.847	32194.93
697.193	31862.74
697.539	32069.74
697.885	31813.7
698.231	31738.22
698.577	31741.16
698.923	31718.56
699.269	31560.6
699.614	31380.49
699.96	31292.58
700.306	31313.15
700.651	31112.92
700.997	31172.13
701.342	31042.87
701.688	31010.1
702.033	30999.03
702.379	30924
702.724	30733.95
703.069	30811.69
703.415	30566.72
703.76	30653.28
704.105	30605.59
704.45	30412.15
704.795	30230.01
705.14	30249.9
705.485	30090.58
705.83	30004.71
706.175	30085.83
706.52	30005.61
706.865	29960.64
707.209	29854.43
707.554	29754.32
707.899	29834.31
708.243	29640.65
708.588	29660.76
708.932	29441.33
709.277	29371.5
709.621	29440.43
709.966	29275.91
710.31	29243.37
710.654	29028.01
710.998	29144.62
711.342	29158.63
711.687	28967.67
712.031	28969.03
712.375	28808.35
712.719	28848.8
713.063	28774.91
713.407	28934
713.75	28719.54
714.094	28775.13
714.438	28382.15
714.782	28633.67
715.125	28493.56
715.469	28445.42
715.812	28233.23
716.156	28155.04
716.499	28332.43
716.843	28274.13
717.186	27886.34
717.53	28147.81
717.873	28175.15
718.216	28077.07
718.559	27982.61
718.902	27843.41
719.246	27821.71
719.589	27750.75
719.932	27588.27
720.275	27703.52
720.617	27675.28
720.96	27590.53
721.303	27526.8
721.646	27542.85
721.989	27412.01
722.331	27518.22
722.674	27360.03
723.016	27341.95
723.359	27397.54
723.701	27311.22
724.044	27133.14
724.386	26965.24
724.729	27152.35
725.071	26934.5
725.413	26918.01
725.755	27038.23
726.097	26805.24
726.439	26722.31
726.782	26746.26
727.124	26869.19
727.465	26723.44
727.807	26688.63
728.149	26588.98
728.491	26466.04
728.833	26649.99
729.175	26460.62
729.516	26431.24
729.858	26509.88
730.199	26471.24
730.541	26399.15
730.882	26350.79
731.224	26451.58
731.565	26248.19
731.906	26300.85
732.248	26206.84
732.589	26203.22
732.93	26000.29
733.271	26070.35
733.612	26074.64
733.953	26034.41
734.294	25966.17
734.635	25883.23
734.976	25923
735.317	25836.23
735.658	25714.42
735.999	25728.66
736.339	25706.51
736.68	25947.64
737.021	25771.37
737.361	25630.36
737.702	25706.97
738.042	25602.34
738.383	25490.25
738.723	25614.31
739.063	25544.94
739.404	25635.55
739.744	25431.27
740.084	25314.66
740.424	25431.04
740.764	25351.49
741.104	25412.28
741.444	25171.84
741.784	25049.81
742.124	25173.19
742.464	25248.67
742.804	25100.43
743.143	25165.06
743.483	25143.14
743.823	24963.26
744.162	24942.47
744.502	24962.58
744.841	24864.5
745.181	24976.14
745.52	24940.21
745.86	24890.49
746.199	24820.43
746.538	24843.94
746.877	24826.54
747.216	24822.24
747.556	24672.42
747.895	24708.57
748.234	24714.45
748.573	24579.09
748.911	24475.36
749.25	24544.96
749.589	24444.4
749.928	24481.91
750.267	24476.04
750.605	24459.77
750.944	24324.85
751.283	24426.1
751.621	24354.23
751.96	24179.77
752.298	24237.63
752.636	24318.98
752.975	24151.3
753.313	24000.8
753.651	24159.89
753.989	23979.33
754.327	23960.12
754.666	23808.94
755.004	23882.83
755.342	23813.46
755.679	23809.61
756.017	23741.82
756.355	23743.4
756.693	23544.54
757.031	23657.53
757.368	23455.27
757.706	23530.3
758.044	23389.06
758.381	23451.21
758.719	23373.02
759.056	23506.35
759.394	23281.49
