Data from hue_220_FLMS001491_00091.txt Node
Date: Tue Feb 07 16:40:11 GMT 2017
User: dcchb
Spectrometer: FLMS00149
Trigger mode: 0
Integration Time (sec): 2.000000E-2
Scans to average: 10
Electric dark correction enabled: true
Nonlinearity correction enabled: false
Boxcar width: 0
XAxis mode: Wavelengths
Number of Pixels in Spectrum: 2048
>>>>>Begin Spectral Data<<<<<
341.393	-12.81
341.776	-12.81
342.16	-12.81
342.543	-54.62
342.927	-52.81
343.31	-55.3
343.693	-62.3
344.077	-67.95
344.46	-63.88
344.843	-37.67
345.226	-44.22
345.61	-9.42
345.993	-14.62
346.376	-0.38
346.759	8.43
347.142	4.36
347.525	30.13
347.908	36.91
348.291	81.88
348.674	81.42
349.057	112.61
349.44	126.39
349.823	145.15
350.206	140.41
350.588	187.64
350.971	189.22
351.354	207.75
351.737	233.74
352.119	247.3
352.502	235.77
352.884	253.62
353.267	280.97
353.65	283.23
354.032	298.59
354.414	301.53
354.797	298.82
355.179	319.38
355.562	323.23
355.944	313.51
356.326	340.4
356.709	351.02
357.091	322.1
357.473	344.24
357.855	344.24
358.238	345.37
358.62	345.6
359.002	325.71
359.384	330.23
359.766	331.81
360.148	344.92
360.53	335.2
360.912	341.3
361.294	329.55
361.676	348.31
362.057	332.72
362.439	332.49
362.821	329.78
363.203	316.22
363.584	331.81
363.966	321.87
364.348	310.8
364.729	327.07
365.111	296.33
365.493	323.23
365.874	311.7
366.256	324.58
366.637	315.77
367.019	282.55
367.4	316.45
367.781	299.95
368.163	313.51
368.544	317.12
368.925	294.3
369.306	313.73
369.688	294.3
370.069	317.35
370.45	305.6
370.831	326.62
371.212	318.25
371.593	306.73
371.974	294.98
372.355	308.54
372.736	327.29
373.117	313.06
373.498	300.85
373.879	308.99
374.26	319.61
374.641	324.36
375.021	300.85
375.402	310.8
375.783	310.12
376.163	315.54
376.544	304.92
376.925	322.55
377.305	304.47
377.686	307.63
378.066	321.19
378.447	325.49
378.827	307.86
379.208	318.93
379.588	317.8
379.968	319.38
380.349	346.73
380.729	323.45
381.109	337.46
381.489	334.07
381.87	329.1
382.25	347.86
382.63	353.28
383.01	345.82
383.39	331.81
383.77	329.33
384.15	334.3
384.53	348.76
384.91	324.13
385.29	335.66
385.67	326.62
386.049	344.47
386.429	344.47
386.809	351.47
387.189	346.05
387.568	354.86
387.948	358.03
388.328	357.35
388.707	359.16
389.087	363.68
389.466	345.37
389.846	331.36
390.225	358.25
390.605	353.51
390.984	374.52
391.363	369.33
391.743	363.22
392.122	358.93
392.501	362.77
392.881	370.46
393.26	379.04
393.639	384.24
394.018	395.09
394.397	367.97
394.776	395.31
395.155	393.28
395.534	384.92
395.913	386.05
396.292	375.43
396.671	377.46
397.05	372.26
397.429	386.28
397.808	403.45
398.186	377.69
398.565	388.76
398.944	402.32
399.323	397.12
399.701	399.38
400.08	399.38
400.458	423.79
400.837	421.08
401.215	405.48
401.594	421.08
401.972	418.36
402.351	424.69
402.729	437.8
403.107	432.83
403.486	423.56
403.864	458.59
404.242	431.47
404.62	431.92
404.999	437.8
405.377	445.03
405.755	444.35
406.133	452.71
406.511	458.36
406.889	445.03
407.267	464.01
407.645	464.69
408.023	482.09
408.401	475.76
408.779	500.85
409.156	513.96
409.534	503.79
409.912	497.23
410.29	508.53
410.667	531.81
411.045	500.4
411.422	536.1
411.8	549.43
412.178	537.91
412.555	581.75
412.933	558.47
413.31	566.84
413.687	596.67
414.065	582.43
414.442	592.6
414.819	583.78
415.197	604.12
415.574	615.65
415.951	629.21
416.328	623.33
416.705	627.85
417.082	633.27
417.46	654.74
417.837	675.31
418.214	650.9
418.591	692.03
418.967	669.88
419.344	683.44
419.721	711.46
420.098	705.14
420.475	728.64
420.852	749.88
421.228	739.03
421.605	763.44
421.982	762.08
422.358	761.63
422.735	769.32
423.111	800.28
423.488	844.79
423.864	824
424.241	829.65
424.617	837.34
424.994	853.38
425.37	877.34
425.746	906.94
426.123	914.85
426.499	899.03
426.875	933.61
427.251	961.85
427.627	940.16
428.003	942.87
428.379	961.85
428.756	970.44
429.132	972.7
429.507	969.54
429.883	996.65
430.259	1040.95
430.635	1056.31
431.011	1066.71
431.387	1060.61
431.763	1095.64
432.138	1084.79
432.514	1106.03
432.89	1130.21
433.265	1135.41
433.641	1187.61
434.016	1191.9
434.392	1229.42
434.767	1231.22
435.143	1248.4
435.518	1268.74
435.894	1275.07
436.269	1311.45
436.644	1359.58
437.02	1359.58
437.395	1349.64
437.77	1405.23
438.145	1419.24
438.52	1425.12
438.895	1444.1
439.271	1445
439.646	1481.84
440.021	1475.29
440.395	1504.66
440.77	1496.3
441.145	1543.76
441.52	1605.9
441.895	1585.79
442.27	1597.09
442.645	1589.18
443.019	1630.99
443.394	1647.48
443.769	1675.96
444.143	1672.79
444.518	1699.69
444.892	1680.48
445.267	1720.7
445.641	1744.43
446.016	1730.65
446.39	1759.57
446.764	1766.35
447.139	1758.67
447.513	1821.04
447.887	1807.71
448.262	1833.24
448.636	1833.69
449.01	1892.9
449.384	1856.07
449.758	1868.95
450.132	1884.77
450.506	1921.83
450.88	1910.98
451.254	1935.84
451.628	1985.78
452.002	1927.25
452.376	1984.43
452.75	1977.19
453.123	2048.38
453.497	2051.09
453.871	2069.62
454.244	2090.41
454.618	2151.43
454.992	2171.09
455.365	2165.89
455.739	2201.14
456.112	2218.54
456.486	2198.43
456.859	2237.75
457.232	2273.68
457.606	2291.76
457.979	2330.86
458.352	2343.96
458.725	2367.24
459.099	2373.79
459.472	2398.65
459.845	2438.2
460.218	2465.54
460.591	2476.62
460.964	2488.59
461.337	2531.53
461.71	2581.02
462.083	2606.33
462.456	2603.84
462.829	2596.61
463.201	2661.47
463.574	2671.64
463.947	2713.67
464.32	2762.03
464.692	2773.78
465.065	2801.35
465.438	2839.77
465.81	2860.33
466.183	2917.06
466.555	2934
466.928	3003.83
467.3	2995.7
467.672	3025.98
468.045	3061.69
468.417	3073.89
468.789	3119.31
469.161	3148.69
469.534	3168.35
469.906	3230.27
470.278	3237.27
470.65	3265.52
471.022	3334.45
471.394	3403.37
471.766	3448.12
472.138	3468.91
472.51	3531.05
472.882	3562.01
473.253	3602.24
473.625	3672.29
473.997	3729.01
474.369	3723.36
474.74	3793.64
475.112	3803.59
475.484	3861.66
475.855	3919.29
476.227	3933.98
476.598	4071.38
476.97	4036.8
477.341	4115.89
477.713	4191.15
478.084	4236.12
478.455	4302.78
478.827	4356.57
479.198	4437.24
479.569	4427.75
479.94	4567.63
480.311	4585.03
480.682	4675.43
481.053	4761.98
481.424	4846.95
481.795	4838.14
482.166	4877
482.537	4999.26
482.908	5076.77
483.279	5079.71
483.65	5180.95
484.021	5230.22
484.391	5303.66
484.762	5298.91
485.133	5348.63
485.503	5406.26
485.874	5523.54
486.244	5559.7
486.615	5634.95
486.985	5703.42
487.356	5810.54
487.726	5808.96
488.097	5938.45
488.467	5940.71
488.837	6042.4
489.207	6096.18
489.578	6173.24
489.948	6253.92
490.318	6284.88
490.688	6307.25
491.058	6400.35
491.428	6428.15
491.798	6526.9
492.168	6615.72
492.538	6641.48
492.908	6661.59
493.278	6723.06
493.648	6752.89
494.017	6792.66
494.387	6881.7
494.757	6895.26
495.126	6935.48
495.496	6957.63
495.866	6999.21
496.235	7093.22
496.605	7092.31
496.974	7184.74
497.344	7195.36
497.713	7221.8
498.082	7257.73
498.452	7258.86
498.821	7385.87
499.19	7319.2
499.559	7401.46
499.928	7454.79
500.298	7420.21
500.667	7573.2
501.036	7498.63
501.405	7538.18
501.774	7588.35
502.143	7614.33
502.512	7654.11
502.88	7630.15
503.249	7691.17
503.618	7699.76
503.987	7739.53
504.356	7706.08
504.724	7710.6
505.093	7839.19
505.462	7761.22
505.83	7793.99
506.199	7840.54
506.567	7928.68
506.936	7923.93
507.304	7979.52
507.672	7984.72
508.041	8064.72
508.409	8029.92
508.777	8075.34
509.145	8077.6
509.514	8118.73
509.882	8018.62
510.25	8144.49
510.618	8167.77
510.986	8129.35
511.354	8205.5
511.722	8228.1
512.09	8269.23
512.458	8207.76
512.826	8285.5
513.193	8278.95
513.561	8271.04
513.929	8394.2
514.297	8391.26
514.664	8349.91
515.032	8372.05
515.4	8400.53
515.767	8374.99
516.135	8454.31
516.502	8323.24
516.869	8391.49
517.237	8478.27
517.604	8389.68
517.972	8431.71
518.339	8483.92
518.706	8444.82
519.073	8422.9
519.44	8476.23
519.808	8589.45
520.175	8449.79
520.542	8512.39
520.909	8553.97
521.276	8460.64
521.643	8549.45
522.009	8598.94
522.376	8607.08
522.743	8642.33
523.11	8607.3
523.477	8676.23
523.843	8676.23
524.21	8730.24
524.577	8746.06
524.943	8744.47
525.31	8736.56
525.676	8749.67
526.043	8783.12
526.409	8734.98
526.776	8809.33
527.142	8771.14
527.508	8771.37
527.874	8795.32
528.241	8786.51
528.607	8834.19
528.973	8854.3
529.339	8764.59
529.705	8835.09
530.071	8804.13
530.437	8887.07
530.803	8850.69
531.169	8860.18
531.535	8868.99
531.901	8874.87
532.267	8783.57
532.632	8862.89
532.998	8809.33
533.364	8817.92
533.73	8800.29
534.095	8758.94
534.461	8788.31
534.826	8814.3
535.192	8832.15
535.557	8865.15
535.923	8716.23
536.288	8760.52
536.653	8771.37
537.019	8710.12
537.384	8722.78
537.749	8766.39
538.114	8705.83
538.479	8598.26
538.845	8678.03
539.21	8636.23
539.575	8629.9
539.94	8608.43
540.305	8599.84
540.67	8554.65
541.034	8563.46
541.399	8573.86
541.764	8577.25
542.129	8559.62
542.494	8555.55
542.858	8556.68
543.223	8488.43
543.587	8470.36
543.952	8483.01
544.316	8388.78
544.681	8361.21
545.045	8433.07
545.41	8455.22
545.774	8393.52
546.138	8403.24
546.503	8366.63
546.867	8320.08
547.231	8359.62
547.595	8403.01
547.959	8282.34
548.324	8300.19
548.688	8232.85
549.052	8296.58
549.416	8265.39
549.779	8192.4
550.143	8254.09
550.507	8227.88
550.871	8201.66
551.235	8162.34
551.599	8160.99
551.962	8117.37
552.326	8208.89
552.689	8140.2
553.053	8071.5
553.417	8064.94
553.78	8110.37
554.143	8037.83
554.507	8087.99
554.87	8034.89
555.234	8088.22
555.597	8033.53
555.96	8052.06
556.323	8086.86
556.686	8023.14
557.05	8106.3
557.413	8045.06
557.776	8036.7
558.139	8048.22
558.502	8017.94
558.865	7972.52
559.228	8033.31
559.59	8040.99
559.953	8020.88
560.316	8050.93
560.679	8028.79
561.041	8039.86
561.404	8019.52
561.767	8087.99
562.129	8010.93
562.492	8051.84
562.854	8040.09
563.217	8005.51
563.579	8034.44
563.941	8124.15
564.304	8087.54
564.666	8134.09
565.028	8091.16
565.39	8121.66
565.753	8172.96
566.115	8206.18
566.477	8165.28
566.839	8173.87
567.201	8219.52
567.563	8212.74
567.925	8245.28
568.287	8247.99
568.648	8221.32
569.01	8256.58
569.372	8245.5
569.734	8287.76
570.095	8300.42
570.457	8311.04
570.819	8351.94
571.18	8297.25
571.542	8351.72
571.903	8347.87
572.265	8353.07
572.626	8455.67
572.987	8422
573.349	8382
573.71	8446.4
574.071	8452.96
574.432	8495.89
574.794	8499.73
575.155	8508.1
575.516	8525.95
575.877	8534.99
576.238	8503.35
576.599	8554.42
576.96	8519.62
577.32	8559.17
577.681	8593.29
578.042	8615.44
578.403	8627.19
578.763	8633.97
579.124	8618.15
579.485	8681.42
579.845	8661.09
580.206	8710.58
580.566	8738.37
580.927	8755.55
581.287	8798.48
581.648	8670.35
582.008	8804.58
582.368	8784.47
582.728	8836.45
583.089	8818.37
583.449	8790.12
583.809	8845.49
584.169	8898.14
584.529	8815.21
584.889	8915.99
585.249	8863.79
585.609	8850.46
585.969	8897.01
586.329	8863.79
586.688	8935.43
587.048	8942.66
587.408	8894.3
587.768	8987.4
588.127	8940.17
588.487	8966.16
588.846	9054.75
589.206	8947.86
589.565	9019.27
589.925	9036.44
590.284	9016.78
590.643	9070.34
591.003	9041.41
591.362	9071.7
591.721	9066.5
592.08	9053.17
592.44	9104.24
592.799	9120.28
593.158	9089.1
593.517	9098.59
593.876	9116.67
594.235	9098.59
594.593	9194.41
594.952	9132.49
595.311	9120.06
595.67	9196.21
596.029	9180.17
596.387	9209.32
596.746	9228.75
597.104	9179.49
597.463	9204.12
597.822	9221.3
598.18	9171.58
598.538	9198.92
598.897	9202.99
599.255	9174.29
599.613	9325.25
599.972	9233.27
600.33	9270.79
600.688	9270.79
601.046	9243.44
601.404	9316.21
601.762	9390.11
602.12	9292.03
602.478	9365.25
602.836	9344.46
603.194	9266.95
603.552	9319.15
603.91	9254.29
604.268	9293.16
604.625	9316.89
604.983	9333.84
605.341	9331.12
605.698	9347.4
606.056	9324.8
606.413	9306.27
606.771	9384
607.128	9390.11
607.485	9358.69
607.843	9381.52
608.2	9333.84
608.557	9411.57
608.914	9404.8
609.272	9459.48
609.629	9468.3
609.986	9496.54
610.343	9407.51
610.7	9557.33
611.057	9558.92
611.414	9445.7
611.771	9503.32
612.127	9546.94
612.484	9488.18
612.841	9543.32
613.198	9467.39
613.554	9494.28
613.911	9586.26
614.267	9593.94
614.624	9555.53
614.98	9555.3
615.337	9585.81
615.693	9575.64
616.05	9585.13
616.406	9616.99
616.762	9604.11
617.118	9541.97
617.475	9628.97
617.831	9654.51
618.187	9626.03
618.543	9649.08
618.899	9675.75
619.255	9672.36
619.611	9637.11
619.967	9724.33
620.323	9733.15
620.678	9676.88
621.034	9631.46
621.39	9694.05
621.746	9664.45
622.101	9771.57
622.457	9746.93
622.812	9713.94
623.168	9719.14
623.523	9700.38
623.879	9733.6
624.234	9734.05
624.589	9631.46
624.945	9701.28
625.3	9626.71
625.655	9718.91
626.01	9682.53
626.365	9674.62
626.72	9667.61
627.075	9678.69
627.43	9645.24
627.785	9664.68
628.14	9707.61
628.495	9701.96
628.85	9626.71
629.205	9591.91
629.559	9658.35
629.914	9618.35
630.269	9672.58
630.623	9593.26
630.978	9604.34
631.332	9607.05
631.687	9618.12
632.041	9624.68
632.396	9602.76
632.75	9513.72
633.104	9563.43
633.459	9544.9
633.813	9526.83
634.167	9549.65
634.521	9522.31
634.875	9490.22
635.229	9518.01
635.583	9532.7
635.937	9450.22
636.291	9429.65
636.645	9472.82
636.999	9369.77
637.352	9486.15
637.706	9407.96
638.06	9399.37
638.413	9447.05
638.767	9375.64
639.121	9386.49
639.474	9302.42
639.828	9319.6
640.181	9378.13
640.534	9406.38
640.888	9310.79
641.241	9264.91
641.594	9298.36
641.947	9265.14
642.301	9225.14
642.654	9341.29
643.007	9274.85
643.36	9302.42
643.713	9337.9
644.066	9280.5
644.419	9173.84
644.771	9206.61
645.124	9075.54
645.477	9107.4
645.83	9040.51
646.182	8950.57
646.535	8981.76
646.888	9019.27
647.24	8919.16
647.593	8939.5
647.945	8989.44
648.298	8843.23
648.65	8922.55
649.002	8856.11
649.355	8924.58
649.707	8929.1
650.059	8999.61
650.411	9122.54
650.763	9107.85
651.115	9174.97
651.467	9114.63
651.819	9142.66
652.171	9165.71
652.523	9088.87
652.875	9198.25
653.227	9052.04
653.578	9162.99
653.93	9101.07
654.282	9124.8
654.633	9045.26
654.985	9107.4
655.337	9149.43
655.688	9133.39
656.039	9180.85
656.391	9075.76
656.742	9076.89
657.094	9084.58
657.445	9137.68
657.796	9041.41
658.147	9128.87
658.498	9038.25
658.849	9166.84
659.2	9122.32
659.551	9136.1
659.902	9088.42
660.253	9138.36
660.604	9103.11
660.955	9099.27
661.306	9163.67
661.656	9130.68
662.007	9075.99
662.358	9040.51
662.708	9159.15
663.059	9122.77
663.409	9118.93
663.76	9179.26
664.11	9174.07
664.461	9183.11
664.811	9134.29
665.161	9169.55
665.511	9092.94
665.862	9196.66
666.212	9201.64
666.562	9221.3
666.912	9178.36
667.262	9184.24
667.612	9208.19
667.962	9253.39
668.312	9075.54
668.662	9224.23
669.011	9223.78
669.361	9092.26
669.711	9184.69
670.06	9102.88
670.41	9093.62
670.76	9068.08
671.109	9093.84
671.459	9106.95
671.808	9114.63
672.157	9115.31
672.507	9073.05
672.856	9081.41
673.205	9088.42
673.554	9112.15
673.904	9127.97
674.253	9127.51
674.602	9069.44
674.951	8893.62
675.3	8884.81
675.649	8987.86
675.998	8964.58
676.346	9023.79
676.695	9061.75
677.044	8995.09
677.393	9034.18
677.741	9016.1
678.09	9019.04
678.438	9010.46
678.787	9051.58
679.135	8960.96
679.484	8929.55
679.832	8983.11
680.181	8903.34
680.529	8966.84
680.877	8851.14
681.225	8844.81
681.573	8943.56
681.922	8824.92
682.27	8834.87
682.618	8766.17
682.966	8802.55
683.314	8787.41
683.661	8792.16
684.009	8703.34
684.357	8667.19
684.705	8701.99
685.053	8704.47
685.4	8725.26
685.748	8667.41
686.095	8626.96
686.443	8600.75
686.79	8560.07
687.138	8566.17
687.485	8601.65
687.832	8474.2
688.18	8542.44
688.527	8503.8
688.874	8444.37
689.221	8494.54
689.568	8350.59
689.915	8391.26
690.262	8320.53
690.609	8374.77
690.956	8315.78
691.303	8231.94
691.65	8275.79
691.997	8226.29
692.344	8179.52
692.69	8142
693.037	8198.5
693.383	8086.41
693.73	8104.94
694.077	8052.06
694.423	8047.54
694.769	8031.72
695.116	8044.15
695.462	8000.31
695.808	7952.63
696.155	7959.41
696.501	7914.89
696.847	7833.54
697.193	7875.57
697.539	7819.75
697.885	7826.31
698.231	7761
698.577	7833.08
698.923	7776.59
699.269	7708.34
699.614	7599.87
699.96	7605.29
700.306	7570.94
700.651	7590.61
700.997	7502.25
701.342	7533.88
701.688	7474.68
702.033	7401.91
702.379	7448.01
702.724	7426.09
703.069	7430.61
703.415	7337.73
703.76	7306.77
704.105	7354.45
704.45	7365.53
704.795	7258.86
705.14	7239.88
705.485	7211.63
705.83	7153.55
706.175	7135.02
706.52	7165.98
706.865	7172.99
707.209	7128.47
707.554	7134.35
707.899	7127.11
708.243	7029.26
708.588	7082.82
708.932	7030.85
709.277	6980.45
709.621	6996.5
709.966	6963.05
710.31	6941.58
710.654	6902.71
710.998	6920.11
711.342	6933.22
711.687	6896.84
712.031	6837.63
712.375	6768.25
712.719	6857.97
713.063	6782.49
713.407	6871.3
713.75	6829.72
714.094	6798.08
714.438	6795.37
714.782	6787.46
715.125	6762.38
715.469	6749.05
715.812	6752.21
716.156	6692.78
716.499	6648.03
716.843	6655.26
717.186	6659.78
717.53	6677.86
717.873	6682.38
718.216	6681.7
718.559	6569.39
718.902	6556.96
719.246	6581.59
719.589	6612.1
719.932	6546.79
720.275	6491.65
720.617	6578.43
720.96	6517.41
721.303	6541.59
721.646	6528.03
721.989	6536.4
722.331	6514.48
722.674	6554.02
723.016	6540.24
723.359	6531.42
723.701	6507.92
724.044	6513.57
724.386	6414.59
724.729	6463.63
725.071	6447.36
725.413	6469.96
725.755	6453.91
726.097	6424.31
726.439	6407.81
726.782	6462.05
727.124	6411.43
727.465	6416.4
727.807	6393.57
728.149	6403.74
728.491	6391.31
728.833	6413.69
729.175	6387.02
729.516	6380.92
729.858	6384.54
730.199	6387.02
730.541	6363.07
730.882	6380.69
731.224	6369.17
731.565	6377.76
731.906	6371.65
732.248	6406.23
732.589	6346.34
732.93	6334.59
733.271	6350.41
733.612	6370.98
733.953	6330.07
734.294	6374.14
734.635	6371.2
734.976	6391.77
735.317	6327.81
735.658	6417.98
735.999	6357.64
736.339	6365.78
736.68	6439.22
737.021	6407.59
737.361	6365.78
737.702	6407.59
738.042	6408.26
738.383	6448.94
738.723	6444.42
739.063	6392.9
739.404	6397.19
739.744	6417.98
740.084	6410.07
740.424	6462.27
740.764	6466.57
741.104	6449.84
741.444	6459.11
741.784	6415.5
742.124	6486
742.464	6549.28
742.804	6532.1
743.143	6536.62
743.483	6516.74
743.823	6596.06
744.162	6601.48
744.502	6658.2
744.841	6637.18
745.181	6638.09
745.52	6674.47
745.86	6777.75
746.199	6788.82
746.538	6812.55
746.877	6829.04
747.216	6882.38
747.556	6923.28
747.895	6983.39
748.234	7017.51
748.573	6978.87
748.911	7048.47
749.25	7157.85
749.589	7184.51
749.928	7260.67
750.267	7313.32
750.605	7407.33
750.944	7403.27
751.283	7365.98
751.621	7571.62
751.96	7672.19
752.298	7711.05
752.636	7833.99
752.975	7878.28
753.313	7897.26
753.651	8056.58
753.989	8097.71
754.327	8253.19
754.666	8375.9
755.004	8447.76
755.342	8641.88
755.679	8674.64
756.017	8805.26
756.355	8978.37
756.693	9054.97
757.031	9254.97
757.368	9314.85
757.706	9442.99
758.044	9574.06
758.381	9742.41
758.719	9835.52
759.056	10055.63
759.394	10222.17
759.731	10296.07
760.068	10496.74
760.405	10541.26
760.743	10762.27
761.08	10943.29
761.417	11059.89
761.754	11237.97
762.091	11454.91
762.428	11538.98
762.765	11704.62
763.102	12002.92
763.438	12035.01
763.775	12256.25
764.112	12380.99
764.449	12670.92
764.785	12686.52
765.122	12825.27
765.458	12996.79
765.795	13184.81
766.131	13378.93
766.467	13488.3
766.804	13522.2
767.14	13700.5
767.476	13818.01
767.812	14030.44
768.148	14168.06
768.485	14304.33
768.821	14413.02
