Data from hue_250_FLMS001491_00027.txt Node
Date: Tue Feb 07 16:00:45 GMT 2017
User: dcchb
Spectrometer: FLMS00149
Trigger mode: 0
Integration Time (sec): 2.000000E-2
Scans to average: 10
Electric dark correction enabled: true
Nonlinearity correction enabled: false
Boxcar width: 0
XAxis mode: Wavelengths
Number of Pixels in Spectrum: 2048
>>>>>Begin Spectral Data<<<<<
341.393	-40.34
341.776	-40.34
342.16	-40.34
342.543	-96.16
342.927	-54.8
343.31	-55.03
343.693	-74.46
344.077	-80.11
344.46	-56.38
344.843	-31.52
345.226	-13.45
345.61	-27.68
345.993	-11.86
346.376	-7.12
346.759	2.6
347.142	2.6
347.525	34.01
347.908	53.67
348.291	57.96
348.674	92.09
349.057	114.69
349.44	127.79
349.823	142.71
350.206	154.23
350.588	181.35
350.971	201.46
351.354	220.22
351.737	240.56
352.119	250.05
352.502	282.14
352.884	263.61
353.267	272.65
353.65	291.86
354.032	301.8
354.414	303.16
354.797	292.53
355.179	295.7
355.562	300.67
355.944	308.35
356.326	332.31
356.709	325.3
357.091	324.4
357.473	349.03
357.855	311.29
358.238	340.89
358.62	343.38
359.002	348.35
359.384	316.49
359.766	329.6
360.148	320.56
360.53	316.26
360.912	327.34
361.294	328.69
361.676	324.17
362.057	340.67
362.439	302.25
362.821	328.47
363.203	306.32
363.584	333.44
363.966	327.56
364.348	311.97
364.729	311.07
365.111	296.83
365.493	335.7
365.874	299.77
366.256	294.79
366.637	316.26
367.019	316.71
367.4	311.52
367.781	304.29
368.163	284.63
368.544	317.62
368.925	288.69
369.306	318.3
369.688	292.53
370.069	306.32
370.45	290.05
370.831	308.13
371.212	301.8
371.593	309.71
371.974	325.53
372.355	331.86
372.736	314
373.117	309.48
373.498	310.61
373.879	318.52
374.26	304.29
374.641	300.44
375.021	309.26
375.402	312.65
375.783	303.83
376.163	317.62
376.544	311.07
376.925	305.42
377.305	326.21
377.686	317.62
378.066	320.33
378.447	325.53
378.827	316.26
379.208	322.14
379.588	332.76
379.968	329.82
380.349	338.86
380.729	344.28
381.109	343.38
381.489	347
381.87	328.24
382.25	330.95
382.63	341.12
383.01	340.22
383.39	326.66
383.77	328.01
384.15	359.65
384.53	368.69
384.91	323.49
385.29	355.13
385.67	351.74
386.049	345.64
386.429	349.03
386.809	351.06
387.189	333.21
387.568	357.62
387.948	364.85
388.328	349.48
388.707	333.66
389.087	347
389.466	362.14
389.846	367.11
390.225	373.66
390.605	372.31
390.984	361.23
391.363	365.53
391.743	372.76
392.122	350.84
392.501	369.37
392.881	377.05
393.26	386.09
393.639	387.9
394.018	379.54
394.397	396.03
394.776	368.69
395.155	384.06
395.534	397.62
395.913	391.97
396.292	376.37
396.671	400.1
397.05	412.76
397.429	404.4
397.808	406.43
398.186	391.52
398.565	418.18
398.944	414.34
399.323	406.43
399.701	403.72
400.08	426.77
400.458	435.81
400.837	420.21
401.215	414.79
401.594	408.69
401.972	428.58
402.351	440.1
402.729	450.72
403.107	459.08
403.486	444.4
403.864	429.25
404.242	452.76
404.62	426.32
404.999	426.54
405.377	447.56
405.755	444.85
406.133	462.02
406.511	439.88
406.889	467.22
407.267	468.12
407.645	474.22
408.023	468.35
408.401	477.61
408.779	491.85
409.156	495.24
409.534	485.75
409.912	516.26
410.29	514.22
410.667	522.59
411.045	526.65
411.422	549.03
411.8	534.11
412.178	540.44
412.555	538.86
412.933	552.87
413.31	570.95
413.687	560.78
414.065	570.95
414.442	551.28
414.819	581.79
415.197	584.28
415.574	623.6
415.951	615.24
416.328	609.14
416.705	598.97
417.082	621.57
417.46	636.25
417.837	631.96
418.214	659.98
418.591	640.1
418.967	681.9
419.344	659.08
419.721	652.75
420.098	670.6
420.475	675.12
420.852	696.82
421.228	704.95
421.605	715.8
421.982	733.88
422.358	733.2
422.735	722.58
423.111	722.13
423.488	737.04
423.864	757.61
424.241	769.36
424.617	775.23
424.994	772.3
425.37	812.75
425.746	808.23
426.123	817.72
426.499	832.63
426.875	840.09
427.251	837.83
427.627	839.41
428.003	878.73
428.379	890.94
428.756	881.22
429.132	891.61
429.507	888.23
429.883	900.43
430.259	923.93
430.635	945.4
431.011	939.75
431.387	942.91
431.763	967.09
432.138	997.37
432.514	1003.7
432.89	996.02
433.265	1021.33
433.641	1055.45
434.016	1071.72
434.392	1058.84
434.767	1082.12
435.143	1101.33
435.518	1106.3
435.894	1117.82
436.269	1141.1
436.644	1166.41
437.02	1194.88
437.395	1177.26
437.77	1213.64
438.145	1223.36
438.52	1242.79
438.895	1258.16
439.271	1263.81
439.646	1310.81
440.021	1304.49
440.395	1323.24
440.77	1307.42
441.145	1331.15
441.52	1350.59
441.895	1380.19
442.27	1385.61
442.645	1352.39
443.019	1381.77
443.394	1423.58
443.769	1413.41
444.143	1389
444.518	1441.43
444.892	1445.95
445.267	1452.5
445.641	1465.39
446.016	1457.48
446.39	1501.99
446.764	1496.12
447.139	1505.38
447.513	1522.56
447.887	1548.77
448.262	1562.78
448.636	1521.65
449.01	1598.04
449.384	1592.84
449.758	1604.36
450.132	1602.33
450.506	1650.92
450.88	1609.56
451.254	1631.93
451.628	1659.28
452.002	1672.39
452.376	1653.4
452.75	1685.27
453.123	1709.45
453.497	1721.42
453.871	1757.81
454.244	1777.92
454.618	1788.77
454.992	1819.27
455.365	1812.95
455.739	1850.23
456.112	1877.35
456.486	1873.06
456.859	1902.44
457.232	1897.46
457.606	1923.9
457.979	1937.24
458.352	1970.91
458.725	2002.09
459.099	2057.69
459.472	2035.09
459.845	2083
460.218	2090.45
460.591	2086.16
460.964	2101.53
461.337	2104.01
461.71	2183.78
462.083	2214.52
462.456	2196.44
462.829	2214.29
463.201	2273.05
463.574	2241.18
463.947	2287.51
464.32	2342.88
464.692	2373.38
465.065	2370.9
465.438	2381.29
465.81	2436.43
466.183	2466.04
466.555	2500.16
466.928	2508.52
467.3	2506.04
467.672	2527.96
468.045	2630.1
468.417	2580.61
468.789	2641.85
469.161	2660.83
469.534	2685.69
469.906	2710.55
470.278	2731.34
470.65	2803.88
471.022	2830.1
471.394	2880.72
471.766	2922.07
472.138	2933.37
472.51	2965.23
472.882	3028.06
473.253	3051.56
473.625	3075.29
473.997	3123.87
474.369	3186.24
474.74	3185.57
475.112	3230.08
475.484	3299.24
475.855	3343.53
476.227	3372.23
476.598	3449.51
476.97	3494.26
477.341	3552.56
477.713	3588.95
478.084	3612.67
478.455	3704.87
478.827	3683.86
479.198	3801.37
479.569	3781.93
479.94	3899.9
480.311	3907.58
480.682	3988.26
481.053	4128.14
481.424	4120
481.795	4186.9
482.166	4174.92
482.537	4178.08
482.908	4343.95
483.279	4385.08
483.65	4434.8
484.021	4501.92
484.391	4560.22
484.762	4597.28
485.133	4592.76
485.503	4664.4
485.874	4774
486.244	4821.23
486.615	4872.3
486.985	4935.12
487.356	5036.14
487.726	5016.25
488.097	5157.94
488.467	5167.43
488.837	5235
489.207	5284.04
489.578	5348.67
489.948	5391.84
490.318	5502.57
490.688	5458.73
491.058	5505.73
491.428	5610.81
491.798	5651.94
492.168	5717.7
492.538	5710.92
492.908	5830.69
493.278	5877.47
493.648	5872.27
494.017	6033.4
494.387	5984.81
494.757	6016.68
495.126	6106.39
495.496	6073.85
495.866	6125.38
496.235	6177.58
496.605	6220.74
496.974	6282.43
497.344	6282.43
497.713	6341.64
498.082	6341.64
498.452	6428.64
498.821	6419.61
499.19	6456.44
499.559	6461.64
499.928	6496.44
500.298	6540.05
500.667	6557.45
501.036	6617.57
501.405	6623.44
501.774	6689.65
502.143	6706.15
502.512	6726.49
502.88	6763.1
503.249	6754.06
503.618	6798.13
503.987	6819.14
504.356	6844.45
504.724	6954.96
505.093	6940.27
505.462	6896.2
505.83	6991.34
506.199	6965.81
506.567	7021.62
506.936	7076.31
507.304	7056.65
507.672	7132.58
508.041	7157.89
508.409	7109.08
508.777	7275.85
509.145	7234.73
509.514	7248.06
509.882	7265.23
510.25	7299.81
510.618	7359.02
510.986	7330.32
511.354	7383.42
511.722	7409.86
512.09	7445.34
512.458	7404.66
512.826	7526.69
513.193	7511.78
513.561	7467.71
513.929	7560.37
514.297	7607.82
514.664	7625.9
515.032	7648.73
515.4	7683.07
515.767	7722.17
516.135	7742.96
516.502	7715.16
516.869	7768.04
517.237	7795.16
517.604	7763.3
517.972	7708.16
518.339	7796.97
518.706	7809.85
519.073	7842.17
519.44	7843.97
519.808	7949.06
520.175	7918.32
520.542	7961.03
520.909	8006.46
521.276	8035.61
521.643	8059.79
522.009	8049.84
522.376	8003.29
522.743	8081.71
523.11	8156.96
523.477	8141.59
523.843	8149.05
524.21	8284.41
524.577	8277.86
524.943	8255.94
525.31	8293.91
525.676	8331.87
526.043	8396.95
526.409	8383.17
526.776	8458.65
527.142	8442.15
527.508	8454.13
527.874	8509.72
528.241	8455.26
528.607	8577.51
528.973	8527.35
529.339	8513.11
529.705	8595.37
530.071	8571.64
530.437	8608.93
530.803	8677.17
531.169	8702.26
531.535	8700.9
531.901	8605.08
532.267	8741.58
532.632	8679.88
532.998	8770.73
533.364	8695.03
533.73	8711.97
534.095	8726.21
534.461	8706.55
534.826	8726.44
535.192	8728.92
535.557	8788.58
535.923	8830.62
536.288	8780.9
536.653	8780.9
537.019	8739.32
537.384	8756.94
537.749	8762.59
538.114	8710.84
538.479	8724.86
538.845	8854.57
539.21	8755.59
539.575	8793.78
539.94	8829.49
540.305	8855.47
540.67	8758.53
541.034	8819.09
541.399	8830.62
541.764	8775.93
542.129	8791.07
542.494	8735.02
542.858	8826.55
543.223	8818.41
543.587	8857.06
543.952	8811.41
544.316	8897.05
544.681	8822.48
545.045	8837.39
545.41	8877.17
545.774	8816.83
546.138	8849.6
546.503	8834.23
546.867	8815.93
547.231	8859.09
547.595	8867.9
547.959	8885.53
548.324	8885.76
548.688	8876.26
549.052	8834.23
549.416	8875.81
549.779	8807.34
550.143	8756.94
550.507	8887.34
550.871	8842.82
551.235	8809.15
551.599	8867.22
551.962	8810.5
552.326	8847.34
552.689	8882.37
553.053	8854.34
553.417	8842.82
553.78	8958.75
554.143	8883.04
554.507	8899.31
554.87	8955.81
555.234	8997.39
555.597	8991.74
555.96	8949.03
556.323	9016.37
556.686	8922.59
557.05	8974.11
557.413	9013.66
557.776	8979.09
558.139	9075.13
558.502	9013.89
558.865	9085.75
559.228	9079.87
559.59	9039.2
559.953	9089.37
560.316	9201.9
560.679	9131.85
561.041	9156.48
561.404	9217.05
561.767	9268.57
562.129	9262.92
562.492	9310.15
562.854	9198.29
563.217	9267.21
563.579	9299.98
563.941	9332.3
564.304	9292.52
564.666	9375.23
565.028	9408
565.39	9359.87
565.753	9452.52
566.115	9497.04
566.477	9482.58
566.839	9464.72
567.201	9570.26
567.563	9560.99
567.925	9619.75
568.287	9600.31
568.648	9667.66
569.01	9637.6
569.372	9706.3
569.734	9744.26
570.095	9775.9
570.457	9759.86
570.819	9766.41
571.18	9826.07
571.542	9829.69
571.903	9897.03
572.265	9861.1
572.626	9879.4
572.987	9927.76
573.349	9976.35
573.71	9966.4
574.071	9913.98
574.432	9939.51
574.794	10074.88
575.155	10051.37
575.516	10078.72
575.877	10090.7
576.238	10154.2
576.599	10194.2
576.96	10175.44
577.32	10233.29
577.681	10256.34
578.042	10208.66
578.403	10291.14
578.763	10325.27
579.124	10313.97
579.485	10273.97
579.845	10350.12
580.206	10326.85
580.566	10369.56
580.927	10365.49
581.287	10411.59
581.648	10431.7
582.008	10541.08
582.368	10447.97
582.728	10461.76
583.089	10471.7
583.449	10513.28
583.809	10506.96
584.169	10474.64
584.529	10446.17
584.889	10611.13
585.249	10565.26
585.609	10548.76
585.969	10606.16
586.329	10496.11
586.688	10617.91
587.048	10643.45
587.408	10596.44
587.768	10660.17
588.127	10634.18
588.487	10593.05
588.846	10767.74
589.206	10730.45
589.565	10668.08
589.925	10790.11
590.284	10740.4
590.643	10723.22
591.003	10721.86
591.362	10809.55
591.721	10722.99
592.08	10767.97
592.44	10844.35
592.799	10839.38
593.158	10809.09
593.517	10855.42
593.876	10864.01
594.235	10774.97
594.593	10852.71
594.952	10918.47
595.311	10849.55
595.67	10898.13
596.029	10894.52
596.387	10886.38
596.746	10991.01
597.104	10895.65
597.463	10956.66
597.822	10969.99
598.18	10904.23
598.538	10882.99
598.897	11052.93
599.255	10844.57
599.613	11040.05
599.972	10929.54
600.33	11002.31
600.688	10959.15
601.046	11059.26
601.404	11020.61
601.762	11053.16
602.12	11038.69
602.478	11082.31
602.836	11070.78
603.194	11017.68
603.552	11024.68
603.91	10978.81
604.268	11111.91
604.625	11020.61
604.983	10995.3
605.341	11047.28
605.698	11155.3
606.056	11106.71
606.413	11127.5
606.771	11111.91
607.128	11198.91
607.485	11082.99
607.843	11100.39
608.2	11163.21
608.557	11160.95
608.914	11139.26
609.272	11187.39
609.629	11234.17
609.986	11243.43
610.343	11192.36
610.7	11262.64
611.057	11265.13
611.414	11289.99
611.771	11268.74
612.127	11247.05
612.484	11296.09
612.841	11271.46
613.198	11276.2
613.554	11286.14
613.911	11416.54
614.267	11353.71
614.624	11372.92
614.98	11335.86
615.337	11473.03
615.693	11341.96
616.05	11384.67
616.406	11448.63
616.762	11452.92
617.118	11447.27
617.475	11435.29
617.831	11492.92
618.187	11439.36
618.543	11475.52
618.899	11483.65
619.255	11453.82
619.611	11506.03
619.967	11528.4
620.323	11492.92
620.678	11393.26
621.034	11458.57
621.39	11471.9
621.746	11504.9
622.101	11615.85
622.457	11474.16
622.812	11544.44
623.168	11534.27
623.523	11533.14
623.879	11498.12
624.234	11496.76
624.589	11595.51
624.945	11496.08
625.3	11515.97
625.655	11536.31
626.01	11517.32
626.365	11532.01
626.72	11446.82
627.075	11529.3
627.43	11476.2
627.785	11407.27
628.14	11439.59
628.495	11488.4
628.85	11422.41
629.205	11456.31
629.559	11472.35
629.914	11367.95
630.269	11453.82
630.623	11386.25
630.978	11407.95
631.332	11447.72
631.687	11421.51
632.041	11358.01
632.396	11400.49
632.75	11369.08
633.104	11325.69
633.459	11261.74
633.813	11266.26
634.167	11307.61
634.521	11249.99
634.875	11229.42
635.229	11310.78
635.583	11191.01
635.937	11195.07
636.291	11228.74
636.645	11275.52
636.999	11226.03
637.352	11212.25
637.706	11188.29
638.06	11185.13
638.413	11175.64
638.767	11087.05
639.121	11104.68
639.474	11165.47
639.828	10989.88
640.181	11102.87
640.534	11136.54
640.888	11002.08
641.241	10980.62
641.594	11020.16
641.947	11051.12
642.301	10969.32
642.654	11079.37
643.007	10974.29
643.36	10981.29
643.713	10917.79
644.066	11051.35
644.419	10906.04
644.771	10862.88
645.124	10780.17
645.477	10712.15
645.83	10636.9
646.182	10680.96
646.535	10562.55
646.888	10583.79
647.24	10549.67
647.593	10535.43
647.945	10593.73
648.298	10548.54
648.65	10527.29
649.002	10507.18
649.355	10558.71
649.707	10563.23
650.059	10559.84
650.411	10704.92
650.763	10713.96
651.115	10790.56
651.467	10793.28
651.819	10774.29
652.171	10744.46
652.523	10747.18
652.875	10733.39
653.227	10725.25
653.578	10777.23
653.93	10703.33
654.282	10728.87
654.633	10687.52
654.985	10743.11
655.337	10712.15
655.688	10754.18
656.039	10760.73
656.391	10680.06
656.742	10661.3
657.094	10731.81
657.445	10762.99
657.796	10705.14
658.147	10755.76
658.498	10711.47
658.849	10732.26
659.2	10702.43
659.551	10685.26
659.902	10722.54
660.253	10688.19
660.604	10713.73
660.955	10737.23
661.306	10716.89
661.656	10599.38
662.007	10677.8
662.358	10715.09
662.708	10705.82
663.059	10741.53
663.409	10658.14
663.76	10742.88
664.11	10759.6
664.461	10713.73
664.811	10695.42
665.161	10688.87
665.511	10685.48
665.862	10659.27
666.212	10765.03
666.562	10724.8
666.912	10663.34
667.262	10697.23
667.612	10678.02
667.962	10683.45
668.312	10645.71
668.662	10655.88
669.011	10669.44
669.361	10656.56
669.711	10651.81
670.06	10613.62
670.41	10631.92
670.76	10622.21
671.109	10715.76
671.459	10628.53
671.808	10638.03
672.157	10680.51
672.507	10579.72
672.856	10609.78
673.205	10626.95
673.554	10621.75
673.904	10559.61
674.253	10511.93
674.602	10601.42
674.951	10392.61
675.3	10357.13
675.649	10532.94
675.998	10519.16
676.346	10411.14
676.695	10559.38
677.044	10455.43
677.393	10443.68
677.741	10464.24
678.09	10421.76
678.438	10501.31
678.787	10428.77
679.135	10485.04
679.484	10386.28
679.832	10432.83
680.181	10310.35
680.529	10396
680.877	10274.42
681.225	10291.82
681.573	10370.91
681.922	10307.86
682.27	10193.29
682.618	10317.36
682.966	10235.1
683.314	10198.04
683.661	10222.22
684.009	10134.31
684.357	10113.97
684.705	10099.28
685.053	10149.9
685.4	10104.48
685.748	10038.49
686.095	10040.75
686.443	10047.08
686.79	9975.44
687.138	10034.43
687.485	10036.91
687.832	9976.57
688.18	9950.81
688.527	9884.82
688.874	9919.4
689.221	9908.33
689.568	9832.62
689.915	9902.68
690.262	9793.53
690.609	9744.94
690.956	9816.13
691.303	9729.35
691.65	9583.14
691.997	9696.58
692.344	9648.22
692.69	9605.06
693.037	9680.31
693.383	9517.38
693.73	9533.65
694.077	9474.67
694.423	9422.46
694.769	9402.35
695.116	9419.75
695.462	9413.42
695.808	9387.44
696.155	9316.7
696.501	9269.7
696.847	9240.55
697.193	9166.65
697.539	9254.56
697.885	9164.17
698.231	9197.61
698.577	9095.69
698.923	9159.65
699.269	9032.64
699.614	9036.94
699.96	9006.66
700.306	8978.63
700.651	8913.32
700.997	8917.62
701.342	8859.09
701.688	8852.31
702.033	8806.21
702.379	8830.39
702.724	8768.47
703.069	8789.49
703.415	8661.58
703.76	8688.7
704.105	8674.24
704.45	8607.8
704.795	8609.15
705.14	8470.17
705.485	8536.39
705.83	8503.17
706.175	8528.93
706.52	8485.77
706.865	8498.87
707.209	8449.16
707.554	8423.17
707.899	8436.73
708.243	8340.91
708.588	8343.85
708.932	8320.12
709.277	8317.18
709.621	8249.16
709.966	8243.29
710.31	8163.74
710.654	8130.52
710.998	8151.99
711.342	8219.33
711.687	8196.96
712.031	8136.4
712.375	8081.26
712.719	8084.65
713.063	8084.42
713.407	8147.92
713.75	8065.89
714.094	8073.57
714.438	8001.48
714.782	7988.83
715.125	7963.97
715.469	8040.81
715.812	7939.11
716.156	7933.69
716.499	7984.99
716.843	7889.4
717.186	7954.03
717.53	7898.66
717.873	7945.44
718.216	7860.02
718.559	7806.01
718.902	7771.66
719.246	7770.76
719.589	7770.08
719.932	7785.9
720.275	7761.94
720.617	7780.25
720.96	7781.38
721.303	7745.22
721.646	7744.54
721.989	7732.34
722.331	7684.2
722.674	7695.96
723.016	7661.38
723.359	7657.76
723.701	7679.46
724.044	7646.24
724.386	7644.21
724.729	7663.64
725.071	7632
725.413	7574.15
725.755	7595.39
726.097	7564.66
726.439	7596.52
726.782	7650.76
727.124	7611.44
727.465	7530.08
727.807	7569.41
728.149	7511.1
728.491	7448.05
728.833	7559.69
729.175	7509.07
729.516	7494.83
729.858	7476.07
730.199	7548.62
730.541	7511.78
730.882	7512.91
731.224	7503.42
731.565	7456.41
731.906	7434.95
732.248	7441.27
732.589	7420.71
732.93	7488.73
733.271	7463.42
733.612	7453.02
733.953	7436.53
734.294	7465
734.635	7419.35
734.976	7445.79
735.317	7389.3
735.658	7420.93
735.999	7406.7
736.339	7434.72
736.68	7403.53
737.021	7425.23
737.361	7376.19
737.702	7494.83
738.042	7389.52
738.383	7379.58
738.723	7453.02
739.063	7430.2
739.404	7475.85
739.744	7428.84
740.084	7390.2
740.424	7446.7
740.764	7443.08
741.104	7447.83
741.444	7471.78
741.784	7408.96
742.124	7483.08
742.464	7522.85
742.804	7441.5
743.143	7473.14
743.483	7454.15
743.823	7455.96
744.162	7510.2
744.502	7490.09
744.841	7436.98
745.181	7498.67
745.52	7530.76
745.86	7586.58
746.199	7588.84
746.538	7598.11
746.877	7629.74
747.216	7716.75
747.556	7692.79
747.895	7677.43
748.234	7732.11
748.573	7782.28
748.911	7870.87
749.25	7813.01
749.589	7824.54
749.928	7913.13
750.267	7942.05
750.605	8022.5
750.944	8013.91
751.283	8021.6
751.621	8195.6
751.96	8165.1
752.298	8205.09
752.636	8298.43
752.975	8272.89
753.313	8379.1
753.651	8444.86
753.989	8502.04
754.327	8528.48
754.666	8657.06
755.004	8718.3
755.342	8815.47
755.679	8876.26
756.017	8904.29
756.355	9042.59
756.693	9119.42
757.031	9252.07
757.368	9283.26
757.706	9363.26
758.044	9479.19
758.381	9512.18
758.719	9677.6
759.056	9710.14
759.394	9835.56
759.731	9831.27
760.068	10024.03
760.405	10068.32
760.743	10179.28
761.08	10289.11
761.417	10341.99
761.754	10464.24
762.091	10555.09
762.428	10682.54
762.765	10779.49
763.102	10892.03
