Data from hue_230_FLMS001491_00070.txt Node
Date: Tue Feb 07 16:37:36 GMT 2017
User: dcchb
Spectrometer: FLMS00149
Trigger mode: 0
Integration Time (sec): 2.000000E-2
Scans to average: 10
Electric dark correction enabled: true
Nonlinearity correction enabled: false
Boxcar width: 0
XAxis mode: Wavelengths
Number of Pixels in Spectrum: 2048
>>>>>Begin Spectral Data<<<<<
341.393	-15.32
341.776	-15.32
342.16	-15.32
342.543	-33.86
342.927	-69.56
343.31	-81.99
343.693	-75.89
344.077	-53.06
344.46	-60.97
344.843	-60.07
345.226	-52.39
345.61	-26.17
345.993	-5.16
346.376	-23.69
346.759	20.15
347.142	32.13
347.525	54.73
347.908	54.5
348.291	60.38
348.674	109.19
349.057	108.29
349.44	118.23
349.823	154.84
350.206	141.28
350.588	185.8
350.971	206.59
351.354	201.84
351.737	224.67
352.119	249.53
352.502	239.81
352.884	271
353.267	274.84
353.65	278.68
354.032	298.34
354.414	282.29
354.797	313.03
355.179	311.22
355.562	314.84
355.944	321.16
356.326	318.68
356.709	319.36
357.091	326.14
357.473	321.39
357.855	329.98
358.238	339.47
358.62	338.56
359.002	348.73
359.384	331.11
359.766	309.64
360.148	326.36
360.53	339.92
360.912	308.28
361.294	341.05
361.676	303.31
362.057	307.83
362.439	304.44
362.821	314.84
363.203	304.22
363.584	305.35
363.966	306.02
364.348	310.54
364.729	301.28
365.111	293.37
365.493	301.96
365.874	299.24
366.256	307.6
366.637	323.42
367.019	307.83
367.4	304.89
367.781	304.44
368.163	301.05
368.544	304.44
368.925	307.15
369.306	317.77
369.688	313.48
370.069	295.18
370.45	282.07
370.831	304.22
371.212	286.36
371.593	287.49
371.974	315.51
372.355	298.57
372.736	303.31
373.117	307.38
373.498	290.66
373.879	301.05
374.26	293.59
374.641	303.99
375.021	290.88
375.402	307.38
375.783	308.28
376.163	287.49
376.544	306.47
376.925	320.94
377.305	329.98
377.686	332.24
378.066	309.64
378.447	336.53
378.827	298.34
379.208	311.22
379.588	325.68
379.968	325.91
380.349	318.68
380.729	334.95
381.109	324.55
381.489	322.75
381.87	322.52
382.25	337.66
382.63	341.95
383.01	328.4
383.39	343.76
383.77	342.41
384.15	360.94
384.53	324.33
384.91	323.65
385.29	319.13
385.67	338.11
386.049	359.81
386.429	345.34
386.809	307.15
387.189	329.98
387.568	337.43
387.948	345.8
388.328	356.64
388.707	349.64
389.087	350.99
389.466	346.7
389.846	353.48
390.225	355.51
390.605	356.64
390.984	341.5
391.363	363.87
391.743	344.67
392.122	381.95
392.501	362.52
392.881	362.97
393.26	363.65
393.639	349.19
394.018	399.35
394.397	357.1
394.776	382.86
395.155	365.91
395.534	366.59
395.913	367.26
396.292	369.52
396.671	371.11
397.05	400.48
397.429	377.21
397.808	386.47
398.186	390.31
398.565	385.12
398.944	392.35
399.323	408.85
399.701	389.41
400.08	376.3
400.458	379.92
400.837	409.07
401.215	399.35
401.594	392.12
401.972	396.64
402.351	399.81
402.729	411.56
403.107	429.64
403.486	420.37
403.864	407.26
404.242	416.98
404.62	417.21
404.999	415.85
405.377	430.09
405.755	423.53
406.133	432.12
406.511	452.23
406.889	445
407.267	455.62
407.645	449.3
408.023	472.57
408.401	462.18
408.779	454.27
409.156	467.6
409.534	478.22
409.912	488.17
410.29	477.54
410.667	501.27
411.045	484.55
411.422	533.36
411.8	506.02
412.178	508.28
412.555	515.74
412.933	514.38
413.31	544.66
413.687	524.77
414.065	545.11
414.442	563.19
414.819	544.66
415.197	553.93
415.574	581.27
415.951	565.23
416.328	584.89
416.705	588.28
417.082	573.59
417.46	585.79
417.837	609.97
418.214	604.77
418.591	605.22
418.967	635.96
419.344	638.67
419.721	651.1
420.098	635.73
420.475	631.21
420.852	639.57
421.228	631.21
421.605	689.06
421.982	673.02
422.358	683.87
422.735	696.97
423.111	712.79
423.488	686.8
423.864	723.64
424.241	720.7
424.617	758.21
424.994	753.69
425.37	758.67
425.746	748.95
426.123	782.39
426.499	800.93
426.875	808.16
427.251	818.33
427.627	856.52
428.003	815.61
428.379	835.05
428.756	850.87
429.132	849.06
429.507	877.76
429.883	895.84
430.259	889.51
430.635	876.18
431.011	876.63
431.387	922.05
431.763	934.48
432.138	936.51
432.514	930.41
432.89	956.85
433.265	992.33
433.641	1007.47
434.016	1020.35
434.392	1042.5
434.767	1023.97
435.143	1066.68
435.518	1083.18
435.894	1091.99
436.269	1118.43
436.644	1121.82
437.02	1119.79
437.395	1159.79
437.77	1145.55
438.145	1181.71
438.52	1196.62
438.895	1232.33
439.271	1210.63
439.646	1246.56
440.021	1264.64
440.395	1301.48
440.77	1276.62
441.145	1286.11
441.52	1311.42
441.895	1302.83
442.27	1345.32
442.645	1355.49
443.019	1375.15
443.394	1371.08
443.769	1401.14
444.143	1364.75
444.518	1416.28
444.892	1403.17
445.267	1409.04
445.641	1426.22
446.016	1456.5
446.39	1469.38
446.764	1488.59
447.139	1496.5
447.513	1490.62
447.887	1468.7
448.262	1489.49
448.636	1503.73
449.01	1526.1
449.384	1559.1
449.758	1578.31
450.132	1574.69
450.506	1579.66
450.88	1572.2
451.254	1601.81
451.628	1611.75
452.002	1617.17
452.376	1669.15
452.75	1656.95
453.123	1654.46
453.497	1700.34
453.871	1731.07
454.244	1727.91
454.618	1746.21
454.992	1761.35
455.365	1785.08
455.739	1794.8
456.112	1823.27
456.486	1861.91
456.859	1864.4
457.232	1863.95
457.606	1880.67
457.979	1894.23
458.352	1940.1
458.725	1957.28
459.099	1951.4
459.472	2004.96
459.845	2022.14
460.218	2027.79
460.591	2019.42
460.964	2019.88
461.337	2080.67
461.71	2126.54
462.083	2159.08
462.456	2153.88
462.829	2149.82
463.201	2177.16
463.574	2216.71
463.947	2239.76
464.32	2280.21
464.692	2293.77
465.065	2287.89
465.438	2318.63
465.81	2348.23
466.183	2421.22
466.555	2431.39
466.928	2472.52
467.3	2472.52
467.672	2467.55
468.045	2551.16
468.417	2522.46
468.789	2575.79
469.161	2585.29
469.534	2646.75
469.906	2693.3
470.278	2710.03
470.65	2710.03
471.022	2741.44
471.394	2815.79
471.766	2832.51
472.138	2842.91
472.51	2887.2
472.882	2943.02
473.253	2949.8
473.625	3026.4
473.997	3053.75
474.369	3067.98
474.74	3124.71
475.112	3157.47
475.484	3185.27
475.855	3221.65
476.227	3274.98
476.598	3349.33
476.97	3378.26
477.341	3450.12
477.713	3467.52
478.084	3500.06
478.455	3570.12
478.827	3624.81
479.198	3725.82
479.569	3698.02
479.94	3740.96
480.311	3807.17
480.682	3838.13
481.053	3943.22
481.424	3962.2
481.795	4037.9
482.166	4137.79
482.537	4123.1
482.908	4189.54
483.279	4242.42
483.65	4285.81
484.021	4336.43
484.391	4384.56
484.762	4427.95
485.133	4491.45
485.503	4544.33
485.874	4614.84
486.244	4651.9
486.615	4732.8
486.985	4771.89
487.356	4826.36
487.726	4845.11
488.097	4970.76
488.467	4954.04
488.837	5071.55
489.207	5119.68
489.578	5150.64
489.948	5194.93
490.318	5268.38
490.688	5250.07
491.058	5315.38
491.428	5369.17
491.798	5443.97
492.168	5530.74
492.538	5529.16
492.908	5607.35
493.278	5648.26
493.648	5637.63
494.017	5708.14
494.387	5746.33
494.757	5796.95
495.126	5916.5
495.496	5824.97
495.866	5876.72
496.235	5965.08
496.605	5913.33
496.974	5963.28
497.344	6071.52
497.713	6060.9
498.082	6111.52
498.452	6161.24
498.821	6153.55
499.19	6209.37
499.559	6216.38
499.928	6234.91
500.298	6228.81
500.667	6342.47
501.036	6325.53
501.405	6358.75
501.774	6354.68
502.143	6392.19
502.512	6451.85
502.88	6466.99
503.249	6448.69
503.618	6458.63
503.987	6501.79
504.356	6531.17
504.724	6550.6
505.093	6575.91
505.462	6554.67
505.83	6596.25
506.199	6646.65
506.567	6690.26
506.936	6694.56
507.304	6700.66
507.672	6706.76
508.041	6765.97
508.409	6859.07
508.777	6833.76
509.145	6848.9
509.514	6850.26
509.882	6867.21
510.25	6915.79
510.618	6935
510.986	6923.48
511.354	6913.76
511.722	7017.26
512.09	7041.67
512.458	7050.48
512.826	6979.52
513.193	7068.33
513.561	7052.51
513.929	7082.79
514.297	7158.05
514.664	7142
515.032	7143.13
515.4	7184.26
515.767	7148.55
516.135	7181.32
516.502	7086.18
516.869	7248.21
517.237	7220.42
517.604	7194.2
517.972	7218.84
518.339	7270.81
518.706	7246.63
519.073	7309
519.44	7256.12
519.808	7349.91
520.175	7320.75
520.542	7365.05
520.909	7370.02
521.276	7307.42
521.643	7329.79
522.009	7386.74
522.376	7388.55
522.743	7391.49
523.11	7440.52
523.477	7468.32
523.843	7478.49
524.21	7596.9
524.577	7516.23
524.943	7498.83
525.31	7473.07
525.676	7561.43
526.043	7579.5
526.409	7569.79
526.776	7597.13
527.142	7617.7
527.508	7629.45
527.874	7661.54
528.241	7626.51
528.607	7668.09
528.973	7770.01
529.339	7634.87
529.705	7714.64
530.071	7740.4
530.437	7733.4
530.803	7680.52
531.169	7754.87
531.535	7729.33
531.901	7691.82
532.267	7606.17
532.632	7703.34
532.998	7673.06
533.364	7709.67
533.73	7651.82
534.095	7697.69
534.461	7682.1
534.826	7658.15
535.192	7618.6
535.557	7715.09
535.923	7703.12
536.288	7694.98
536.653	7703.57
537.019	7695.21
537.384	7667.41
537.749	7699.27
538.114	7675.09
538.479	7687.52
538.845	7619.5
539.21	7596.23
539.575	7605.27
539.94	7595.77
540.305	7618.37
540.67	7551.26
541.034	7533.63
541.399	7617.92
541.764	7531.6
542.129	7511.94
542.494	7527.08
542.858	7553.74
543.223	7546.51
543.587	7530.69
543.952	7448.21
544.316	7479.62
544.681	7494.31
545.045	7442.33
545.41	7513.97
545.774	7395.33
546.138	7395.78
546.503	7404.37
546.867	7373.18
547.231	7426.97
547.595	7404.59
547.959	7348.78
548.324	7340.87
548.688	7378.15
549.052	7330.7
549.416	7369.34
549.779	7322.11
550.143	7301.09
550.507	7292.96
550.871	7334.99
551.235	7258.83
551.599	7297.03
551.962	7329.79
552.326	7333.63
552.689	7239.85
553.053	7235.56
553.417	7268.55
553.78	7339.51
554.143	7244.6
554.507	7263.35
554.87	7183.13
555.234	7228.33
555.597	7196.46
555.96	7226.52
556.323	7195.11
556.686	7218.61
557.05	7298.38
557.413	7217.48
557.776	7234.2
558.139	7231.26
558.502	7226.52
558.865	7276.46
559.228	7293.64
559.59	7305.16
559.953	7257.03
560.316	7309
560.679	7313.97
561.041	7304.94
561.404	7314.2
561.767	7346.06
562.129	7321.43
562.492	7349.68
562.854	7367.08
563.217	7341.32
563.579	7348.1
563.941	7390.13
564.304	7391.26
564.666	7378.83
565.028	7403.69
565.39	7436.91
565.753	7478.49
566.115	7446.4
566.477	7484.14
566.839	7427.87
567.201	7521.2
567.563	7493.63
567.925	7591.71
568.287	7562.78
568.648	7530.92
569.01	7603.01
569.372	7622.67
569.734	7551.03
570.095	7643.46
570.457	7585.15
570.819	7659.73
571.18	7639.16
571.542	7673.74
571.903	7669.45
572.265	7704.02
572.626	7730.01
572.987	7736.79
573.349	7711.03
573.71	7793.51
574.071	7801.65
574.432	7791.25
574.794	7874.64
575.155	7797.13
575.516	7818.59
575.877	7866.73
576.238	7858.37
576.599	7928.2
576.96	7929.33
577.32	7900.17
577.681	7943.11
578.042	8002.77
578.403	7998.48
578.763	7975.2
579.124	7963
579.485	8023.33
579.845	7960.74
580.206	8115.31
580.566	8024.01
580.927	8058.14
581.287	8062.43
581.648	8035.31
582.008	8172.26
582.368	8100.39
582.728	8149.21
583.089	8153.95
583.449	8187.62
583.809	8163.22
584.169	8160.51
584.529	8164.57
584.889	8233.27
585.249	8175.87
585.609	8172.03
585.969	8231.46
586.329	8176.78
586.688	8271.46
587.048	8194.18
587.408	8246.61
587.768	8234.4
588.127	8277.34
588.487	8257.23
588.846	8261.75
589.206	8243.44
589.565	8236.66
589.925	8338.13
590.284	8246.61
590.643	8317.56
591.003	8361.18
591.362	8413.38
591.721	8373.16
592.08	8348.07
592.44	8375.42
592.799	8444.57
593.158	8394.85
593.517	8407.73
593.876	8395.3
594.235	8377.22
594.593	8480.72
594.952	8487.28
595.311	8392.82
595.67	8370.44
596.029	8507.84
596.387	8494.51
596.746	8528.41
597.104	8492.02
597.463	8461.97
597.822	8537.67
598.18	8507.39
598.538	8407.5
598.897	8509.65
599.255	8500.61
599.613	8613.6
599.972	8516.43
600.33	8570.66
600.688	8501.97
601.046	8574.96
601.404	8583.55
601.762	8562.53
602.12	8624.45
602.478	8635.52
602.836	8575.41
603.194	8546.94
603.552	8656.54
603.91	8535.19
604.268	8639.36
604.625	8598.91
604.983	8605.01
605.341	8546.71
605.698	8654.96
606.056	8566.6
606.413	8613.38
606.771	8662.41
607.128	8656.54
607.485	8595.97
607.843	8630.32
608.2	8662.41
608.557	8653.37
608.914	8717.33
609.272	8727.27
609.629	8722.07
609.986	8743.09
610.343	8712.13
610.7	8814.05
611.057	8739.93
611.414	8674.84
611.771	8794.84
612.127	8795.07
612.484	8750.32
612.841	8783.77
613.198	8763.2
613.554	8757.78
613.911	8790.32
614.267	8844.78
614.624	8800.49
614.98	8817.89
615.337	8865.12
615.693	8880.26
616.05	8849.08
616.406	8871.67
616.762	8801.84
617.118	8857.44
617.475	8847.27
617.831	8915.06
618.187	8908.96
618.543	8881.39
618.899	8904.67
619.255	8878.23
619.611	8946.93
619.967	8943.99
620.323	8943.08
620.678	8971.78
621.034	8945.12
621.39	8917.1
621.746	8897.66
622.101	9003.87
622.457	8932.01
622.812	8930.88
623.168	8942.63
623.523	8927.94
623.879	8996.42
624.234	8916.64
624.589	8997.55
624.945	8937.43
625.3	8946.7
625.655	8922.52
626.01	8944.89
626.365	8949.64
626.72	8911.9
627.075	8894.72
627.43	8941.73
627.785	8860.83
628.14	8861.5
628.495	8949.41
628.85	8910.77
629.205	8880.94
629.559	8911.9
629.914	8886.59
630.269	8859.02
630.623	8850.66
630.978	8854.72
631.332	8872.13
631.687	8921.39
632.041	8837.55
632.396	8819.25
632.75	8812.24
633.104	8860.6
633.459	8809.75
633.813	8788.74
634.167	8811.79
634.521	8836.19
634.875	8740.15
635.229	8754.39
635.583	8730.21
635.937	8734.95
636.291	8725.24
636.645	8766.14
636.999	8696.31
637.352	8661.96
637.706	8643.66
638.06	8640.49
638.413	8646.82
638.767	8571.34
639.121	8680.04
639.474	8623.77
639.828	8570.21
640.181	8576.54
640.534	8615.18
640.888	8572.92
641.241	8556.2
641.594	8547.61
641.947	8612.7
642.301	8501.74
642.654	8532.47
643.007	8612.7
643.36	8532.93
643.713	8486.82
644.066	8602.08
644.419	8530.67
644.771	8456.54
645.124	8373.16
645.477	8399.82
645.83	8264.46
646.182	8286.6
646.535	8331.12
646.888	8334.51
647.24	8153.05
647.593	8253.16
647.945	8198.7
648.298	8274.63
648.65	8240.73
649.002	8197.34
649.355	8234.18
649.707	8227.62
650.059	8225.59
650.411	8355.3
650.763	8329.31
651.115	8420.61
651.467	8406.15
651.819	8378.81
652.171	8490.21
652.523	8397.11
652.875	8416.32
653.227	8391.91
653.578	8413.38
653.93	8426.26
654.282	8354.17
654.633	8381.74
654.985	8347.17
655.337	8409.09
655.688	8338.13
656.039	8399.82
656.391	8306.49
656.742	8339.71
657.094	8362.08
657.445	8368.64
657.796	8393.27
658.147	8360.05
658.498	8344.23
658.849	8425.36
659.2	8435.3
659.551	8373.38
659.902	8390.33
660.253	8386.71
660.604	8391.23
660.955	8288.86
661.306	8356.43
661.656	8378.13
662.007	8376.09
662.358	8418.8
662.708	8418.8
663.059	8391.46
663.409	8344.91
663.76	8367.51
664.11	8420.16
664.461	8412.25
664.811	8417.22
665.161	8377.9
665.511	8381.97
665.862	8390.56
666.212	8459.03
666.562	8429.65
666.912	8446.6
667.262	8397.34
667.612	8428.07
667.962	8414.51
668.312	8386.49
668.662	8411.35
669.011	8361.86
669.361	8337.9
669.711	8362.76
670.06	8382.65
670.41	8370.9
670.76	8334.29
671.109	8373.38
671.459	8312.37
671.808	8351.24
672.157	8304.46
672.507	8329.31
672.856	8285.7
673.205	8259.71
673.554	8261.52
673.904	8365.7
674.253	8364.34
674.602	8337.9
674.951	8162.77
675.3	8179.49
675.649	8233.5
675.998	8191.47
676.346	8255.19
676.695	8300.16
677.044	8237.34
677.393	8265.81
677.741	8215.87
678.09	8226.72
678.438	8214.06
678.787	8219.26
679.135	8217.91
679.484	8104.91
679.832	8176.78
680.181	8107.63
680.529	8134.52
680.877	8130
681.225	8129.09
681.573	8096.55
681.922	8100.85
682.27	8055.42
682.618	8092.03
682.966	8056.78
683.314	8051.81
683.661	8008.65
684.009	7974.75
684.357	7968.87
684.705	7921.42
685.053	7947.18
685.4	7971.58
685.748	7906.95
686.095	7884.35
686.443	7802.55
686.79	7856.33
687.138	7862.21
687.485	7880.97
687.832	7779.72
688.18	7785.37
688.527	7783.57
688.874	7756.9
689.221	7753.96
689.568	7737.92
689.915	7728.2
690.262	7691.14
690.609	7643.91
690.956	7603.46
691.303	7613.63
691.65	7600.07
691.997	7548.54
692.344	7519.39
692.69	7465.61
693.037	7501.31
693.383	7418.15
693.73	7455.21
694.077	7410.47
694.423	7400.07
694.769	7337.25
695.116	7321.66
695.462	7346.06
695.808	7243.69
696.155	7307.65
696.501	7250.7
696.847	7190.14
697.193	7181.77
697.539	7233.98
697.885	7222.9
698.231	7124.83
698.577	7115.34
698.923	7154.43
699.269	7089.57
699.614	7088.44
699.96	7001.21
700.306	6986.75
700.651	6997.6
700.997	6946.75
701.342	6964.83
701.688	6904.27
702.033	6859.52
702.379	6839.18
702.724	6865.62
703.069	6811.39
703.415	6776.36
703.76	6769.58
704.105	6712.63
704.45	6730.94
704.795	6745.85
705.14	6701.34
705.485	6646.87
705.83	6643.94
706.175	6670.83
706.52	6603.94
706.865	6613.2
707.209	6580.89
707.554	6608.23
707.899	6547.89
708.243	6503.83
708.588	6523.49
708.932	6487.78
709.277	6488.23
709.621	6474.9
709.966	6420.21
710.31	6457.05
710.654	6428.12
710.998	6408.01
711.342	6386.54
711.687	6374.79
712.031	6310.16
712.375	6338.63
712.719	6352.42
713.063	6290.5
713.407	6342.7
713.75	6292.08
714.094	6350.61
714.438	6209.6
714.782	6260.22
715.125	6275.81
715.469	6252.76
715.812	6220.67
716.156	6229.71
716.499	6224.96
716.843	6209.82
717.186	6175.02
717.53	6220.67
717.873	6174.8
718.216	6156.94
718.559	6183.83
718.902	6151.29
719.246	6177.51
719.589	6109.03
719.932	6089.37
720.275	6084.18
720.617	6076.94
720.96	6073.1
721.303	6087.79
721.646	6038.75
721.989	6054.8
722.331	6067
722.674	6075.14
723.016	6052.54
723.359	6038.08
723.701	6041.92
724.044	5969.83
724.386	5975.48
724.729	6002.14
725.071	5981.58
725.413	6002.37
725.755	5958.76
726.097	5939.55
726.439	5963.28
726.782	5945.87
727.124	5977.96
727.465	5942.48
727.807	5927.34
728.149	5884.18
728.491	5906.33
728.833	5964.18
729.175	5921.92
729.516	5930.51
729.858	5915.37
730.199	5946.78
730.541	5898.19
730.882	5908.14
731.224	5933.67
731.565	5914.01
731.906	5920.11
732.248	5928.02
732.589	5871.07
732.93	5869.49
733.271	5878.31
733.612	5945.65
733.953	5950.39
734.294	5871.75
734.635	5874.69
734.976	5932.09
735.317	5902.71
735.658	5863.62
735.999	5885.54
736.339	5835.6
736.68	5900.68
737.021	5858.19
737.361	5846.67
737.702	5895.93
738.042	5869.04
738.383	5922.15
738.723	5927.12
739.063	5918.08
739.404	5910.62
739.744	5926.89
740.084	5947.46
740.424	5929.38
740.764	5922.6
741.104	5940.23
741.444	5978.64
741.784	5971.18
742.124	5995.36
742.464	5990.62
742.804	5967.12
743.143	5968.47
743.483	6035.59
743.823	6073.78
744.162	5999.43
744.502	6028.13
744.841	6074.23
745.181	6071.52
745.52	6115.14
745.86	6186.09
746.199	6138.64
746.538	6179.54
746.877	6229.26
747.216	6224.74
747.556	6234.45
747.895	6293.44
748.234	6314.23
748.573	6332.08
748.911	6390.38
749.25	6434.45
749.589	6447.33
749.928	6578.17
750.267	6541.79
750.605	6579.53
750.944	6656.82
751.283	6728.9
751.621	6764.38
751.96	6820.88
752.298	6856.81
752.636	6882.8
752.975	6922.12
753.313	7060.42
753.651	7148.55
753.989	7191.94
754.327	7309.91
754.666	7383.13
755.004	7383.58
755.342	7582.22
755.679	7665.38
756.017	7710.57
756.355	7826.5
756.693	7890.91
757.031	7998.93
757.368	8091.36
757.706	8195.76
758.044	8262.2
758.381	8421.06
758.719	8475.75
759.056	8654.73
759.394	8667.39
759.731	8843.65
760.068	8895.63
760.405	8934.5
760.743	9111.44
761.08	9252.23
761.417	9310.98
761.754	9475.5
762.091	9601.15
762.428	9719.56
762.765	9758.66
763.102	9939.89
763.438	9979.22
763.775	10064.64
764.112	10236.16
764.449	10414.68
764.785	10460.33
765.122	10554.57
765.458	10687.9
765.795	10753.43
766.131	10885.86
766.467	10930.15
766.804	11112.52
767.14	11152.74
767.476	11286.07
767.812	11283.36
768.148	11436.8
768.485	11483.58
768.821	11577.14
769.157	11712.5
