Data from hue_240_FLMS001491_00038.txt Node
Date: Tue Feb 07 16:35:24 GMT 2017
User: dcchb
Spectrometer: FLMS00149
Trigger mode: 0
Integration Time (sec): 2.000000E-2
Scans to average: 10
Electric dark correction enabled: true
Nonlinearity correction enabled: false
Boxcar width: 0
XAxis mode: Wavelengths
Number of Pixels in Spectrum: 2048
>>>>>Begin Spectral Data<<<<<
341.393	-1.5
341.776	-1.5
342.16	-1.5
342.543	-90.31
342.927	-58.9
343.31	-78.56
343.693	-87.14
344.077	-73.81
344.46	-51.44
344.843	-52.34
345.226	-54.38
345.61	-28.39
345.993	-27.03
346.376	12.29
346.759	19.52
347.142	32.4
347.525	31.95
347.908	79.86
348.291	76.47
348.674	91.83
349.057	108.78
349.44	129.57
349.823	132.96
350.206	160.53
350.588	196.24
350.971	206.18
351.354	236.46
351.737	242.56
352.119	221.77
352.502	247.99
352.884	264.26
353.267	271.49
353.65	291.38
354.032	302.22
354.414	304.03
354.797	294.31
355.179	291.38
355.562	307.42
355.944	324.6
356.326	323.24
356.709	335.9
357.091	327.31
357.473	337.48
357.855	327.31
358.238	339.74
358.62	339.06
359.002	328.21
359.384	326.63
359.766	356.01
360.148	325.5
360.53	324.14
360.912	316.46
361.294	315.78
361.676	327.53
362.057	340.19
362.439	310.81
362.821	329.79
363.203	322.79
363.584	314.43
363.966	316.91
364.348	317.14
364.729	316.46
365.111	317.59
365.493	324.82
365.874	307.87
366.256	296.35
366.637	306.07
367.019	306.52
367.4	304.48
367.781	315.33
368.163	316.46
368.544	304.48
368.925	324.6
369.306	309.68
369.688	303.35
370.069	304.26
370.45	314.65
370.831	305.39
371.212	320.75
371.593	329.12
371.974	304.94
372.355	304.71
372.736	318.27
373.117	306.52
373.498	303.35
373.879	298.16
374.26	285.5
374.641	301.77
375.021	309.68
375.402	314.43
375.783	332.51
376.163	325.05
376.544	319.4
376.925	300.42
377.305	313.3
377.686	313.07
378.066	318.72
378.447	322.11
378.827	311.71
379.208	324.6
379.588	320.53
379.968	332.05
380.349	319.4
380.729	333.64
381.109	331.6
381.489	326.4
381.87	322.11
382.25	334.99
382.63	329.57
383.01	341.32
383.39	328.21
383.77	337.48
384.15	328.89
384.53	333.86
384.91	349.23
385.29	330.7
385.67	327.99
386.049	343.8
386.429	339.51
386.809	334.54
387.189	357.36
387.568	347.87
387.948	353.52
388.328	361.43
388.707	354.88
389.087	347.87
389.466	342
389.846	363.47
390.225	367.98
390.605	359.4
390.984	345.61
391.363	358.49
391.743	351.94
392.122	384.26
392.501	367.53
392.881	374.76
393.26	351.04
393.639	381.32
394.018	375.44
394.397	359.62
394.776	378.38
395.155	374.76
395.534	386.29
395.913	380.64
396.292	383.58
396.671	393.52
397.05	395.1
397.429	387.87
397.808	369.57
398.186	411.6
398.565	400.07
398.944	379.28
399.323	376.12
399.701	407.53
400.08	397.36
400.458	409.57
400.837	398.04
401.215	394.2
401.594	402.33
401.972	411.37
402.351	405.05
402.729	429.23
403.107	432.16
403.486	422.22
403.864	400.75
404.242	431.94
404.62	438.04
404.999	424.71
405.377	428.32
405.755	445.72
406.133	445.04
406.511	459.73
406.889	445.5
407.267	443.46
407.645	468.32
408.023	437.14
408.401	457.7
408.779	437.36
409.156	476.68
409.534	478.49
409.912	503.8
410.29	476.46
410.667	495.21
411.045	500.41
411.422	505.61
411.8	518.72
412.178	516
412.555	502.67
412.933	528.66
413.31	546.74
413.687	541.31
414.065	529.11
414.442	578.83
414.819	545.16
415.197	553.29
415.574	559.17
415.951	567.98
416.328	582.67
416.705	582.22
417.082	594.87
417.46	593.52
417.837	595.55
418.214	608.66
418.591	607.53
418.967	633.97
419.344	620.18
419.721	631.48
420.098	622.22
420.475	643.23
420.852	641.42
421.228	655.66
421.605	666.96
421.982	672.61
422.358	673.74
422.735	685.49
423.111	678.94
423.488	707.86
423.864	723.23
424.241	726.39
424.617	716.22
424.994	725.26
425.37	718.26
425.746	742.44
426.123	774.75
426.499	748.09
426.875	775.43
427.251	801.65
427.627	808.2
428.003	791.7
428.379	834.19
428.756	843.68
429.132	839.16
429.507	849.55
429.883	860.63
430.259	885.26
430.635	851.81
431.011	883.9
431.387	909.21
431.763	894.98
432.138	912.15
432.514	928.2
432.89	951.47
433.265	964.13
433.641	958.48
434.016	979.72
434.392	999.38
434.767	1049.77
435.143	1034.86
435.518	1012.04
435.894	1065.14
436.269	1040.74
436.644	1069.21
437.02	1101.98
437.395	1081.41
437.77	1133.39
438.145	1148.98
438.52	1147.85
438.895	1158.7
439.271	1162.54
439.646	1181.75
440.021	1198.7
440.395	1223.1
440.77	1212.03
441.145	1234.63
441.52	1258.58
441.895	1258.13
442.27	1269.66
442.645	1273.05
443.019	1303.33
443.394	1314.17
443.769	1330.9
444.143	1311.01
444.518	1315.53
444.892	1321.18
445.267	1332.93
445.641	1344.91
446.016	1366.6
446.39	1395.98
446.764	1395.53
447.139	1406.83
447.513	1422.65
447.887	1377.45
448.262	1405.7
448.636	1440.27
449.01	1441.18
449.384	1454.06
449.758	1482.08
450.132	1476.43
450.506	1482.98
450.88	1504.9
451.254	1503.55
451.628	1504.23
452.002	1555.98
452.376	1552.36
452.75	1573.6
453.123	1565.69
453.497	1587.39
453.871	1634.62
454.244	1656.54
454.618	1653.37
454.992	1651.34
455.365	1659.02
455.739	1701.51
456.112	1725.46
456.486	1734.73
456.859	1739.47
457.232	1764.33
457.606	1762.98
457.979	1781.73
458.352	1862.86
458.725	1846.14
459.099	1859.02
459.472	1848.4
459.845	1918.45
460.218	1930.2
460.591	1934.72
460.964	1939.47
461.337	1986.93
461.71	1990.09
462.083	2040.03
462.456	2007.94
462.829	2010.65
463.201	2061.73
463.574	2063.31
463.947	2088.17
464.32	2161.16
464.692	2147.37
465.065	2179.24
465.438	2191.89
465.81	2215.62
466.183	2286.13
466.555	2281.38
466.928	2284.54
467.3	2263.75
467.672	2363.19
468.045	2397.08
468.417	2398.21
468.789	2426.01
469.161	2427.59
469.534	2465.56
469.906	2510.75
470.278	2516.18
470.65	2554.14
471.022	2560.47
471.394	2629.85
471.766	2694.25
472.138	2700.13
472.51	2780.35
472.882	2792.1
473.253	2811.76
473.625	2821.48
473.997	2854.47
474.369	2879.11
474.74	2915.94
475.112	2974.02
475.484	2963.17
475.855	3037.97
476.227	3034.81
476.598	3134.92
476.97	3154.58
477.341	3260.56
477.713	3234.12
478.084	3313.44
478.455	3341.24
478.827	3401.35
479.198	3444.74
479.569	3473.89
479.94	3544.62
480.311	3554.12
480.682	3678.86
481.053	3718.86
481.424	3755.69
481.795	3810.38
482.166	3833.43
482.537	3843.37
482.908	3922.47
483.279	3979.19
483.65	4082.46
484.021	4128.56
484.391	4177.15
484.762	4210.37
485.133	4201.33
485.503	4316.36
485.874	4363.81
486.244	4406.3
486.615	4451.04
486.985	4498.27
487.356	4585.73
487.726	4584.82
488.097	4667.31
488.467	4684.93
488.837	4803.12
489.207	4804.03
489.578	4881.09
489.948	4927.64
490.318	4960.41
490.688	5005.38
491.058	5024.81
491.428	5063
491.798	5180.74
492.168	5236.33
492.538	5217.35
492.908	5302.77
493.278	5331.24
493.648	5356.55
494.017	5449.43
494.387	5398.81
494.757	5465.48
495.126	5519.04
495.496	5550
495.866	5565.81
496.235	5615.08
496.605	5657.79
496.974	5698.69
497.344	5749.54
497.713	5786.37
498.082	5839.48
498.452	5852.81
498.821	5843.77
499.19	5916.99
499.559	5943.21
499.928	5969.87
500.298	5995.18
500.667	6041.96
501.036	6035.86
501.405	6081.05
501.774	6070.21
502.143	6119.7
502.512	6153.6
502.88	6168.28
503.249	6159.24
503.618	6188.85
503.987	6211.22
504.356	6249.86
504.724	6232.69
505.093	6291.67
505.462	6274.27
505.83	6379.13
506.199	6403.08
506.567	6434.72
506.936	6367.6
507.304	6502.96
507.672	6463.42
508.041	6541.16
508.409	6570.99
508.777	6540.93
509.145	6584.54
509.514	6549.74
509.882	6633.58
510.25	6655.73
510.618	6680.14
510.986	6687.59
511.354	6682.39
511.722	6752.68
512.09	6794.26
512.458	6768.27
512.826	6855.72
513.193	6766.23
513.561	6791.09
513.929	6862.5
514.297	6934.14
514.664	6900.92
515.032	6886.68
515.4	6948.38
515.767	6947.25
516.135	7017.98
516.502	6973.91
516.869	7051.65
517.237	7006.23
517.604	6958.32
517.972	7103.4
518.339	6990.18
518.706	7052.55
519.073	7082.84
519.44	7046
519.808	7161.93
520.175	7116.96
520.542	7196.51
520.909	7193.34
521.276	7210.52
521.643	7260.01
522.009	7265.2
522.376	7276.28
522.743	7333.9
523.11	7350.4
523.477	7366.67
523.843	7325.99
524.21	7449.38
524.577	7425.88
524.943	7436.5
525.31	7493
525.676	7483.73
526.043	7564.18
526.409	7600.79
526.776	7569.15
527.142	7565.54
527.508	7535.71
527.874	7602.82
528.241	7637.85
528.607	7620.9
528.973	7681.24
529.339	7665.65
529.705	7684.4
530.071	7732.08
530.437	7753.55
530.803	7731.41
531.169	7729.15
531.535	7732.99
531.901	7769.82
532.267	7701.35
532.632	7740.67
532.998	7785.64
533.364	7763.04
533.73	7770.95
534.095	7755.36
534.461	7777.51
534.826	7794.91
535.192	7786.77
535.557	7786.32
535.923	7786.55
536.288	7803.04
536.653	7879.65
537.019	7722.37
537.384	7768.02
537.749	7807.34
538.114	7800.11
538.479	7736.83
538.845	7755.14
539.21	7724.18
539.575	7747.23
539.94	7716.27
540.305	7789.71
540.67	7735.25
541.034	7790.84
541.399	7753.1
541.764	7720.79
542.129	7747
542.494	7759.65
542.858	7827.9
543.223	7732.31
543.587	7745.42
543.952	7775.7
544.316	7789.94
544.681	7710.16
545.045	7736.15
545.41	7744.97
545.774	7731.18
546.138	7703.61
546.503	7704.51
546.867	7666.78
547.231	7730.28
547.595	7703.16
547.959	7672.43
548.324	7638.53
548.688	7620.68
549.052	7657.96
549.416	7655.7
549.779	7685.98
550.143	7650.73
550.507	7647.34
550.871	7650.73
551.235	7625.19
551.599	7693.44
551.962	7650.96
552.326	7599.88
552.689	7655.7
553.053	7550.17
553.417	7599.43
553.78	7675.36
554.143	7622.71
554.507	7686.66
554.87	7638.75
555.234	7625.42
555.597	7635.82
555.96	7676.72
556.323	7566.67
556.686	7668.58
557.05	7605.53
557.413	7723.5
557.776	7631.97
558.139	7690.05
558.502	7682.59
558.865	7681.92
559.228	7689.37
559.59	7721.69
559.953	7726.44
560.316	7813.44
560.679	7788.35
561.041	7812.53
561.404	7846.88
561.767	7857.51
562.129	7829.94
562.492	7884.4
562.854	7846.88
563.217	7878.97
563.579	7892.31
563.941	7913.77
564.304	7913.32
564.666	7944.28
565.028	7947.45
565.39	7904.74
565.753	8001
566.115	8051.62
566.477	8036.94
566.839	8016.15
567.201	8065.41
567.563	8113.77
567.925	8157.16
568.287	8164.84
568.648	8126.42
569.01	8149.47
569.372	8196.71
569.734	8202.58
570.095	8184.73
570.457	8257.27
570.819	8303.6
571.18	8255.23
571.542	8340.2
571.903	8315.57
572.265	8325.52
572.626	8334.1
572.987	8359.19
573.349	8405.51
573.71	8379.07
574.071	8413.42
574.432	8450.03
574.794	8459.52
575.155	8481.22
575.516	8493.19
575.877	8476.47
576.238	8475.57
576.599	8538.39
576.96	8532.97
577.32	8586.07
577.681	8634.89
578.042	8664.49
578.403	8649.57
578.763	8579.29
579.124	8669.91
579.485	8701.78
579.845	8704.94
580.206	8672.85
580.566	8699.97
580.927	8685.05
581.287	8717.82
581.648	8747.43
582.008	8784.26
582.368	8736.13
582.728	8802.79
583.089	8795.56
583.449	8824.26
583.809	8794.88
584.169	8837.82
584.529	8888.66
584.889	8853.86
585.249	8868.1
585.609	8872.62
585.969	8811.38
586.329	8919.17
586.688	8910.36
587.048	8913.52
587.408	8903.81
587.768	8896.35
588.127	8847.31
588.487	8915.33
588.846	8955.56
589.206	8939.51
589.565	8933.86
589.925	9025.38
590.284	8985.16
590.643	8976.12
591.003	8986.74
591.362	9054.54
591.721	8982
592.08	9014.54
592.44	9051.15
592.799	9041.2
593.158	9021.54
593.517	9002.79
593.876	9123.69
594.235	9054.08
594.593	9022.22
594.952	9093.86
595.311	9066.29
595.67	9067.64
596.029	9111.71
596.387	9107.19
596.746	9156.68
597.104	9053.63
597.463	9068.09
597.822	9098.6
598.18	9141.31
598.538	9135.21
598.897	9176.34
599.255	9048.89
599.613	9183.8
599.972	9127.98
600.33	9178.6
600.688	9139.96
601.046	9159.62
601.404	9229.45
601.762	9252.72
602.12	9245.27
602.478	9148.54
602.836	9235.32
603.194	9160.75
603.552	9202.55
603.91	9157.36
604.268	9187.64
604.625	9109.68
604.983	9193.97
605.341	9146.06
605.698	9178.6
606.056	9268.32
606.413	9197.58
606.771	9200.97
607.128	9262.21
607.485	9296.11
607.843	9220.41
608.2	9330.69
608.557	9358.71
608.914	9338.37
609.272	9367.52
609.629	9363.91
609.986	9335.88
610.343	9320.74
610.7	9383.34
611.057	9423.34
611.414	9372.04
611.771	9442.55
612.127	9363.45
612.484	9358.48
612.841	9430.12
613.198	9432.38
613.554	9367.97
613.911	9448.42
614.267	9490.68
614.624	9428.09
614.98	9447.07
615.337	9506.95
615.693	9539.95
616.05	9469.21
616.406	9555.99
616.762	9552.15
617.118	9537.01
617.475	9507.63
617.831	9533.39
618.187	9521.19
618.543	9546.27
618.899	9646.84
619.255	9553.28
619.611	9570.68
619.967	9591.24
620.323	9562.09
620.678	9612.04
621.034	9523.9
621.39	9541.3
621.746	9571.81
622.101	9600.51
622.457	9559.83
622.812	9587.86
623.168	9581.98
623.523	9650.45
623.879	9574.75
624.234	9577.23
624.589	9553.96
624.945	9570.23
625.3	9511.02
625.655	9649.1
626.01	9560.74
626.365	9553.73
626.72	9548.08
627.075	9601.87
627.43	9544.01
627.785	9550.34
628.14	9614.3
628.495	9559.16
628.85	9511.02
629.205	9569.78
629.559	9568.42
629.914	9492.26
630.269	9481.19
630.623	9515.77
630.978	9498.82
631.332	9480.97
631.687	9502.89
632.041	9471.02
632.396	9474.64
632.75	9393.96
633.104	9431.25
633.459	9377.92
633.813	9414.75
634.167	9390.57
634.521	9436.67
634.875	9429.67
635.229	9357.58
635.583	9350.57
635.937	9349.9
636.291	9310.12
636.645	9271.93
636.999	9237.81
637.352	9334.98
637.706	9223.8
638.06	9316.22
638.413	9280.29
638.767	9293.85
639.121	9244.59
639.474	9230.12
639.828	9187.19
640.181	9290.91
640.534	9275.55
640.888	9134.99
641.241	9186.51
641.594	9222.67
641.947	9172.05
642.301	9166.17
642.654	9218.15
643.007	9155.32
643.36	9098.15
643.713	9146.51
644.066	9176.11
644.419	9139.05
644.771	9053.63
645.124	9002.56
645.477	8929.12
645.83	8877.59
646.182	8916.69
646.535	8830.36
646.888	8860.42
647.24	8742.68
647.593	8827.65
647.945	8839.63
648.298	8845.95
648.65	8760.53
649.002	8729.12
649.355	8777.03
649.707	8753.53
650.059	8789.23
650.411	8876.91
650.763	8922.56
651.115	8990.58
651.467	9006.4
651.819	8967.31
652.171	9016.34
652.523	8931.83
652.875	8891.83
653.227	8899.29
653.578	8938.61
653.93	8929.34
654.282	8924.6
654.633	8894.99
654.985	8951.94
655.337	8896.35
655.688	8906.29
656.039	8937.7
656.391	8869.46
656.742	8887.53
657.094	8930.47
657.445	8914.65
657.796	8974.99
658.147	8882.79
658.498	8893.18
658.849	8897.48
659.2	8927.31
659.551	8850.25
659.902	8919.85
660.253	8907.65
660.604	8939.28
660.955	8865.16
661.306	8859.74
661.656	8937.48
662.007	8894.99
662.358	8873.52
662.708	8846.63
663.059	8883.02
663.409	8937.93
663.76	8902.45
664.11	8939.06
664.461	8899.29
664.811	8946.52
665.161	8933.86
665.511	8875.78
665.862	8955.78
666.212	8887.99
666.562	8918.27
666.912	8884.82
667.262	8882.79
667.612	8899.74
667.962	8958.04
668.312	8868.33
668.662	8932.96
669.011	8900.42
669.361	8853.41
669.711	8883.69
670.06	8898.83
670.41	8827.65
670.76	8836.46
671.109	8853.64
671.459	8796.24
671.808	8834.43
672.157	8877.14
672.507	8816.12
672.856	8781.32
673.205	8801.89
673.554	8838.72
673.904	8842.79
674.253	8815.45
674.602	8830.81
674.951	8687.31
675.3	8617.49
675.649	8791.94
675.998	8695.68
676.346	8750.14
676.695	8789.91
677.044	8712.85
677.393	8685.28
677.741	8724.83
678.09	8684.38
678.438	8726.63
678.787	8743.58
679.135	8749.23
679.484	8698.16
679.832	8632.4
680.181	8600.76
680.529	8657.48
680.877	8591.05
681.225	8600.76
681.573	8650.48
681.922	8540.2
682.27	8533.19
682.618	8562.8
682.966	8513.53
683.314	8556.47
683.661	8574.77
684.009	8482.57
684.357	8435.12
684.705	8521.67
685.053	8431.5
685.4	8395.12
685.748	8366.64
686.095	8361.9
686.443	8311.28
686.79	8267.44
687.138	8328.68
687.485	8338.62
687.832	8290.04
688.18	8303.82
688.527	8257.49
688.874	8222.92
689.221	8229.92
689.568	8198.74
689.915	8116.48
690.262	8176.37
690.609	8170.49
690.956	8109.7
691.303	8062.25
691.65	8065.86
691.997	8134.56
692.344	7975.47
692.69	7997.84
693.037	8009.82
693.383	7942.25
693.73	7901.12
694.077	7892.76
694.423	7876.04
694.769	7828.58
695.116	7830.39
695.462	7808.47
695.808	7784.51
696.155	7759.88
696.501	7765.76
696.847	7711.07
697.193	7676.04
697.539	7649.6
697.885	7660.9
698.231	7654.57
698.577	7587.46
698.923	7595.37
699.269	7517.63
699.614	7464.07
699.96	7455.93
700.306	7496.84
700.651	7417.52
700.997	7429.49
701.342	7432.43
701.688	7382.72
702.033	7405.54
702.379	7393.34
702.724	7294.58
703.069	7297.97
703.415	7237.86
703.76	7209.61
704.105	7264.53
704.45	7216.62
704.795	7114.93
705.14	7137.3
705.485	7157.18
705.83	7080.12
706.175	7088.71
706.52	7092.1
706.865	7097.07
707.209	7024.76
707.554	7035.83
707.899	6989.96
708.243	6978.66
708.588	6996.06
708.932	6875.84
709.277	6893.24
709.621	6938.89
709.966	6871.77
710.31	6845.78
710.654	6783.41
710.998	6782.51
711.342	6871.09
711.687	6804.65
712.031	6855.27
712.375	6733.02
712.719	6767.36
713.063	6801.71
713.407	6738.66
713.75	6755.61
714.094	6734.6
714.438	6732.11
714.782	6729.4
715.125	6665.22
715.469	6704.32
715.812	6664.54
716.156	6649.63
716.499	6582.06
716.843	6644.66
717.186	6536.86
717.53	6670.42
717.873	6585.45
718.216	6660.47
718.559	6577.09
718.902	6528.5
719.246	6524.88
719.589	6528.05
719.932	6485.79
720.275	6524.66
720.617	6532.34
720.96	6478.56
721.303	6488.28
721.646	6507.94
721.989	6457.77
722.331	6446.24
722.674	6484.89
723.016	6468.62
723.359	6438.79
723.701	6441.5
724.044	6395.85
724.386	6396.07
724.729	6405.79
725.071	6403.53
725.413	6345
725.755	6366.02
726.097	6367.37
726.439	6381.61
726.782	6359.47
727.124	6373.25
727.465	6367.83
727.807	6338.9
728.149	6333.03
728.491	6286.25
728.833	6316.75
729.175	6320.14
729.516	6310.2
729.858	6302.97
730.199	6309.3
730.541	6266.81
730.882	6320.82
731.224	6316.98
731.565	6282.18
731.906	6274.27
732.248	6281.28
732.589	6219.36
732.93	6200.37
733.271	6245.57
733.612	6288.96
733.953	6260.49
734.294	6251.22
734.635	6229.3
734.976	6242.63
735.317	6261.16
735.658	6230.66
735.999	6252.12
736.339	6283.08
736.68	6283.76
737.021	6237.43
737.361	6224.55
737.702	6284.89
738.042	6242.41
738.383	6293.25
738.723	6259.58
739.063	6250.09
739.404	6271.78
739.744	6303.42
740.084	6284.89
740.424	6309.52
740.764	6292.57
741.104	6316.98
741.444	6313.82
741.784	6277.43
742.124	6330.54
742.464	6324.44
742.804	6319.69
743.143	6264.1
743.483	6359.92
743.823	6327.15
744.162	6407.15
744.502	6395.85
744.841	6389.52
745.181	6488.95
745.52	6354.49
745.86	6414.15
746.199	6468.84
746.538	6443.08
746.877	6496.64
747.216	6581.83
747.556	6624.32
747.895	6535.51
748.234	6635.16
748.573	6652.79
748.911	6641.72
749.25	6677.88
749.589	6749.06
749.928	6764.2
750.267	6818.89
750.605	6831.77
750.944	6879
751.283	6905.21
751.621	6935.95
751.96	7008.71
752.298	7036.51
752.636	7063.63
752.975	7117.64
753.313	7236.96
753.651	7265.88
753.989	7306.33
754.327	7391.53
754.666	7413.9
755.004	7502.49
755.342	7581.13
755.679	7737.06
756.017	7720.33
756.355	7814.34
756.693	7864.74
757.031	8005.07
757.368	8057.95
757.706	8047.56
758.044	8183.6
758.381	8321.45
758.719	8373.88
759.056	8510.14
759.394	8521.22
759.731	8591.95
760.068	8657.94
760.405	8725.51
760.743	8846.41
761.08	8992.84
761.417	9037.59
761.754	9134.99
762.091	9295.21
762.428	9279.61
762.765	9410.01
763.102	9529.55
763.438	9608.65
763.775	9610.45
764.112	9713.28
764.449	9875.76
764.785	10005.92
765.122	10003.44
765.458	10075.07
765.795	10140.16
766.131	10261.28
766.467	10267.84
766.804	10406.36
767.14	10406.59
767.476	10562.74
767.812	10581.28
768.148	10700.59
768.485	10767.94
768.821	10802.51
769.157	10794.38
769.492	10887.71
