Data from hue_34_FLMS001491_00091.txt Node
Date: Tue Feb 07 17:26:27 GMT 2017
User: dcchb
Spectrometer: FLMS00149
Trigger mode: 0
Integration Time (sec): 2.000000E-2
Scans to average: 10
Electric dark correction enabled: true
Nonlinearity correction enabled: false
Boxcar width: 0
XAxis mode: Wavelengths
Number of Pixels in Spectrum: 2048
>>>>>Begin Spectral Data<<<<<
341.393	-23.62
341.776	-23.62
342.16	-23.62
342.543	-59.55
342.927	-52.54
343.31	-69.26
343.693	-68.13
344.077	-79.43
344.46	-65.87
344.843	-53.22
345.226	-38.98
345.61	-46.44
345.993	-22.03
346.376	-11.64
346.759	22.71
347.142	23.84
347.525	68.81
347.908	64.97
348.291	81.24
348.674	91.18
349.057	102.26
349.44	134.57
349.823	151.52
350.206	155.59
350.588	198.98
350.971	234.68
351.354	236.49
351.737	252.31
352.119	262.03
352.502	270.84
352.884	279.43
353.267	299.54
353.65	277.17
354.032	302.7
354.414	302.7
354.797	326.43
355.179	323.95
355.562	338.64
355.944	343.38
356.326	336.83
356.709	325.75
357.091	336.83
357.473	350.39
357.855	332.99
358.238	337.28
358.62	349.26
359.002	321.91
359.384	349.71
359.766	356.94
360.148	339.77
360.53	342.7
360.912	332.99
361.294	338.86
361.676	342.02
362.057	342.93
362.439	335.47
362.821	338.41
363.203	341.57
363.584	345.19
363.966	331.4
364.348	338.64
364.729	302.93
365.111	338.18
365.493	334.12
365.874	335.25
366.256	335.7
366.637	329.82
367.019	311.07
367.4	294.79
367.781	322.82
368.163	293.21
368.544	336.83
368.925	309.71
369.306	337.51
369.688	302.7
370.069	311.97
370.45	327.11
370.831	328.24
371.212	326.21
371.593	326.21
371.974	345.87
372.355	323.27
372.736	305.64
373.117	343.15
373.498	327.11
373.879	318.97
374.26	315.58
374.641	317.39
375.021	330.05
375.402	312.42
375.783	314.68
376.163	342.7
376.544	316.49
376.925	328.47
377.305	318.07
377.686	329.82
378.066	337.73
378.447	340.22
378.827	350.16
379.208	351.74
379.588	349.48
379.968	332.99
380.349	349.71
380.729	349.48
381.109	360.33
381.489	339.77
381.87	320.56
382.25	354
382.63	338.41
383.01	358.97
383.39	359.43
383.77	358.75
384.15	334.34
384.53	353.78
384.91	359.65
385.29	348.13
385.67	341.35
386.049	355.36
386.429	359.43
386.809	341.12
387.189	354.23
387.568	357.84
387.948	361.23
388.328	363.72
388.707	373.44
389.087	369.14
389.466	351.29
389.846	379.54
390.225	368.69
390.605	364.62
390.984	365.08
391.363	361.46
391.743	371.85
392.122	374.57
392.501	367.56
392.881	369.37
393.26	389.93
393.639	374.79
394.018	371.18
394.397	372.08
394.776	364.17
395.155	357.62
395.534	378.86
395.913	380.22
396.292	384.74
396.671	398.52
397.05	396.94
397.429	391.52
397.808	390.61
398.186	388.35
398.565	398.52
398.944	395.58
399.323	391.74
399.701	382.7
400.08	382.7
400.458	402.59
400.837	390.61
401.215	395.13
401.594	398.52
401.972	395.81
402.351	390.84
402.729	388.35
403.107	397.84
403.486	410.27
403.864	404.4
404.242	413.66
404.62	433.77
404.999	417.28
405.377	412.53
405.755	425.19
406.133	407.79
406.511	407.11
406.889	416.83
407.267	426.99
407.645	405.98
408.023	416.6
408.401	447.11
408.779	445.98
409.156	448.46
409.534	450.72
409.912	445.98
410.29	434
410.667	440.78
411.045	441.68
411.422	452.98
411.8	456.82
412.178	471.51
412.555	454.11
412.933	459.99
413.31	462.93
413.687	464.28
414.065	461.34
414.442	450.04
414.819	478.97
415.197	478.74
415.574	503.6
415.951	489.59
416.328	492.76
416.705	485.52
417.082	495.47
417.46	488.69
417.837	502.92
418.214	506.09
418.591	509.7
418.967	502.92
419.344	506.77
419.721	507.44
420.098	501.79
420.475	509.25
420.852	518.97
421.228	525.07
421.605	519.2
421.982	514
422.358	507.44
422.735	542.02
423.111	532.53
423.488	540.66
423.864	523.04
424.241	531.62
424.617	576.6
424.994	544.51
425.37	533.66
425.746	557.16
426.123	560.1
426.499	581.79
426.875	578.63
427.251	563.49
427.627	569.14
428.003	561.68
428.379	584.96
428.756	580.44
429.132	581.79
429.507	589.93
429.883	595.58
430.259	596.03
430.635	609.59
431.011	603.03
431.387	605.07
431.763	626.99
432.138	620.44
432.514	608.68
432.89	624.73
433.265	629.25
433.641	641.9
434.016	655.24
434.392	648.68
434.767	664.05
435.143	673.54
435.518	678.06
435.894	660.21
436.269	689.36
436.644	680.77
437.02	669.25
437.395	670.83
437.77	696.82
438.145	691.62
438.52	696.59
438.895	714.22
439.271	708.34
439.646	710.83
440.021	721.9
440.395	742.24
440.77	717.61
441.145	723.03
441.52	733.65
441.895	763.03
442.27	734.56
442.645	741.11
443.019	757.83
443.394	757.16
443.769	749.7
444.143	780.66
444.518	773.65
444.892	750.6
445.267	765.97
445.641	782.69
446.016	786.53
446.39	777.49
446.764	778.62
447.139	793.76
447.513	793.99
447.887	786.08
448.262	781.79
448.636	784.5
449.01	813.88
449.384	811.84
449.758	831.96
450.132	824.95
450.506	833.54
450.88	838.96
451.254	855.68
451.628	859.98
452.002	868.56
452.376	854.33
452.75	874.21
453.123	864.05
453.497	875.57
453.871	896.13
454.244	902.69
454.618	909.02
454.992	907.89
455.365	940.43
455.739	905.85
456.112	946.98
456.486	956.92
456.859	972.52
457.232	946.53
457.606	971.39
457.979	994.66
458.352	994.89
458.725	985.62
459.099	1031.05
459.472	1024.49
459.845	1025.17
460.218	1061.33
460.591	1064.27
460.964	1076.69
461.337	1067.88
461.71	1106.3
462.083	1092.06
462.456	1113.3
462.829	1113.53
463.201	1125.73
463.574	1129.12
463.947	1138.84
464.32	1187.43
464.692	1198.73
465.065	1187.43
465.438	1207.54
465.81	1221.1
466.183	1258.61
466.555	1256.8
466.928	1241.66
467.3	1265.16
467.672	1331.6
468.045	1299.06
468.417	1370.25
468.789	1366.63
469.161	1341.32
469.534	1413.41
469.906	1416.8
470.278	1423.13
470.65	1455.89
471.022	1437.14
471.394	1517.36
471.766	1526.63
472.138	1507.64
472.51	1580.18
472.882	1600.75
473.253	1655.21
473.625	1660.63
473.997	1716.68
474.369	1726.62
474.74	1752.61
475.112	1798.94
475.484	1830.57
475.855	1862.21
476.227	1903.57
476.598	1944.02
476.97	1990.57
477.341	2020.85
477.713	2096.33
478.084	2113.73
478.455	2137.68
478.827	2192.82
479.198	2273.73
479.569	2303.78
479.94	2347.17
480.311	2400.73
480.682	2459.03
481.053	2529.99
481.424	2629.65
481.795	2653.83
482.166	2709.19
482.537	2766.37
482.908	2851.56
483.279	2918.68
483.65	3000.94
484.021	3087.04
484.391	3168.84
484.762	3204.32
485.133	3243.19
485.503	3314.83
485.874	3452
486.244	3487.48
486.615	3591.88
486.985	3667.36
487.356	3786.91
487.726	3810.18
488.097	3937.18
488.467	3940.57
488.837	4079.55
489.207	4160.46
489.578	4266.22
489.948	4337.85
490.318	4488.13
490.688	4494.46
491.058	4608.35
491.428	4688.35
491.798	4839.08
492.168	4932.19
492.538	4943.26
492.908	5049.7
493.278	5131.73
493.648	5172.18
494.017	5290.14
494.387	5405.62
494.757	5493.98
495.126	5499.18
495.496	5587.76
495.866	5663.92
496.235	5787.31
496.605	5807.19
496.974	5935.1
497.344	5979.84
497.713	6056.45
498.082	6142.78
498.452	6208.09
498.821	6301.19
499.19	6376.89
499.559	6457.12
499.928	6506.16
500.298	6618.7
500.667	6694.4
501.036	6707.96
501.405	6708.64
501.774	6805.81
502.143	6913.15
502.512	6954.73
502.88	7008.97
503.249	7081.96
503.618	7140.49
503.987	7145.01
504.356	7187.72
504.724	7317.89
505.093	7368.73
505.462	7436.08
505.83	7472.46
506.199	7594.94
506.567	7584.32
506.936	7627.48
507.304	7769.17
507.672	7739.8
508.041	7817.76
508.409	7905.67
508.777	7953.12
509.145	8055.95
509.514	7987.02
509.882	8080.8
510.25	8175.04
510.618	8167.58
510.986	8235.38
511.354	8295.49
511.722	8412.32
512.09	8491.42
512.458	8462.04
512.826	8554.92
513.193	8631.52
513.561	8626.78
513.929	8615.25
514.297	8731.18
514.664	8819.99
515.032	8802.82
515.4	8910.61
515.767	8946.09
516.135	9036.49
516.502	8976.83
516.869	9186.09
517.237	9201.45
517.604	9159.42
517.972	9229.25
518.339	9298.85
518.706	9305.63
519.073	9423.37
519.44	9426.31
519.808	9485.51
520.175	9449.36
520.542	9626.53
520.909	9666.75
521.276	9702.68
521.643	9764.38
522.009	9755.34
522.376	9901.32
522.743	9907.2
523.11	10025.39
523.477	10158.26
523.843	10119.39
524.21	10237.36
524.577	10242.56
524.943	10271.71
525.31	10338.15
525.676	10419.5
526.043	10496.11
526.409	10576.56
526.776	10601.87
527.142	10675.09
527.508	10678.48
527.874	10761.64
528.241	10809.77
528.607	10896.78
528.973	10908.07
529.339	10954.4
529.705	11088.86
530.071	11124.11
530.437	11179.93
530.803	11289.99
531.169	11448.85
531.535	11343.09
531.901	11406.82
532.267	11431.9
532.632	11533.37
532.998	11534.95
533.364	11589.64
533.73	11642.74
534.095	11673.03
534.461	11768.39
534.826	11867.37
535.192	11907.82
535.557	11947.37
535.923	11959.12
536.288	12020.81
536.653	12079.57
537.019	12119.79
537.384	12042.96
537.749	12142.84
538.114	12145.56
538.479	12252.67
538.845	12286.12
539.21	12335.16
539.575	12381.48
539.94	12417.87
540.305	12491.99
540.67	12519.78
541.034	12568.82
541.399	12663.96
541.764	12665.77
542.129	12598.65
542.494	12854.46
542.858	12807.69
543.223	12785.77
543.587	12920.23
543.952	12951.41
544.316	12984.4
544.681	12999.55
545.045	13081.35
545.41	13193.21
545.774	13222.59
546.138	13173.33
546.503	13217.17
546.867	13359.54
547.231	13434.79
547.595	13411.51
547.959	13542.36
548.324	13470.72
548.688	13503.26
549.052	13571.96
549.416	13710.94
549.779	13789.81
550.143	13665.97
550.507	13806.76
550.871	13858.05
551.235	13892.86
551.599	14006.07
551.962	14053.75
552.326	13988.45
552.689	14113.64
553.053	14025.96
553.417	14117.48
553.78	14266.86
554.143	14224.82
554.507	14366.97
554.87	14413.52
555.234	14517.25
555.597	14380.98
555.96	14466.63
556.323	14524.48
556.686	14545.95
557.05	14671.82
557.413	14735.54
557.776	14762.89
558.139	14851.47
558.502	14888.54
558.865	14860.51
559.228	14959.49
559.59	15048.98
559.953	14980.74
560.316	15143.67
560.679	15173.27
561.041	15227.74
561.404	15374.62
561.767	15406.04
562.129	15408.75
562.492	15505.02
562.854	15514.28
563.217	15483.77
563.579	15575.07
563.941	15627.72
564.304	15735.07
564.666	15838.11
565.028	15811.45
565.39	15894.16
565.753	15919.02
566.115	15988.39
566.477	15969.86
566.839	16103.42
567.201	16278.78
567.563	16206.92
567.925	16345.67
568.287	16287.14
568.648	16360.13
569.01	16464.76
569.372	16572.56
569.734	16596.96
570.095	16718.32
570.457	16757.19
570.819	16764.42
571.18	16808.94
571.542	16851.87
571.903	16940.91
572.265	17109.95
572.626	17084.64
572.987	17184.75
573.349	17358.53
573.71	17398.75
574.071	17399.43
574.432	17541.8
574.794	17665.41
575.155	17650.27
575.516	17741.57
575.877	17929.36
576.238	18012.75
576.599	18153.53
576.96	18287.99
577.32	18333.19
577.681	18506.07
578.042	18628.1
578.403	18779.28
578.763	18862.44
579.124	19059.95
579.485	19167.97
579.845	19359.15
580.206	19400.96
580.566	19539.71
580.927	19727.5
581.287	19905.35
581.648	19997.55
582.008	20201.84
582.368	20330.88
582.728	20596.41
583.089	20756.86
583.449	20978.77
583.809	21159.56
584.169	21368.36
584.529	21487.91
584.889	21802.48
585.249	21880.89
585.609	22037.27
585.969	22465.51
586.329	22506.87
586.688	22764.26
587.048	22981.66
587.408	23136.91
587.768	23467.74
588.127	23570.57
588.487	23782.99
588.846	24177.78
589.206	24283.99
589.565	24652.35
589.925	24996.97
590.284	25169.17
590.643	25370.07
591.003	25626.78
591.362	25965.08
591.721	26216.6
592.08	26460.21
592.44	26703.59
592.799	26938.61
593.158	27156.24
593.517	27376.12
593.876	27643.45
594.235	27897.91
594.593	28262.42
594.952	28475.97
595.311	28596.65
595.67	28863.53
596.029	29262.39
596.387	29572.22
596.746	29772.21
597.104	29908.48
597.463	30204.52
597.822	30465.3
598.18	30695.35
598.538	30844.73
598.897	31130.59
599.255	31142.57
599.613	31862.55
599.972	31868.88
600.33	32133.73
600.688	32312.94
601.046	32636.32
601.404	32924.67
601.762	32919.02
602.12	33363.53
602.478	33505.45
602.836	33755.38
603.194	33803.29
603.552	34013
603.91	33843.97
604.268	34305.65
604.625	34594.01
604.983	34707.9
605.341	34840.1
605.698	35064.95
606.056	35348.56
606.413	35430.59
606.771	35664.94
607.128	35810.24
607.485	35853.86
607.843	36162.78
608.2	36351.47
608.557	36571.35
608.914	36667.85
609.272	36869.88
609.629	37162.3
609.986	37212.47
610.343	37348.51
610.7	37651.1
611.057	37776.97
611.414	37803.64
611.771	37937.42
612.127	38102.61
612.484	38268.49
612.841	38523.85
613.198	38551.87
613.554	38574.24
613.911	39027.79
614.267	39110.95
614.624	39039.99
614.98	39249.7
615.337	39687.21
615.693	39479.75
616.05	39566.08
616.406	39870.25
616.762	39843.59
617.118	39776.47
617.475	39914.54
617.831	40235.67
618.187	40283.12
618.543	40279.28
618.899	40687.63
619.255	40657.8
619.611	40670.23
619.967	40621.87
620.323	40996.1
620.678	40933.27
621.034	40919.94
621.39	40933.27
621.746	41066.38
622.101	41531
622.457	41215.3
622.812	41357.44
623.168	41474.95
623.523	41466.37
623.879	41785.91
624.234	41522.41
624.589	41733.93
624.945	41905.45
625.3	41869.07
625.655	41817.77
626.01	41955.39
626.365	41998.78
626.72	41982.51
627.075	41993.36
627.43	42008.73
627.785	41930.31
628.14	42134.6
628.495	42235.61
628.85	42227.25
629.205	42065.22
629.559	42350.19
629.914	42159.68
630.269	42151.1
630.623	42147.48
630.978	42093.24
631.332	42289.62
631.687	42431.31
632.041	42199.91
632.396	42358.1
632.75	42150.42
633.104	42302.5
633.459	41992.68
633.813	42205.56
634.167	42194.48
634.521	42229.51
634.875	42264.09
635.229	42333.69
635.583	42088.95
635.937	42166.24
636.291	42187.25
636.645	42192.22
636.999	42093.02
637.352	42328.49
637.706	42131.89
638.06	42304.76
638.413	41983.19
638.767	42053.02
639.121	42086.69
639.474	41924.66
639.828	41945
640.181	42083.98
640.534	42074.03
640.888	41955.85
641.241	41780.26
641.594	41679.24
641.947	42048.5
642.301	41766.47
642.654	41962.85
643.007	41932.34
643.36	41901.61
643.713	41749.52
644.066	41968.5
644.419	41722.86
644.771	41408.06
645.124	41225.24
645.477	41143.44
645.83	40764.69
646.182	40587.75
646.535	40634.98
646.888	40752.49
647.24	40328.54
647.593	40719.72
647.945	40613.06
648.298	40395.89
648.65	40406.51
649.002	40202.67
649.355	40527.41
649.707	40439.5
650.059	40599.72
650.411	40905.25
650.763	41098.47
651.115	41399.02
651.467	41357.9
651.819	41296.43
652.171	41238.35
652.523	41181.4
652.875	41070.22
653.227	40920.39
653.578	41232.93
653.93	41198.58
654.282	40876.55
654.633	40993.61
654.985	41090.11
655.337	41058.92
655.688	41111.35
656.039	41168.07
656.391	40867.51
656.742	41008.53
657.094	40889.21
657.445	41109.77
657.796	41033.61
658.147	41013.5
658.498	40880.62
658.849	40944.57
659.2	40901.64
659.551	40785.26
659.902	40981.63
660.253	40934.18
660.604	40959.04
660.955	40597.46
661.306	40955.65
661.656	40838.59
662.007	40936.66
662.358	40849.21
662.708	40861.19
663.059	40798.14
663.409	40578.93
663.76	40879.94
664.11	40841.07
664.461	40915.2
664.811	40793.84
665.161	40756.33
665.511	40714.07
665.862	40717.91
666.212	40855.76
666.562	40788.87
666.912	40645.37
667.262	40708.42
667.612	40704.81
667.962	40837.68
668.312	40683.79
668.662	40886.95
669.011	40796.78
669.361	40575.77
669.711	40667.07
670.06	40668.87
670.41	40641.53
670.76	40577.58
671.109	40704.35
671.459	40606.95
671.808	40545.71
672.157	40588.65
672.507	40251.71
672.856	40391.37
673.205	40572.83
673.554	40653.73
673.904	40424.13
674.253	40594.3
674.602	40468.2
674.951	39808.11
675.3	39688.79
675.649	40503
675.998	40271.14
676.346	40280.41
676.695	40440.63
677.044	40040.42
677.393	40329.45
677.741	40411.93
678.09	40271.14
678.438	40204.03
678.787	40226.4
679.135	40092.62
679.484	39848.1
679.832	40176.46
680.181	39784.6
680.529	39930.81
680.877	39844.26
681.225	39805.62
681.573	40126.52
681.922	39685.85
682.27	39797.48
682.618	39728.11
682.966	39586.42
683.314	39636.36
683.661	39483.82
684.009	39234.56
684.357	39281.57
684.705	39255.13
685.053	39340.1
685.4	39246.54
685.748	39044.96
686.095	39092.87
686.443	38950.95
686.79	38801.13
687.138	39027.34
687.485	38918.41
687.832	38852.88
688.18	38740.56
688.527	38773.1
688.874	38594.35
689.221	38533.11
689.568	38463.73
689.915	38174.25
690.262	38268.03
690.609	38064.87
690.956	38031.2
691.303	38169.05
691.65	37826.46
691.997	37927.48
692.344	37709.18
692.69	37617.2
693.037	37653.36
693.383	37445.68
693.73	37499.01
694.077	37339.02
694.423	37360.94
694.769	37167.72
695.116	37215.18
695.462	37118.23
695.808	36932.48
696.155	37073.94
696.501	36785.81
696.847	36720.28
697.193	36623.33
697.539	36792.37
697.885	36488.19
698.231	36455.65
698.577	36390.57
698.923	36269.67
699.269	36109.45
699.614	36020.41
699.96	35866.29
700.306	35898.6
700.651	35751.04
700.997	35626.97
701.342	35490.25
701.688	35524.6
702.033	35275.12
702.379	35287.09
702.724	35177.27
703.069	35250.03
703.415	34974.11
703.76	34956.93
704.105	34961.91
704.45	34844.85
704.795	34638.52
705.14	34545.19
705.485	34464.74
705.83	34397.17
706.175	34561.24
706.52	34291.64
706.865	34244.86
707.209	34211.87
707.554	34156.5
707.899	34179.1
708.243	33890.07
708.588	33851.88
708.932	33685.55
709.277	33705.67
709.621	33728.49
709.966	33622.28
710.31	33576.63
710.654	33267.94
710.998	33344.32
711.342	33311.78
711.687	33136.87
712.031	33116.76
712.375	33034.72
712.719	33032.24
713.063	32863.2
713.407	32927.83
713.75	32922.64
714.094	32863.2
714.438	32761.51
714.782	32769.65
715.125	32471.8
715.469	32577.79
715.812	32459.6
716.156	32300.96
716.499	32272.94
716.843	32373.73
717.186	32103
717.53	32278.81
717.873	32285.37
718.216	32295.54
718.559	32086.27
718.902	31776.23
719.246	31966.96
719.589	31825.26
719.932	31648.77
720.275	31682.44
720.617	31656.46
720.96	31622.33
721.303	31612.84
721.646	31621.2
721.989	31492.84
722.331	31462.79
722.674	31345.5
723.016	31505.27
723.359	31409.23
723.701	31346.41
724.044	31095.79
724.386	31158.39
724.729	31061.22
725.071	31054.89
725.413	31022.57
725.755	30917.49
726.097	30867.32
726.439	30753.65
726.782	30878.62
727.124	30901.9
727.465	30639.99
727.807	30733.77
728.149	30604.51
728.491	30538.97
728.833	30700.55
729.175	30353.89
729.516	30448.58
729.858	30385.53
730.199	30391.4
730.541	30279.54
730.882	30274.57
731.224	30220.56
731.565	30227.34
731.906	30074.12
732.248	30187.57
732.589	30062.6
732.93	29849.27
733.271	29919.1
733.612	29894.69
733.953	30009.95
734.294	29862.15
734.635	29787.8
734.976	29790.97
735.317	29670.75
735.658	29651.08
735.999	29579.9
736.339	29611.09
736.68	29566.34
737.021	29500.58
737.361	29335.61
737.702	29567.02
738.042	29406.57
738.383	29456.97
738.723	29348.27
739.063	29334.03
739.404	29296.07
739.744	29142.62
740.084	29193.92
740.424	29153.7
740.764	29056.3
741.104	29182.62
741.444	28971.55
741.784	28985.34
742.124	29149.18
742.464	28799.81
742.804	28757.32
743.143	28770.88
743.483	28740.83
743.823	28668.06
744.162	28549.87
744.502	28577.89
744.841	28443.66
745.181	28590.55
745.52	28505.35
745.86	28456.77
746.199	28445.69
746.538	28487.5
746.877	28446.6
747.216	28363.89
747.556	28328.18
747.895	28223.78
748.234	28208.86
748.573	28165.02
748.911	28050.22
749.25	28034.86
749.589	27859.95
749.928	28053.39
750.267	28059.94
750.605	27938.14
750.944	27840.28
751.283	27742.21
751.621	27821.53
751.96	27625.15
752.298	27622.89
752.636	27707.18
752.975	27505.38
753.313	27534.53
753.651	27494.53
753.989	27316
754.327	27245.95
754.666	27215.44
755.004	27218.38
755.342	27257.48
755.679	27142.68
756.017	27035.56
756.355	27081.21
756.693	26949.23
757.031	26979.52
757.368	26771.16
