Data from hue_40_FLMS001491_55.txt Node
Date: Mon Feb 06 15:08:06 GMT 2017
User: dcchb
Spectrometer: FLMS00149
Trigger mode: 0
Integration Time (sec): 2.000000E-2
Scans to average: 10
Electric dark correction enabled: true
Nonlinearity correction enabled: false
Boxcar width: 0
XAxis mode: Wavelengths
Number of Pixels in Spectrum: 2048
>>>>>Begin Spectral Data<<<<<
341.393	-10.21
341.776	-10.21
342.16	-10.21
342.543	-66.48
342.927	-85.92
343.31	-63.54
343.693	-67.39
344.077	-70.55
344.46	-63.09
344.843	-46.37
345.226	-42.53
345.61	-26.93
345.993	-35.3
346.376	-9.53
346.759	20.75
347.142	32.05
347.525	22.33
347.908	76.57
348.291	71.37
348.674	98.94
349.057	103.23
349.44	121.54
349.823	141.65
350.206	166.05
350.588	207.64
350.971	218.93
351.354	228.2
351.737	243.57
352.119	250.35
352.502	280.18
352.884	270.23
353.267	278.14
353.65	300.06
354.032	306.39
354.414	306.62
354.797	314.98
355.179	322.44
355.562	330.34
355.944	317.01
356.326	326.5
356.709	341.19
357.091	343.68
357.473	348.42
357.855	355.2
358.238	344.58
358.62	333.96
359.002	341.87
359.384	346.62
359.766	342.32
360.148	348.2
360.53	347.29
360.912	353.39
361.294	317.24
361.676	341.42
362.057	359.72
362.439	335.32
362.821	321.76
363.203	317.69
363.584	314.75
363.966	321.98
364.348	322.44
364.729	303.68
365.111	322.21
365.493	319.05
365.874	344.58
366.256	309.1
366.637	311.36
367.019	314.07
367.4	323.79
367.781	296.67
368.163	328.76
368.544	334.41
368.925	303.45
369.306	323.34
369.688	318.82
370.069	350.68
370.45	303.23
370.831	325.37
371.212	330.57
371.593	318.59
371.974	331.93
372.355	316.56
372.736	304.36
373.117	308.88
373.498	327.41
373.879	324.69
374.26	318.37
374.641	339.84
375.021	322.21
375.402	324.69
375.783	321.53
376.163	323.34
376.544	291.7
376.925	340.97
377.305	330.34
377.686	320.4
378.066	321.98
378.447	342.32
378.827	331.93
379.208	332.38
379.588	326.05
379.968	339.38
380.349	345.03
380.729	334.41
381.109	349.55
381.489	316.79
381.87	326.73
382.25	333.06
382.63	347.07
383.01	366.73
383.39	341.42
383.77	346.16
384.15	368.54
384.53	367.18
384.91	348.42
385.29	354.75
385.67	361.76
386.049	378.03
386.429	357.91
386.809	359.5
387.189	370.8
387.568	360.63
387.948	349.78
388.328	383
388.707	380.96
389.087	339.61
389.466	363.56
389.846	345.94
390.225	385.48
390.605	365.37
390.984	363.79
391.363	380.29
391.743	365.37
392.122	368.31
392.501	357.46
392.881	364.69
393.26	389.55
393.639	387.52
394.018	377.35
394.397	375.31
394.776	362.43
395.155	376.44
395.534	394.52
395.913	383.68
396.292	405.14
396.671	396.33
397.05	389.55
397.429	396.11
397.808	384.58
398.186	400.63
398.565	402.88
398.944	397.24
399.323	418.7
399.701	401.08
400.08	386.84
400.458	392.26
400.837	402.88
401.215	401.08
401.594	411.25
401.972	426.84
402.351	412.6
402.729	401.53
403.107	429.1
403.486	418.48
403.864	413.73
404.242	431.58
404.62	429.1
404.999	415.77
405.377	408.99
405.755	426.61
406.133	420.74
406.511	412.38
406.889	441.53
407.267	444.24
407.645	423.45
408.023	449.66
408.401	433.39
408.779	443.11
409.156	446.95
409.534	423.22
409.912	446.5
410.29	463.22
410.667	470.23
411.045	460.74
411.422	456.44
411.8	459.61
412.178	462.77
412.555	482.88
412.933	483.79
413.31	485.59
413.687	470.45
414.065	496.44
414.442	493.05
414.819	475.65
415.197	488.08
415.574	480.85
415.951	512.71
416.328	501.64
416.705	507.06
417.082	481.98
417.46	501.19
417.837	513.62
418.214	500.96
418.591	543.67
418.967	510.68
419.344	545.25
419.721	532.37
420.098	537.12
420.475	530.79
420.852	544.35
421.228	557.91
421.605	524.01
421.982	554.29
422.358	542.32
422.735	567.4
423.111	549.77
423.488	532.15
423.864	579.83
424.241	581.19
424.617	586.61
424.994	581.64
425.37	560.85
425.746	582.09
426.123	595.87
426.499	590.22
426.875	582.09
427.251	587.74
427.627	606.95
428.003	593.39
428.379	612.14
428.756	601.52
429.132	611.69
429.507	604.69
429.883	619.6
430.259	639.49
430.635	615.76
431.011	645.82
431.387	651.24
431.763	661.41
432.138	673.61
432.514	673.16
432.89	678.58
433.265	644.46
433.641	681.97
434.016	682.43
434.392	694.85
434.767	707.28
435.143	714.97
435.518	719.94
435.894	695.53
436.269	699.15
436.644	717.23
437.02	732.14
437.395	735.08
437.77	749.09
438.145	717.23
438.52	760.39
438.895	740.05
439.271	756.1
439.646	743.44
440.021	779.6
440.395	748.64
440.77	761.75
441.145	783.21
441.52	773.04
441.895	771.24
442.27	787.96
442.645	798.81
443.019	794.06
443.394	801.29
443.769	810.11
444.143	792.25
444.518	826.15
444.892	808.07
445.267	831.57
445.641	832.25
446.016	850.78
446.39	810.78
446.764	863.21
447.139	835.64
447.513	821.18
447.887	867.96
448.262	871.57
448.636	855.3
449.01	875.19
449.384	893.04
449.758	889.88
450.132	899.82
450.506	894.62
450.88	907.05
451.254	900.5
451.628	933.49
452.002	907.5
452.376	942.31
452.75	931.46
453.123	933.04
453.497	942.76
453.871	953.38
454.244	974.62
454.618	954.96
454.992	974.17
455.365	992.25
455.739	986.15
456.112	1028.41
456.486	1021.17
456.859	1029.76
457.232	1011.46
457.606	1050.1
457.979	1082.19
458.352	1086.26
458.725	1112.92
459.099	1100.04
459.472	1102.53
459.845	1151.57
460.218	1134.39
460.591	1131.91
460.964	1155.86
461.337	1166.25
461.71	1191.34
462.083	1204.67
462.456	1213.94
462.829	1218.91
463.201	1220.72
463.574	1218
463.947	1236.54
464.32	1278.12
464.692	1266.37
465.065	1297.78
465.438	1323.09
465.81	1345.01
466.183	1358.57
466.555	1366.93
466.928	1381.62
467.3	1382.29
467.672	1441.73
468.045	1445.57
468.417	1448.96
468.789	1467.04
469.161	1495.29
469.534	1527.83
469.906	1577.09
470.278	1578.67
470.65	1616.41
471.022	1650.54
471.394	1672.46
471.766	1707.94
472.138	1705.68
472.51	1742.28
472.882	1756.3
473.253	1801.27
473.625	1840.59
473.997	1878.33
474.369	1919.68
474.74	1932.11
475.112	2020.24
475.484	2031.32
475.855	2075.16
476.227	2117.19
476.598	2161.03
476.97	2224.98
477.341	2286
477.713	2325.09
478.084	2350.4
478.455	2448.03
478.827	2495.26
479.198	2580
479.569	2583.62
479.94	2712.43
480.311	2772.77
480.682	2818.19
481.053	2928.69
481.424	2939.77
481.795	3074.45
482.166	3170.5
482.537	3207.1
482.908	3305.41
483.279	3369.81
483.65	3448.45
484.021	3603.7
484.391	3629.47
484.762	3709.69
485.133	3746.07
485.503	3903.36
485.874	4020.64
486.244	4057.48
486.615	4179.51
486.985	4308.77
487.356	4478.48
487.726	4490.24
488.097	4648.2
488.467	4674.86
488.837	4776.33
489.207	4942.88
489.578	5055.87
489.948	5146.94
490.318	5261.29
490.688	5365.47
491.058	5510.77
491.428	5635.52
491.798	5714.61
492.168	5855.62
492.538	5914.6
492.908	6074.37
493.278	6182.39
493.648	6256.06
494.017	6398.43
494.387	6485.66
494.757	6605.43
495.126	6717.75
495.496	6798.65
495.866	6879.55
496.235	7014.01
496.605	7199.54
496.974	7202.93
497.344	7333.55
497.713	7437.5
498.082	7528.35
498.452	7646.08
498.821	7671.62
499.19	7835.68
499.559	7952.29
499.928	7991.39
500.298	8152.96
500.667	8242.23
501.036	8278.61
501.405	8476.12
501.774	8518.38
502.143	8593.18
502.512	8681.31
502.88	8745.94
503.249	8861.42
503.618	8884.02
503.987	9097.35
504.356	9107.74
504.724	9178.93
505.093	9246.49
505.462	9338.47
505.83	9459.37
506.199	9545.92
506.567	9676.77
506.936	9670.66
507.304	9766.48
507.672	9800.6
508.041	9979.58
508.409	10051.67
508.777	10092.12
509.145	10270.2
509.514	10290.76
509.882	10368.5
510.25	10395.62
510.618	10482.39
510.986	10568.04
511.354	10668.83
511.722	10769.17
512.09	10916.05
512.458	10942.04
512.826	10971.19
513.193	11078.99
513.561	11161.02
513.929	11256.38
514.297	11320.11
514.664	11428.13
515.032	11514.01
515.4	11578.41
515.767	11591.97
516.135	11622.93
516.502	11654.79
516.869	11894.33
517.237	11930.49
517.604	11876.71
517.972	12035.12
518.339	12064.05
518.706	12198.96
519.073	12232.18
519.44	12220.43
519.808	12400.31
520.175	12400.99
520.542	12574.32
520.909	12642.34
521.276	12698.61
521.643	12802.11
522.009	12794.65
522.376	12917.81
522.743	13051.37
523.11	13109.22
523.477	13278.03
523.843	13352.15
524.21	13459.94
524.577	13517.79
524.943	13587.4
525.31	13717.79
525.676	13792.59
526.043	13944.22
526.409	13941.96
526.776	14099.02
527.142	14100.83
527.508	14253.59
527.874	14410.2
528.241	14399.8
528.607	14413.14
528.973	14538.56
529.339	14586.01
529.705	14663.07
530.071	14899.45
530.437	14955.04
530.803	15024.42
531.169	15124.98
531.535	14993.46
531.901	15151.42
532.267	15195.49
532.632	15366.11
532.998	15371.53
533.364	15503.05
533.73	15513.67
534.095	15650.85
534.461	15715.25
534.826	15771.75
535.192	15820.33
535.557	15961.8
535.923	15955.47
536.288	15979.88
536.653	16093.55
537.019	16093.55
537.384	16154.56
537.749	16244.95
538.114	16249.7
538.479	16289.92
538.845	16474.78
539.21	16431.62
539.575	16527.43
539.94	16618.28
540.305	16711.83
540.67	16584.15
541.034	16771.49
541.399	16882.9
541.764	16921.77
542.129	17000.64
542.494	17043.35
542.858	17133.52
543.223	17239.73
543.587	17268.43
543.952	17294.64
544.316	17390.69
544.681	17370.12
545.045	17438.82
545.41	17501.19
545.774	17678.14
546.138	17606.95
546.503	17678.36
546.867	17740.28
547.231	17893.95
547.595	17900.73
547.959	17939.15
548.324	18052.36
548.688	18089.65
549.052	18172.59
549.416	18114.51
549.779	18213.26
550.143	18393.15
550.507	18462.3
550.871	18384.78
551.235	18542.29
551.599	18687.83
551.962	18575.51
552.326	18649.86
552.689	18777.32
553.053	18716.75
553.417	18785.23
553.78	18992.23
554.143	18936.41
554.507	19089.63
554.87	19173.92
555.234	19297.98
555.597	19160.58
555.96	19295.27
556.323	19356.06
556.686	19471.99
557.05	19521.48
557.413	19643.51
557.776	19572.55
558.139	19797.86
558.502	19784.52
558.865	19888.93
559.228	19922.6
559.59	19966.44
559.953	20094.8
560.316	20325.3
560.679	20268.35
561.041	20434
561.404	20487.33
561.767	20554.67
562.129	20418.86
562.492	20687.55
562.854	20817.94
563.217	20817.04
563.579	20784.04
563.941	20962.8
564.304	21021.1
564.666	21123.02
565.028	21267.87
565.39	21266.74
565.753	21356.46
566.115	21504.25
566.477	21437.13
566.839	21642.33
567.201	21713.29
567.563	21714.41
567.925	21879.83
568.287	21850.68
568.648	21952.83
569.01	22023.11
569.372	22273.04
569.734	22203.89
570.095	22311.46
570.457	22440.05
570.819	22482.76
571.18	22588.29
571.542	22579.93
571.903	22671.68
572.265	22866.02
572.626	23047.49
572.987	22961.16
573.349	23099.69
573.71	23313.92
574.071	23248.16
574.432	23387.37
574.794	23631.65
575.155	23624.42
575.516	23496.06
575.877	23749.16
576.238	23798.2
576.599	23988.25
576.96	23999.33
577.32	24154.58
577.681	24293.78
578.042	24394.34
578.403	24471.86
578.763	24715.24
579.124	24809.93
579.485	24981.67
579.845	25307.77
580.206	25277.26
580.566	25320.65
580.927	25444.94
581.287	25643.13
581.648	25754.53
582.008	25891.71
582.368	26128.31
582.728	26288.08
583.089	26417.12
583.449	26568.52
583.809	26594.06
584.169	26843.77
584.529	26991.79
584.889	27406.47
585.249	27322.86
585.609	27427.03
585.969	27796.29
586.329	27954.93
586.688	28142.72
587.048	28175.71
587.408	28355.82
587.768	28564.63
588.127	28733.67
588.487	28956.48
588.846	29281.22
589.206	29233.77
589.565	29495.68
589.925	29699.29
590.284	29843.92
590.643	30183.34
591.003	30376.33
591.362	30590.34
591.721	30739.49
592.08	30921.18
592.44	31174.96
592.799	31320.04
593.158	31441.84
593.517	31585.12
593.876	31926.12
594.235	31998.89
594.593	32157.08
594.952	32409.73
595.311	32545.99
595.67	32811.07
596.029	33048.35
596.387	33284.05
596.746	33453.77
597.104	33397.27
597.463	33491.51
597.822	33922.68
598.18	33946.64
598.538	33953.64
598.897	34531.48
599.255	34390.69
599.613	34998.13
599.972	34858.48
600.33	35184.34
600.688	35054.18
601.046	35501.4
601.404	35547.27
601.762	35739.58
602.12	35908.84
602.478	36166.46
602.836	36197.88
603.194	36210.76
603.552	36264.77
603.91	36356.97
604.268	36697.75
604.625	36714.92
604.983	36966.22
605.341	36849.61
605.698	37103.84
606.056	37323.04
606.413	37416.6
606.771	37581.79
607.128	37662.47
607.485	37652.3
607.843	37779.53
608.2	38114.21
608.557	38368.21
608.914	38268.1
609.272	38576.57
609.629	38692.95
609.986	38902.66
610.343	38817.47
610.7	39195.76
611.057	39211.58
611.414	39299.49
611.771	39404.57
612.127	39493.83
612.484	39473.27
612.841	39818.57
613.198	39733.15
613.554	39812.02
613.911	40111.67
614.267	40107.15
614.624	40130.65
614.98	40392.57
615.337	40741.26
615.693	40561.83
616.05	40513.47
616.406	40878.43
616.762	40613.58
617.118	40719.34
617.475	40879.11
617.831	41101.25
618.187	41112.55
618.543	41174.24
618.899	41372.2
619.255	41472.09
619.611	41374.24
619.967	41758.18
620.323	41694.91
620.678	41569.49
621.034	41590.5
621.39	41692.65
621.746	41613.55
622.101	42208.79
622.457	41692.87
622.812	41958.4
623.168	42153.88
623.523	42230.71
623.879	42283.82
624.234	41970.15
624.589	42239.98
624.945	42236.36
625.3	42375.11
625.655	42334.21
626.01	42539.4
626.365	42534.43
626.72	42396.81
627.075	42517.94
627.43	42399.97
627.785	42562
628.14	42666.86
628.495	42549.8
628.85	42576.92
629.205	42720.19
629.559	42729.46
629.914	42659.63
630.269	42799.06
630.623	42622.57
630.978	42555.9
631.332	42814.65
631.687	42914.99
632.041	42523.81
632.396	42712.73
632.75	42493.3
633.104	42725.61
633.459	42455.11
633.813	42581.21
634.167	42487.65
634.521	42518.39
634.875	42705.5
635.229	42673.41
635.583	42474.1
635.937	42363.36
636.291	42442.46
636.645	42520.42
636.999	42359.97
637.352	42483.13
637.706	42258.73
638.06	42475.9
638.413	42366.98
638.767	42332.63
639.121	42323.14
639.474	42102.35
639.828	42050.38
640.181	42347.54
640.534	42196.36
640.888	42027.55
641.241	41908.91
641.594	41994.56
641.947	42151.39
642.301	42093.77
642.654	42126.31
643.007	42124.95
643.36	42012.86
643.713	42052.64
644.066	42063.94
644.419	41864.39
644.771	41671.4
645.124	41265.77
645.477	41282.49
645.83	41083.4
646.182	40782.61
646.535	40751.2
646.888	40971.54
647.24	40564.09
647.593	40749.39
647.945	40703.07
648.298	40469.4
648.65	40381.95
649.002	40540.13
649.355	40567.7
649.707	40595.95
650.059	40758.21
650.411	41148.03
650.763	41323.39
651.115	41597.96
651.467	41386.89
651.819	41472.77
652.171	41309.83
652.523	41287.69
652.875	41158.2
653.227	41177.41
653.578	41425.76
653.93	41260.34
654.282	41076.17
654.633	41037.3
654.985	41120.01
655.337	41184.41
655.688	41162.27
656.039	41206.78
656.391	41023.06
656.742	41026.9
657.094	41013.79
657.445	41212.21
657.796	41096.96
658.147	41033.91
658.498	40993
658.849	41072.32
659.2	40989.84
659.551	40929.28
659.902	41103.74
660.253	40891.31
660.604	41135.15
660.955	40817.42
661.306	41155.26
661.656	40864.42
662.007	40957.98
662.358	40940.12
662.708	40994.36
663.059	40914.36
663.409	40626.01
663.76	40942.16
664.11	40923.18
664.461	40932.44
664.811	40840.01
665.161	40779.68
665.511	40574.26
665.862	40694.25
666.212	40845.89
666.562	40846.12
666.912	40808.6
667.262	40717.98
667.612	40643.18
667.962	40679.57
668.312	40615.16
668.662	40795.5
669.011	40703.07
669.361	40680.02
669.711	40717.08
670.06	40656.06
670.41	40597.08
670.76	40456.97
671.109	40689.96
671.459	40595.27
671.808	40640.92
672.157	40574.26
672.507	40493.36
672.856	40528.84
673.205	40439.35
673.554	40591.21
673.904	40484.54
674.253	40676.18
674.602	40614.93
674.951	39858.34
675.3	39752.58
675.649	40319.58
675.998	40287.49
676.346	40392.12
676.695	40431.44
677.044	40150.99
677.393	40210.65
677.741	40232.12
678.09	40117.55
678.438	40092.69
678.787	40206.36
679.135	40254.27
679.484	39903.99
679.832	40107.38
680.181	39928.17
680.529	40154.83
680.877	39798.91
681.225	39921.39
681.573	40080.26
681.922	39809.08
682.27	39600.5
682.618	39603.21
682.966	39601.85
683.314	39659.25
683.661	39460.39
684.009	39343.56
684.357	39337.45
684.705	39347.17
685.053	39313.95
685.4	39188.98
685.748	39013.62
686.095	39113.96
686.443	38943.11
686.79	38921.19
687.138	38972.72
687.485	38987.41
687.832	38589.9
688.18	38735.66
688.527	38653.18
688.874	38585.16
689.221	38461.77
689.568	38403.69
689.915	38222.23
690.262	38161.89
690.609	38204.38
690.956	38021.1
691.303	38102.46
691.65	37925.06
691.997	37944.72
692.344	37618.63
692.69	37672.41
693.037	37681.9
693.383	37371.63
693.73	37540.44
694.077	37321.01
694.423	37333.44
694.769	37179.32
695.116	37115.37
695.462	37101.81
695.808	36908.59
696.155	37030.62
696.501	36658.2
696.847	36651.65
697.193	36418.89
697.539	36613.23
697.885	36330.53
698.231	36317.19
698.577	36305.9
698.923	36165.56
699.269	36011.67
699.614	35853.93
699.96	35795.85
700.306	35909.97
700.651	35686.48
700.997	35500.27
701.342	35515.86
701.688	35512.92
702.033	35318.13
702.379	35383.43
702.724	35162.87
703.069	35352.02
703.415	35012.82
703.76	34839.49
704.105	34999.94
704.45	34803.79
704.795	34669.55
705.14	34461.65
705.485	34646.05
705.83	34356.57
706.175	34371.48
706.52	34263.46
706.865	34134.65
707.209	34003.58
707.554	33955.22
707.899	34161.77
708.243	33818.5
708.588	33890.14
708.932	33697.15
709.277	33562.92
709.621	33652.41
709.966	33454.9
710.31	33519.3
710.654	33338.74
710.998	33292.19
711.342	33192.98
711.687	33188.24
712.031	33022.59
712.375	32983.95
712.719	32872.31
713.063	32937.4
713.407	33012.2
713.75	32628.03
714.094	32778.98
714.438	32686.56
714.782	32610.17
715.125	32511.19
715.469	32562.27
715.812	32350.07
716.156	32173.57
716.499	32348.49
716.843	32326.11
717.186	32075.05
717.53	32194.37
717.873	32139.9
718.216	31999.12
718.559	31878.44
718.902	31672.35
719.246	31864.88
719.589	31571.33
719.932	31675.73
720.275	31586.47
720.617	31594.83
720.96	31450.2
721.303	31341.28
721.646	31454.27
721.989	31315.52
722.331	31374.73
722.674	31282.52
723.016	31224.9
723.359	31197.1
723.701	31115.07
724.044	30992.14
724.386	30868.3
724.729	31081.63
725.071	30883.67
725.413	31026.03
725.755	30802.76
726.097	30689.77
726.439	30564.35
726.782	30695.2
727.124	30657.91
727.465	30499.72
727.807	30533.84
728.149	30451.13
728.491	30353.51
728.833	30454.98
729.175	30314.19
729.516	30206.17
729.858	30157.81
730.199	30240.07
730.541	30162.55
730.882	30081.43
731.224	30182.89
731.565	30005.95
731.906	30104.25
732.248	30040.75
732.589	29817.48
732.93	29746.52
733.271	29722.57
733.612	29725.73
733.953	29823.13
734.294	29615.9
734.635	29463.82
734.976	29598.73
735.317	29429.69
735.658	29374.33
735.999	29387.89
736.339	29388.34
736.68	29400.77
737.021	29235.35
737.361	29292.52
737.702	29330.26
738.042	29165.97
738.383	29309.47
738.723	29293.42
739.063	29054.33
739.404	29136.14
739.744	29027.67
740.084	28903.6
740.424	28959.42
740.764	28927.11
741.104	28992.64
741.444	28726.66
741.784	28743.16
742.124	28782.7
742.464	28685.98
742.804	28646.89
743.143	28505.42
743.483	28600.56
743.823	28499.32
744.162	28465.42
744.502	28465.88
744.841	28380.68
745.181	28478.3
745.52	28238.09
745.86	28264.3
746.199	28132.78
746.538	28214.36
746.877	28250.29
747.216	28198.54
747.556	28163.51
747.895	28172.32
748.234	27943.4
748.573	27846.91
748.911	27817.53
749.25	27813.92
749.589	27774.82
749.928	27750.64
750.267	27770.07
750.605	27715.16
750.944	27682.85
751.283	27546.58
751.621	27691.66
751.96	27446.47
752.298	27485.11
752.636	27395.62
752.975	27225.91
753.313	27171.45
753.651	27303.87
753.989	27138
754.327	27256.19
754.666	27058
755.004	27002.86
755.342	27088.28
755.679	27003.77
756.017	26882.19
756.355	26847.16
756.693	26662.08
