Data from hue_330_FLMS001491_91.txt Node
Date: Mon Feb 06 15:46:10 GMT 2017
User: dcchb
Spectrometer: FLMS00149
Trigger mode: 0
Integration Time (sec): 2.000000E-2
Scans to average: 10
Electric dark correction enabled: true
Nonlinearity correction enabled: false
Boxcar width: 0
XAxis mode: Wavelengths
Number of Pixels in Spectrum: 2048
>>>>>Begin Spectral Data<<<<<
341.393	-17.01
341.776	-17.01
342.16	-17.01
342.543	-61.3
342.927	-78.7
343.31	-71.47
343.693	-63.33
344.077	-52.71
344.46	-62.43
344.843	-57.68
345.226	-54.97
345.61	-40.73
345.993	-13.39
346.376	-16.33
346.759	17.12
347.142	33.84
347.525	48.3
347.908	47.4
348.291	81.3
348.674	105.48
349.057	99.6
349.44	120.62
349.823	135.99
350.206	163.56
350.588	187.96
350.971	196.32
351.354	197
351.737	229.09
352.119	229.54
352.502	259.37
352.884	270.9
353.267	273.83
353.65	270.9
354.032	267.28
354.414	296.21
354.797	310.9
355.179	335.53
355.562	313.16
355.944	321.07
356.326	321.07
356.709	317
357.091	310.9
357.473	345.7
357.855	342.76
358.238	338.47
358.62	318.13
359.002	318.35
359.384	341.63
359.766	333.27
360.148	313.38
360.53	338.47
360.912	335.53
361.294	331.69
361.676	321.97
362.057	343.44
362.439	331.91
362.821	321.29
363.203	315.87
363.584	307.51
363.966	308.64
364.348	337.56
364.729	305.25
365.111	317.22
365.493	305.92
365.874	309.54
366.256	300.27
366.637	307.05
367.019	311.12
367.4	302.08
367.781	290.33
368.163	291.46
368.544	317.9
368.925	312.93
369.306	327.39
369.688	297.79
370.069	310.44
370.45	319.48
370.831	314.51
371.212	310.44
371.593	285.81
371.974	314.29
372.355	304.79
372.736	304.34
373.117	321.07
373.498	310.22
373.879	315.64
374.26	310.9
374.641	309.54
375.021	305.92
375.402	306.83
375.783	316.55
376.163	310.67
376.544	317.68
376.925	313.38
377.305	325.13
377.686	312.25
378.066	305.02
378.447	313.61
378.827	333.95
379.208	312.48
379.588	334.17
379.968	326.71
380.349	335.3
380.729	325.36
381.109	343.66
381.489	331.46
381.87	337.79
382.25	324.68
382.63	338.47
383.01	326.26
383.39	333.49
383.77	309.77
384.15	335.3
384.53	336.66
384.91	354.51
385.29	322.87
385.67	349.54
386.049	332.36
386.429	346.6
386.809	353.83
387.189	344.57
387.568	340.73
387.948	333.04
388.328	355.87
388.707	333.49
389.087	342.53
389.466	342.53
389.846	334.85
390.225	342.08
390.605	345.02
390.984	347.5
391.363	348.41
391.743	365.58
392.122	355.64
392.501	367.17
392.881	350.89
393.26	352.25
393.639	363.32
394.018	379.59
394.397	364.45
394.776	367.39
395.155	348.86
395.534	377.11
395.913	357.22
396.292	366.26
396.671	345.47
397.05	366.26
397.429	383.44
397.808	392.25
398.186	376.2
398.565	374.4
398.944	416.2
399.323	388.41
399.701	388.86
400.08	389.09
400.458	401.06
400.837	390.89
401.215	418.46
401.594	402.19
401.972	417.11
402.351	398.13
402.729	373.49
403.107	392.48
403.486	435.86
403.864	420.5
404.242	393.61
404.62	407.62
404.999	425.02
405.377	409.2
405.755	415.98
406.133	435.64
406.511	420.95
406.889	413.72
407.267	437.67
407.645	441.29
408.023	444.9
408.401	432.7
408.779	426.82
409.156	443.32
409.534	471.12
409.912	465.47
410.29	479.25
410.667	478.8
411.045	483.09
411.422	492.13
411.8	483.09
412.178	473.83
412.555	484.9
412.933	507.5
413.31	496.43
413.687	507.95
414.065	512.92
414.442	525.13
414.819	527.16
415.197	529.42
415.574	544.56
415.951	542.98
416.328	546.6
416.705	547.5
417.082	558.8
417.46	568.52
417.837	580.49
418.214	587.95
418.591	581.17
418.967	593.15
419.344	589.53
419.721	587.5
420.098	606.48
420.475	613.71
420.852	590.89
421.228	615.75
421.605	620.27
421.982	641.06
422.358	639.25
422.735	630.44
423.111	639.93
423.488	633.15
423.864	649.19
424.241	679.02
424.617	661.4
424.994	675.18
425.37	669.98
425.746	691
426.123	709.76
426.499	705.01
426.875	710.66
427.251	724.67
427.627	726.25
428.003	724.67
428.379	749.3
428.756	726.7
429.132	748.4
429.507	744.78
429.883	796.31
430.259	776.19
430.635	767.15
431.011	805.35
431.387	809.41
431.763	797.66
432.138	791.34
432.514	821.62
432.89	816.19
433.265	845.12
433.641	857.55
434.016	836.53
434.392	875.4
434.767	874.95
435.143	894.84
435.518	917.21
435.894	884.67
436.269	925.34
436.644	918.34
437.02	927.6
437.395	926.47
437.77	972.35
438.145	970.99
438.52	982.06
438.895	963.53
439.271	970.99
439.646	988.39
440.021	984.78
440.395	989.52
440.77	1002.63
441.145	1006.7
441.52	1022.97
441.895	1015.51
442.27	1025.23
442.645	1021.16
443.019	1025
443.394	1010.76
443.769	1039.01
444.143	1045.34
444.518	1049.41
444.892	1030.42
445.267	1055.96
445.641	1077.88
446.016	1051.67
446.39	1079.01
446.764	1080.82
447.139	1067.03
447.513	1084.43
447.887	1089.86
448.262	1102.51
448.636	1104.77
449.01	1091.44
449.384	1121.27
449.758	1091.21
450.132	1155.17
450.506	1140.03
450.88	1129.18
451.254	1135.51
451.628	1133.25
452.002	1158.33
452.376	1169.4
452.75	1159.69
453.123	1153.59
453.497	1171.89
453.871	1177.99
454.244	1198.33
454.618	1208.27
454.992	1213.02
455.365	1204.21
455.739	1253.92
456.112	1237.2
456.486	1257.31
456.859	1253.02
457.232	1281.27
457.606	1269.51
457.979	1286.92
458.352	1283.75
458.725	1301.6
459.099	1301.83
459.472	1341.83
459.845	1349.74
460.218	1343.19
460.591	1375.5
460.964	1381.15
461.337	1399.23
461.71	1409.17
462.083	1410.08
462.456	1404.43
462.829	1404.65
463.201	1426.35
463.574	1457.31
463.947	1470.41
464.32	1457.98
464.692	1499.57
465.065	1498.44
465.438	1502.73
465.81	1539.56
466.183	1540.47
466.555	1568.72
466.928	1565.33
467.3	1554.03
467.672	1598.55
468.045	1608.49
468.417	1620.69
468.789	1630.64
469.161	1615.27
469.534	1672.89
469.906	1671.76
470.278	1682.39
470.65	1706.57
471.022	1727.13
471.394	1779.56
471.766	1774.59
472.138	1793.34
472.51	1813.91
472.882	1848.93
473.253	1865.88
473.625	1876.28
473.997	1863.85
474.369	1918.31
474.74	1924.64
475.112	1993.34
475.484	1989.72
475.855	1963.51
476.227	2035.14
476.598	2049.16
476.97	2082.83
477.341	2105.88
477.713	2137.29
478.084	2140.68
478.455	2215.93
478.827	2219.55
479.198	2249.38
479.569	2255.03
479.94	2317.17
480.311	2311.3
480.682	2355.81
481.053	2420.22
481.424	2425.64
481.795	2444.4
482.166	2493.21
482.537	2509.48
482.908	2531.18
483.279	2561.23
483.65	2606.65
484.021	2632.42
484.391	2671.51
484.762	2708.12
485.133	2723.26
485.503	2721.23
485.874	2794.67
486.244	2808.68
486.615	2835.58
486.985	2881.9
487.356	2929.13
487.726	2939.53
488.097	2994.89
488.467	2981.33
488.837	3045.51
489.207	3098.85
489.578	3153.53
489.948	3138.17
490.318	3210.71
490.688	3220.65
491.058	3240.31
491.428	3264.49
491.798	3293.19
492.168	3355.56
492.538	3397.59
492.908	3382.91
493.278	3424.26
493.648	3416.58
494.017	3457.03
494.387	3469
494.757	3530.92
495.126	3546.29
495.496	3571.83
495.866	3553.52
496.235	3616.35
496.605	3661.77
496.974	3659.96
497.344	3628.55
497.713	3730.69
498.082	3705.83
498.452	3776.57
498.821	3770.69
499.19	3746.96
499.559	3829.22
499.928	3810.92
500.298	3842.33
500.667	3848.43
501.036	3848.88
501.405	3902.89
501.774	3871.71
502.143	3916
502.512	3938.6
502.88	3985.15
503.249	3979.05
503.618	3976.79
503.987	4019.95
504.356	3993.74
504.724	4069.22
505.093	4035.09
505.462	4077.8
505.83	4056.33
506.199	4096.56
506.567	4139.95
506.936	4148.08
507.304	4159.16
507.672	4204.13
508.041	4156.44
508.409	4188.53
508.777	4229.89
509.145	4251.36
509.514	4257.23
509.882	4280.96
510.25	4258.36
510.618	4310.56
510.986	4286.16
511.354	4341.98
511.722	4380.85
512.09	4356.67
512.458	4382.2
512.826	4410.22
513.193	4408.87
513.561	4407.29
513.929	4479.37
514.297	4489.09
514.664	4491.12
515.032	4475.08
515.4	4494.74
515.767	4499.03
516.135	4500.16
516.502	4502.2
516.869	4574.06
517.237	4570.9
517.604	4547.85
517.972	4579.03
518.339	4595.98
518.706	4578.58
519.073	4628.97
519.44	4589.88
519.808	4693.61
520.175	4626.94
520.542	4700.61
520.909	4735.41
521.276	4696.32
521.643	4736.09
522.009	4794.17
522.376	4812.92
522.743	4840.95
523.11	4838.23
523.477	4888.85
523.843	4852.7
524.21	4872.58
524.577	4936.76
524.943	4945.12
525.31	4941.73
525.676	4963.2
526.043	4985.8
526.409	5039.81
526.776	5081.62
527.142	5088.17
527.508	5103.54
527.874	5086.82
528.241	5185.8
528.607	5146.25
528.973	5195.74
529.339	5222.86
529.705	5250.88
530.071	5274.61
530.437	5293.14
530.803	5297.21
531.169	5374.27
531.535	5315.28
531.901	5377.66
532.267	5357.77
532.632	5422.4
532.998	5405.9
533.364	5488.39
533.73	5476.41
534.095	5550.31
534.461	5527.26
534.826	5563.41
535.192	5607.93
535.557	5623.07
535.923	5599.8
536.288	5675.05
536.653	5633.69
537.019	5634.82
537.384	5695.84
537.749	5716.4
538.114	5790.98
538.479	5729.96
538.845	5752.11
539.21	5787.36
539.575	5805.21
539.94	5821.94
540.305	5878.21
540.67	5831.88
541.034	5906.68
541.399	5954.82
541.764	5936.06
542.129	6042.72
542.494	5990.52
542.858	6012.44
543.223	6066.22
543.587	6096.28
543.952	6088.82
544.316	6048.6
544.681	6124.08
545.045	6169.27
545.41	6244.53
545.774	6247.24
546.138	6223.96
546.503	6236.62
546.867	6241.81
547.231	6325.43
547.595	6315.71
547.959	6366.33
548.324	6355.26
548.688	6442.49
549.052	6417.4
549.416	6451.3
549.779	6483.39
550.143	6501.24
550.507	6557.74
550.871	6552.77
551.235	6541.01
551.599	6606.1
551.962	6611.97
552.326	6573.56
552.689	6682.25
553.053	6583.5
553.417	6630.28
553.78	6745.53
554.143	6720.44
554.507	6761.8
554.87	6674.8
555.234	6749.14
555.597	6785.53
555.96	6762.7
556.323	6794.57
556.686	6877.95
557.05	6887.67
557.413	6867.11
557.776	6899.2
558.139	6921.34
558.502	6901.46
558.865	6977.84
559.228	7067.1
559.59	6970.38
559.953	7088.34
560.316	7111.39
560.679	7161.79
561.041	7120.89
561.404	7139.19
561.767	7215.35
562.129	7148.46
562.492	7214.44
562.854	7244.95
563.217	7189.36
563.579	7259.87
563.941	7301.45
564.304	7315.46
564.666	7371.05
565.028	7357.94
565.39	7401.78
565.753	7450.37
566.115	7486.3
566.477	7441.78
566.839	7478.39
567.201	7551.38
567.563	7578.05
567.925	7572.17
568.287	7634.32
568.648	7627.31
569.01	7682.68
569.372	7702.79
569.734	7706.41
570.095	7749.12
570.457	7738.95
570.819	7817.59
571.18	7866.86
571.542	7884.03
571.903	7901.88
572.265	7955.67
572.626	8019.39
572.987	8040.64
573.349	8131.48
573.71	8132.61
574.071	8192.5
574.432	8295.32
574.794	8380.51
575.155	8342.55
575.516	8387.52
575.877	8481.53
576.238	8536.22
576.599	8604.69
576.96	8672.71
577.32	8679.94
577.681	8858.69
578.042	8925.13
578.403	8964
578.763	9017.79
579.124	9163.54
579.485	9292.13
579.845	9385.01
580.206	9483.08
580.566	9570.31
580.927	9704.32
581.287	9845.33
581.648	9936.41
582.008	10127.36
582.368	10236.51
582.728	10391.99
583.089	10454.58
583.449	10650.74
583.809	10870.62
584.169	11076.71
584.529	11180.67
584.889	11487.33
585.249	11624.72
585.609	11804.6
585.969	12080.08
586.329	12223.8
586.688	12427.87
587.048	12637.8
587.408	12850.45
587.768	13065.81
588.127	13270.78
588.487	13498.35
588.846	13885.23
589.206	13997.32
589.565	14260.59
589.925	14620.8
590.284	14861.47
590.643	15156.83
591.003	15380.56
591.362	15739.64
591.721	16032.74
592.08	16272.96
592.44	16617.81
592.799	16808.99
593.158	17112.26
593.517	17426.83
593.876	17690.78
594.235	17954.73
594.593	18296.19
594.952	18650.98
595.311	18801.71
595.67	19243.73
596.029	19639.65
596.387	19944.73
596.746	20117.15
597.104	20470.37
597.463	20753.3
597.822	21103.57
598.18	21357.35
598.538	21571.13
598.897	22013.15
599.255	22075.52
599.613	22820.81
599.972	22892
600.33	23214.47
600.688	23522.04
601.046	23723.84
601.404	24091.74
601.762	24246.76
602.12	24750.25
602.478	24918.16
602.836	25246.74
603.194	25303.91
603.552	25693.28
603.91	25970.79
604.268	26298.24
604.625	26455.29
604.983	26859.12
605.341	26809.86
605.698	27237.19
606.056	27480.35
606.413	27705.88
606.771	28105.42
607.128	28288.69
607.485	28453.66
607.843	28649.13
608.2	29129.35
608.557	29311.26
608.914	29410.7
609.272	29850.23
609.629	30088.19
609.986	30366.38
610.343	30335.87
610.7	30782.86
611.057	30889.3
611.414	31094.49
611.771	31337.65
612.127	31649.51
612.484	31730.86
612.841	31976.5
613.198	31997.07
613.554	32145.31
613.911	32584.4
614.267	32643.15
614.624	32857.16
614.98	33081.11
615.337	33338.73
615.693	33264.83
616.05	33443.81
616.406	33951.59
616.762	33865.04
617.118	33931.48
617.475	34098.71
617.831	34332.15
618.187	34531.46
618.543	34629.32
618.899	35045.58
619.255	35060.72
619.611	35059.81
619.967	35426.13
620.323	35410.76
620.678	35407.83
621.034	35490.31
621.39	35595.62
621.746	35633.13
622.101	36217.75
622.457	35924.65
622.812	36114.02
623.168	36222.95
623.523	36401.02
623.879	36482.15
624.234	36339.1
624.589	36636.04
624.945	36689.37
625.3	36668.36
625.655	36781.35
626.01	36991.97
626.365	36898.63
626.72	37091.85
627.075	37011.63
627.43	37088.69
627.785	37182.02
628.14	37203.03
628.495	37310.37
628.85	37318.51
629.205	37303.14
629.559	37585.85
629.914	37581.78
630.269	37571.61
630.623	37423.82
630.978	37424.04
631.332	37761.89
631.687	37905.84
632.041	37731.61
632.396	37824.26
632.75	37706.52
633.104	37829.91
633.459	37745.39
633.813	37763.02
634.167	37691.16
634.521	37815.67
634.875	37831.27
635.229	37878.72
635.583	37723.25
635.937	37827.65
636.291	37801.44
636.645	37789.46
636.999	37744.94
637.352	37799.18
637.706	37834.88
638.06	37974.31
638.413	37731.83
638.767	37732.51
639.121	37873.52
639.474	37771.15
639.828	37697.03
640.181	37863.58
640.534	37793.07
640.888	37714.21
641.241	37488.22
641.594	37645.28
641.947	37885.73
642.301	37668.56
642.654	37814.32
643.007	37910.59
643.36	37695.68
643.713	37672.4
644.066	37797.59
644.419	37509.92
644.771	37295.46
645.124	37026.09
645.477	37067.9
645.83	36834.68
646.182	36762.59
646.535	36678.75
646.888	36710.62
647.24	36529.38
647.593	36778.19
647.945	36632.43
648.298	36470.4
648.65	36381.13
649.002	36398.99
649.355	36542.94
649.707	36390.4
650.059	36567.34
650.411	36954.23
650.763	37120.55
651.115	37446.87
651.467	37273.31
651.819	37311.28
652.171	37294.1
652.523	37285.97
652.875	37143.15
653.227	37102.47
653.578	37260.88
653.93	37143.6
654.282	37173.43
654.633	37095.92
654.985	37089.36
655.337	37148.57
655.688	37223.15
656.039	37254.56
656.391	36825.19
656.742	36985.19
657.094	37123.49
657.445	37227.44
657.796	36963.94
658.147	36944.73
658.498	36907.9
658.849	37088.01
659.2	37048.23
659.551	36871.52
659.902	37120.1
660.253	36848.47
660.604	37015.69
660.955	36791.97
661.306	36913.32
661.656	36789.26
662.007	36899.54
662.358	36899.99
662.708	36850.27
663.059	36804.63
663.409	36762.37
663.76	37025.41
664.11	36969.82
664.461	36837.39
664.811	37000.33
665.161	36885.53
665.511	36884.17
665.862	36883.04
666.212	36962.81
666.562	36899.31
666.912	36786.55
667.262	36795.36
667.612	36865.19
667.962	36767.56
668.312	36795.59
668.662	36987.67
669.011	36895.24
669.361	36735.02
669.711	36602.6
670.06	36718.53
670.41	36732.76
670.76	36750.39
671.109	36745.19
671.459	36774.57
671.808	36675.59
672.157	36706.1
672.507	36605.08
672.856	36556.72
673.205	36587.91
673.554	36746.1
673.904	36692.99
674.253	36825.64
674.602	36709.94
674.951	36117.41
675.3	35954.7
675.649	36594.01
675.998	36478.53
676.346	36410.96
676.695	36606.44
677.044	36331.87
677.393	36429.49
677.741	36521.24
678.09	36336.39
678.438	36159.67
678.787	36371.64
679.135	36218.2
679.484	36114.7
679.832	36234.02
680.181	36072.89
680.529	36210.74
680.877	36107.47
681.225	35937.76
681.573	36285.09
681.922	35773.69
682.27	35786.35
682.618	35872.45
682.966	35699.12
683.314	35830.41
683.661	35727.59
684.009	35595.39
684.357	35579.12
684.705	35443.98
685.053	35449.63
685.4	35443.53
685.748	35246.25
686.095	35339.35
686.443	35110.21
686.79	35197.66
687.138	35189.53
687.485	35109.98
687.832	35047.61
688.18	35058
688.527	34900.49
688.874	34830.89
689.221	34820.27
689.568	34718.58
689.915	34736.88
690.262	34602.2
690.609	34462.54
690.956	34529.66
691.303	34315.88
691.65	34372.83
691.997	34173.28
692.344	34111.59
692.69	33992.27
693.037	34167.86
693.383	33816.91
693.73	33985.26
694.077	33648.78
694.423	33761.77
694.769	33633.41
695.116	33554.32
695.462	33482.68
695.808	33426.18
696.155	33467.99
696.501	33183.25
696.847	33213.76
697.193	32892.64
697.539	33084.5
697.885	32887.21
698.231	32669.37
698.577	32784.62
698.923	32702.36
699.269	32451.97
699.614	32432.09
699.96	32448.58
700.306	32392.99
700.651	32172.88
700.997	32203.62
701.342	32122.49
701.688	32093.56
702.033	31922.49
702.379	32015.37
702.724	31896.28
703.069	31896.51
703.415	31473.01
703.76	31594.37
704.105	31609.06
704.45	31623.74
704.795	31388.27
705.14	31301.72
705.485	31151.21
705.83	31014.04
706.175	31080.71
706.52	30962.52
706.865	30958.9
707.209	30995.06
707.554	30823.09
707.899	30825.35
708.243	30645.47
708.588	30624.9
708.932	30447.5
709.277	30445.7
709.621	30419.71
709.966	30138.59
710.31	30358.92
710.654	30061.98
710.998	30159.83
711.342	30096.55
711.687	30086.16
712.031	29839.61
712.375	29796.45
712.719	29774.3
713.063	29697.24
713.407	29772.04
713.75	29674.42
714.094	29740.63
714.438	29481.43
714.782	29564.82
715.125	29440.53
715.469	29499.73
715.812	29303.13
716.156	29083.92
716.499	29176.8
716.843	29222.9
717.186	29018.16
717.53	29120.08
717.873	29079.63
718.216	29055
718.559	28926.41
718.902	28710.15
719.246	28736.36
719.589	28647.78
719.932	28550.83
720.275	28616.82
720.617	28557.61
720.96	28600.55
721.303	28490.72
721.646	28471.29
721.989	28292.31
722.331	28468.8
722.674	28236.72
723.016	28326.43
723.359	28291.4
723.701	28265.64
724.044	28110.39
724.386	27829.72
724.729	28042.6
725.071	28022.26
725.413	27947.91
725.755	28038.98
726.097	27777.29
726.439	27769.61
726.782	27740.46
727.124	27727.58
727.465	27635.83
727.807	27602.83
728.149	27631.31
728.491	27509.5
728.833	27666.33
729.175	27565.55
729.516	27402.84
729.858	27427.47
730.199	27381.14
730.541	27375.04
730.882	27269.73
731.224	27429.05
731.565	27226.12
731.906	27139.12
732.248	27243.97
732.589	26984.32
732.93	26939.35
733.271	26896.19
733.612	26975.73
733.953	27018.44
734.294	26828.62
734.635	26871.33
734.976	26934.15
735.317	26709.75
735.658	26803.98
735.999	26679.02
736.339	26627.94
736.68	26764.89
737.021	26570.77
737.361	26505.91
737.702	26610.09
738.042	26472.02
738.383	26404.45
738.723	26539.13
739.063	26340.49
739.404	26352.02
739.744	26284.45
740.084	26207.39
740.424	26230.89
740.764	26099.6
741.104	26158.58
741.444	26004.01
741.784	26078.81
742.124	26069.09
742.464	25972.59
742.804	25961.97
743.143	25931.24
743.483	25864.12
743.823	25666.39
744.162	25672.49
744.502	25840.62
744.841	25638.37
745.181	25693.28
745.52	25618.7
745.86	25613.28
746.199	25589.1
746.538	25458.48
746.877	25469.78
747.216	25500.29
747.556	25400.86
747.895	25431.37
748.234	25241.09
748.573	25255.55
748.911	25144.37
749.25	25198.6
749.589	24941.89
749.928	25166.74
750.267	25108.44
750.605	25006.07
750.944	24957.25
751.283	24926.07
751.621	24973.75
751.96	24814.88
752.298	24862.79
752.636	24818.95
752.975	24772.85
753.313	24478.85
753.651	24726.52
753.989	24438.62
754.327	24453.99
754.666	24339.64
755.004	24405.18
755.342	24411.73
755.679	24368.57
756.017	24328.8
756.355	24301
756.693	24074.56
757.031	24140.1
757.368	24037.73
757.706	23989.82
758.044	23865.76
758.381	23921.12
758.719	23837.96
759.056	23865.08
759.394	23730.62
759.731	23708.02
760.068	23568.59
