Data from hue_330_FLMS001491_88.txt Node
Date: Mon Feb 06 15:46:03 GMT 2017
User: dcchb
Spectrometer: FLMS00149
Trigger mode: 0
Integration Time (sec): 2.000000E-2
Scans to average: 10
Electric dark correction enabled: true
Nonlinearity correction enabled: false
Boxcar width: 0
XAxis mode: Wavelengths
Number of Pixels in Spectrum: 2048
>>>>>Begin Spectral Data<<<<<
341.393	-6.81
341.776	-6.81
342.16	-6.81
342.543	-36.86
342.927	-66.24
343.31	-73.7
343.693	-67.6
344.077	-75.73
344.46	-71.66
344.843	-77.31
345.226	-35.06
345.61	-9.29
345.993	-20.59
346.376	-20.14
346.759	25.73
347.142	36.58
347.525	41.33
347.908	63.47
348.291	71.16
348.674	100.76
349.057	112.06
349.44	118.84
349.823	146.63
350.206	161.32
350.588	201.77
350.971	217.59
351.354	223.69
351.737	237.03
352.119	247.65
352.502	247.2
352.884	272.73
353.267	305.27
353.65	279.29
354.032	287.87
354.414	299.85
354.797	310.92
355.179	314.77
355.562	318.38
355.944	311.38
356.326	338.27
356.709	345.05
357.091	338.72
357.473	343.69
357.855	322.9
358.238	333.75
358.62	324.93
359.002	344.6
359.384	356.57
359.766	347.53
360.148	344.82
360.53	337.36
360.912	344.37
361.294	345.27
361.676	320.19
362.057	336.69
362.439	323.81
362.821	329
363.203	337.14
363.584	323.81
363.966	312.73
364.348	331.26
364.729	305.95
365.111	312.73
365.493	338.27
365.874	333.97
366.256	311.83
366.637	331.26
367.019	325.16
367.4	302.79
367.781	322.45
368.163	315.9
368.544	298.04
368.925	313.86
369.306	324.93
369.688	312.28
370.069	288.78
370.45	316.35
370.831	316.12
371.212	320.19
371.593	303.24
371.974	319.96
372.355	315.44
372.736	324.48
373.117	321.09
373.498	325.39
373.879	352.73
374.26	305.95
374.641	317.7
375.021	311.6
375.402	326.97
375.783	298.72
376.163	307.53
376.544	314.31
376.925	301.21
377.305	332.17
377.686	341.21
378.066	349.57
378.447	332.84
378.827	327.19
379.208	333.75
379.588	315.22
379.968	347.53
380.349	340.08
380.729	332.84
381.109	319.06
381.489	333.75
381.87	332.17
382.25	336.46
382.63	328.78
383.01	324.48
383.39	338.04
383.77	353.18
384.15	342.56
384.53	365.61
384.91	351.15
385.29	369.91
385.67	350.02
386.049	370.81
386.429	347.08
386.809	363.58
387.189	352.96
387.568	362.45
387.948	358.38
388.328	373.75
388.707	357.93
389.087	360.64
389.466	342.11
389.846	355.22
390.225	372.62
390.605	341.88
390.984	382.79
391.363	400.41
391.743	367.65
392.122	376.91
392.501	380.53
392.881	389.11
393.26	379.4
393.639	391.6
394.018	366.29
394.397	365.84
394.776	358.15
395.155	379.17
395.534	381.2
395.913	390.02
396.292	407.42
396.671	386.85
397.05	387.31
397.429	375.56
397.808	378.72
398.186	411.71
398.565	395.67
398.944	403.8
399.323	405.38
399.701	409.68
400.08	412.16
400.458	406.29
400.837	413.52
401.215	427.31
401.594	404.71
401.972	414.65
402.351	419.17
402.729	424.37
403.107	418.94
403.486	426.85
403.864	441.09
404.242	434.54
404.62	416.46
404.999	439.96
405.377	441.09
405.755	442.67
406.133	457.81
406.511	444.71
406.889	437.25
407.267	440.86
407.645	456.91
408.023	464.59
408.401	452.16
408.779	446.97
409.156	472.95
409.534	486.96
409.912	486.51
410.29	479.73
410.667	482.67
411.045	478.83
411.422	471.15
411.8	496.68
412.178	515.21
412.555	535.32
412.933	538.26
413.31	531.71
413.687	531.71
414.065	545.95
414.442	562.89
414.819	562.67
415.197	563.57
415.574	569.67
415.951	579.39
416.328	584.14
416.705	579.84
417.082	579.39
417.46	595.44
417.837	593.4
418.214	609.9
418.591	620.07
418.967	609.9
419.344	616.9
419.721	615.55
420.098	609.67
420.475	667.75
420.852	634.53
421.228	643.12
421.605	642.89
421.982	647.19
422.358	694.64
422.735	668.88
423.111	654.64
423.488	705.49
423.864	677.02
424.241	700.97
424.617	724.25
424.994	687.19
425.37	728.09
425.746	716.79
426.123	729.9
426.499	728.31
426.875	741.42
427.251	752.72
427.627	746.84
428.003	769.22
428.379	759.5
428.756	764.02
429.132	792.72
429.507	796.33
429.883	834.75
430.259	817.58
430.635	799.05
431.011	828.65
431.387	838.59
431.763	864.13
432.138	846.96
432.514	881.98
432.89	881.53
433.265	891.93
433.641	895.32
434.016	892.38
434.392	898.71
434.767	945.26
435.143	904.58
435.518	926.73
435.894	943.22
436.269	952.04
436.644	931.92
437.02	984.35
437.395	969.89
437.77	1000.85
438.145	978.25
438.52	1010.11
438.895	1008.76
439.271	1004.47
439.646	1035.65
440.021	1043.11
440.395	1055.09
440.77	1020.51
441.145	1052.37
441.52	1066.84
441.895	1048.31
442.27	1067.51
442.645	1102.77
443.019	1078.14
443.394	1057.12
443.769	1130.34
444.143	1091.24
444.518	1118.13
444.892	1106.61
445.267	1137.12
445.641	1112.03
446.016	1116.55
446.39	1164.91
446.764	1138.47
447.139	1127.4
447.513	1164.23
447.887	1158.59
448.262	1152.48
448.636	1163.33
449.01	1148.19
449.384	1179.83
449.758	1205.82
450.132	1178.92
450.506	1173.95
450.88	1206.49
451.254	1208.53
451.628	1207.62
452.002	1205.82
452.376	1218.92
452.75	1227.51
453.123	1258.47
453.497	1247.62
453.871	1261.18
454.244	1266.38
454.618	1307.73
454.992	1316.32
455.365	1294.4
455.739	1295.08
456.112	1329.43
456.486	1317.68
456.859	1347.73
457.232	1350.9
457.606	1375.08
457.979	1389.31
458.352	1396.55
458.725	1397.9
459.099	1433.83
459.472	1439.71
459.845	1448.75
460.218	1452.81
460.591	1448.97
460.964	1441.29
461.337	1490.33
461.71	1482.64
462.083	1512.02
462.456	1502.98
462.829	1540.72
463.201	1540.27
463.574	1550.21
463.947	1565.58
464.32	1564.68
464.692	1605.58
465.065	1604.68
465.438	1630.44
465.81	1622.98
466.183	1632.47
466.555	1652.36
466.928	1692.81
467.3	1700.04
467.672	1718.57
468.045	1731.23
468.417	1736.88
468.789	1764.67
469.161	1753.37
469.534	1813.71
469.906	1806.7
470.278	1834.27
470.65	1851.67
471.022	1857.32
471.394	1894.39
471.766	1882.18
472.138	1900.94
472.51	1956.53
472.882	1996.98
473.253	2022.74
473.625	2004.66
473.997	2063.87
474.369	2044.89
474.74	2076.98
475.112	2090.99
475.484	2133.93
475.855	2166.92
476.227	2167.6
476.598	2236.52
476.97	2228.61
477.341	2316.3
477.713	2319.91
478.084	2318.1
478.455	2348.38
478.827	2415.73
479.198	2467.7
479.569	2480.81
479.94	2553.8
480.311	2524.43
480.682	2570.98
481.053	2631.31
481.424	2673.57
481.795	2688.94
482.166	2723.52
482.537	2753.35
482.908	2783.18
483.279	2808.94
483.65	2834.7
484.021	2899.33
484.391	2916.28
484.762	2911.08
485.133	2953.34
485.503	2984.3
485.874	3042.83
486.244	3055.26
486.615	3158.76
486.985	3152.88
487.356	3189.49
487.726	3184.07
488.097	3255.71
488.467	3257.51
488.837	3315.36
489.207	3394.46
489.578	3367.57
489.948	3429.49
490.318	3481.01
490.688	3484.85
491.058	3538.64
491.428	3571.86
491.798	3613.89
492.168	3672.19
492.538	3669.71
492.908	3694.79
493.278	3732.98
493.648	3739.31
494.017	3777.27
494.387	3833.77
494.757	3861.11
495.126	3907.89
495.496	3916.25
495.866	3929.36
496.235	3950.38
496.605	3977.95
496.974	4015.91
497.344	4019.75
497.713	4032.18
498.082	4095.01
498.452	4110.37
498.821	4099.07
499.19	4140.2
499.559	4158.05
499.928	4177.72
500.298	4190.37
500.667	4207.09
501.036	4247.54
501.405	4259.97
501.774	4262.91
502.143	4308.33
502.512	4330.71
502.88	4330.93
503.249	4356.47
503.618	4379.74
503.987	4398.95
504.356	4424.26
504.724	4414.54
505.093	4500.42
505.462	4444.37
505.83	4472.17
506.199	4551.26
506.567	4560.53
506.936	4551.26
507.304	4584.71
507.672	4611.6
508.041	4640.75
508.409	4651.6
508.777	4667.19
509.145	4670.81
509.514	4699.06
509.882	4756.23
510.25	4698.83
510.618	4779.28
510.986	4761.2
511.354	4815.44
511.722	4824.03
512.09	4861.09
512.458	4852.27
512.826	4830.13
513.193	4891.82
513.561	4880.97
513.929	4939.73
514.297	4968.65
514.664	5027.18
515.032	4979.73
515.4	4958.49
515.767	5039.84
516.135	4997.35
516.502	5043.45
516.869	5150.57
517.237	5043.68
517.604	5055.21
517.972	5138.37
518.339	5121.64
518.706	5125.49
519.073	5138.82
519.44	5135.2
519.808	5187.63
520.175	5156.45
520.542	5306.27
520.909	5256.56
521.276	5226.95
521.643	5296.33
522.009	5284.13
522.376	5355.31
522.743	5366.84
523.11	5386.72
523.477	5424.69
523.843	5439.38
524.21	5482.31
524.577	5550.56
524.943	5516.21
525.31	5561.63
525.676	5645.02
526.043	5594.4
526.409	5624.91
526.776	5689.54
527.142	5697.45
527.508	5737.22
527.874	5789.42
528.241	5800.5
528.607	5821.51
528.973	5836.88
529.339	5849.76
529.705	5905.81
530.071	5924.79
530.437	5975.86
530.803	5969.98
531.169	6017.89
531.535	6005.01
531.901	6042.98
532.267	6100.38
532.632	6074.16
532.998	6098.79
533.364	6158.23
533.73	6178.34
534.095	6229.41
534.461	6256.53
534.826	6300.15
535.192	6278.68
535.557	6339.92
535.923	6351.44
536.288	6366.36
536.653	6446.58
537.019	6393.02
537.384	6430.09
537.749	6497.65
538.114	6515.73
538.479	6521.83
538.845	6496.07
539.21	6529.07
539.575	6548.27
539.94	6575.39
540.305	6674.82
540.67	6628.95
541.034	6682.06
541.399	6735.16
541.764	6718.21
542.129	6764.54
542.494	6790.53
542.858	6834.37
543.223	6821.49
543.587	6919.34
543.952	6860.13
544.316	6904.2
544.681	6944.87
545.045	6919.11
545.41	7035.72
545.774	7023.97
546.138	7037.3
546.503	7104.42
546.867	7035.04
547.231	7140.35
547.595	7187.35
547.959	7170.18
548.324	7198.2
548.688	7217.64
549.052	7221.48
549.416	7285.43
549.779	7309.38
550.143	7369.04
550.507	7364.52
550.871	7369.27
551.235	7430.74
551.599	7433
551.962	7416.73
552.326	7447.91
552.689	7544.86
553.053	7538.98
553.417	7603.39
553.78	7578.53
554.143	7547.57
554.507	7553.67
554.87	7623.5
555.234	7710.05
555.597	7654.69
555.96	7761.58
556.323	7735.36
556.686	7671.63
557.05	7756.83
557.413	7832.08
557.776	7836.6
558.139	7871.63
558.502	7859.2
558.865	7932.64
559.228	7934
559.59	7965.64
559.953	7995.24
560.316	8058.52
560.679	8032.53
561.041	8021.23
561.404	8160.66
561.767	8102.13
562.129	8094.67
562.492	8308.91
562.854	8220.55
563.217	8195.69
563.579	8246.76
563.941	8273.88
564.304	8348.23
564.666	8379.64
565.028	8377.38
565.39	8368.57
565.753	8391.62
566.115	8497.38
566.477	8471.16
566.839	8457.83
567.201	8530.37
567.563	8601.55
567.925	8635.45
568.287	8606.53
568.648	8724.71
569.01	8717.71
569.372	8788.89
569.734	8759.52
570.095	8832.06
570.457	8860.76
570.819	8897.82
571.18	8917.48
571.542	9000.19
571.903	8978.72
572.265	8961.32
572.626	9161.31
572.987	9063.24
573.349	9193.4
573.71	9217.13
574.071	9269.56
574.432	9362.44
574.794	9429.1
575.155	9509.33
575.516	9418.26
575.877	9465.03
576.238	9593.62
576.599	9665.48
576.96	9747.96
577.32	9783.9
577.681	9913.38
578.042	10007.39
578.403	10125.36
578.763	10169.2
579.124	10308.85
579.485	10347.5
579.845	10480.15
580.206	10550.2
580.566	10639.92
580.927	10737.32
581.287	10906.58
581.648	10953.58
582.008	11201.71
582.368	11269.73
582.728	11408.49
583.089	11551.08
583.449	11667.24
583.809	11886.89
584.169	12094.79
584.529	12268.58
584.889	12484.16
585.249	12553.77
585.609	12755.57
585.969	12999.4
586.329	13166.41
586.688	13494.76
587.048	13585.6
587.408	13787.41
587.768	14065.59
588.127	14232.82
588.487	14451.57
588.846	14862.41
589.206	14937.66
589.565	15147.14
589.925	15501.71
590.284	15748.94
590.643	16052.21
591.003	16332.65
591.362	16556.6
591.721	16862.13
592.08	17064.38
592.44	17378.72
592.799	17665.27
593.158	17896.22
593.517	18187.29
593.876	18547.28
594.235	18818.23
594.593	18942.98
594.952	19436.3
595.311	19595.39
595.67	19865.21
596.029	20219.55
596.387	20668.13
596.746	20914.22
597.104	21163.94
597.463	21236.02
597.822	21670.14
598.18	21909.45
598.538	22299.72
598.897	22605.25
599.255	22746.04
599.613	23270.32
599.972	23444.78
600.33	23822.17
600.688	23880.93
601.046	24332.67
601.404	24715.25
601.762	24792.31
602.12	25193.43
602.478	25591.62
602.836	25649.92
603.194	25798.39
603.552	26182.11
603.91	26309.34
604.268	26724.01
604.625	26883.33
604.983	27308.86
605.341	27301.63
605.698	27719.24
606.056	27938.9
606.413	28330.3
606.771	28593.12
607.128	28723.28
607.485	28790.85
607.843	29103.16
608.2	29410.72
608.557	29791.28
608.914	29769.36
609.272	30038.5
609.629	30344.26
609.986	30655.21
610.343	30716
610.7	31139.27
611.057	31257.68
611.414	31306.04
611.771	31555.3
612.127	32028.96
612.484	31915.74
612.841	32357.77
613.198	32384.2
613.554	32628.04
613.911	32815.83
614.267	33064.41
614.624	33075.03
614.98	33470.5
615.337	33650.61
615.693	33596.15
616.05	33780.78
616.406	34077.49
616.762	34040.66
617.118	34136.93
617.475	34378.05
617.831	34665.73
618.187	34856.91
618.543	34894.87
618.899	35092.38
619.255	35272.04
619.611	35470
619.967	35500.73
620.323	35744.57
620.678	35672.03
621.034	35717
621.39	35801.97
621.746	35895.75
622.101	36380.48
622.457	36217.78
622.812	36281.28
623.168	36558.56
623.523	36686.01
623.879	36903.63
624.234	36568.28
624.589	36912.67
624.945	37006.91
625.3	37097.3
625.655	37043.07
626.01	37123.06
626.365	37332.1
626.72	37293.91
627.075	37258.43
627.43	37312.21
627.785	37322.61
628.14	37582.94
628.495	37490.06
628.85	37589.72
629.205	37672.2
629.559	37759.88
629.914	37693.44
630.269	37739.09
630.623	37843.5
630.978	37719.21
631.332	38027.45
631.687	38165.75
632.041	37903.38
632.396	37966.66
632.75	37920.56
633.104	38111.29
633.459	37987
633.813	38007.11
634.167	37953.55
634.521	38089.37
634.875	38046.2
635.229	38040.1
635.583	37931.86
635.937	38017.5
636.291	37931.4
636.645	38066.32
636.999	38126.65
637.352	38103.83
637.706	37924.17
638.06	38082.13
638.413	38146.77
638.767	37848.02
639.121	38127.33
639.474	37794.68
639.828	37994.23
640.181	38002.81
640.534	38096.82
640.888	37858.86
641.241	37784.29
641.594	37929.14
641.947	38084.85
642.301	37935.47
642.654	38015.47
643.007	37938.18
643.36	37870.84
643.713	37884.85
644.066	37859.54
644.419	37812.99
644.771	37514.24
645.124	37271.08
645.477	37216.39
645.83	37074.03
646.182	36849.17
646.535	36725.56
646.888	36925.1
647.24	36688.27
647.593	36983.18
647.945	36791.55
648.298	36674.94
648.65	36592.68
649.002	36484.21
649.355	36696.86
649.707	36702.28
650.059	36861.15
650.411	37211.65
650.763	37334.81
651.115	37566.44
651.467	37511.75
651.819	37482.38
652.171	37433.11
652.523	37407.8
652.875	37284.87
653.227	37239.22
653.578	37454.81
653.93	37359.22
654.282	37160.12
654.633	37209.61
654.985	37263.17
655.337	37399.67
655.688	37301.36
656.039	37310.4
656.391	37035.83
656.742	37281.7
657.094	37273.79
657.445	37345.2
657.796	37196.73
658.147	37253.23
658.498	37151.31
658.849	37251.2
659.2	37177.3
659.551	37075.38
659.902	37193.57
660.253	37142.05
660.604	37186.34
660.955	37116.28
661.306	37133.01
661.656	37102.5
662.007	37225.66
662.358	37118.32
662.708	37061.82
663.059	37198.09
663.409	36883.07
663.76	37115.61
664.11	37194.02
664.461	37123.29
664.811	37121.26
665.161	37106.57
665.511	36919.23
665.862	37063.18
666.212	37159.67
666.562	37183.4
666.912	37021.82
667.262	36954.93
667.612	37085.32
667.962	37117.64
668.312	36936.18
668.662	37033.57
669.011	36872.67
669.361	36860.25
669.711	36926.91
670.06	36906.8
670.41	36824.77
670.76	36873.13
671.109	36927.59
671.459	36886.69
671.808	36959
672.157	36915.39
672.507	36680.82
672.856	36687.59
673.205	36899.11
673.554	36878.32
673.904	36636.97
674.253	36822.28
674.602	36784.32
674.951	36370.99
675.3	36236.31
675.649	36752.45
675.998	36681.27
676.346	36686.69
676.695	36786.35
677.044	36592
677.393	36661.61
677.741	36662.28
678.09	36623.87
678.438	36507.03
678.787	36540.93
679.135	36535.96
679.484	36243.54
679.832	36455.51
680.181	36248.28
680.529	36382.97
680.877	36349.75
681.225	36136.87
681.573	36362.41
681.922	36126.93
682.27	35988.63
682.618	36096.42
682.966	35854.17
683.314	36104.56
683.661	35931.46
684.009	35717.22
684.357	35753.16
684.705	35626.38
685.053	35722.2
685.4	35563.1
685.748	35398.59
686.095	35500.51
686.443	35306.84
686.79	35348.42
687.138	35396.56
687.485	35340.06
687.832	35289.21
688.18	35163.57
688.527	35110.46
688.874	35035.66
689.221	35060.97
689.568	35049.45
689.915	34887.64
690.262	34837.25
690.609	34790.7
690.956	34590.93
691.303	34526.97
691.65	34441.1
691.997	34434.09
692.344	34264.38
692.69	34213.76
693.037	34309.35
693.383	34075.01
693.73	34123.59
694.077	33932.64
694.423	33994.11
694.769	33788.46
695.116	33835.24
695.462	33726.09
695.808	33624.62
696.155	33665.53
696.501	33374.91
696.847	33415.59
697.193	33298.08
697.539	33129.72
697.885	33016.5
698.231	32931.76
698.577	32903.74
698.923	32891.54
699.269	32806.11
699.614	32619.23
699.96	32556.4
700.306	32542.39
700.651	32401.38
700.997	32289.29
701.342	32331.55
701.688	32210.88
702.033	32268.95
702.379	32125.91
702.724	31936.08
703.069	32051.11
703.415	31742.19
703.76	31659.48
704.105	31802.53
704.45	31728.63
704.795	31545.36
705.14	31448.86
705.485	31489.31
705.83	31398.69
706.175	31339.26
706.52	31273.5
706.865	31148.08
707.209	31131.13
707.554	30988.76
707.899	31083.22
708.243	30835.77
708.588	30713.29
708.932	30624.93
709.277	30644.36
709.621	30688.88
709.966	30397.36
710.31	30414.09
710.654	30265.39
710.998	30247.31
711.342	30298.38
711.687	30237.37
712.031	29996.92
712.375	29881.45
712.719	30027.43
713.063	29986.3
713.407	29998.96
713.75	29842.58
714.094	29815.01
714.438	29730.94
714.782	29692.07
715.125	29492.08
715.469	29625.63
715.812	29344.51
716.156	29311.52
716.499	29304.51
716.843	29384.28
717.186	29212.76
717.53	29314.23
717.873	29412.76
718.216	29234.01
718.559	29053.22
718.902	28899.1
719.246	29000.34
719.589	28984.97
719.932	28790.85
720.275	28718.09
720.617	28846.44
720.96	28610.29
721.303	28689.39
721.646	28602.61
721.989	28498.66
722.331	28614.81
722.674	28607.81
723.016	28495.49
723.359	28384.31
723.701	28389.96
724.044	28354.25
724.386	28206.69
724.729	28316.74
725.071	28241.26
725.413	28284.88
725.755	28217.53
726.097	28025.68
726.439	27848.05
726.782	27971.21
727.124	28026.81
727.465	27829.07
727.807	27815.06
728.149	27825.45
728.491	27622.97
728.833	27670.88
729.175	27477.44
729.516	27561.28
729.858	27458.68
730.199	27610.32
730.541	27480.83
730.882	27466.37
731.224	27542.3
731.565	27259.14
731.906	27196.54
732.248	27362.87
732.589	27223.66
732.93	27044.68
733.271	27094.63
733.612	27120.16
733.953	27196.77
734.294	27078.13
734.635	26944.12
734.976	26900.06
735.317	26888.53
735.658	26818.02
735.999	26848.98
736.339	26848.53
736.68	26895.99
737.021	26767.4
737.361	26685.6
737.702	26782.54
738.042	26561.99
738.383	26696.22
738.723	26624.13
739.063	26369.22
739.404	26551.14
739.744	26471.14
740.084	26316.34
740.424	26492.38
740.764	26369.67
741.104	26320.64
741.444	26357.92
741.784	26128.78
742.124	26143.24
742.464	26179.85
742.804	26049.23
743.143	26108.21
743.483	26095.1
743.823	25965.16
744.162	25947.09
744.502	26052.39
744.841	25723.82
745.181	25923.81
745.52	25843.13
745.86	25900.99
746.199	25752.74
746.538	25705.28
746.877	25782.8
747.216	25719.3
747.556	25677.04
747.895	25605.63
748.234	25515.46
748.573	25472.07
748.911	25455.35
749.25	25458.74
749.589	25340.55
749.928	25379.19
750.267	25271.62
750.605	25272.75
750.944	25145.3
751.283	25084.96
751.621	25190.04
751.96	25053.55
752.298	25006.32
752.636	25057.62
752.975	24880.67
753.313	24725.65
753.651	24903.05
753.989	24695.37
754.327	24681.58
754.666	24600
755.004	24646.78
755.342	24608.59
755.679	24590.06
756.017	24410.86
756.355	24496.28
756.693	24355.26
757.031	24411.08
757.368	24299.67
757.706	24214.02
758.044	24134.03
758.381	24094.93
758.719	24106.46
759.056	24115.04
759.394	23974.48
