Data from hue_190_FLMS001491_00014.txt Node
Date: Tue Feb 07 16:44:54 GMT 2017
User: dcchb
Spectrometer: FLMS00149
Trigger mode: 0
Integration Time (sec): 2.000000E-2
Scans to average: 10
Electric dark correction enabled: true
Nonlinearity correction enabled: false
Boxcar width: 0
XAxis mode: Wavelengths
Number of Pixels in Spectrum: 2048
>>>>>Begin Spectral Data<<<<<
341.393	-14.25
341.776	-14.25
342.16	-14.25
342.543	-57.41
342.927	-60.35
343.31	-88.15
343.693	-74.36
344.077	-71.88
344.46	-55.83
344.843	-48.37
345.226	-27.36
345.61	-31.2
345.993	-24.87
346.376	-7.02
346.759	8.8
347.142	24.62
347.525	48.8
347.908	63.49
348.291	76.82
348.674	88.8
349.057	117.72
349.44	123.37
349.823	140.55
350.206	192.98
350.588	196.59
350.971	217.16
351.354	218.96
351.737	235.91
352.119	259.19
352.502	263.26
352.884	275.46
353.267	254.67
353.65	275.46
354.032	292.18
354.414	306.42
354.797	332.18
355.179	320.66
355.562	322.46
355.944	334.67
356.326	327.66
356.709	328.79
357.091	338.28
357.473	331.73
357.855	333.99
358.238	342.35
358.62	349.58
359.002	349.81
359.384	360.43
359.766	344.16
360.148	355.68
360.53	336.7
360.912	320.88
361.294	333.76
361.676	325.85
362.057	316.81
362.439	319.07
362.821	328.34
363.203	324.27
363.584	328.56
363.966	350.94
364.348	328.79
364.729	316.14
365.111	309.58
365.493	330.37
365.874	328.56
366.256	318.4
366.637	333.08
367.019	320.2
367.4	309.58
367.781	318.17
368.163	321.79
368.544	310.03
368.925	329.69
369.306	306.64
369.688	308.45
370.069	323.14
370.45	311.39
370.831	311.62
371.212	311.16
371.593	331.05
371.974	295.12
372.355	302.8
372.736	329.02
373.117	317.49
373.498	317.04
373.879	309.81
374.26	316.59
374.641	321.11
375.021	314.55
375.402	312.52
375.783	337.38
376.163	325.85
376.544	326.98
376.925	331.28
377.305	321.11
377.686	332.41
378.066	336.93
378.447	338.73
378.827	330.15
379.208	329.47
379.588	334.67
379.968	327.89
380.349	350.49
380.729	297.61
381.109	348.23
381.489	338.28
381.87	342.35
382.25	350.94
382.63	335.34
383.01	337.6
383.39	360.88
383.77	339.86
384.15	338.51
384.53	353.87
384.91	342.58
385.29	326.98
385.67	350.94
386.049	352.52
386.429	336.02
386.809	344.84
387.189	366.53
387.568	349.58
387.948	348.9
388.328	345.74
388.707	348.23
389.087	351.16
389.466	376.47
389.846	365.63
390.225	366.08
390.605	361.11
390.984	390.71
391.363	358.62
391.743	351.62
392.122	377.83
392.501	382.8
392.881	374.44
393.26	380.54
393.639	402.46
394.018	381.67
394.397	380.99
394.776	380.99
395.155	369.92
395.534	368.34
395.913	378.28
396.292	404.04
396.671	407.21
397.05	419.86
397.429	404.95
397.808	396.81
398.186	399.3
398.565	398.62
398.944	413.08
399.323	394.78
399.701	423.7
400.08	421.22
400.458	433.65
400.837	415.12
401.215	406.98
401.594	432.06
401.972	416.02
402.351	425.74
402.729	429.81
403.107	416.02
403.486	457.37
403.864	433.87
404.242	428.9
404.62	438.17
404.999	459.18
405.377	466.41
405.755	451.95
406.133	461.89
406.511	460.31
406.889	482.23
407.267	470.03
407.645	468.22
408.023	501.44
408.401	490.82
408.779	510.71
409.156	483.59
409.534	489.69
409.912	527.2
410.29	538.73
410.667	520.42
411.045	537.82
411.422	542.8
411.8	574.89
412.178	583.02
412.555	583.25
412.933	577.37
413.31	581.21
413.687	599.29
414.065	600.87
414.442	581.21
414.819	615.79
415.197	635.45
415.574	634.55
415.951	647.88
416.328	645.62
416.705	661.66
417.082	644.49
417.46	676.35
417.837	675
418.214	668.22
418.591	699.18
418.967	709.57
419.344	717.48
419.721	715.9
420.098	735.56
420.475	768.33
420.852	740.53
421.228	788.44
421.605	801.77
421.982	779.85
422.358	776.91
422.735	795.9
423.111	815.56
423.488	834.09
423.864	838.38
424.241	832.05
424.617	886.06
424.994	882.22
425.37	899.17
425.746	930.58
426.123	916.8
426.499	951.15
426.875	932.16
427.251	967.42
427.627	982.56
428.003	1019.62
428.379	989.56
428.756	1013.52
429.132	1020.3
429.507	1041.77
429.883	1065.27
430.259	1080.64
430.635	1083.12
431.011	1073.86
431.387	1097.36
431.763	1114.76
432.138	1128.54
432.514	1149.11
432.89	1175.1
433.265	1192.72
433.641	1252.16
434.016	1224.13
434.392	1245.83
434.767	1266.85
435.143	1328.09
435.518	1305.71
435.894	1340.29
436.269	1363.34
436.644	1364.47
437.02	1399.5
437.395	1426.62
437.77	1476.33
438.145	1450.57
438.52	1511.13
438.895	1516.1
439.271	1530.79
439.646	1583.22
440.021	1575.09
440.395	1588.19
440.77	1605.59
441.145	1604.69
441.52	1679.94
441.895	1697.12
442.27	1692.82
442.645	1662.54
443.019	1719.94
443.394	1738.7
443.769	1758.81
444.143	1740.28
444.518	1794.74
444.892	1808.3
445.267	1841.75
445.641	1856.66
446.016	1855.98
446.39	1885.59
446.764	1881.07
447.139	1908.18
447.513	1923.33
447.887	1896.66
448.262	1938.69
448.636	1940.73
449.01	1981.18
449.384	2015.07
449.758	2030.67
450.132	2067.05
450.506	2010.78
450.88	2095.52
451.254	2092.81
451.628	2116.77
452.002	2138.69
452.376	2135.52
452.75	2190.66
453.123	2209.87
453.497	2205.8
453.871	2252.13
454.244	2286.25
454.618	2303.65
454.992	2332.58
455.365	2355.4
455.739	2408.74
456.112	2402.86
456.486	2443.54
456.859	2467.49
457.232	2492.58
457.606	2475.4
457.979	2549.98
458.352	2575.74
458.725	2625.23
459.099	2652.35
459.472	2694.15
459.845	2712
460.218	2766.69
460.591	2777.99
460.964	2823.19
461.337	2850.31
461.71	2884.66
462.083	2959
462.456	2925.56
462.829	2954.26
463.201	3006.91
463.574	2998.78
463.947	3075.84
464.32	3101.6
464.692	3179.11
465.065	3189.51
465.438	3247.13
465.81	3317.64
466.183	3318.99
466.555	3425.88
466.928	3396.28
467.3	3453.68
467.672	3498.65
468.045	3537.07
468.417	3588.14
468.789	3627.24
469.161	3668.14
469.534	3755.37
469.906	3830.39
470.278	3853.67
470.65	3883.5
471.022	3979.54
471.394	4052.76
471.766	4061.35
472.138	4111.06
472.51	4190.38
472.882	4244.39
473.253	4317.84
473.625	4384.5
473.997	4489.59
474.369	4537.04
474.74	4582.69
475.112	4630.82
475.484	4716.7
475.855	4810.71
476.227	4810.48
476.598	4994.43
476.97	5007.54
477.341	5156.01
477.713	5199.85
478.084	5256.12
478.455	5400.3
478.827	5495.66
479.198	5568.65
479.569	5636.22
479.94	5737.01
480.311	5821.3
480.682	5964.8
481.053	6068.07
481.424	6198.92
481.795	6280.72
482.166	6356.65
482.537	6391.68
482.908	6584.9
483.279	6579.93
483.65	6700.6
484.021	6919.35
484.391	6957.77
484.762	7033.7
485.133	7095.17
485.503	7130.87
485.874	7371.32
486.244	7401.83
486.615	7500.58
486.985	7666.45
487.356	7777.63
487.726	7890.85
488.097	8030.06
488.467	8095.14
488.837	8185.53
489.207	8254.01
489.578	8429.82
489.948	8432.76
490.318	8572.19
490.688	8644.5
491.058	8723.37
491.428	8886.08
491.798	8955.46
492.168	9103.02
492.538	9140.08
492.908	9178.05
493.278	9327.65
493.648	9358.38
494.017	9456.91
494.387	9539.4
494.757	9648.55
495.126	9727.19
495.496	9732.84
495.866	9787.07
496.235	9833.63
496.605	9989.55
496.974	9983
497.344	10029.78
497.713	10062.32
498.082	10161.98
498.452	10237
498.821	10272.71
499.19	10349.09
499.559	10365.59
499.928	10486.04
500.298	10486.49
500.667	10467.51
501.036	10484
501.405	10599.03
501.774	10613.94
502.143	10716.54
502.512	10680.61
502.88	10783.43
503.249	10771.23
503.618	10926.7
503.987	10895.29
504.356	10865.91
504.724	10974.61
505.093	10971.67
505.462	11034.27
505.83	11069.53
506.199	11086.25
506.567	11184.55
506.936	11170.09
507.304	11248.5
507.672	11275.4
508.041	11337.54
508.409	11391.32
508.777	11374.83
509.145	11389.29
509.514	11353.81
509.882	11497.08
510.25	11424.09
510.618	11517.65
510.986	11508.38
511.354	11626.8
511.722	11617.53
512.09	11630.64
512.458	11558.78
512.826	11681.94
513.193	11703.18
513.561	11688.94
513.929	11659.34
514.297	11766.68
514.664	11793.35
515.032	11770.3
515.4	11833.35
515.767	11787.7
516.135	11890.52
516.502	11743.41
516.869	11918.77
517.237	11859.34
517.604	11826.12
517.972	11980.46
518.339	11954.02
518.706	11905.44
519.073	11949.5
519.44	11909.96
519.808	12038.99
520.175	11952.44
520.542	12080.8
520.909	11986.79
521.276	12006.68
521.643	11989.28
522.009	12113.57
522.376	12050.97
522.743	12095.04
523.11	12211.42
523.477	12221.36
523.843	12142.27
524.21	12180.91
524.577	12198.99
524.943	12192.21
525.31	12190.85
525.676	12305.65
526.043	12258.87
526.409	12220.91
526.776	12347.91
527.142	12242.6
527.508	12163.96
527.874	12254.8
528.241	12251.64
528.607	12135.71
528.973	12210.06
529.339	12183.17
529.705	12214.13
530.071	12217.29
530.437	12234.69
530.803	12199.44
531.169	12195.15
531.535	12099.55
531.901	12127.8
532.267	12057.75
532.632	12077.63
532.998	11960.58
533.364	12094.13
533.73	12016.39
534.095	11940.69
534.461	11975.49
534.826	12026.56
535.192	11869.5
535.557	11930.52
535.923	11947.69
536.288	11817.08
536.653	11776.63
537.019	11669.74
537.384	11669.06
537.749	11599
538.114	11573.47
538.479	11541.83
538.845	11533.02
539.21	11407.14
539.575	11421.61
539.94	11359.91
540.305	11338.9
540.67	11347.26
541.034	11227.26
541.399	11250.09
541.764	11166.47
542.129	11161.27
542.494	11128.51
542.858	11032.24
543.223	11011.45
543.587	10986.59
543.952	10874.95
544.316	10814.16
544.681	10807.61
545.045	10770.78
545.41	10731.68
545.774	10624.34
546.138	10642.42
546.503	10615.07
546.867	10486.49
547.231	10537.56
547.595	10498.69
547.959	10419.15
548.324	10278.13
548.688	10314.97
549.052	10277
549.416	10210.11
549.779	10134.86
550.143	10175.54
550.507	10087.86
550.871	10067.07
551.235	10051.92
551.599	10014.19
551.962	9971.7
552.326	9915.43
552.689	9918.37
553.053	9781.65
553.417	9816
553.78	9819.16
554.143	9709.56
554.507	9718.15
554.87	9675.66
555.234	9705.95
555.597	9538.49
555.96	9564.93
556.323	9531.49
556.686	9485.16
557.05	9514.54
557.413	9434.54
557.776	9501.88
558.139	9500.98
558.502	9449.91
558.865	9402.22
559.228	9350.47
559.59	9343.02
559.953	9372.85
560.316	9393.19
560.679	9352.51
561.041	9335.11
561.404	9411.26
561.767	9307.54
562.129	9285.84
562.492	9312.51
562.854	9248.78
563.217	9263.92
563.579	9241.1
563.941	9241.78
564.304	9261.66
564.666	9243.58
565.028	9162
565.39	9240.19
565.753	9249.01
566.115	9196.58
566.477	9229.12
566.839	9192.74
567.201	9274.32
567.563	9192.74
567.925	9168.56
568.287	9226.64
568.648	9206.07
569.01	9216.69
569.372	9225.51
569.734	9215.79
570.095	9240.42
570.457	9275.9
570.819	9181.21
571.18	9202.23
571.542	9286.97
571.903	9238.39
572.265	9222.79
572.626	9237.48
572.987	9231.61
573.349	9225.73
573.71	9202
574.071	9260.08
574.432	9207.65
574.794	9246.52
575.155	9202.91
575.516	9182.8
575.877	9257.37
576.238	9226.64
576.599	9219.86
576.96	9218.95
577.32	9192.29
577.681	9236.58
578.042	9237.94
578.403	9232.51
578.763	9211.72
579.124	9186.86
579.485	9230.7
579.845	9256.92
580.206	9155.68
580.566	9198.16
580.927	9262.57
581.287	9180.08
581.648	9190.03
582.008	9224.6
582.368	9177.15
582.728	9213.08
583.089	9167.88
583.449	9103.93
583.809	9179.41
584.169	9169.24
584.529	9106.64
584.889	9167.2
585.249	9117.49
585.609	9087.66
585.969	9139.18
586.329	9022.57
586.688	9035.68
587.048	9069.13
587.408	9066.41
587.768	9012.18
588.127	9015.79
588.487	9047.88
588.846	9102.8
589.206	8943.03
589.565	9044.27
589.925	9033.87
590.284	8933.76
590.643	8950.71
591.003	8976.25
591.362	8966.98
591.721	8956.81
592.08	8885.18
592.44	8984.61
592.799	8951.61
593.158	8964.04
593.517	8925.4
593.876	8960.2
594.235	8987.32
594.593	8901.45
594.952	8929.47
595.311	8963.37
595.67	8881.56
596.029	8994.55
596.387	8904.16
596.746	8902.58
597.104	8818.74
597.463	8816.03
597.822	8897.61
598.18	8850.15
598.538	8816.03
598.897	8933.76
599.255	8827.1
599.613	8935.12
599.972	8822.13
600.33	8936.25
600.688	8918.4
601.046	8930.15
601.404	8863.48
601.762	8905.97
602.12	8885.85
602.478	8893.31
602.836	8876.59
603.194	8795.23
603.552	8825.52
603.91	8798.4
604.268	8801.11
604.625	8825.74
604.983	8816.03
605.341	8798.4
605.698	8856.25
606.056	8860.54
606.413	8824.16
606.771	8856.25
607.128	8815.57
607.485	8810.83
607.843	8825.06
608.2	8856.02
608.557	8870.71
608.914	8868
609.272	8887.89
609.629	8889.47
609.986	8979.64
610.343	8819.64
610.7	8906.87
611.057	8873.65
611.414	8904.61
611.771	8882.46
612.127	8899.64
612.484	8846.53
612.841	8842.24
613.198	8877.49
613.554	8905.74
613.911	8943.25
614.267	8890.15
614.624	8987.77
614.98	8903.93
615.337	8846.98
615.693	8991.84
616.05	8954.1
616.406	9027.32
616.762	8897.83
617.118	8945.97
617.475	8943.25
617.831	8968.79
618.187	8987.32
618.543	9023.7
618.899	8940.99
619.255	8958.85
619.611	8962.01
619.967	9041.33
620.323	9002.01
620.678	8983.7
621.034	8977.83
621.39	8933.54
621.746	9006.53
622.101	9004.95
622.457	8915.23
622.812	8985.96
623.168	8965.85
623.523	9009.01
623.879	9015.79
624.234	8897.38
624.589	9089.92
624.945	9010.82
625.3	8967.89
625.655	9024.38
626.01	9031.39
626.365	8975.57
626.72	8961.33
627.075	8946.64
627.43	8999.3
627.785	8953.42
628.14	9009.69
628.495	9013.53
628.85	9019.18
629.205	8922.46
629.559	9003.36
629.914	8910.94
630.269	8953.65
630.623	8964.04
630.978	8925.63
631.332	8928.79
631.687	8941.22
632.041	8919.3
632.396	8872.07
632.75	8928.11
633.104	8838.17
633.459	8888.79
633.813	8843.37
634.167	8863.03
634.521	8822.13
634.875	8865.06
635.229	8804.05
635.583	8790.04
635.937	8775.12
636.291	8772.41
636.645	8783.71
636.999	8725.63
637.352	8745.29
637.706	8761.11
638.06	8740.1
638.413	8700.77
638.767	8682.47
639.121	8689.47
639.474	8644.5
639.828	8650.15
640.181	8659.87
640.534	8656.93
640.888	8625.97
641.241	8634.34
641.594	8604.73
641.947	8679.98
642.301	8630.49
642.654	8561.12
643.007	8634.56
643.36	8557.5
643.713	8598.18
644.066	8632.98
644.419	8616.71
644.771	8512.53
645.124	8437.73
645.477	8439.54
645.83	8400.67
646.182	8326.77
646.535	8318.86
646.888	8317.96
647.24	8287.45
647.593	8274.34
647.945	8310.5
648.298	8261.24
648.65	8288.36
649.002	8240.9
649.355	8316.83
649.707	8292.88
650.059	8357.96
650.411	8434.79
650.763	8471.85
651.115	8522.93
651.467	8478.41
651.819	8494.9
652.171	8492.87
652.523	8479.99
652.875	8450.84
653.227	8510.5
653.578	8505.3
653.93	8511.63
654.282	8443.61
654.633	8401.57
654.985	8496.94
655.337	8448.35
655.688	8453.32
656.039	8491.06
656.391	8386.66
656.742	8408.35
657.094	8493.77
657.445	8538.07
657.796	8533.55
658.147	8439.09
658.498	8475.24
658.849	8512.76
659.2	8450.61
659.551	8425.53
659.902	8520.67
660.253	8488.12
660.604	8469.14
660.955	8468.46
661.306	8521.34
661.656	8420.78
662.007	8507.78
662.358	8498.07
662.708	8588.01
663.059	8496.26
663.409	8465.98
663.76	8562.02
664.11	8574.9
664.461	8492.19
664.811	8520.44
665.161	8491.97
665.511	8525.86
665.862	8530.84
666.212	8576.03
666.562	8514.56
666.912	8523.38
667.262	8514.11
667.612	8528.8
667.962	8511.4
668.312	8581.23
668.662	8504.4
669.011	8504.85
669.361	8491.51
669.711	8505.52
670.06	8543.72
670.41	8449.93
670.76	8479.54
671.109	8499.2
671.459	8533.32
671.808	8511.85
672.157	8450.39
672.507	8419.65
672.856	8405.41
673.205	8462.81
673.554	8461.68
673.904	8448.58
674.253	8477.5
674.602	8443.83
674.951	8321.57
675.3	8265.76
675.649	8396.38
675.998	8391.4
676.346	8415.58
676.695	8460.55
677.044	8360.22
677.393	8320.45
677.741	8416.49
678.09	8386.21
678.438	8363.83
678.787	8317.28
679.135	8305.08
679.484	8225.98
679.832	8284.97
680.181	8256.72
680.529	8280.22
680.877	8238.64
681.225	8184.18
681.573	8278.41
681.922	8177.62
682.27	8164.06
682.618	8192.31
682.966	8139.66
683.314	8166.55
683.661	8100.34
684.009	8074.12
684.357	8112.77
684.705	8102.82
685.053	8078.64
685.4	8009.04
685.748	8053.33
686.095	8059.43
686.443	8002.26
686.79	7938.08
687.138	8003.84
687.485	7964.3
687.832	7960
688.18	7912.55
688.527	7944.86
688.874	7843.17
689.221	7905.31
689.568	7839.78
689.915	7811.53
690.262	7800.68
690.609	7713.68
690.956	7757.75
691.303	7672.78
691.65	7742.61
691.997	7671.2
692.344	7614.93
692.69	7592.1
693.037	7609.5
693.383	7545.32
693.73	7560.69
694.077	7505.33
694.423	7545.1
694.769	7478.21
695.116	7477.3
695.462	7383.97
695.808	7378.32
696.155	7458.77
696.501	7338.32
696.847	7345.33
697.193	7217.2
697.539	7259
697.885	7227.59
698.231	7192.11
698.577	7193.47
698.923	7202.51
699.269	7133.81
699.614	7036.41
699.96	7033.47
700.306	7066.92
700.651	7025.56
700.997	7018.56
701.342	7011.55
701.688	6928.84
702.033	6914.38
702.379	6903.08
702.724	6908.73
703.069	6908.5
703.415	6792.12
703.76	6818.79
704.105	6840.03
704.45	6826.93
704.795	6744.44
705.14	6706.93
705.485	6746.25
705.83	6676.65
706.175	6673.26
706.52	6707.38
706.865	6680.49
707.209	6616.54
707.554	6591
707.899	6604.11
708.243	6579.7
708.588	6522.3
708.932	6556.42
709.277	6477.1
709.621	6492.7
709.966	6406.15
710.31	6415.41
710.654	6372.25
710.998	6422.19
711.342	6412.47
711.687	6358.01
712.031	6314.4
712.375	6314.17
712.719	6342.64
713.063	6287.96
713.407	6365.47
713.75	6288.86
714.094	6340.61
714.438	6302.42
714.782	6285.24
715.125	6237.34
715.469	6229.88
715.812	6263.55
716.156	6233.95
716.499	6217.45
716.843	6242.99
717.186	6196.21
717.53	6197.11
717.873	6203.89
718.216	6169.54
718.559	6143.33
718.902	6120.28
719.246	6119.37
719.589	6073.27
719.932	6093.61
720.275	6072.59
720.617	6109.43
720.96	6094.97
721.303	6106.94
721.646	6088.19
721.989	6063.78
722.331	6042.76
722.674	6050.67
723.016	6074.18
723.359	6078.47
723.701	6064.23
724.044	6014.07
724.386	5991.92
724.729	6042.54
725.071	5985.37
725.413	6075.98
725.755	5999.38
726.097	6009.32
726.439	5965.93
726.782	6002.99
727.124	6031.01
727.465	5941.07
727.807	6018.58
728.149	6001.64
728.491	5973.16
728.833	5962.31
729.175	5971.35
729.516	5956.89
729.858	6024.23
730.199	5980.85
730.541	6013.39
730.882	5964.12
731.224	6000.28
731.565	5932.49
731.906	5950.34
732.248	5958.25
732.589	5925.48
732.93	5955.54
733.271	5941.75
733.612	5980.39
733.953	6002.77
734.294	5968.64
734.635	5949.21
734.976	5949.66
735.317	5899.72
735.658	5987.63
735.999	5984.01
736.339	5972.03
736.68	6002.09
737.021	5984.91
737.361	5972.71
737.702	6036.44
738.042	6003.44
738.383	5938.81
738.723	6000.28
739.063	6007.51
739.404	6059.26
739.744	6002.99
740.084	6000.51
740.424	6066.94
740.764	6105.36
741.104	6119.37
741.444	6033.05
741.784	6066.49
742.124	6093.38
742.464	6150.56
742.804	6128.86
743.143	6160.73
743.483	6201.86
743.823	6156.66
744.162	6219.03
744.502	6241.18
744.841	6228.75
745.181	6310.33
745.52	6328.41
745.86	6335.64
746.199	6393.49
746.538	6443.21
746.877	6488.18
747.216	6536.76
747.556	6605.24
747.895	6642.52
748.234	6683.43
748.573	6685.01
748.911	6787.6
749.25	6789.41
749.589	6865.57
749.928	6939.92
750.267	6959.35
750.605	7018.56
750.944	7097.88
751.283	7182.85
751.621	7287.03
751.96	7370.64
752.298	7420.58
752.636	7574.93
752.975	7647.24
753.313	7680.46
753.651	7828.03
753.989	7905.77
754.327	8008.59
754.666	8096.04
755.004	8299.65
755.342	8383.27
755.679	8435.24
756.017	8583.49
756.355	8726.08
756.693	8946.42
757.031	9032.29
757.368	9163.13
757.706	9333.53
758.044	9462.56
758.381	9555.21
758.719	9748.2
759.056	10018.25
759.394	10089.44
759.731	10232.03
760.068	10377.11
760.405	10511.35
760.743	10671.8
761.08	10926.7
761.417	11026.14
761.754	11188.39
762.091	11395.84
762.428	11513.13
762.765	11695.95
763.102	11878.32
763.438	12060.69
763.775	12200.12
764.112	12410.51
764.449	12624.29
764.785	12739.99
765.122	12883.04
765.458	13045.52
765.795	13194.89
766.131	13370.26
