Data from hue_30_FLMS001491_80.txt Node
Date: Mon Feb 06 15:05:57 GMT 2017
User: dcchb
Spectrometer: FLMS00149
Trigger mode: 0
Integration Time (sec): 2.000000E-2
Scans to average: 10
Electric dark correction enabled: true
Nonlinearity correction enabled: false
Boxcar width: 0
XAxis mode: Wavelengths
Number of Pixels in Spectrum: 2048
>>>>>Begin Spectral Data<<<<<
341.393	-3.52
341.776	-3.52
342.16	-3.52
342.543	-55.72
342.927	-60.46
343.31	-88.49
343.693	-61.82
344.077	-63.18
344.46	-53.23
344.843	-53.01
345.226	-29.5
345.61	-11.88
345.993	-17.75
346.376	0.78
346.759	-5.55
347.142	2.58
347.525	44.84
347.908	66.31
348.291	68.12
348.674	87.78
349.057	113.99
349.44	130.94
349.823	142.24
350.206	178.63
350.588	224.27
350.971	217.95
351.354	232.41
351.737	228.79
352.119	268.11
352.502	285.97
352.884	262.01
353.267	291.62
353.65	281.67
354.032	305.18
354.414	332.07
354.797	313.54
355.179	350.15
355.562	341.11
355.944	330.49
356.326	320.32
356.709	353.76
357.091	332.52
357.473	335.91
357.855	344.27
358.238	368.9
358.62	341.11
359.002	326.42
359.384	352.63
359.766	322.58
360.148	337.49
360.53	367.77
360.912	366.64
361.294	347.21
361.676	346.53
362.057	338.17
362.439	337.72
362.821	346.76
363.203	332.29
363.584	331.84
363.966	327.55
364.348	329.58
364.729	328
365.111	324.84
365.493	353.99
365.874	338.62
366.256	338.85
366.637	326.42
367.019	309.7
367.4	321.45
367.781	314.89
368.163	300.88
368.544	334.1
368.925	327.77
369.306	338.17
369.688	324.16
370.069	326.64
370.45	320.77
370.831	311.28
371.212	316.93
371.593	319.41
371.974	325.29
372.355	326.42
372.736	330.71
373.117	335.91
373.498	348.34
373.879	333.88
374.26	323.25
374.641	330.26
375.021	318.51
375.402	328
375.783	339.07
376.163	333.2
376.544	330.03
376.925	346.98
377.305	342.24
377.686	340.88
378.066	336.59
378.447	343.59
378.827	345.4
379.208	337.72
379.588	341.33
379.968	350.6
380.349	338.85
380.729	340.2
381.109	339.75
381.489	346.76
381.87	335.46
382.25	346.08
382.63	352.86
383.01	372.29
383.39	367.32
383.77	342.69
384.15	334.1
384.53	335.46
384.91	354.89
385.29	343.14
385.67	376.36
386.049	367.32
386.429	358.28
386.809	363.25
387.189	365.51
387.568	363.48
387.948	360.54
388.328	356.25
388.707	358.96
389.087	351.28
389.466	358.28
389.846	363.93
390.225	370.71
390.605	377.26
390.984	385.63
391.363	368
391.743	403.93
392.122	374.33
392.501	361.22
392.881	370.26
393.26	393.08
393.639	372.29
394.018	398.73
394.397	398.73
394.776	384.72
395.155	396.25
395.534	393.99
395.913	377.49
396.292	398.05
396.671	396.92
397.05	411.16
397.429	391.5
397.808	390.6
398.186	393.08
398.565	394.89
398.944	418.84
399.323	412.52
399.701	407.55
400.08	397.6
400.458	406.19
400.837	396.25
401.215	403.25
401.594	391.5
401.972	409.58
402.351	400.77
402.729	402.35
403.107	418.62
403.486	419.07
403.864	437.6
404.242	409.35
404.62	417.49
404.999	410.48
405.377	441.22
405.755	454.78
406.133	449.13
406.511	421.1
406.889	428.56
407.267	453.42
407.645	445.06
408.023	469.92
408.401	440.09
408.779	436.47
409.156	451.84
409.534	471.95
409.912	463.36
410.29	457.94
410.667	447.09
411.045	447.32
411.422	457.71
411.8	442.57
412.178	481.67
412.555	484.15
412.933	465.62
413.31	466.3
413.687	465.62
414.065	486.87
414.442	462.01
414.819	490.48
415.197	507.43
415.574	497.71
415.951	497.49
416.328	507.2
416.705	517.6
417.082	508.33
417.46	512.85
417.837	514.44
418.214	517.6
418.591	514.44
418.967	503.81
419.344	524.83
419.721	491.84
420.098	535.45
420.475	525.96
420.852	546.07
421.228	548.56
421.605	545.4
421.982	519.63
422.358	525.96
422.735	578.16
423.111	533.19
423.488	559.18
423.864	562.12
424.241	569.58
424.617	575
424.994	558.05
425.37	563.93
425.746	588.11
426.123	578.84
426.499	578.16
426.875	560.54
427.251	582.68
427.627	596.92
428.003	619.52
428.379	610.48
428.756	619.74
429.132	616.81
429.507	600.99
429.883	607.77
430.259	629.23
430.635	658.84
431.011	655
431.387	639.4
431.763	666.3
432.138	668.1
432.514	667.2
432.89	657.48
433.265	657.48
433.641	683.47
434.016	690.48
434.392	706.29
434.767	696.58
435.143	680.98
435.518	719.63
435.894	709.68
436.269	725.96
436.644	724.15
437.02	725.96
437.395	755.56
437.77	746.52
438.145	754.88
438.52	744.49
438.895	761.43
439.271	765.28
439.646	744.49
440.021	793.3
440.395	772.73
440.77	770.7
441.145	777.03
441.52	797.37
441.895	806.18
442.27	793.52
442.645	791.26
443.019	802.11
443.394	793.98
443.769	810.02
444.143	807.08
444.518	824.48
444.892	815.22
445.267	832.39
445.641	835.78
446.016	831.26
446.39	847.76
446.764	837.59
447.139	843.69
447.513	858.61
447.887	834.65
448.262	838.49
448.636	851.6
449.01	866.74
449.384	895.22
449.758	890.47
450.132	906.74
450.506	918.04
450.88	897.25
451.254	891.6
451.628	921.43
452.002	921.66
452.376	938.61
452.75	942.9
453.123	939.74
453.497	947.64
453.871	954.42
454.244	959.62
454.618	990.13
454.992	996
455.365	961.88
455.739	1014.99
456.112	1033.74
456.486	1024.7
456.859	1053.63
457.232	1020.86
457.606	1035.1
457.979	1053.4
458.352	1078.49
458.725	1135.44
459.099	1093.63
459.472	1092.05
459.845	1119.62
460.218	1138.83
460.591	1134.31
460.964	1122.33
461.337	1171.82
461.71	1179.05
462.083	1181.99
462.456	1199.84
462.829	1184.02
463.201	1234.64
463.574	1217.92
463.947	1241.87
464.32	1259.27
464.692	1280.74
465.065	1286.39
465.438	1296.79
465.81	1315.09
466.183	1355.09
466.555	1388.99
466.928	1374.75
467.3	1391.02
467.672	1384.24
468.045	1404.13
468.417	1419.95
468.789	1431.02
469.161	1457.46
469.534	1504.01
469.906	1514.41
470.278	1508.08
470.65	1542.43
471.022	1580.4
471.394	1594.18
471.766	1593.05
472.138	1657.23
472.51	1679.6
472.882	1669.43
473.253	1712.14
473.625	1720.51
473.997	1796.44
474.369	1761.18
474.74	1804.12
475.112	1861.07
475.484	1882.54
475.855	1919.6
476.227	1929.31
476.598	2031.01
476.97	2052.47
477.341	2081.63
477.713	2102.42
478.084	2110.78
478.455	2189.19
478.827	2214.96
479.198	2267.38
479.569	2274.84
479.94	2389.41
480.311	2399.36
480.682	2503.76
481.053	2548.96
481.424	2556.42
481.795	2627.83
482.166	2679.12
482.537	2762.06
482.908	2811.1
483.279	2846.8
483.65	2879.12
484.021	2944.65
484.391	3004.54
484.762	3043.18
485.133	3087.7
485.503	3147.36
485.874	3237.3
486.244	3244.53
486.615	3342.16
486.985	3399.11
487.356	3483.85
487.726	3529.95
488.097	3602.04
488.467	3662.15
488.837	3728.81
489.207	3817.17
489.578	3876.61
489.948	3916.38
490.318	4006.1
490.688	4027.79
491.058	4108.01
491.428	4220.78
491.798	4261
492.168	4291.96
492.538	4381.23
492.908	4397.5
493.278	4552.75
493.648	4531.28
494.017	4613.76
494.387	4675
494.757	4735.57
495.126	4772.63
495.496	4790.48
495.866	4864.6
496.235	4987.76
496.605	5003.36
496.974	5103.92
497.344	5130.13
497.713	5183.69
498.082	5212.84
498.452	5290.58
498.821	5325.16
499.19	5341.65
499.559	5411.71
499.928	5458.71
500.298	5460.97
500.667	5537.81
501.036	5582.55
501.405	5664.36
501.774	5665.26
502.143	5726.05
502.512	5792.49
502.88	5853.73
503.249	5804.69
503.618	5904.12
503.987	5905.03
504.356	5987.06
504.724	6018.7
505.093	6043.33
505.462	6056.21
505.83	6118.13
506.199	6193.16
506.567	6252.36
506.936	6289.88
507.304	6295.3
507.672	6361.29
508.041	6368.29
508.409	6412.81
508.777	6392.93
509.145	6507.72
509.514	6519.02
509.882	6536.65
510.25	6589.76
510.618	6611.45
510.986	6684.44
511.354	6689.87
511.722	6789.3
512.09	6803.08
512.458	6766.02
512.826	6893.93
513.193	6944.32
513.561	6921.27
513.929	6960.14
514.297	6929.18
514.664	7057.31
515.032	7049.18
515.4	7138.67
515.767	7142.74
516.135	7168.72
516.502	7103.41
516.869	7237.65
517.237	7258.21
517.604	7247.59
517.972	7362.84
518.339	7358.1
518.706	7353.13
519.073	7434.25
519.44	7410.98
519.808	7561.03
520.175	7581.82
520.542	7580.92
520.909	7604.87
521.276	7547.47
521.643	7626.11
522.009	7730.97
522.376	7803.28
522.743	7825.66
523.11	7889.83
523.477	7955.6
523.843	7932.77
524.21	8057.74
524.577	8105.42
524.943	8137.96
525.31	8123.95
525.676	8179.54
526.043	8263.61
526.409	8247.79
526.776	8447.79
527.142	8398.75
527.508	8379.77
527.874	8466.09
528.241	8581.57
528.607	8581.34
528.973	8697.95
529.339	8611.62
529.705	8750.83
530.071	8746.76
530.437	8871.05
530.803	8845.06
531.169	8902.46
531.535	8961.9
531.901	8890.49
532.267	8982.01
532.632	8989.69
532.998	9044.15
533.364	9103.14
533.73	9155.34
534.095	9260.65
534.461	9260.65
534.826	9278.95
535.192	9346.52
535.557	9351.04
535.923	9404.15
536.288	9414.99
536.653	9510.58
537.019	9490.24
537.384	9589.9
537.749	9604.59
538.114	9531.83
538.479	9644.82
538.845	9703.8
539.21	9699.73
539.575	9705.38
539.94	9804.59
540.305	9784.02
540.67	9814.53
541.034	9817.92
541.399	9941.31
541.764	9973.17
542.129	9973.4
542.494	10021.08
542.858	10043.22
543.223	10057.46
543.587	10164.13
543.952	10127.52
544.316	10269.21
544.681	10269.43
545.045	10299.49
545.41	10427.17
545.774	10460.61
546.138	10399.15
546.503	10430.11
546.867	10487.96
547.231	10595.98
547.595	10558.24
547.959	10617.45
548.324	10671.91
548.688	10715.3
549.052	10747.84
549.416	10728.63
549.779	10808.63
550.143	10761.17
550.507	10890.66
550.871	10884.11
551.235	10949.64
551.599	11056.08
551.962	11013.14
552.326	11095.4
552.689	11170.65
553.053	11058.34
553.417	11098.11
553.78	11270.09
554.143	11205.68
554.507	11242.29
554.87	11349.4
555.234	11413.58
555.597	11318.67
555.96	11409.52
556.323	11498.78
556.686	11518.89
557.05	11507.59
557.413	11572.22
557.776	11611.54
558.139	11684.76
558.502	11615.16
558.865	11729.73
559.228	11713.92
559.59	11821.93
559.953	11872.78
560.316	11919.79
560.679	11954.59
561.041	12010.4
561.404	12023.51
561.767	12063.28
562.129	12109.84
562.492	12127.46
562.854	12189.61
563.217	12206.11
563.579	12254.92
563.941	12323.16
564.304	12321.13
564.666	12407.23
565.028	12413.56
565.39	12496.95
565.753	12526.1
566.115	12565.42
566.477	12714.57
566.839	12698.52
567.201	12748.24
567.563	12761.35
567.925	12781.68
568.287	12813.77
568.648	12925.86
569.01	12973.32
569.372	13057.83
569.734	13088.12
570.095	13197.27
570.457	13218.51
570.819	13162.69
571.18	13226.64
571.542	13303.93
571.903	13317.71
572.265	13415.34
572.626	13436.36
572.987	13533.98
573.349	13600.87
573.71	13725.61
574.071	13805.16
574.432	13835.22
574.794	13979.39
575.155	13962.67
575.516	14006.06
575.877	14103.91
576.238	14219.61
576.599	14275.2
576.96	14301.87
577.32	14506.16
577.681	14539.15
578.042	14712.03
578.403	14846.26
578.763	14852.82
579.124	14941.4
579.485	15120.83
579.845	15352.69
580.206	15402.63
580.566	15550.65
580.927	15652.57
581.287	15886.23
581.648	16001.26
582.008	16221.82
582.368	16269.5
582.728	16476.95
583.089	16659.1
583.449	16930.95
583.809	17155.81
584.169	17248.01
584.529	17509.69
584.889	17846.18
585.249	17899.52
585.609	18047.76
585.969	18421.76
586.329	18579.05
586.688	18879.83
587.048	19052.25
587.408	19237.56
587.768	19505.8
588.127	19766.81
588.487	19950.53
588.846	20296.06
589.206	20449.05
589.565	20648.37
589.925	21039.09
590.284	21336.71
590.643	21578.29
591.003	21900.54
591.362	22160.42
591.721	22400.19
592.08	22763.12
592.44	23020.06
592.799	23252.37
593.158	23487.39
593.517	23870.66
593.876	24261.16
594.235	24335.28
594.593	24594.48
594.952	25107.91
595.311	25151.3
595.67	25496.15
596.029	26001.45
596.387	26194.66
596.746	26524.15
597.104	26713.52
597.463	27017.92
597.822	27325.71
598.18	27503.78
598.538	27832.59
598.897	28139.7
599.255	28233.93
599.613	28826.01
599.972	29032.1
600.33	29303.96
600.688	29435.71
601.046	29835.7
601.404	30218.29
601.762	30272.98
602.12	30684.26
602.478	31025.27
602.836	31341.65
603.194	31273.85
603.552	31624.8
603.91	31838.58
604.268	32134.85
604.625	32390.21
604.983	32743.64
605.341	32685.34
605.698	32979.12
606.056	33383.63
606.413	33477.18
606.771	33790.17
607.128	33971.18
607.485	34031.52
607.843	34322.81
608.2	34677.15
608.557	35018.16
608.914	35031.27
609.272	35421.77
609.629	35533.18
609.986	35784.02
610.343	35778.14
610.7	36262.65
611.057	36296.09
611.414	36578.12
611.771	36739.02
612.127	36903.31
612.484	37055.4
612.841	37234.37
613.198	37221.95
613.554	37377.42
613.911	37809.05
614.267	37880.91
614.624	38004.98
614.98	38156.61
615.337	38525.19
615.693	38393.21
616.05	38552.08
616.406	38792.07
616.762	38888.57
617.118	39047.66
617.475	38954.1
617.831	39310.25
618.187	39449.91
618.543	39537.82
618.899	39906.17
619.255	39916.56
619.611	39942.78
619.967	40065.94
620.323	40310.68
620.678	40376.21
621.034	40260.51
621.39	40388.19
621.746	40338.02
622.101	41000.38
622.457	40716.77
622.812	40930.32
623.168	41068.4
623.523	41032.47
623.879	41225
624.234	41009.64
624.589	41316.3
624.945	41297.09
625.3	41529.4
625.655	41539.12
626.01	41479.01
626.365	41621.6
626.72	41624.32
627.075	41607.59
627.43	41648.04
627.785	41595.39
628.14	41751.54
628.495	41791.77
628.85	41915.38
629.205	41748.15
629.559	42140.01
629.914	41886.68
630.269	41955.83
630.623	41972.33
630.978	41876.06
631.332	42055.94
631.687	42205.77
632.041	41959
632.396	42291.19
632.75	42029.28
633.104	42072.44
633.459	42006
633.813	41978.66
634.167	41948.15
634.521	41962.39
634.875	42190.18
635.229	42086.22
635.583	41984.31
635.937	41932.1
636.291	41963.97
636.645	41977.53
636.999	41886.91
637.352	42077.18
637.706	41719.68
638.06	41916.28
638.413	41833.35
638.767	41828.6
639.121	42059.11
639.474	41682.17
639.828	41804.65
640.181	41960.13
640.534	41916.74
640.888	41622.28
641.241	41535.05
641.594	41798.1
641.947	41819.34
642.301	41777.08
642.654	41820.24
643.007	41719.68
643.36	41740.02
643.713	41748.83
644.066	41663.64
644.419	41502.06
644.771	41332.12
645.124	40941.85
645.477	40835.64
645.83	40731.46
646.182	40642.19
646.535	40430.45
646.888	40478.81
647.24	40308.19
647.593	40532.14
647.945	40513.16
648.298	40218.93
648.65	40327.17
649.002	40103.45
649.355	40403.1
649.707	40252.83
650.059	40399.04
650.411	40832.7
650.763	41067.49
651.115	41354.72
651.467	41216.87
651.819	41178.45
652.171	40999.25
652.523	41005.35
652.875	41137.32
653.227	40916.99
653.578	41009.42
653.93	41073.14
654.282	40989.76
654.633	40766.71
654.985	40848.52
655.337	40845.8
655.688	40801.51
656.039	40948.17
656.391	40673.83
656.742	40753.38
657.094	40776.43
657.445	40787.73
657.796	40645.13
658.147	40728.97
658.498	40658.01
658.849	40737.11
659.2	40628.41
659.551	40467.28
659.902	40679.71
660.253	40668.18
660.604	40722.42
660.955	40597.22
661.306	40655.53
661.656	40636.09
662.007	40673.61
662.358	40709.76
662.708	40553.38
663.059	40582.99
663.409	40398.36
663.76	40758.8
664.11	40590.22
664.461	40699.14
664.811	40655.53
665.161	40497.79
665.511	40457.79
665.862	40592.7
666.212	40706.6
666.562	40661.63
666.912	40515.19
667.262	40514.51
667.612	40510.45
667.962	40549.77
668.312	40512.93
668.662	40559.03
669.011	40486.94
669.361	40387.96
669.711	40381.64
670.06	40325.59
670.41	40318.81
670.76	40258.48
671.109	40417.34
671.459	40391.81
671.808	40252.83
672.157	40397.68
672.507	40182.09
672.856	40121.53
673.205	40166.95
673.554	40248.31
673.904	40152.49
674.253	40345.93
674.602	40201.53
674.951	39693.74
675.3	39529.91
675.649	40078.59
675.998	40108.87
676.346	40201.98
676.695	40233.84
677.044	39881.08
677.393	40119.72
677.741	40074.3
678.09	39945.49
678.438	39939.84
678.787	40090.57
679.135	39905.04
679.484	39739.62
679.832	39792.95
680.181	39593.86
680.529	39837.7
680.877	39539.85
681.225	39620.75
681.573	39752.73
681.922	39438.38
682.27	39318.39
682.618	39304.6
682.966	39282.68
683.314	39341.21
683.661	39290.82
684.009	39039.75
684.357	38936.48
684.705	38905.52
685.053	39040.2
685.4	39022.12
685.748	38817.16
686.095	38683.15
686.443	38593.66
686.79	38514.34
687.138	38606.77
687.485	38602.47
687.832	38494.91
688.18	38580.1
688.527	38400.67
688.874	38265.31
689.221	38271.86
689.568	38099.89
689.915	38040
690.262	38133.79
690.609	37904.64
690.956	37908.71
691.303	37706.68
691.65	37565.21
691.997	37597.3
692.344	37386.23
692.69	37306.91
693.037	37389.85
693.383	37087.03
693.73	37387.36
694.077	36882.52
694.423	37092.68
694.769	36896.53
695.116	36888.17
695.462	36717.1
695.808	36509.65
696.155	36781.05
696.501	36372.25
696.847	36516.43
697.193	36220.16
697.539	36345.81
697.885	36097.23
698.231	35993.5
698.577	35898.82
698.923	35924.35
699.269	35730.01
699.614	35511.26
699.96	35590.8
700.306	35502.44
700.651	35264.03
700.997	35193.07
701.342	35276.69
701.688	35158.04
702.033	34960.08
702.379	34992.4
702.724	34989.91
703.069	34944.94
703.415	34591.51
703.76	34661.11
704.105	34604.61
704.45	34501.56
704.795	34320.33
705.14	34239.65
705.485	34174.57
705.83	34077.85
706.175	34234.45
706.52	33971.64
706.865	33879.21
707.209	33780.91
707.554	33710.62
707.899	33766.89
708.243	33718.76
708.588	33585.43
708.932	33352.89
709.277	33386.79
709.621	33285.1
709.966	33194.48
710.31	33183.63
710.654	32940.7
710.998	32864.55
711.342	33031.55
711.687	32907.93
712.031	32802.17
712.375	32597.43
712.719	32709.75
713.063	32597.66
713.407	32774.38
713.75	32554.72
714.094	32518.79
714.438	32323.77
714.782	32317.89
715.125	32114.51
715.469	32178.24
715.812	32078.35
716.156	31894.63
716.499	32013.49
716.843	32006.49
717.186	31702.77
717.53	31882.65
717.873	31851.46
718.216	31715.2
718.559	31687.63
718.902	31436.56
719.246	31600.17
719.589	31397.92
719.932	31347.07
720.275	31290.58
720.617	31288.77
720.96	31196.57
721.303	31210.35
721.646	31114.76
721.989	31112.28
722.331	30989.34
722.674	31002.67
723.016	30959.51
723.359	30892.17
723.701	30970.13
724.044	30640.2
724.386	30584.38
724.729	30716.13
725.071	30664.15
725.413	30542.35
725.755	30550.71
726.097	30552.52
726.439	30372.41
726.782	30370.37
727.124	30409.47
727.465	30212.86
727.807	30285.18
728.149	30214.9
728.491	30207.89
728.833	30132.19
729.175	30025.75
729.516	30016.03
729.858	30014.45
730.199	29968.8
730.541	29707.57
730.882	29890.61
731.224	30055.13
731.565	29752.54
731.906	29724.29
732.248	29755.93
732.589	29569.72
732.93	29427.8
733.271	29563.39
733.612	29595.93
733.953	29530.85
734.294	29238.43
734.635	29416.27
734.976	29422.38
735.317	29106.68
735.658	29170.86
735.999	29154.36
736.339	29108.03
736.68	29221.03
737.021	29066
737.361	28897.42
737.702	29003.4
738.042	28902.39
738.383	28959.56
738.723	29030.97
739.063	28793.47
739.404	28913.01
739.744	28782.84
740.084	28518.22
740.424	28801.38
740.764	28662.62
741.104	28762.96
741.444	28465.57
741.784	28535.62
742.124	28520.48
742.464	28392.8
742.804	28383.53
743.143	28377.88
743.483	28405
743.823	28020.83
744.162	28170.43
744.502	28290.88
744.841	28021.28
745.181	28217.66
745.52	28052.47
745.86	28204.1
746.199	28069.64
746.538	27962.08
746.877	27991.45
747.216	27981.51
747.556	27876.2
747.895	27894.28
748.234	27838.69
748.573	27678.02
748.911	27710.33
749.25	27742.42
749.589	27455.65
749.928	27650.67
750.267	27550.56
750.605	27520.73
750.944	27402.99
751.283	27469.66
751.621	27548.98
751.96	27301.53
752.298	27201.87
752.636	27266.27
752.975	27031.7
753.313	26992.38
753.651	27159.16
753.989	27023.8
754.327	26908.77
754.666	26835.78
755.004	26802.78
755.342	26933.4
755.679	26941.54
756.017	26721.66
756.355	26777.93
756.693	26526.18
757.031	26649.12
757.368	26449.35
757.706	26458.16
758.044	26422.68
758.381	26309.24
758.719	26312.4
759.056	26283.7
