Data from hue_280_FLMS001491_00040.txt Node
Date: Tue Feb 07 15:55:12 GMT 2017
User: dcchb
Spectrometer: FLMS00149
Trigger mode: 0
Integration Time (sec): 2.000000E-2
Scans to average: 10
Electric dark correction enabled: true
Nonlinearity correction enabled: false
Boxcar width: 0
XAxis mode: Wavelengths
Number of Pixels in Spectrum: 2048
>>>>>Begin Spectral Data<<<<<
341.393	-5.34
341.776	-5.34
342.16	-5.34
342.543	-57.77
342.927	-69.74
343.31	-53.7
343.693	-69.74
344.077	-56.86
344.46	-40.59
344.843	-47.82
345.226	-47.6
345.61	-37.43
345.993	-25.45
346.376	2.12
346.759	0.76
347.142	26.75
347.525	40.31
347.908	45.28
348.291	60.2
348.674	94.32
349.057	109.46
349.44	108.78
349.823	148.33
350.206	151.49
350.588	187.65
350.971	208.21
351.354	224.71
351.737	256.8
352.119	243.24
352.502	247.76
352.884	256.12
353.267	272.62
353.65	278.5
354.032	299.51
354.414	298.38
354.797	289.12
355.179	306.07
355.562	316.46
355.944	318.72
356.326	325.05
356.709	332.05
357.091	329.12
357.473	339.74
357.855	331.83
358.238	342.22
358.62	321.66
359.002	319.17
359.384	334.99
359.766	330.7
360.148	322.11
360.53	315.56
360.912	311.71
361.294	325.05
361.676	318.04
362.057	309.91
362.439	325.27
362.821	294.09
363.203	335.9
363.584	313.75
363.966	304.94
364.348	320.53
364.729	299.96
365.111	310.59
365.493	316.23
365.874	328.66
366.256	328.21
366.637	316.23
367.019	295.9
367.4	303.58
367.781	303.58
368.163	294.09
368.544	300.19
368.925	308.55
369.306	326.18
369.688	296.57
370.069	303.35
370.45	319.4
370.831	335.44
371.212	309.46
371.593	306.07
371.974	294.31
372.355	312.62
372.736	303.58
373.117	314.65
373.498	326.86
373.879	319.17
374.26	299.29
374.641	313.07
375.021	303.13
375.402	281.66
375.783	306.07
376.163	329.79
376.544	318.95
376.925	342.67
377.305	300.87
377.686	321.21
378.066	296.8
378.447	320.53
378.827	343.35
379.208	332.51
379.588	319.17
379.968	342.22
380.349	323.92
380.729	344.26
381.109	316.46
381.489	338.83
381.87	315.1
382.25	327.31
382.63	325.73
383.01	329.12
383.39	328.66
383.77	350.58
384.15	348.1
384.53	348.32
384.91	354.88
385.29	353.3
385.67	353.75
386.049	344.26
386.429	337.7
386.809	345.84
387.189	384.48
387.568	353.3
387.948	335.67
388.328	324.6
388.707	357.36
389.087	353.97
389.466	370.92
389.846	356.01
390.225	364.37
390.605	339.28
390.984	360.08
391.363	338.83
391.743	366.4
392.122	372.73
392.501	358.72
392.881	382
393.26	365.27
393.639	371.6
394.018	365.95
394.397	386.52
394.776	391.03
395.155	376.12
395.534	377.25
395.913	386.52
396.292	382
396.671	376.12
397.05	382.22
397.429	403.69
397.808	395.55
398.186	398.94
398.565	398.49
398.944	409.79
399.323	418.83
399.701	406.85
400.08	431.94
400.458	405.72
400.837	421.99
401.215	423.58
401.594	411.37
401.972	413.18
402.351	392.39
402.729	412.5
403.107	440.98
403.486	425.84
403.864	419.51
404.242	429.68
404.62	423.35
404.999	447.08
405.377	437.59
405.755	471.71
406.133	454.54
406.511	458.15
406.889	477.36
407.267	463.35
407.645	481.65
408.023	470.13
408.401	481.65
408.779	466.29
409.156	485.95
409.534	511.26
409.912	502.67
410.29	517.59
410.667	522.33
411.045	529.79
411.422	529.34
411.8	525.49
412.178	513.97
412.555	552.16
412.933	543.35
413.31	562.56
413.687	588.09
414.065	563.01
414.442	549.22
414.819	584.48
415.197	602.1
415.574	609.79
415.951	618.6
416.328	612.27
416.705	626.96
417.082	625.38
417.46	642.1
417.837	641.42
418.214	632.84
418.591	671.48
418.967	664.02
419.344	655.21
419.721	664.7
420.098	657.02
420.475	708.09
420.852	700.63
421.228	689.33
421.605	739.5
421.982	720.97
422.358	732.27
422.735	720.07
423.111	726.62
423.488	764.81
423.864	762.78
424.241	778.82
424.617	777.01
424.994	772.27
425.37	807.07
425.746	807.07
426.123	819.27
426.499	791.48
426.875	840.51
427.251	854.53
427.627	866.5
428.003	884.81
428.379	872.83
428.756	901.53
429.132	912.15
429.507	904.47
429.883	911.25
430.259	931.81
430.635	944.92
431.011	963.45
431.387	964.13
431.763	990.12
432.138	1021.98
432.514	1000.74
432.89	1000.96
433.265	1018.59
433.641	1028.76
434.016	1045.03
434.392	1043
434.767	1074.41
435.143	1072.37
435.518	1095.42
435.894	1113.5
436.269	1137.91
436.644	1178.81
437.02	1155.76
437.395	1185.59
437.77	1198.92
438.145	1160.73
438.52	1219.04
438.895	1235.76
439.271	1239.83
439.646	1286.38
440.021	1277.57
440.395	1271.46
440.77	1256.77
441.145	1299.26
441.52	1327.06
441.895	1306.94
442.27	1316.66
442.645	1350.33
443.019	1352.14
443.394	1332.48
443.769	1347.62
444.143	1360.05
444.518	1389.2
444.892	1350.11
445.267	1407.05
445.641	1408.86
446.016	1443.21
446.39	1405.47
446.764	1430.33
447.139	1442.76
447.513	1452.02
447.887	1445.7
448.262	1465.81
448.636	1447.96
449.01	1486.6
449.384	1473.27
449.758	1464.23
450.132	1496.77
450.506	1527.28
450.88	1526.37
451.254	1514.4
451.628	1530.21
452.002	1568.18
452.376	1549.87
452.75	1564.79
453.123	1558.01
453.497	1613.83
453.871	1605.92
454.244	1645.92
454.618	1652.47
454.992	1661.06
455.365	1648.63
455.739	1702.86
456.112	1692.02
456.486	1717.33
456.859	1710.1
457.232	1755.52
457.606	1738.8
457.979	1756.65
458.352	1751.45
458.725	1802.07
459.099	1824.67
459.472	1852.01
459.845	1864.89
460.218	1880.71
460.591	1893.82
460.964	1888.4
461.337	1928.17
461.71	1950.32
462.083	1946.47
462.456	1949.86
462.829	1953.03
463.201	1974.5
463.574	1967.72
463.947	2010.43
464.32	2067.83
464.692	2069.41
465.065	2056.75
465.438	2064.21
465.81	2066.47
466.183	2138.56
466.555	2181.04
466.928	2182.85
467.3	2205.68
467.672	2197.99
468.045	2240.25
468.417	2252
468.789	2228.73
469.161	2238.44
469.534	2287.26
469.906	2353.24
470.278	2351.21
470.65	2387.14
471.022	2426.46
471.394	2439.12
471.766	2448.38
472.138	2479.79
472.51	2515.72
472.882	2563.41
473.253	2562.28
473.625	2581.94
473.997	2627.36
474.369	2651.09
474.74	2693.35
475.112	2715.04
475.484	2734.93
475.855	2779.22
476.227	2794.81
476.598	2821.25
476.97	2865.77
477.341	2915.49
477.713	2964.75
478.084	2920.69
478.455	3018.31
478.827	3084.52
479.198	3111.64
479.569	3165.65
479.94	3173.33
480.311	3179.44
480.682	3257.4
481.053	3286.33
481.424	3308.92
481.795	3371.3
482.166	3386.66
482.537	3446.77
482.908	3471.18
483.279	3477.73
483.65	3557.05
484.021	3588.01
484.391	3627.11
484.762	3639.54
485.133	3736.48
485.503	3743.94
485.874	3780.32
486.244	3815.58
486.615	3846.76
486.985	3887.21
487.356	3947.55
487.726	3940.55
488.097	4045.63
488.467	4030.04
488.837	4104.61
489.207	4182.35
489.578	4205.17
489.948	4213.99
490.318	4297.6
490.688	4299.41
491.058	4295.34
491.428	4383.25
491.798	4391.16
492.168	4468.22
492.538	4482.23
492.908	4507.54
493.278	4552.28
493.648	4554.99
494.017	4634.54
494.387	4615.78
494.757	4667.08
495.126	4675.67
495.496	4743.69
495.866	4713.63
496.235	4792.73
496.605	4827.08
496.974	4820.07
497.344	4891.26
497.713	4878.6
498.082	4870.69
498.452	4920.86
498.821	4923.35
499.19	4918.6
499.559	4968.99
499.928	5018.03
500.298	5016.9
500.667	5088.99
501.036	5061.65
501.405	5114.3
501.774	5083.11
502.143	5150.91
502.512	5134.86
502.88	5204.24
503.249	5219.61
503.618	5227.74
503.987	5197.91
504.356	5193.85
504.724	5235.2
505.093	5274.52
505.462	5264.81
505.83	5314.07
506.199	5332.15
506.567	5373.05
506.936	5424.35
507.304	5452.82
507.672	5431.35
508.041	5462.09
508.409	5504.12
508.777	5515.87
509.145	5536.21
509.514	5519.04
509.882	5539.6
510.25	5565.59
510.618	5580.5
510.986	5588.41
511.354	5584.8
511.722	5651.46
512.09	5650.78
512.458	5681.07
512.826	5736.43
513.193	5716.54
513.561	5729.43
513.929	5719.26
514.297	5835.86
514.664	5819.14
515.032	5801.29
515.4	5825.24
515.767	5836.99
516.135	5829.99
516.502	5811.91
516.869	5891.68
517.237	5883.55
517.604	5844.22
517.972	5956.09
518.339	5939.14
518.706	5964.45
519.073	6004.22
519.44	5966.48
519.808	5982.07
520.175	6105.46
520.542	6058
520.909	6067.04
521.276	6035.18
521.643	6088.74
522.009	6214.38
522.376	6158.34
522.743	6208.28
523.11	6212.8
523.477	6267.49
523.843	6265.68
524.21	6276.53
524.577	6321.73
524.943	6354.04
525.31	6348.84
525.676	6432.01
526.043	6433.81
526.409	6458.45
526.776	6543.42
527.142	6493.47
527.508	6502.96
527.874	6589.97
528.241	6528.95
528.607	6619.57
528.973	6618.89
529.339	6642.62
529.705	6681.72
530.071	6708.83
530.437	6736.63
530.803	6766.46
531.169	6775.5
531.535	6759.68
531.901	6785.67
532.267	6792.45
532.632	6809.62
532.998	6816.18
533.364	6890.98
533.73	6968.72
534.095	6913.8
534.461	6944.53
534.826	6959.9
535.192	6999
535.557	6999.22
535.923	6991.31
536.288	7022.27
536.653	7048.71
537.019	7040.58
537.384	7045.32
537.749	7083.29
538.114	7116.06
538.479	7087.58
538.845	7157.86
539.21	7150.63
539.575	7168.48
539.94	7113.12
540.305	7185.88
540.67	7152.89
541.034	7154.25
541.399	7213.68
541.764	7221.82
542.129	7269.27
542.494	7221.14
542.858	7242.38
543.223	7285.77
543.587	7344.3
543.952	7340.91
544.316	7335.94
544.681	7299.33
545.045	7373.68
545.41	7387.24
545.774	7397.4
546.138	7369.16
546.503	7458.42
546.867	7461.36
547.231	7506.78
547.595	7510.17
547.959	7468.59
548.324	7483.05
548.688	7482.37
549.052	7513.33
549.416	7490.51
549.779	7501.36
550.143	7598.53
550.507	7576.38
550.871	7566.89
551.235	7615.25
551.599	7629.71
551.962	7620.45
552.326	7605.53
552.689	7670.84
553.053	7678.98
553.417	7669.94
553.78	7775.47
554.143	7699.09
554.507	7721.01
554.87	7789.71
555.234	7834.46
555.597	7770.73
555.96	7881.23
556.323	7794.68
556.686	7824.51
557.05	7832.42
557.413	7925.75
557.776	7855.02
558.139	7899.54
558.502	7906.54
558.865	7983.38
559.228	7980.67
559.59	7973.43
559.953	8000.33
560.316	8059.08
560.679	8091.85
561.041	8132.3
561.404	8107.89
561.767	8147.22
562.129	8200.55
562.492	8223.82
562.854	8196.48
563.217	8204.16
563.579	8270.38
563.941	8321.22
564.304	8323.26
564.666	8346.31
565.028	8390.15
565.39	8423.14
565.753	8371.39
566.115	8392.63
566.477	8397.15
566.839	8503.59
567.201	8579.29
567.563	8556.92
567.925	8593.76
568.287	8627.65
568.648	8605.28
569.01	8669.46
569.372	8700.19
569.734	8663.36
570.095	8797.82
570.457	8823.36
570.819	8791.04
571.18	8814.99
571.542	8886.86
571.903	8922.56
572.265	8972.05
572.626	8938.38
572.987	8948.1
573.349	8992.16
573.71	9064.25
574.071	9099.96
574.432	9137.92
574.794	9155.55
575.155	9161.2
575.516	9167.75
575.877	9192.61
576.238	9257.47
576.599	9277.35
576.96	9373.4
577.32	9314.64
577.681	9407.75
578.042	9467.18
578.403	9498.14
578.763	9523
579.124	9569.32
579.485	9669.89
579.845	9670.56
580.206	9695.2
580.566	9784.46
580.927	9750.79
581.287	9911.24
581.648	9833.95
582.008	9905.59
582.368	9976.77
582.728	9982.87
583.089	10089.31
583.449	10135.19
583.809	10137.45
584.169	10182.19
584.529	10229.42
584.889	10316.88
585.249	10362.75
585.609	10368.63
585.969	10463.54
586.329	10495.4
586.688	10645
587.048	10606.13
587.408	10668.96
587.768	10788.05
588.127	10767.26
588.487	10853.58
588.846	11011.32
589.206	10962.28
589.565	11054.26
589.925	11182.16
590.284	11189.62
590.643	11259
591.003	11362.5
591.362	11433
591.721	11455.38
592.08	11558.2
592.44	11627.8
592.799	11737.86
593.158	11743.96
593.517	11717.06
593.876	11841.13
594.235	11925.19
594.593	11915.25
594.952	12018.75
595.311	12079.09
595.67	12116.38
596.029	12294.45
596.387	12299.42
596.746	12369.7
597.104	12398.85
597.463	12416.71
597.822	12517.95
598.18	12532.86
598.538	12599.75
598.897	12752.97
599.255	12683.59
599.613	12877.94
599.972	12908.9
600.33	13011.95
600.688	12867.77
601.046	12977.14
601.404	13026.18
601.762	13079.97
602.12	13144.82
602.478	13287.87
602.836	13258.72
603.194	13200.64
603.552	13259.62
603.91	13353.63
604.268	13387.3
604.625	13410.81
604.983	13550.24
605.341	13380.07
605.698	13576.9
606.056	13635.43
606.413	13608.09
606.771	13719.72
607.128	13747.07
607.485	13746.16
607.843	13863.9
608.2	13866.84
608.557	13930.57
608.914	13869.32
609.272	13907.52
609.629	13968.98
609.986	14077.23
610.343	14115.19
610.7	14210.33
611.057	14128.53
611.414	14171.01
611.771	14134.63
612.127	14310.89
612.484	14322.42
612.841	14362.42
613.198	14335.3
613.554	14369.88
613.911	14422.3
614.267	14482.42
614.624	14451.46
614.98	14562.64
615.337	14666.37
615.693	14560.38
616.05	14632.69
616.406	14671.56
616.762	14559.93
617.118	14620.04
617.475	14671.56
617.831	14644.45
618.187	14736.87
618.543	14775.06
618.899	14848.96
619.255	14801.5
619.611	14743.2
619.967	14922.63
620.323	14821.16
620.678	14812.58
621.034	14849.64
621.39	14847.38
621.746	14919.01
622.101	15014.83
622.457	14919.47
622.812	14952.01
623.168	15025
623.523	14962.63
623.879	14978.45
624.234	14844.89
624.589	14957.66
624.945	14985.68
625.3	14995.17
625.655	14931.44
626.01	15074.49
626.365	15074.26
626.72	15062.29
627.075	15053.02
627.43	15024.32
627.785	15017.32
628.14	15064.1
628.495	15136.86
628.85	15099.8
629.205	15008.73
629.559	15117.43
629.914	14966.02
630.269	15101.61
630.623	14959.47
630.978	14993.14
631.332	15087.6
631.687	15090.76
632.041	15017.54
632.396	15044.89
632.75	14943.65
633.104	14984.55
633.459	14854.16
633.813	14864.78
634.167	14911.11
634.521	14856.64
634.875	14904.55
635.229	14956.53
635.583	14758.11
635.937	14780.71
636.291	14897.55
636.645	14797.44
636.999	14746.82
637.352	14770.54
637.706	14669.3
638.06	14782.97
638.413	14714.27
638.767	14747.49
639.121	14747.04
639.474	14618.01
639.828	14687.38
640.181	14702.07
640.534	14673.15
640.888	14597.89
641.241	14585.24
641.594	14655.52
641.947	14567.84
642.301	14621.62
642.654	14719.02
643.007	14603.09
643.36	14606.93
643.713	14559.02
644.066	14674.05
644.419	14531.91
644.771	14418.01
645.124	14326.71
645.477	14329.65
645.83	14296.43
646.182	14155.64
646.535	14160.84
646.888	14243.33
647.24	14115.65
647.593	14224.12
647.945	14201.75
648.298	14089.88
648.65	14114.74
649.002	13995.2
649.355	14130.11
649.707	14057.12
650.059	14185.93
650.411	14283.1
650.763	14393.15
651.115	14469.31
651.467	14527.84
651.819	14500.72
652.171	14467.73
652.523	14469.53
652.875	14472.47
653.227	14378.01
653.578	14529.19
653.93	14412.81
654.282	14432.7
654.633	14352.25
654.985	14365.36
655.337	14437.45
655.688	14422.53
656.039	14507.5
656.391	14406.71
656.742	14423.43
657.094	14438.8
657.445	14506.37
657.796	14486.71
658.147	14412.36
658.498	14465.69
658.849	14471.34
659.2	14476.54
659.551	14411.68
659.902	14469.31
660.253	14470.44
660.604	14462.08
660.955	14426.82
661.306	14549.53
661.656	14513.38
662.007	14566.71
662.358	14553.37
662.708	14483.55
663.059	14470.21
663.409	14452.13
663.76	14544.34
664.11	14540.04
664.461	14494.39
664.811	14570.78
665.161	14582.3
665.511	14487.16
665.862	14549.31
666.212	14634.5
666.562	14576.65
666.912	14593.37
667.262	14553.37
667.612	14496.88
667.962	14544.79
668.312	14643.77
668.662	14592.02
669.011	14549.08
669.361	14611.68
669.711	14547.5
670.06	14512.7
670.41	14448.74
670.76	14449.42
671.109	14550.44
671.459	14480.16
671.808	14450.33
672.157	14478.8
672.507	14386.6
672.856	14388.41
673.205	14406.71
673.554	14415.52
673.904	14307.96
674.253	14519.25
674.602	14347.73
674.951	14232.93
675.3	14236.55
675.649	14399.25
675.998	14365.58
676.346	14321.52
676.695	14338.69
677.044	14220.5
677.393	14340.95
677.741	14316.54
678.09	14203.1
678.438	14153.61
678.787	14217.11
679.135	14323.78
679.484	14167.62
679.832	14224.8
680.181	14073.16
680.529	14094.86
680.877	14114.06
681.225	14141.86
681.573	14182.54
681.922	14075.42
682.27	13976.44
682.618	14050.11
682.966	13931.02
683.314	13986.38
683.661	14065.7
684.009	13908.65
684.357	13856.22
684.705	13863.9
685.053	13778.93
685.4	13750.91
685.748	13812.6
686.095	13649.44
686.443	13715.2
686.79	13650.57
687.138	13664.13
687.485	13688.09
687.832	13597.47
688.18	13611.25
688.527	13513.63
688.874	13552.5
689.221	13503.23
689.568	13474.08
689.915	13361.77
690.262	13404.7
690.609	13355.67
690.956	13234.31
691.303	13222.79
691.65	13158.16
691.997	13134.88
692.344	13169
692.69	12989.8
693.037	13132.62
693.383	12971.04
693.73	13023.02
694.077	12871.84
694.423	12886.53
694.769	12806.08
695.116	12768.79
695.462	12723.37
695.808	12813.08
696.155	12715
696.501	12691.73
696.847	12588
697.193	12572.86
697.539	12527.89
697.885	12471.4
698.231	12446.99
698.577	12390.04
698.923	12388.46
699.269	12253.1
699.614	12269.37
699.96	12207
700.306	12218.52
700.651	12130.61
700.997	12060.11
701.342	12012.42
701.688	12008.13
702.033	12047.9
702.379	11925.42
702.724	11849.04
703.069	11949.38
703.415	11755.26
703.76	11807.01
704.105	11785.76
704.45	11825.08
704.795	11647.69
705.14	11577.18
705.485	11603.62
705.83	11496.28
706.175	11495.6
706.52	11494.47
706.865	11411.99
707.209	11440.91
707.554	11343.52
707.899	11441.14
708.243	11348.26
708.588	11325.66
708.932	11256.96
709.277	11143.52
709.621	11253.8
709.966	11118.89
710.31	11098.78
710.654	11095.16
710.998	11149.17
711.342	11138.55
711.687	11044.09
712.031	10914.6
712.375	10938.55
712.719	10962.06
713.063	10934.71
713.407	10943.75
713.75	10827.82
714.094	10901.94
714.438	10793.02
714.782	10772.46
715.125	10745.79
715.469	10792.12
715.812	10723.19
716.156	10703.08
716.499	10676.87
716.843	10616.53
717.186	10553.25
717.53	10629.86
717.873	10646.81
718.216	10696.53
718.559	10568.17
718.902	10487.72
719.246	10506.7
719.589	10562.29
719.932	10526.81
720.275	10496.53
720.617	10503.31
720.96	10524.1
721.303	10485.91
721.646	10584.67
721.989	10416.08
722.331	10433.71
722.674	10413.82
723.016	10448.4
723.359	10432.13
723.701	10377.66
724.044	10271.23
724.386	10271.23
724.729	10379.92
725.071	10393.26
725.413	10292.02
725.755	10357.1
726.097	10314.84
726.439	10219.25
726.782	10208.86
727.124	10336.31
727.465	10272.36
727.807	10281.85
728.149	10223.09
728.491	10240.49
728.833	10220.83
729.175	10155.98
729.516	10155.07
729.858	10179.25
730.199	10252.7
730.541	10239.36
730.882	10211.79
731.224	10155.98
731.565	10153.72
731.906	10203.43
732.248	10201.62
732.589	10110.78
732.93	10174.51
733.271	10113.72
733.612	10182.42
733.953	10168.63
734.294	10164.56
734.635	10163.89
734.976	10191.91
735.317	10078.46
735.658	10096.99
735.999	10172.02
736.339	10140.61
736.68	10212.25
737.021	10162.3
737.361	10177.67
737.702	10207.95
738.042	10193.26
738.383	10220.61
738.723	10246.82
739.063	10177.9
739.404	10230.32
739.744	10282.07
740.084	10203.88
740.424	10265.35
740.764	10242.53
741.104	10306.25
741.444	10161.85
741.784	10272.81
742.124	10282.53
742.464	10242.53
742.804	10269.65
743.143	10248.63
743.483	10375.63
743.823	10281.85
744.162	10305.58
744.502	10459.92
744.841	10414.5
745.181	10470.77
745.52	10429.19
745.86	10595.29
746.199	10606.13
746.538	10626.92
746.877	10683.19
747.216	10748.05
747.556	10731.55
747.895	10754.6
748.234	10823.3
748.573	10908.27
748.911	10858.33
749.25	11045.44
749.589	11010.42
749.928	11150.53
750.267	11237.53
750.605	11294.93
750.944	11322.72
751.283	11306.23
751.621	11471.2
751.96	11551.87
752.298	11614.69
752.636	11709.16
752.975	11813.79
753.313	11888.81
753.651	12015.14
753.989	12175.13
754.327	12220.78
754.666	12211.52
755.004	12403.37
755.342	12604.27
755.679	12677.27
756.017	12705.97
756.355	12921.78
756.693	12941.67
757.031	13128.55
757.368	13181.21
757.706	13319.73
758.044	13544.14
758.381	13553.85
758.719	13726.96
759.056	13870.68
759.394	13976.89
759.731	14098.7
760.068	14308.86
