Data from hue_32_FLMS001491_00086.txt Node
Date: Tue Feb 07 17:24:02 GMT 2017
User: dcchb
Spectrometer: FLMS00149
Trigger mode: 0
Integration Time (sec): 2.000000E-2
Scans to average: 10
Electric dark correction enabled: true
Nonlinearity correction enabled: false
Boxcar width: 0
XAxis mode: Wavelengths
Number of Pixels in Spectrum: 2048
>>>>>Begin Spectral Data<<<<<
341.393	-19.05
341.776	-19.05
342.16	-19.05
342.543	-63.8
342.927	-80.07
343.31	-66.06
343.693	-60.18
344.077	-62.22
344.46	-63.12
344.843	-35.32
345.226	-39.39
345.61	-38.71
345.993	-30.13
346.376	0.16
346.759	18.01
347.142	26.82
347.525	43.09
347.908	49.65
348.291	56.43
348.674	98.68
349.057	102.3
349.44	141.85
349.823	147.5
350.206	164.22
350.588	185.69
350.971	210.09
351.354	221.62
351.737	236.53
352.119	254.39
352.502	279.02
352.884	261.39
353.267	275.63
353.65	296.64
354.032	291.9
354.414	313.82
354.797	307.04
355.179	333.25
355.562	322.18
355.944	334.84
356.326	353.82
356.709	342.75
357.091	358.79
357.473	327.83
357.855	355.63
358.238	345.23
358.62	338.9
359.002	357.43
359.384	349.07
359.766	337.55
360.148	335.97
360.53	333.03
360.912	349.3
361.294	346.59
361.676	342.52
362.057	343.88
362.439	345.01
362.821	348.17
363.203	325.34
363.584	321.5
363.966	336.87
364.348	329.64
364.729	327.38
365.111	322.86
365.493	312.24
365.874	309.3
366.256	347.72
366.637	323.99
367.019	334.16
367.4	333.93
367.781	308.4
368.163	325.34
368.544	311.11
368.925	314.72
369.306	321.28
369.688	316.98
370.069	307.72
370.45	323.54
370.831	312.92
371.212	319.24
371.593	305.46
371.974	322.18
372.355	330.32
372.736	328.28
373.117	329.86
373.498	322.18
373.879	332.8
374.26	318.11
374.641	314.05
375.021	309.98
375.402	326.25
375.783	311.56
376.163	298
376.544	337.32
376.925	324.21
377.305	342.07
377.686	339.81
378.066	339.81
378.447	335.51
378.827	331.67
379.208	349.75
379.588	341.39
379.968	333.03
380.349	336.42
380.729	350.88
381.109	335.97
381.489	338.9
381.87	320.37
382.25	355.17
382.63	345.68
383.01	334.38
383.39	351.78
383.77	349.3
384.15	347.26
384.53	351.78
384.91	349.07
385.29	356.08
385.67	365.34
386.049	354.04
386.429	364.89
386.809	372.12
387.189	363.31
387.568	350.65
387.948	370.09
388.328	385
388.707	363.08
389.087	360.15
389.466	358.56
389.846	373.03
390.225	354.5
390.605	379.81
390.984	353.37
391.363	378.22
391.743	391.56
392.122	392.24
392.501	377.09
392.881	380.48
393.26	383.87
393.639	388.85
394.018	375.96
394.397	381.39
394.776	385.23
395.155	380.94
395.534	378.9
395.913	365.34
396.292	389.75
396.671	407.15
397.05	400.14
397.429	400.82
397.808	373.48
398.186	366.93
398.565	418.68
398.944	400.82
399.323	391.11
399.701	401.5
400.08	415.29
400.458	400.37
400.837	401.5
401.215	416.87
401.594	391.56
401.972	414.38
402.351	416.19
402.729	410.99
403.107	425.68
403.486	433.82
403.864	427.26
404.242	444.21
404.62	427.71
404.999	441.73
405.377	420.71
405.755	441.27
406.133	447.6
406.511	429.07
406.889	432.23
407.267	457.09
407.645	461.61
408.023	459.58
408.401	441.05
408.779	464.32
409.156	454.15
409.534	461.61
409.912	461.16
410.29	487.37
410.667	468.39
411.045	470.43
411.422	478.56
411.8	483.53
412.178	482.18
412.555	488.96
412.933	479.24
413.31	478.56
413.687	490.76
414.065	489.86
414.442	504.32
414.819	500.48
415.197	491.22
415.574	536.41
415.951	511.1
416.328	499.58
416.705	494.15
417.082	512.01
417.46	526.02
417.837	505.9
418.214	525.57
418.591	535.73
418.967	531.44
419.344	535.73
419.721	543.42
420.098	550.65
420.475	532.8
420.852	550.88
421.228	551.1
421.605	530.99
421.982	557.2
422.358	549.75
422.735	577.99
423.111	545.23
423.488	575.28
423.864	565.34
424.241	570.54
424.617	571.89
424.994	574.15
425.37	574.38
425.746	607.6
426.123	564.89
426.499	581.61
426.875	606.24
427.251	601.27
427.627	606.24
428.003	613.25
428.379	619.8
428.756	630.2
429.132	631.55
429.507	642.17
429.883	626.35
430.259	665.67
430.635	660.25
431.011	646.24
431.387	665.9
431.763	674.94
432.138	662.96
432.514	685.56
432.89	663.19
433.265	706.58
433.641	685.79
434.016	690.08
434.392	707.48
434.767	706.35
435.143	685.56
435.518	721.94
435.894	709.29
436.269	742.73
436.644	726.69
437.02	751.1
437.395	740.02
437.77	749.06
438.145	756.75
438.52	748.61
438.895	779.12
439.271	759.23
439.646	784.32
440.021	797.87
440.395	795.84
440.77	798.33
441.145	793.58
441.52	812.79
441.895	830.87
442.27	822.28
442.645	835.16
443.019	835.39
443.394	828.38
443.769	840.59
444.143	854.37
444.518	857.08
444.892	851.66
445.267	848.49
445.641	869.96
446.016	865.22
446.39	871.54
446.764	868.61
447.139	866.57
447.513	882.84
447.887	873.13
448.262	877.87
448.636	899.34
449.01	915.16
449.384	904.99
449.758	913.13
450.132	906.57
450.506	939.79
450.88	937.08
451.254	935.5
451.628	947.48
452.002	948.61
452.376	970.75
452.75	969.17
453.123	975.04
453.497	969.4
453.871	1012.11
454.244	999.68
454.618	1017.76
454.992	1001.94
455.365	1007.36
455.739	1052.56
456.112	1043.97
456.486	1044.42
456.859	1061.82
457.232	1081.03
457.606	1083.29
457.979	1092.56
458.352	1117.64
458.725	1119.9
459.099	1128.49
459.472	1120.8
459.845	1135.72
460.218	1182.95
460.591	1147.47
460.964	1186.79
461.337	1214.13
461.71	1235.15
462.083	1249.61
462.456	1245.32
462.829	1240.12
463.201	1281.03
463.574	1288.48
463.947	1297.52
464.32	1306.11
464.692	1322.38
465.065	1326.67
465.438	1336.84
465.81	1342.27
466.183	1385.2
466.555	1403.28
466.928	1457.52
467.3	1468.59
467.672	1429.95
468.045	1477.4
468.417	1488.93
468.789	1535.26
469.161	1525.31
469.534	1556.95
469.906	1610.73
470.278	1591.75
470.65	1622.49
471.022	1650.96
471.394	1691.41
471.766	1718.98
472.138	1723.27
472.51	1781.35
472.882	1831.75
473.253	1843.27
473.625	1881.01
473.997	1913.1
474.369	1917.39
474.74	1962.36
475.112	2007.11
475.484	2052.08
475.855	2095.24
476.227	2116.03
476.598	2188.8
476.97	2209.14
477.341	2281
477.713	2306.54
478.084	2340.21
478.455	2393.09
478.827	2426.53
479.198	2517.38
479.569	2555.12
479.94	2638.28
480.311	2666.07
480.682	2740.65
481.053	2830.82
481.424	2889.12
481.795	2929.8
482.166	2975.67
482.537	3032.62
482.908	3187.64
483.279	3184.03
483.65	3332.72
484.021	3359.39
484.391	3437.58
484.762	3490.23
485.133	3534.75
485.503	3627.4
485.874	3749.21
486.244	3815.87
486.615	3913.5
486.985	3990.11
487.356	4065.36
487.726	4132.48
488.097	4241.85
488.467	4265.13
488.837	4407.27
489.207	4497.89
489.578	4530.21
489.948	4637.77
490.318	4814.04
490.688	4806.81
491.058	4911.66
491.428	5001.83
491.798	5109.4
492.168	5173.58
492.538	5295.16
492.908	5369.05
493.278	5446.11
493.648	5504.87
494.017	5644.07
494.387	5729.95
494.757	5706.9
495.126	5884.97
495.496	5953.67
495.866	6014.01
496.235	6067.11
496.605	6176.94
496.974	6231.18
497.344	6284.28
497.713	6330.84
498.082	6414.68
498.452	6592.07
498.821	6611.28
499.19	6658.29
499.559	6719.07
499.928	6823.03
500.298	6853.76
500.667	6947.54
501.036	6973.08
501.405	7028.9
501.774	7105.28
502.143	7196.8
502.512	7219.17
502.88	7302.79
503.249	7355.67
503.618	7416.23
503.987	7455.33
504.356	7577.58
504.724	7579.84
505.093	7641.99
505.462	7733.74
505.83	7780.29
506.199	7820.74
506.567	7908.42
506.936	7974.18
507.304	8039.94
507.672	8105.48
508.041	8162.65
508.409	8206.04
508.777	8320.84
509.145	8362.65
509.514	8336.66
509.882	8430.44
510.25	8446.71
510.618	8483.77
510.986	8559.25
511.354	8675.63
511.722	8735.52
512.09	8786.37
512.458	8757.21
512.826	8873.82
513.193	8886.48
513.561	8984.78
513.929	9010.09
514.297	9103.19
514.664	9172.34
515.032	9129.18
515.4	9269.29
515.767	9322.17
516.135	9320.36
516.502	9314.26
516.869	9446.23
517.237	9484.2
517.604	9494.82
517.972	9570.07
518.339	9662.05
518.706	9650.98
519.073	9733.01
519.44	9766.68
519.808	9897.52
520.175	9881.03
520.542	10036.95
520.909	9981.14
521.276	9995.37
521.643	10125.99
522.009	10130.96
522.376	10171.64
522.743	10269.94
523.11	10341.58
523.477	10469.03
523.843	10530.05
524.21	10553.32
524.577	10659.31
524.943	10715.81
525.31	10737.5
525.676	10822.92
526.043	10874.22
526.409	10910.6
526.776	11006.42
527.142	11065.18
527.508	11178.17
527.874	11236.02
528.241	11280.31
528.607	11329.35
528.973	11367.31
529.339	11403.47
529.705	11507.42
530.071	11594.43
530.437	11646.63
530.803	11767.53
531.169	11851.37
531.535	11736.12
531.901	11833.06
532.267	11884.14
532.632	11940.41
532.998	11941.31
533.364	12040.52
533.73	12101.76
534.095	12197.8
534.461	12230.12
534.826	12323.22
535.192	12397.57
535.557	12472.37
535.923	12458.36
536.288	12605.7
536.653	12604.57
537.019	12525.48
537.384	12649.31
537.749	12664.46
538.114	12746.03
538.479	12677.56
538.845	12870.78
539.21	12777.67
539.575	12932.02
539.94	12902.64
540.305	13000.94
540.67	13007.5
541.034	13046.59
541.399	13142.18
541.764	13267.38
542.129	13264.89
542.494	13330.88
542.858	13357.77
543.223	13349.63
543.587	13506.47
543.952	13458.56
544.316	13509.4
544.681	13540.59
545.045	13654.49
545.41	13764.77
545.774	13743.97
546.138	13729.29
546.503	13797.76
546.867	13833.92
547.231	14000.92
547.595	14046.11
547.959	14082.04
548.324	14088.15
548.688	14162.72
549.052	14137.64
549.416	14240.23
549.779	14238.2
550.143	14311.87
550.507	14391.64
550.871	14466.44
551.235	14416.05
551.599	14564.74
551.962	14494.92
552.326	14589.6
552.689	14592.77
553.053	14589.15
553.417	14679.32
553.78	14906.66
554.143	14757.73
554.507	14915.24
554.87	14967.22
555.234	15105.97
555.597	14941.23
555.96	15072.53
556.323	15178.29
556.686	15156.59
557.05	15262.35
557.413	15291.05
557.776	15289.47
558.139	15423.48
558.502	15392.52
558.865	15435
559.228	15592.06
559.59	15622.57
559.953	15695.34
560.316	15816.91
560.679	15807.42
561.041	15941.88
561.404	15964.48
561.767	16010.58
562.129	15987.31
562.492	16114.76
562.854	16143.69
563.217	16146.17
563.579	16200.41
563.941	16258.03
564.304	16303.23
564.666	16416.45
565.028	16505.71
565.39	16525.37
565.753	16556.33
566.115	16542.09
566.477	16689.43
566.839	16738.47
567.201	16810.33
567.563	16810.33
567.925	16893.04
568.287	17027.05
568.648	17095.98
569.01	17144.56
569.372	17187.05
569.734	17281.06
570.095	17370.55
570.457	17336.2
570.819	17504.78
571.18	17590.2
571.542	17710.42
571.903	17676.3
572.265	17826.58
572.626	17825.45
572.987	17830.87
573.349	17944.99
573.71	18112.22
574.071	18208.04
574.432	18191.09
574.794	18406.23
575.155	18393.8
575.516	18528.48
575.877	18671.98
576.238	18677.18
576.599	18933.22
576.96	18874.69
577.32	19131.18
577.681	19180.67
578.042	19355.8
578.403	19373.43
578.763	19534.78
579.124	19653.2
579.485	19864.72
579.845	19995.56
580.206	20087.08
580.566	20242.79
580.927	20397.59
581.287	20623.12
581.648	20725.49
582.008	20946.95
582.368	21134.06
582.728	21247.05
583.089	21485.01
583.449	21612.24
583.809	21870.09
584.169	22011.55
584.529	22220.59
584.889	22646.79
585.249	22611.54
585.609	22785.54
585.969	23269.15
586.329	23296.04
586.688	23543.49
587.048	23714.56
587.408	24088.34
587.768	24069.58
588.127	24314.32
588.487	24652.16
588.846	24952.72
589.206	25055.99
589.565	25297.34
589.925	25641.52
590.284	25825.47
590.643	26086.48
591.003	26453.7
591.362	26736.85
591.721	26887.58
592.08	27081.7
592.44	27473.56
592.799	27703.38
593.158	27806.43
593.517	28254.55
593.876	28465.62
594.235	28713.07
594.593	28869.23
594.952	29217.47
595.311	29398.93
595.67	29784.46
596.029	30140.15
596.387	30365.46
596.746	30562.74
597.104	30764.77
597.463	30994.59
597.822	31332.89
598.18	31395.04
598.538	31625.76
598.897	31915.02
599.255	32097.39
599.613	32559.3
599.972	32707.09
600.33	33093.75
600.688	33063.47
601.046	33371.03
601.404	33694.41
601.762	33827.97
602.12	34199.26
602.478	34390.44
602.836	34500.04
603.194	34484.67
603.552	34929.18
603.91	34878.79
604.268	35438.32
604.625	35399.68
604.983	35678.99
605.341	35714.24
605.698	36145.87
606.056	36416.82
606.413	36510.38
606.771	36651.17
607.128	37006.41
607.485	37024.72
607.843	37150.36
608.2	37435.1
608.557	37603.69
608.914	37589.45
609.272	38004.35
609.629	38099.49
609.986	38406.38
610.343	38228.53
610.7	38891.11
611.057	38700.61
611.414	38907.38
611.771	38905.12
612.127	39207.94
612.484	39316.41
612.841	39600.47
613.198	39592.79
613.554	39617.87
613.911	40056.96
614.267	40080.91
614.624	40175.6
614.98	40277.06
615.337	40587.34
615.693	40666.2
616.05	40739.42
616.406	41192.07
616.762	40977.16
617.118	41111.39
617.475	41203.82
617.831	41326.07
618.187	41391.84
618.543	41594.99
618.899	41913.4
619.255	41842.45
619.611	41825.72
619.967	42025.27
620.323	42096
620.678	42193.4
621.034	42116.56
621.39	42146.62
621.746	42224.36
622.101	42618.02
622.457	42448.98
622.812	42554.29
623.168	42778.69
623.523	42698.24
623.879	42870.21
624.234	42819.59
624.589	42961.51
624.945	43101.17
625.3	43155.86
625.655	43239.02
626.01	43261.39
626.365	43226.14
626.72	43307.04
627.075	43264.78
627.43	43271.33
627.785	43175.97
628.14	43377.77
628.495	43458.45
628.85	43420.26
629.205	43334.84
629.559	43556.52
629.914	43442.63
630.269	43637.2
630.623	43357.89
630.978	43435.4
631.332	43655.96
631.687	43714.94
632.041	43496.86
632.396	43720.59
632.75	43445.11
633.104	43644.43
633.459	43558.11
633.813	43428.62
634.167	43572.79
634.521	43551.1
634.875	43537.54
635.229	43629.06
635.583	43436.08
635.937	43334.84
636.291	43489.86
636.645	43439.92
636.999	43441.05
637.352	43526.02
637.706	43301.62
638.06	43469.97
638.413	43435.4
638.767	43262.97
639.121	43197.66
639.474	43120.6
639.828	43239.02
640.181	43299.58
640.534	43289.19
640.888	43138
641.241	43063.43
641.594	43146.59
641.947	43288.51
642.301	43132.58
642.654	43345.23
643.007	43134.84
643.36	43167.83
643.713	43074.73
644.066	43358.34
644.419	42996.09
644.771	42731.01
645.124	42468.42
645.477	42334.18
645.83	42170.57
646.182	41955.21
646.535	41920.41
646.888	41955.21
647.24	41786.18
647.593	41959.5
647.945	41917.7
648.298	41796.8
648.65	41690.81
649.002	41571.49
649.355	41745.05
649.707	41773.75
650.059	41913.4
650.411	42428.87
650.763	42381.64
651.115	42653.72
651.467	42661.63
651.819	42582.09
652.171	42618.47
652.523	42519.72
652.875	42474.74
653.227	42298.7
653.578	42669.99
653.93	42526.04
654.282	42329.44
654.633	42319.04
654.985	42402.88
655.337	42496.67
655.688	42302.55
656.039	42546.83
656.391	42107.97
656.742	42374.86
657.094	42380.51
657.445	42399.94
657.796	42435.65
658.147	42260.51
658.498	42325.6
658.849	42450.79
659.2	42333.73
659.551	42152.72
659.902	42297.57
660.253	42208.54
660.604	42388.65
660.955	41976
661.306	42277.91
661.656	42174.41
662.007	42323.79
662.358	42207.86
662.708	42215.54
663.059	42267.74
663.409	41909.56
663.76	42212.83
664.11	42095.55
664.461	42195.43
664.811	42185.49
665.161	42082.44
665.511	41984.59
665.862	42005.83
666.212	42212.38
666.562	42136.45
666.912	42041.76
667.262	42037.47
667.612	42051.71
667.962	41971.71
668.312	41852.84
668.662	42126.96
669.011	42125.15
669.361	41916.12
669.711	41823.24
670.06	41891.26
670.41	41997.47
670.76	41867.76
671.109	41960.41
671.459	41915.21
671.808	41645.84
672.157	41867.08
672.507	41659.62
672.856	41741.2
673.205	41778.04
673.554	41849.45
673.904	41632.96
674.253	41964.48
674.602	41706.18
674.951	41299.63
675.3	40955.46
675.649	41608.78
675.998	41608.1
676.346	41623.02
676.695	41708.44
677.044	41379.63
677.393	41551.38
677.741	41538.05
678.09	41518.84
678.438	41467.99
678.787	41466.86
679.135	41429.35
679.484	41272.06
679.832	41308
680.181	41206.76
680.529	41239.97
680.877	41104.84
681.225	41067.32
681.573	41300.76
681.922	40912.53
682.27	40863.94
682.618	40919.76
682.966	40880.44
683.314	40919.31
683.661	40942.81
684.009	40541.69
684.357	40601.12
684.705	40491.75
685.053	40567.22
685.4	40519.54
685.748	40276.84
686.095	40199.32
686.443	40044.75
686.79	40083.4
687.138	40273.45
687.485	40147.8
687.832	40106.22
688.18	40034.13
688.527	39924.08
688.874	39725.21
689.221	39712.11
689.568	39657.87
689.915	39506.69
690.262	39605.22
690.609	39418.1
690.956	39302.62
691.303	39377.43
691.65	39231.67
691.997	39127.94
692.344	38862.64
692.69	38970.43
693.037	38809.08
693.383	38529.31
693.73	38703.09
694.077	38569.99
694.423	38514.17
694.769	38415.19
695.116	38299.49
695.462	38316.89
695.808	38174.97
696.155	38141.75
696.501	37900.85
696.847	37898.82
697.193	37729.56
697.539	37835.09
697.885	37558.49
698.231	37455.44
698.577	37411.15
698.923	37450.7
699.269	37307.2
699.614	37098.39
699.96	37092.74
700.306	37150.14
700.651	36906.3
700.997	36715.57
701.342	36711.51
701.688	36694.56
702.033	36470.16
702.379	36461.8
702.724	36448.01
703.069	36493.21
703.415	35999.21
703.76	36133.67
704.105	36027.68
704.45	36017.06
704.795	35777.07
705.14	35742.04
705.485	35627.92
705.83	35614.13
706.175	35660.91
706.52	35564.87
706.865	35406.91
707.209	35330.07
707.554	35247.82
707.899	35330.3
708.243	35060.7
708.588	35051.44
708.932	34844.44
709.277	34841.73
709.621	34899.8
709.966	34594.5
710.31	34722.41
710.654	34433.83
710.998	34396.99
711.342	34411.91
711.687	34323.55
712.031	34186.38
712.375	34164.45
712.719	34072.25
713.063	34016.66
713.407	34185.47
713.75	33948.19
714.094	33917.46
714.438	33781.41
714.782	33754.52
715.125	33619.61
715.469	33664.81
715.812	33443.12
716.156	33330.35
716.499	33288.55
716.843	33320.86
717.186	33154.54
717.53	33289
717.873	33315.21
718.216	33200.86
718.559	33011.04
718.902	32772.85
719.246	32934.2
719.589	32704.61
719.932	32764.94
720.275	32701.89
720.617	32646.08
720.96	32634.78
721.303	32579.64
721.646	32609.02
721.989	32366.08
722.331	32522.69
722.674	32328.57
723.016	32409.02
723.359	32466.42
723.701	32395.01
724.044	32099.65
724.386	31973.1
724.729	32035.7
725.071	32016.71
725.413	31962.7
725.755	31884.97
726.097	31894.23
726.439	31710.28
726.782	31793.44
727.124	31884.29
727.465	31681.58
727.807	31641.13
728.149	31538.31
728.491	31549.38
728.833	31606.56
729.175	31424.19
729.516	31431.65
729.858	31364.08
730.199	31320.91
730.541	31272.78
730.882	31229.62
731.224	31367.24
731.565	31045.21
731.906	31044.31
732.248	30983.52
732.589	30997.76
732.93	30851.1
733.271	30699.91
733.612	30901.72
733.953	30956.18
734.294	30803.41
734.635	30716.86
734.976	30779.01
735.317	30700.59
735.658	30652.46
735.999	30497.88
736.339	30472.57
736.68	30543.08
737.021	30398.9
737.361	30253.37
737.702	30471.22
738.042	30292.24
738.383	30271
738.723	30240.72
739.063	30167.95
739.404	30262.18
739.744	30170.89
740.084	29936.32
740.424	30050.44
740.764	29915.3
741.104	29939.26
741.444	29846.15
741.784	29841.4
742.124	29882.99
742.464	29768.19
742.804	29680.73
743.143	29664.01
743.483	29692.71
743.823	29536.1
744.162	29577.46
744.502	29476.67
744.841	29311.7
745.181	29567.51
745.52	29454.97
745.86	29421.98
746.199	29428.31
746.538	29282.32
746.877	29372.94
747.216	29336.79
747.556	29230.57
747.895	29167.75
748.234	29149.67
748.573	28976.57
748.911	29041.43
749.25	29059.28
749.589	28979.73
749.928	29015.44
750.267	29013.63
750.605	28826.06
750.944	28799.17
751.283	28742.68
751.621	28846.85
751.96	28627.43
752.298	28705.84
752.636	28653.19
752.975	28580.87
753.313	28379.75
753.651	28443.93
753.989	28277.6
754.327	28298.62
754.666	28227.66
755.004	28211.84
755.342	28240.54
755.679	28176.36
756.017	27993.77
756.355	28084.84
756.693	27803.04
757.031	28082.35
757.368	27835.81
