Data from hue_230_FLMS001491_00092.txt Node
Date: Tue Feb 07 16:38:00 GMT 2017
User: dcchb
Spectrometer: FLMS00149
Trigger mode: 0
Integration Time (sec): 2.000000E-2
Scans to average: 10
Electric dark correction enabled: true
Nonlinearity correction enabled: false
Boxcar width: 0
XAxis mode: Wavelengths
Number of Pixels in Spectrum: 2048
>>>>>Begin Spectral Data<<<<<
341.393	-5.99
341.776	-5.99
342.16	-5.99
342.543	-55.03
342.927	-46.44
343.31	-58.87
343.693	-68.13
344.077	-81.69
344.46	-57.29
344.843	-76.95
345.226	-57.51
345.61	-20.23
345.993	-33.11
346.376	-2.37
346.759	12.32
347.142	34.91
347.525	42.6
347.908	80.79
348.291	92.99
348.674	83.27
349.057	109.26
349.44	122.82
349.823	139.09
350.206	173.89
350.588	186.1
350.971	200.56
351.354	211.41
351.737	245.3
352.119	262.7
352.502	274.91
352.884	259.77
353.267	252.99
353.65	304.96
354.032	303.38
354.414	279.88
354.797	315.58
355.179	294.79
355.562	324.4
355.944	299.54
356.326	323.49
356.709	306.77
357.091	327.34
357.473	333.66
357.855	316.94
358.238	317.17
358.62	319.2
359.002	339.54
359.384	337.73
359.766	329.14
360.148	344.96
360.53	328.47
360.912	327.11
361.294	344.06
361.676	338.41
362.057	316.26
362.439	314.46
362.821	304.96
363.203	309.94
363.584	332.76
363.966	304.06
364.348	315.36
364.729	296.83
365.111	303.83
365.493	322.59
365.874	300.9
366.256	298.64
366.637	306.77
367.019	288.02
367.4	292.08
367.781	312.2
368.163	307.45
368.544	317.39
368.925	316.26
369.306	315.36
369.688	318.3
370.069	309.71
370.45	304.29
370.831	303.61
371.212	298.86
371.593	325.53
371.974	317.62
372.355	307.9
372.736	310.16
373.117	311.29
373.498	277.85
373.879	310.16
374.26	311.52
374.641	302.25
375.021	276.26
375.402	303.61
375.783	314.46
376.163	313.78
376.544	309.71
376.925	311.97
377.305	314.23
377.686	296.38
378.066	313.33
378.447	331.18
378.827	330.73
379.208	319.43
379.588	336.83
379.968	335.02
380.349	335.92
380.729	311.07
381.109	330.05
381.489	333.66
381.87	347.45
382.25	328.69
382.63	352.87
383.01	328.24
383.39	307
383.77	343.83
384.15	330.5
384.53	344.96
384.91	330.27
385.29	323.49
385.67	354
386.049	350.61
386.429	317.84
386.809	340.67
387.189	325.98
387.568	346.09
387.948	328.47
388.328	357.84
388.707	347.45
389.087	355.36
389.466	351.29
389.846	371.63
390.225	361.91
390.605	340.44
390.984	347.45
391.363	359.65
391.743	362.14
392.122	344.51
392.501	368.92
392.881	375.7
393.26	347.22
393.639	354.68
394.018	338.64
394.397	365.75
394.776	377.73
395.155	372.31
395.534	377.73
395.913	368.69
396.292	367.56
396.671	366.88
397.05	382.48
397.429	394.45
397.808	393.55
398.186	371.4
398.565	367.33
398.944	400.55
399.323	390.84
399.701	366.66
400.08	382.02
400.458	375.92
400.837	404.4
401.215	400.55
401.594	406.88
401.972	394
402.351	424.96
402.729	423.15
403.107	422.7
403.486	417.96
403.864	426.99
404.242	411.85
404.62	422.93
404.999	405.53
405.377	424.28
405.755	417.96
406.133	440.78
406.511	443.72
406.889	437.16
407.267	445.98
407.645	431.74
408.023	447.78
408.401	454.79
408.779	455.24
409.156	464.51
409.534	453.43
409.912	464.51
410.29	485.98
410.667	475.58
411.045	466.54
411.422	491.63
411.8	495.69
412.178	478.52
412.555	512.19
412.933	516.26
413.31	521.46
413.687	530.95
414.065	526.65
414.442	529.36
414.819	538.86
415.197	557.61
415.574	576.14
415.951	569.82
416.328	574.34
416.705	573.43
417.082	581.79
417.46	582.7
417.837	569.59
418.214	618.63
418.591	611.4
418.967	612.98
419.344	628.57
419.721	624.96
420.098	623.6
420.475	627.22
420.852	672.41
421.228	697.72
421.605	667.21
421.982	688.68
422.358	676.71
422.735	672.41
423.111	674.67
423.488	706.31
423.864	715.8
424.241	736.14
424.617	747.66
424.994	743.14
425.37	767.32
425.746	772.75
426.123	764.16
426.499	773.2
426.875	765.06
427.251	787.44
427.627	812.75
428.003	816.36
428.379	821.11
428.756	821.79
429.132	865.63
429.507	864.72
429.883	850.03
430.259	868.79
430.635	881.67
431.011	877.15
431.387	883.71
431.763	923.25
432.138	921.22
432.514	919.86
432.89	948.11
433.265	947.21
433.641	989.92
434.016	1023.14
434.392	1012.29
434.767	1009.8
435.143	1029.69
435.518	1047.09
435.894	1071.05
436.269	1093.19
436.644	1120.76
437.02	1092.06
437.395	1126.86
437.77	1159.18
438.145	1160.99
438.52	1186.52
438.895	1183.13
439.271	1192.85
439.646	1261.1
440.021	1219.06
440.395	1277.14
440.77	1243.92
441.145	1259.29
441.52	1273.53
441.895	1278.72
442.27	1304.03
442.645	1305.39
443.019	1362.34
443.394	1313.3
443.769	1360.08
444.143	1358.04
444.518	1390.13
444.892	1368.66
445.267	1384.26
445.641	1386.07
446.016	1407.08
446.39	1406.86
446.764	1445.05
447.139	1417.02
447.513	1451.15
447.887	1472.16
448.262	1476.01
448.636	1476.91
449.01	1507.42
449.384	1497.02
449.758	1509.68
450.132	1536.34
450.506	1574.31
450.88	1550.58
451.254	1564.37
451.628	1588.09
452.002	1590.58
452.376	1621.09
452.75	1601.88
453.123	1608.66
453.497	1671.48
453.871	1688.2
454.244	1662.44
454.618	1699.05
454.992	1709.67
455.365	1722.1
455.739	1759.61
456.112	1790.8
456.486	1776.56
456.859	1797.58
457.232	1842.32
457.606	1816.79
457.979	1830.8
458.352	1876.22
458.725	1886.17
459.099	1898.59
459.472	1918.71
459.845	1944.69
460.218	1951.02
460.591	1998.48
460.964	2017.46
461.337	2054.75
461.71	2069.89
462.083	2092.26
462.456	2089.55
462.829	2114.86
463.201	2145.37
463.574	2138.36
463.947	2141.98
464.32	2222.65
464.692	2193.28
465.065	2229.21
465.438	2230.56
465.81	2281.18
466.183	2294.52
466.555	2364.34
466.928	2355.08
467.3	2364.34
467.672	2392.37
468.045	2452.7
468.417	2448.86
468.789	2493.38
469.161	2508.52
469.534	2532.25
469.906	2550.55
470.278	2598.24
470.65	2605.24
471.022	2630.78
471.394	2696.31
471.766	2729.53
472.138	2712.81
472.51	2792.81
472.882	2845.46
473.253	2865.12
473.625	2928.17
473.997	2963.88
474.369	2970.2
474.74	3014.72
475.112	3061.05
475.484	3077.77
475.855	3146.24
476.227	3135.4
476.598	3228.05
476.97	3239.12
477.341	3314.15
477.713	3333.58
478.084	3383.75
478.455	3399.12
478.827	3460.14
479.198	3554.14
479.569	3531.32
479.94	3642.05
480.311	3679.79
480.682	3713.24
481.053	3786.91
481.424	3854.47
481.795	3871.88
482.166	3920.01
482.537	3984.87
482.908	4030.52
483.279	4104.41
483.65	4117.07
484.021	4179.89
484.391	4204.97
484.762	4268.25
485.133	4315.25
485.503	4321.58
485.874	4435.48
486.244	4463.27
486.615	4503.05
486.985	4573.55
487.356	4628.24
487.726	4650.61
488.097	4739.65
488.467	4779.2
488.837	4825.52
489.207	4896.93
489.578	4956.59
489.948	4971.28
490.318	5068.68
490.688	5002.24
491.058	5076.59
491.428	5162.01
491.798	5180.32
492.168	5282.01
492.538	5305.51
492.908	5300.99
493.278	5453.3
493.648	5463.02
494.017	5502.79
494.387	5528.33
494.757	5561.77
495.126	5576.69
495.496	5618.5
495.866	5633.64
496.235	5717.7
496.605	5724.26
496.974	5735.56
497.344	5770.36
497.713	5789.11
498.082	5799.51
498.452	5915.89
498.821	5885.61
499.19	5891.48
499.559	5998.83
499.928	5963.35
500.298	6017.81
500.667	6047.64
501.036	6032.95
501.405	6098.48
501.774	6053.06
502.143	6122.66
502.512	6160.85
502.88	6159.27
503.249	6178.71
503.618	6225.71
503.987	6148.2
504.356	6239.5
504.724	6303.22
505.093	6255.54
505.462	6286.73
505.83	6334.64
506.199	6354.07
506.567	6383.67
506.936	6379.83
507.304	6468.42
507.672	6470.68
508.041	6504.35
508.409	6498.7
508.777	6559.49
509.145	6561.3
509.514	6504.57
509.882	6563.1
510.25	6585.93
510.618	6526.5
510.986	6572.14
511.354	6668.41
511.722	6633.38
512.09	6698.47
512.458	6635.64
512.826	6723.33
513.193	6721.52
513.561	6759.94
513.929	6795.19
514.297	6743.89
514.664	6784.34
515.032	6783.21
515.4	6829.76
515.767	6860.72
516.135	6840.39
516.502	6805.36
516.869	6869.31
517.237	6909.76
517.604	6792.25
517.972	6918.35
518.339	6877.9
518.706	6882.87
519.073	6880.84
519.44	6858.92
519.808	6931.68
520.175	6947.05
520.542	7022.53
520.909	6973.49
521.276	6985.24
521.643	6979.36
522.009	7016.43
522.376	7033.37
522.743	7113.15
523.11	7070.44
523.477	7048.52
523.843	7128.06
524.21	7183.88
524.577	7116.31
524.943	7135.29
525.31	7178
525.676	7213.48
526.043	7212.8
526.409	7201.05
526.776	7276.08
527.142	7241.05
527.508	7219.81
527.874	7269.53
528.241	7217.78
528.607	7253.71
528.973	7317.66
529.339	7239.02
529.705	7258.45
530.071	7294.84
530.437	7255.29
530.803	7294.38
531.169	7339.36
531.535	7254.84
531.901	7300.71
532.267	7259.58
532.632	7310.2
532.998	7260.94
533.364	7347.72
533.73	7282.63
534.095	7315.4
534.461	7288.06
534.826	7332.58
535.192	7310.88
535.557	7351.11
535.923	7226.36
536.288	7284.67
536.653	7263.65
537.019	7212.8
537.384	7264.1
537.749	7198.79
538.114	7262.52
538.479	7198.57
538.845	7185.69
539.21	7201.51
539.575	7163.31
539.94	7218.91
540.305	7204.22
540.67	7124.22
541.034	7184.56
541.399	7138.46
541.764	7165.12
542.129	7145.46
542.494	7120.38
542.858	7163.54
543.223	7080.15
543.587	7181.17
543.952	7031.79
544.316	7066.59
544.681	7043.32
545.045	6948.18
545.41	7055.07
545.774	7004.45
546.138	7017.33
546.503	6993.38
546.867	6971.68
547.231	6968.52
547.595	6938.24
547.959	6998.57
548.324	6953.6
548.688	6929.42
549.052	6946.37
549.416	6907.73
549.779	6882.87
550.143	6920.38
550.507	6921.51
550.871	6842.19
551.235	6860.27
551.599	6838.13
551.962	6829.09
552.326	6860.05
552.689	6837.9
553.053	6799.03
553.417	6836.77
553.78	6880.38
554.143	6822.08
554.507	6829.54
554.87	6821.85
555.234	6862.76
555.597	6767.84
555.96	6811.46
556.323	6772.36
556.686	6821.4
557.05	6844.9
557.413	6823.21
557.776	6771.46
558.139	6826.83
558.502	6804.23
558.865	6729.43
559.228	6788.64
559.59	6792.02
559.953	6827.5
560.316	6879.71
560.679	6820.5
561.041	6897.78
561.404	6859.82
561.767	6899.37
562.129	6819.82
562.492	6887.16
562.854	6889.65
563.217	6771.46
563.579	6863.89
563.941	6907.5
564.304	6922.87
564.666	6952.92
565.028	6931.91
565.39	6897.33
565.753	6956.09
566.115	6910.67
566.477	7002.87
566.839	6956.31
567.201	7022.98
567.563	7014.62
567.925	7059.81
568.287	7058.68
568.648	7054.39
569.01	7028.85
569.372	7123.09
569.734	7088.06
570.095	7115.18
570.457	7101.62
570.819	7127.84
571.18	7131.68
571.542	7232.24
571.903	7167.61
572.265	7237.89
572.626	7179.13
572.987	7212.13
573.349	7211
573.71	7255.97
574.071	7249.19
574.432	7248.51
574.794	7270.66
575.155	7346.59
575.516	7291.22
575.877	7316.98
576.238	7374.38
576.599	7349.07
576.96	7281.05
577.32	7376.87
577.681	7392.24
578.042	7379.35
578.403	7420.71
578.763	7464.78
579.124	7463.19
579.485	7521.27
579.845	7512.23
580.206	7496.41
580.566	7500.71
580.927	7475.85
581.287	7620.48
581.648	7510.88
582.008	7552.91
582.368	7588.16
582.728	7602.4
583.089	7566.24
583.449	7621.38
583.809	7590.65
584.169	7658.44
584.529	7671.32
584.889	7687.82
585.249	7668.39
585.609	7720.36
585.969	7735.28
586.329	7730.53
586.688	7773.69
587.048	7774.6
587.408	7772.79
587.768	7695.28
588.127	7765.56
588.487	7725.79
588.846	7774.6
589.206	7766.01
589.565	7791.77
589.925	7857.31
590.284	7794.48
590.643	7798.1
591.003	7817.08
591.362	7874.03
591.721	7867.02
592.08	7842.17
592.44	7827.48
592.799	7920.81
593.158	7852.11
593.517	7904.31
593.876	7894.14
594.235	7884.88
594.593	7907.7
594.952	7947.02
595.311	7886.23
595.67	7936.85
596.029	7951.99
596.387	7934.82
596.746	8008.26
597.104	7885.56
597.463	7974.14
597.822	7947.93
598.18	7929.85
598.538	7973.69
598.897	7996.29
599.255	7961.49
599.613	7999.68
599.972	7970.75
600.33	8040.58
600.688	7995.83
601.046	8022.5
601.404	8104.31
601.762	8088.04
602.12	8130.75
602.478	8103.18
602.836	8116.51
603.194	8083.06
603.552	8095.04
603.91	8041.94
604.268	8098.66
604.625	8041.94
604.983	8081.26
605.341	8005.33
605.698	8086.91
606.056	8131.88
606.413	8076.74
606.771	8080.35
607.128	8176.17
607.485	8137.98
607.843	8170.07
608.2	8165.77
608.557	8203.06
608.914	8197.64
609.272	8219.56
609.629	8191.99
609.986	8238.77
610.343	8246
610.7	8218.2
611.057	8235.6
611.414	8226.34
611.771	8219.56
612.127	8254.13
612.484	8243.29
612.841	8262.04
613.198	8279.44
613.554	8247.81
613.911	8293.23
614.267	8300.01
614.624	8371.19
614.98	8350.63
615.337	8339.1
615.693	8293.91
616.05	8362.38
616.406	8453.22
616.762	8339.33
617.118	8338.88
617.475	8415.94
617.831	8401.25
618.187	8344.53
618.543	8435.15
618.899	8396.28
619.255	8423.17
619.611	8384.07
619.967	8448.7
620.323	8518.53
620.678	8395.37
621.034	8399.89
621.39	8407.58
621.746	8410.74
622.101	8453
622.457	8457.74
622.812	8386.79
623.168	8449.83
623.523	8474.92
623.879	8450.96
624.234	8379.33
624.589	8448.48
624.945	8408.03
625.3	8434.02
625.655	8460.91
626.01	8395.6
626.365	8462.49
626.72	8435.6
627.075	8469.49
627.43	8374.13
627.785	8373.68
628.14	8401.25
628.495	8490.29
628.85	8379.1
629.205	8401.47
629.559	8418.42
629.914	8371.64
630.269	8375.49
630.623	8371.87
630.978	8357.86
631.332	8375.49
631.687	8415.71
632.041	8329.84
632.396	8315.15
632.75	8365.09
633.104	8276.51
633.459	8277.64
633.813	8291.65
634.167	8301.36
634.521	8335.71
634.875	8302.95
635.229	8247.81
635.583	8241.7
635.937	8283.74
636.291	8181.14
636.645	8240.35
636.999	8171.42
637.352	8213.23
637.706	8181.37
638.06	8170.07
638.413	8191.08
638.767	8152.44
639.121	8137.75
639.474	8095.72
639.828	8149.5
640.181	8119.45
640.534	8141.82
640.888	8139.56
641.241	8038.32
641.594	8060.24
641.947	8159.9
642.301	8078.32
642.654	8028.38
643.007	8068.83
643.36	8115.61
643.713	8026.34
644.066	8109.5
644.419	8055.49
644.771	8038.09
645.124	7837.2
645.477	7927.36
645.83	7834.94
646.182	7766.24
646.535	7787.48
646.888	7803.52
647.24	7774.82
647.593	7838.32
647.945	7748.38
648.298	7759.01
648.65	7698.44
649.002	7753.36
649.355	7800.36
649.707	7730.53
650.059	7814.37
650.411	7919.23
650.763	7850.08
651.115	7948.6
651.467	7933.69
651.819	7922.62
652.171	7958.77
652.523	7934.37
652.875	7880.36
653.227	7920.13
653.578	7974.82
653.93	7915.39
654.282	7971.2
654.633	7862.28
654.985	7973.69
655.337	7986.57
655.688	7909.06
656.039	7948.83
656.391	7953.12
656.742	7855.27
657.094	7905.22
657.445	7923.97
657.796	7929.85
658.147	7872.9
658.498	7861.38
658.849	7909.96
659.2	7957.42
659.551	7839.23
659.902	7930.53
660.253	7907.02
660.604	7965.33
660.955	7924.2
661.306	7954.48
661.656	7904.31
662.007	7948.38
662.358	7903.18
662.708	7930.3
663.059	7920.81
663.409	7861.83
663.76	7870.19
664.11	7934.82
664.461	7984.54
664.811	7912.45
665.161	7916.52
665.511	7916.29
665.862	7920.58
666.212	7953.58
666.562	7991.32
666.912	7937.98
667.262	7946.57
667.612	7883.07
667.962	7901.15
668.312	7902.73
668.662	7975.04
669.011	7895.5
669.361	7986.34
669.711	7926.91
670.06	7864.99
670.41	7854.6
670.76	7844.43
671.109	7939.11
671.459	7951.09
671.808	7892.33
672.157	7895.27
672.507	7893.01
672.856	7945.44
673.205	7851.21
673.554	7881.04
673.904	7863.86
674.253	7908.15
674.602	7906.57
674.951	7790.42
675.3	7724.88
675.649	7832.45
675.998	7786.12
676.346	7798.55
676.695	7818.89
677.044	7748.16
677.393	7835.16
677.741	7840.58
678.09	7767.82
678.438	7799.91
678.787	7833.58
679.135	7742.96
679.484	7733.24
679.832	7732.34
680.181	7697.31
680.529	7732.11
680.877	7709.51
681.225	7698.67
681.573	7705.9
681.922	7635.17
682.27	7657.54
682.618	7625.45
682.966	7678.78
683.314	7618.44
683.661	7595.62
684.009	7530.76
684.357	7514.94
684.705	7574.15
685.053	7504.55
685.4	7502.29
685.748	7454.15
686.095	7420.93
686.443	7496.64
686.79	7517.2
687.138	7415.29
687.485	7470.2
687.832	7365.8
688.18	7398.56
688.527	7333.48
688.874	7374.83
689.221	7338.68
689.568	7255.29
689.915	7342.29
690.262	7247.83
690.609	7269.75
690.956	7199.25
691.303	7237.89
691.65	7139.59
691.997	7216.65
692.344	7161.73
692.69	7159.7
693.037	7123.54
693.383	7043.77
693.73	7008.74
694.077	7053.26
694.423	7027.05
694.769	7023.43
695.116	7060.49
695.462	6956.77
695.808	6930.55
696.155	6939.82
696.501	6872.7
696.847	6901.85
697.193	6842.42
697.539	6862.31
697.885	6813.49
698.231	6773.72
698.577	6728.75
698.923	6733.04
699.269	6735.76
699.614	6673.61
699.96	6685.36
700.306	6641.07
700.651	6622.31
700.997	6600.62
701.342	6597
701.688	6587.28
702.033	6538.25
702.379	6545.7
702.724	6521.98
703.069	6521.75
703.415	6475.65
703.76	6483.11
704.105	6399.49
704.45	6395.2
704.795	6362.66
705.14	6335.77
705.485	6323.79
705.83	6367.4
706.175	6314.75
706.52	6371.47
706.865	6261.19
707.209	6300.96
707.554	6266.39
707.899	6245.15
708.243	6194.98
708.588	6223.9
708.932	6124.92
709.277	6125.83
709.621	6177.13
709.966	6122.21
710.31	6133.51
710.654	6089.22
710.998	6063.68
711.342	6090.8
711.687	6049.45
712.031	6052.38
712.375	6039.95
712.719	6043.8
713.063	6012.16
713.407	5997.02
713.75	6057.13
714.094	6004.25
714.438	5949.79
714.782	5989.33
715.125	5948.21
715.469	5937.81
715.812	5929.67
716.156	5923.12
716.499	5889.68
716.843	5880.18
717.186	5902.56
717.53	5889.68
717.873	5903.69
718.216	5839.73
718.559	5840.19
718.902	5792.73
719.246	5826.85
719.589	5816.91
719.932	5801.32
720.275	5802.67
720.617	5776.68
720.96	5760.87
721.303	5790.92
721.646	5820.3
721.989	5808.1
722.331	5764.93
722.674	5719.28
723.016	5735.78
723.359	5773.07
723.701	5754.31
724.044	5684.71
724.386	5732.62
724.729	5741.2
725.071	5775.78
725.413	5749.57
725.755	5746.85
726.097	5686.97
726.439	5694.2
726.782	5680.19
727.124	5650.81
727.465	5610.36
727.807	5680.64
728.149	5634.32
728.491	5634.09
728.833	5672.73
729.175	5616.01
729.516	5673.86
729.858	5597.48
730.199	5660.76
730.541	5617.59
730.882	5628.44
731.224	5695.1
731.565	5605.39
731.906	5621.89
732.248	5617.59
732.589	5659.4
732.93	5619.63
733.271	5620.08
733.612	5630.93
733.953	5595.22
734.294	5631.38
734.635	5649.23
734.976	5618.27
735.317	5610.36
735.658	5671.6
735.999	5612.85
736.339	5596.12
736.68	5629.57
737.021	5646.07
737.361	5610.13
737.702	5657.37
738.042	5591.15
738.383	5638.16
738.723	5646.52
739.063	5614.43
739.404	5643.58
739.744	5664.82
740.084	5645.84
740.424	5740.53
740.764	5647.2
741.104	5692.17
741.444	5641.09
741.784	5739.62
742.124	5672.51
742.464	5768.55
742.804	5705.5
743.143	5770.13
743.483	5766.74
743.823	5766.97
744.162	5788.89
744.502	5834.76
744.841	5835.44
745.181	5853.29
745.52	5835.21
745.86	5837.7
746.199	5924.03
746.538	5959.05
746.877	5956.57
747.216	6061.2
747.556	6079.28
747.895	6064.36
748.234	6083.12
748.573	6113.17
748.911	6137.8
749.25	6208.09
749.589	6201.76
749.928	6358.36
750.267	6293.05
750.605	6365.14
750.944	6401.3
751.283	6460.96
751.621	6587.28
751.96	6562.43
752.298	6624.8
752.636	6692.14
752.975	6798.58
753.313	6787.73
753.651	6905.02
753.989	6915.64
754.327	7031.34
754.666	7108.4
755.004	7079.25
755.342	7321.73
755.679	7352.91
756.017	7436.75
756.355	7516.53
756.693	7664.77
757.031	7763.52
757.368	7782.06
757.706	7967.81
758.044	8028.15
758.381	8156.73
758.719	8217.52
759.056	8427.69
759.394	8473.79
759.731	8559.66
760.068	8645.76
760.405	8669.94
760.743	8833.55
761.08	9067.9
761.417	9056.15
761.754	9181.79
762.091	9399.64
762.428	9436.7
762.765	9505.17
763.102	9687.54
763.438	9767.99
763.775	9897.25
764.112	10114.65
764.449	10199.17
764.785	10201.2
765.122	10286.62
765.458	10446.17
765.795	10494.75
766.131	10618.82
766.467	10720.74
766.804	10751.69
767.14	10859.94
767.476	10998.02
767.812	11031.69
768.148	11220.16
768.485	11310.1
768.821	11318.46
769.157	11368.63
