Data from hue_100_FLMS001491_00037.txt Node
Date: Tue Feb 07 17:03:05 GMT 2017
User: dcchb
Spectrometer: FLMS00149
Trigger mode: 0
Integration Time (sec): 2.000000E-2
Scans to average: 10
Electric dark correction enabled: true
Nonlinearity correction enabled: false
Boxcar width: 0
XAxis mode: Wavelengths
Number of Pixels in Spectrum: 2048
>>>>>Begin Spectral Data<<<<<
341.393	-2.82
341.776	-2.82
342.16	-2.82
342.543	-69.04
342.927	-58.42
343.31	-60.9
343.693	-68.59
344.077	-74.69
344.46	-76.27
344.843	-52.99
345.226	-50.51
345.61	-16.61
345.993	-11.41
346.376	5.99
346.759	21.13
347.142	29.26
347.525	34.69
347.908	34.01
348.291	65.87
348.674	97.51
349.057	123.5
349.44	121.69
349.823	150.39
350.206	158.75
350.588	191.29
350.971	215.25
351.354	226.32
351.737	242.82
352.119	263.38
352.502	270.16
352.884	259.77
353.267	274.91
353.65	294.34
354.032	298.64
354.414	308.13
354.797	316.71
355.179	337.73
355.562	330.27
355.944	334.12
356.326	328.69
356.709	356.49
357.091	347.9
357.473	342.93
357.855	345.41
358.238	338.41
358.62	351.97
359.002	333.44
359.384	356.26
359.766	341.8
360.148	349.71
360.53	352.65
360.912	339.31
361.294	330.05
361.676	353.55
362.057	359.88
362.439	342.93
362.821	354.45
363.203	335.47
363.584	325.98
363.966	318.07
364.348	328.69
364.729	325.75
365.111	309.03
365.493	318.75
365.874	303.38
366.256	322.82
366.637	330.27
367.019	306.32
367.4	322.36
367.781	316.49
368.163	311.97
368.544	314
368.925	325.3
369.306	320.1
369.688	313.78
370.069	316.71
370.45	309.26
370.831	313.33
371.212	323.04
371.593	330.27
371.974	325.98
372.355	334.12
372.736	325.75
373.117	344.06
373.498	320.78
373.879	341.12
374.26	317.84
374.641	345.87
375.021	301.57
375.402	334.57
375.783	313.55
376.163	358.52
376.544	333.21
376.925	340.89
377.305	329.6
377.686	326.66
378.066	325.53
378.447	341.12
378.827	339.77
379.208	337.96
379.588	344.28
379.968	327.79
380.349	346.54
380.729	354
381.109	363.27
381.489	356.94
381.87	370.27
382.25	349.26
382.63	350.61
383.01	358.52
383.39	368.01
383.77	350.16
384.15	368.01
384.53	352.87
384.91	363.72
385.29	382.93
385.67	358.75
386.049	385.19
386.429	369.14
386.809	376.15
387.189	350.61
387.568	394.68
387.948	349.26
388.328	369.82
388.707	379.99
389.087	401.46
389.466	368.92
389.846	376.83
390.225	384.96
390.605	398.97
390.984	404.4
391.363	404.85
391.743	407.33
392.122	374.57
392.501	386.32
392.881	413.66
393.26	401.68
393.639	379.99
394.018	412.08
394.397	411.85
394.776	409.59
395.155	423.15
395.534	406.88
395.913	412.31
396.292	404.62
396.671	426.77
397.05	434.45
397.429	436.71
397.808	436.03
398.186	421.12
398.565	436.26
398.944	435.36
399.323	425.64
399.701	427.9
400.08	443.49
400.458	421.57
400.837	434.68
401.215	422.93
401.594	455.47
401.972	462.25
402.351	429.48
402.729	449.37
403.107	472.42
403.486	453.89
403.864	446.43
404.242	469.93
404.62	453.21
404.999	473.55
405.377	479.87
405.755	479.87
406.133	461.57
406.511	493.21
406.889	495.24
407.267	493.66
407.645	481.68
408.023	503.6
408.401	486.65
408.779	499.76
409.156	486.2
409.534	519.42
409.912	521
410.29	516.03
410.667	531.62
411.045	535.24
411.422	557.39
411.8	543.15
412.178	534.34
412.555	547.44
412.933	547.44
413.31	550.83
413.687	551.28
414.065	579.31
414.442	565.52
414.819	570.49
415.197	585.63
415.574	550.38
415.951	570.04
416.328	583.15
416.705	599.87
417.082	595.58
417.46	594
417.837	593.54
418.214	617.72
418.591	592.41
418.967	613.2
419.344	618.85
419.721	651.85
420.098	627.44
420.475	628.57
420.852	642.13
421.228	641
421.605	644.62
421.982	657.72
422.358	653.66
422.735	662.24
423.111	653.66
423.488	695.46
423.864	689.36
424.241	653.43
424.617	666.31
424.994	680.32
425.37	682.58
425.746	695.01
426.123	705.86
426.499	715.8
426.875	706.54
427.251	718.29
427.627	734.1
428.003	745.4
428.379	730.04
428.756	747.66
429.132	755.35
429.507	741.11
429.883	785.18
430.259	787.89
430.635	781.34
431.011	798.51
431.387	807.55
431.763	816.81
432.138	817.94
432.514	834.89
432.89	836.25
433.265	863.14
433.641	853.88
434.016	859.3
434.392	862.92
434.767	891.84
435.143	875.57
435.518	885.97
435.894	904.5
436.269	918.28
436.644	920.99
437.02	913.31
437.395	916.02
437.77	927.09
438.145	938.62
438.52	961.22
438.895	961.67
439.271	987.66
439.646	1001.22
440.021	996.7
440.395	1000.99
440.77	995.79
441.145	1009.58
441.52	1006.41
441.895	1030.82
442.27	1046.19
442.645	1015.23
443.019	1047.09
443.394	1059.29
443.769	1074.21
444.143	1059.75
444.518	1078.05
444.892	1065.4
445.267	1102
445.641	1090.03
446.016	1078.95
446.39	1102.23
446.764	1096.81
447.139	1100.65
447.513	1103.36
447.887	1140.87
448.262	1134.55
448.636	1139.97
449.01	1170.93
449.384	1176.13
449.758	1170.93
450.132	1168.9
450.506	1193.53
450.88	1203.7
451.254	1214.77
451.628	1213.87
452.002	1222.68
452.376	1246.86
452.75	1263.81
453.123	1250.25
453.497	1286.41
453.871	1312.17
454.244	1307.88
454.618	1330.25
454.992	1385.16
455.365	1364.37
455.739	1372.73
456.112	1392.17
456.486	1383.35
456.859	1422.67
457.232	1436.01
457.606	1451.15
457.979	1465.39
458.352	1484.82
458.725	1498.38
459.099	1536.8
459.472	1562.11
459.845	1558.26
460.218	1571.82
460.591	1591.71
460.964	1582.9
461.337	1664.02
461.71	1678.26
462.083	1705.6
462.456	1683.68
462.829	1704.25
463.201	1745.15
463.574	1764.36
463.947	1777.47
464.32	1804.81
464.692	1823.57
465.065	1867.18
465.438	1883.68
465.81	1912.15
466.183	1918.25
466.555	1982.21
466.928	2007.29
467.3	2026.5
467.672	2039.61
468.045	2062.43
468.417	2111.24
468.789	2135.2
469.161	2146.5
469.534	2214.97
469.906	2287.96
470.278	2271.69
470.65	2325.93
471.022	2347.17
471.394	2405.93
471.766	2451.12
472.138	2529.54
472.51	2564.34
472.882	2607.28
473.253	2620.16
473.625	2662.19
473.997	2767.72
474.369	2824.22
474.74	2869.42
475.112	2905.8
475.484	2975.4
475.855	3044.33
476.227	3130.2
476.598	3189.18
476.97	3274.6
477.341	3376.52
477.713	3471.66
478.084	3493.58
478.455	3605.67
478.827	3665.1
479.198	3758.88
479.569	3843.85
479.94	3970.86
480.311	4084.98
480.682	4188.48
481.053	4285.65
481.424	4468.24
481.795	4473.22
482.166	4593.21
482.537	4690.16
482.908	4887.67
483.279	4959.08
483.65	5071.17
484.021	5242.69
484.391	5331.5
484.762	5495.34
485.133	5555.22
485.503	5670.7
485.874	5854.65
486.244	6038.82
486.615	6216.22
486.985	6286.28
487.356	6492.82
487.726	6637.45
488.097	6778.24
488.467	6910.67
488.837	7092.81
489.207	7246.93
489.578	7403.08
489.948	7593.81
490.318	7742.28
490.688	7837.87
491.058	8020.92
491.428	8243.96
491.798	8385.66
492.168	8678.75
492.538	8758.07
492.908	8902.93
493.278	9085.07
493.648	9171.85
494.017	9454.1
494.387	9590.14
494.757	9761.44
495.126	9881.21
495.496	10013.86
495.866	10102.67
496.235	10266.06
496.605	10450.91
496.974	10628.53
497.344	10734.52
497.713	10890.22
498.082	11016.32
498.452	11269.2
498.821	11305.8
499.19	11400.27
499.559	11626.25
499.928	11722.06
500.298	11800.03
500.667	11910.31
501.036	12057.2
501.405	12212.9
501.774	12300.35
502.143	12449.05
502.512	12541.7
502.88	12697.18
503.249	12783.28
503.618	12915.93
503.987	13056.72
504.356	13142.82
504.724	13254.68
505.093	13348.46
505.462	13453.77
505.83	13553.88
506.199	13639.3
506.567	13855.79
506.936	13828.45
507.304	14096.47
507.672	14076.81
508.041	14275.22
508.409	14282.22
508.777	14406.51
509.145	14497.81
509.514	14552.95
509.882	14662.1
510.25	14705.04
510.618	14772.15
510.986	14769.67
511.354	14981.41
511.722	15052.6
512.09	15222.76
512.458	15192.03
512.826	15338.01
513.193	15422.08
513.561	15451.68
513.929	15527.16
514.297	15629.53
514.664	15761.05
515.032	15805.8
515.4	15947.26
515.767	15937.1
516.135	15987.04
516.502	15889.64
516.869	16066.13
517.237	16207.14
517.604	16102.97
517.972	16265
518.339	16355.39
518.706	16388.61
519.073	16436.07
519.44	16479.68
519.808	16614.37
520.175	16543.41
520.542	16757.86
520.909	16758.99
521.276	16739.79
521.643	16928.48
522.009	16985.43
522.376	16946.79
522.743	17070.85
523.11	17172.99
523.477	17335.48
523.843	17390.39
524.21	17459.77
524.577	17557.17
524.943	17507.9
525.31	17521.23
525.676	17699.76
526.043	17742.25
526.409	17806.88
526.776	17825.41
527.142	17853.2
527.508	17902.69
527.874	17991.96
528.241	17943.6
528.607	18033.54
528.973	18182.46
529.339	18073.31
529.705	18160.09
530.071	18172.97
530.437	18293.19
530.803	18310.37
531.169	18359.63
531.535	18234.89
531.901	18242.12
532.267	18347.2
532.632	18303.36
532.998	18388.1
533.364	18367.31
533.73	18246.86
534.095	18446.63
534.461	18368.67
534.826	18430.59
535.192	18373.42
535.557	18497.93
535.923	18485.5
536.288	18350.14
536.653	18487.31
537.019	18329.12
537.384	18417.93
537.749	18425.17
538.114	18379.06
538.479	18372.06
538.845	18508.1
539.21	18324.38
539.575	18339.29
539.94	18261.55
540.305	18369.35
540.67	18321.89
541.034	18261.55
541.399	18391.49
541.764	18211.84
542.129	18340.42
542.494	18320.76
542.858	18264.94
543.223	18195.57
543.587	18256.58
543.952	18115.34
544.316	18138.39
544.681	18047.55
545.045	18073.54
545.41	18191.5
545.774	18005.97
546.138	18018.62
546.503	17977.49
546.867	17900.66
547.231	18010.26
547.595	17977.95
547.959	17925.07
548.324	17915.57
548.688	17828.8
549.052	17785.63
549.416	17893.65
549.779	17838.74
550.143	17854.11
550.507	17867.67
550.871	17768.69
551.235	17730.72
551.599	17813.2
551.962	17741.34
552.326	17751.06
552.689	17853.65
553.053	17744.73
553.417	17597.39
553.78	17787.89
554.143	17690.04
554.507	17775.92
554.87	17645.07
555.234	17785.86
555.597	17641.46
555.96	17692.53
556.323	17689.59
556.686	17697.05
557.05	17609.14
557.413	17709.03
557.776	17700.66
558.139	17680.55
558.502	17687.78
558.865	17658.18
559.228	17796.03
559.59	17733.43
559.953	17682.36
560.316	17809.59
560.679	17805.29
561.041	17849.14
561.404	17909.02
561.767	18023.59
562.129	17849.36
562.492	17956.03
562.854	17875.58
563.217	17928.91
563.579	17935.01
563.941	17998.06
564.304	17980.88
564.666	17997.15
565.028	18132.07
565.39	18059.98
565.753	18183.36
566.115	18199.63
566.477	18177.94
566.839	18156.7
567.201	18252.74
567.563	18269.24
567.925	18395.11
568.287	18412.06
568.648	18340.2
569.01	18357.82
569.372	18450.02
569.734	18419.74
570.095	18485.05
570.457	18534.99
570.819	18593.07
571.18	18560.75
571.542	18620.64
571.903	18658.83
572.265	18675.55
572.626	18789.22
572.987	18647.31
573.349	18757.81
573.71	18718.49
574.071	18669.45
574.432	18810.69
574.794	18867.64
575.155	18701.54
575.516	18842.78
575.877	18765.72
576.238	18825.38
576.599	18782.67
576.96	18906.28
577.32	18830.13
577.681	18909.67
578.042	18914.42
578.403	18911.93
578.763	18827.64
579.124	18978.15
579.485	19006.17
579.845	19093.4
580.206	19011.36
580.566	19003.23
580.927	18935.21
581.287	19055.21
581.648	19007.97
582.008	19008.65
582.368	18991.03
582.728	18980.63
583.089	18997.35
583.449	18974.76
583.809	18959.16
584.169	19004.59
584.529	18851.37
584.889	19093.62
585.249	18971.82
585.609	18875.77
585.969	18964.36
586.329	18857.24
586.688	18868.77
587.048	18802.1
587.408	18721.88
587.768	18767.76
588.127	18901.31
588.487	18744.48
588.846	18890.69
589.206	18786.74
589.565	18768.89
589.925	18822.67
590.284	18787.19
590.643	18816.34
591.003	18861.76
591.362	18886.17
591.721	18735.89
592.08	18684.14
592.44	18815.66
592.799	18791.48
593.158	18767.08
593.517	18896.57
593.876	18768.66
594.235	18762.11
594.593	18692.95
594.952	18760.98
595.311	18657.25
595.67	18773.86
596.029	18752.61
596.387	18710.36
596.746	18857.24
597.104	18671.71
597.463	18646.63
597.822	18706.97
598.18	18676.91
598.538	18534.54
598.897	18741.77
599.255	18505.16
599.613	18821.09
599.972	18753.29
600.33	18762.33
600.688	18581.09
601.046	18681.2
601.404	18795.33
601.762	18775.21
602.12	18763.24
602.478	18733.18
602.836	18840.97
603.194	18669.23
603.552	18676.91
603.91	18664.48
604.268	18746.29
604.625	18652.28
604.983	18694.99
605.341	18654.31
605.698	18722.33
606.056	18720.07
606.413	18712.62
606.771	18805.72
607.128	18811.14
607.485	18685.95
607.843	18859.73
608.2	18756
608.557	18946.73
608.914	18801.88
609.272	18872.61
609.629	18806.85
609.986	18911.71
610.343	18852.95
610.7	19027.41
611.057	18925.49
611.414	19021.99
611.771	19049.1
612.127	18955.09
612.484	18926.17
612.841	19032.38
613.198	18970.46
613.554	19071.48
613.911	19050.46
614.267	19100.85
614.624	19142.21
614.98	19059.95
615.337	19235.99
615.693	19138.59
616.05	19122.55
616.406	19200.74
616.762	19135.2
617.118	19113.06
617.475	19174.75
617.831	19205.26
618.187	19231.25
618.543	19353.05
618.899	19325.25
619.255	19236.44
619.611	19337.23
619.967	19318.02
620.323	19389.21
620.678	19312.37
621.034	19283
621.39	19240.74
621.746	19216.1
622.101	19483.89
622.457	19255.65
622.812	19208.87
623.168	19439.83
623.523	19380.17
623.879	19389.89
624.234	19230.12
624.589	19266.5
624.945	19330.9
625.3	19467.62
625.655	19371.58
626.01	19335.2
626.365	19440.05
626.72	19411.13
627.075	19354.63
627.43	19267.63
627.785	19325.03
628.14	19287.06
628.495	19342.66
628.85	19330.23
629.205	19224.47
629.559	19328.64
629.914	19256.1
630.269	19217.46
630.623	19213.39
630.978	19122.32
631.332	19178.82
631.687	19285.48
632.041	19189.44
632.396	19097.92
632.75	19081.19
633.104	19133.62
633.459	18978.6
633.813	18904.47
634.167	19041.19
634.521	18999.39
634.875	18971.59
635.229	19031.93
635.583	18797.36
635.937	18840.3
636.291	18765.95
636.645	18925.27
636.999	18784.7
637.352	18775.89
637.706	18747.87
638.06	18801.43
638.413	18744.25
638.767	18760.07
639.121	18708.77
639.474	18634.65
639.828	18599.85
640.181	18641.66
640.534	18649.34
640.888	18546.52
641.241	18544.94
641.594	18634.88
641.947	18622
642.301	18625.84
642.654	18651.83
643.007	18629.23
643.36	18497.93
643.713	18511.72
644.066	18568.66
644.419	18453.19
644.771	18374.55
645.124	18180.2
645.477	18199.41
645.83	18118.28
646.182	18033.76
646.535	17983.14
646.888	18045.06
647.24	17817.5
647.593	17909.7
647.945	17916.03
648.298	17945.4
648.65	17786.99
649.002	17809.59
649.355	17846.2
649.707	17844.39
650.059	17921.22
650.411	18126.19
650.763	18120.99
651.115	18289.12
651.467	18208.67
651.819	18253.42
652.171	18159.41
652.523	18172.29
652.875	18118.96
653.227	18102.69
653.578	18243.93
653.93	18127.32
654.282	18116.7
654.633	18059.07
654.985	18169.58
655.337	18145.17
655.688	18153.31
656.039	18237.15
656.391	18092.29
656.742	18124.83
657.094	18139.75
657.445	18333.42
657.796	18200.99
658.147	18154.66
658.498	18137.26
658.849	18100.2
659.2	18205.28
659.551	18155.34
659.902	18140.43
660.253	18240.99
660.604	18237.37
660.955	18094.1
661.306	18256.81
661.656	18234.21
662.007	18242.12
662.358	18249.35
662.708	18221.55
663.059	18216.81
663.409	18080.09
663.76	18282.57
664.11	18212.74
664.461	18190.14
664.811	18263.59
665.161	18208
665.511	18219.75
665.862	18186.98
666.212	18226.75
666.562	18282.34
666.912	18204.15
667.262	18200.54
667.612	18232.63
667.962	18214.1
668.312	18244.15
668.662	18324.6
669.011	18265.17
669.361	18197.83
669.711	18203.48
670.06	18245.51
670.41	18156.7
670.76	18193.31
671.109	18202.12
671.459	18131.84
671.808	18111.5
672.157	18178.17
672.507	18033.31
672.856	18047.1
673.205	18073.31
673.554	18065.17
673.904	18023.14
674.253	18113.54
674.602	18023.82
674.951	17757.61
675.3	17698.4
675.649	17917.16
675.998	17875.35
676.346	17933.65
676.695	17954.67
677.044	17783.6
677.393	17888.23
677.741	17849.14
678.09	17731.85
678.438	17801.23
678.787	17751.74
679.135	17893.2
679.484	17681.23
679.832	17730.95
680.181	17683.04
680.529	17751.51
680.877	17633.77
681.225	17560.33
681.573	17629.71
681.922	17637.84
682.27	17421.12
682.618	17451.86
682.966	17415.25
683.314	17405.98
683.661	17362.37
684.009	17316.27
684.357	17288.02
684.705	17229.26
685.053	17358.3
685.4	17285.08
685.748	17143.17
686.095	17127.35
686.443	16989.04
686.79	16997.86
687.138	17077.63
687.485	17189.04
687.832	17009.16
688.18	16992.21
688.527	16812.1
688.874	16805.55
689.221	16837.18
689.568	16726.23
689.915	16695.04
690.262	16579.56
690.609	16616.17
690.956	16599
691.303	16574.82
691.65	16452.79
691.997	16470.87
692.344	16355.39
692.69	16336.63
693.037	16297.99
693.383	16187.71
693.73	16212.79
694.077	15933.03
694.423	16020.48
694.769	16124.66
695.116	16000.14
695.462	15956.53
695.808	15815.06
696.155	15948.85
696.501	15679.25
696.847	15748.17
697.193	15571
697.539	15664.79
697.885	15580.04
698.231	15543.66
698.577	15483.55
698.923	15449.2
699.269	15383.66
699.614	15300.05
699.96	15225.93
700.306	15204.01
700.651	15108.87
700.997	15065.25
701.342	15077.46
701.688	14968.76
702.033	14998.36
702.379	15002.88
702.724	14894.64
703.069	14867.97
703.415	14777.8
703.76	14642.89
704.105	14732.38
704.45	14648.54
704.795	14597.02
705.14	14586.62
705.485	14419.85
705.83	14425.04
706.175	14407.19
706.52	14340.07
706.865	14278.38
707.209	14310.92
707.554	14207.42
707.899	14214.43
708.243	14090.36
708.588	14080.65
708.932	13977.82
709.277	14002.23
709.621	13976.92
709.966	13872.06
710.31	13900.99
710.654	13807.21
710.998	13820.09
711.342	13764.04
711.687	13771.28
712.031	13708
712.375	13650.38
712.719	13709.58
713.063	13655.57
713.407	13658.06
713.75	13620.32
714.094	13474.56
714.438	13505.29
714.782	13602.69
715.125	13473.21
715.469	13536.03
715.812	13420.55
716.156	13425.75
716.499	13301.46
716.843	13323.38
717.186	13304.62
717.53	13280.44
717.873	13387.11
718.216	13348.91
718.559	13251.97
718.902	13090.62
719.246	13183.5
719.589	13179.65
719.932	13127.9
720.275	13090.84
720.617	13055.81
720.96	13149.37
721.303	13020.34
721.646	13024.86
721.989	12944.63
722.331	13062.59
722.674	13039.54
723.016	13012.43
723.359	12978.08
723.701	13007
724.044	12973.11
724.386	12939.21
724.729	12918.42
725.071	12891.98
725.413	12815.37
725.755	12868.25
726.097	12870.96
726.439	12738.54
726.782	12730.4
727.124	12832.54
727.465	12784.41
727.807	12736.28
728.149	12738.08
728.491	12669.16
728.833	12754.81
729.175	12674.13
729.516	12702.38
729.858	12659.67
730.199	12669.61
730.541	12600.23
730.882	12616.05
731.224	12668.93
731.565	12593.45
731.906	12626.9
732.248	12740.34
732.589	12501.48
732.93	12587.13
733.271	12606.11
733.612	12570.63
733.953	12658.99
734.294	12577.18
734.635	12555.94
734.976	12635.71
735.317	12499.45
735.658	12523.4
735.999	12558.2
736.339	12562.27
736.68	12592.32
737.021	12629.39
737.361	12501.48
737.702	12638.2
738.042	12574.02
738.383	12547.58
738.723	12645.2
739.063	12539.22
739.404	12540.12
739.744	12608.37
740.084	12602.27
740.424	12672.1
740.764	12517.07
741.104	12669.84
741.444	12547.81
741.784	12588.93
742.124	12672.32
742.464	12647.01
742.804	12684.75
743.143	12715.48
743.483	12792.54
743.823	12724.07
744.162	12746.44
744.502	12757.74
744.841	12767.69
745.181	12861.7
745.52	12826.44
745.86	12895.37
746.199	12970.17
746.538	13011.07
746.877	13093.55
747.216	13129.26
747.556	13114.34
747.895	13177.85
748.234	13196.38
748.573	13312.31
748.911	13355.92
749.25	13451.28
749.589	13443.38
749.928	13615.12
750.267	13689.92
750.605	13655.8
750.944	13769.47
751.283	13801.56
751.621	13993.42
751.96	13979.63
752.298	14091.04
752.636	14289.68
752.975	14300.98
753.313	14398.38
753.651	14584.36
753.989	14562.89
754.327	14728.77
754.666	14795.88
755.004	15004.46
755.342	15130.11
755.679	15273.84
