Data from hue_210_FLMS001491_00096.txt Node
Date: Tue Feb 07 16:42:01 GMT 2017
User: dcchb
Spectrometer: FLMS00149
Trigger mode: 0
Integration Time (sec): 2.000000E-2
Scans to average: 10
Electric dark correction enabled: true
Nonlinearity correction enabled: false
Boxcar width: 0
XAxis mode: Wavelengths
Number of Pixels in Spectrum: 2048
>>>>>Begin Spectral Data<<<<<
341.393	3.74
341.776	3.74
342.16	3.74
342.543	-50.49
342.927	-65.86
343.31	-59.53
343.693	-72.19
344.077	-55.01
344.46	-61.11
344.843	-30.15
345.226	-54.79
345.61	-36.93
345.993	-22.7
346.376	-1.45
346.759	13.01
347.142	22.5
347.525	39.45
347.908	65.66
348.291	72.22
348.674	92.55
349.057	88.49
349.44	109.95
349.823	139.78
350.206	163.74
350.588	197.86
350.971	204.64
351.354	222.27
351.737	238.54
352.119	229.05
352.502	222.27
352.884	264.07
353.267	278.31
353.65	284.87
354.032	303.4
354.414	294.36
354.797	298.2
355.179	302.94
355.562	311.76
355.944	332.32
356.326	341.36
356.709	333
357.091	338.2
357.473	337.75
357.855	344.98
358.238	340.01
358.62	328.71
359.002	302.94
359.384	337.29
359.766	328.25
360.148	319.44
360.53	339.33
360.912	338.42
361.294	333.68
361.676	325.77
362.057	338.2
362.439	324.41
362.821	325.99
363.203	302.49
363.584	335.71
363.966	324.19
364.348	329.61
364.729	318.08
365.111	300.91
365.493	317.63
365.874	298.2
366.256	301.59
366.637	321.25
367.019	320.34
367.4	295.94
367.781	307.69
368.163	311.31
368.544	304.75
368.925	317.86
369.306	325.99
369.688	283.06
370.069	314.92
370.45	290.29
370.831	285.77
371.212	298.88
371.593	293.23
371.974	309.05
372.355	309.5
372.736	286.9
373.117	316.28
373.498	306.11
373.879	304.75
374.26	303.62
374.641	295.71
375.021	321.7
375.402	304.53
375.783	303.85
376.163	316.73
376.544	315.37
376.925	316.95
377.305	313.79
377.686	310.63
378.066	345.65
378.447	342.72
378.827	307.69
379.208	326.22
379.588	318.31
379.968	314.24
380.349	312.44
380.729	330.51
381.109	332.1
381.489	331.64
381.87	326.45
382.25	321.93
382.63	345.2
383.01	337.52
383.39	337.75
383.77	329.38
384.15	341.59
384.53	345.2
384.91	353.34
385.29	335.26
385.67	338.2
386.049	346.78
386.429	354.92
386.809	337.07
387.189	349.04
387.568	347.01
387.948	350.17
388.328	329.61
388.707	359.44
389.087	368.7
389.466	348.59
389.846	345.88
390.225	349.27
390.605	356.73
390.984	371.87
391.363	376.61
391.743	344.3
392.122	354.69
392.501	373.22
392.881	370.29
393.26	376.84
393.639	356.05
394.018	381.13
394.397	370.74
394.776	360.34
395.155	401.92
395.534	380.91
395.913	377.52
396.292	390.4
396.671	389.04
397.05	391.98
397.429	412.55
397.808	401.7
398.186	395.37
398.565	400.79
398.944	394.92
399.323	399.21
399.701	408.7
400.08	405.99
400.458	428.36
400.837	428.59
401.215	426.33
401.594	431.53
401.972	428.36
402.351	442.83
402.729	434.92
403.107	430.85
403.486	405.31
403.864	419.55
404.242	427.91
404.62	425.43
404.999	449.15
405.377	445.09
405.755	469.95
406.133	469.04
406.511	473.79
406.889	454.13
407.267	478.08
407.645	495.93
408.023	473.79
408.401	483.73
408.779	514.46
409.156	488.93
409.534	514.69
409.912	497.97
410.29	525.31
410.667	524.86
411.045	521.7
411.422	531.64
411.8	543.16
412.178	558.53
412.555	571.41
412.933	591.75
413.31	589.49
413.687	591.98
414.065	600.79
414.442	602.37
414.819	613.44
415.197	630.39
415.574	638.98
415.951	641.24
416.328	660
416.705	655.48
417.082	654.8
417.46	683.05
417.837	666.78
418.214	691.63
418.591	687.11
418.967	710.62
419.344	712.88
419.721	732.09
420.098	759.43
420.475	749.94
420.852	743.38
421.228	762.14
421.605	792.87
421.982	768.92
422.358	783.16
422.735	834.46
423.111	820.44
423.488	840.78
423.864	843.72
424.241	857.96
424.617	902.7
424.994	877.84
425.37	906.54
425.746	929.14
426.123	956.26
426.499	959.2
426.875	958.07
427.251	993.77
427.627	994.23
428.003	1019.31
428.379	1025.86
428.756	1029.48
429.132	1038.07
429.507	1058.4
429.883	1052.98
430.259	1074
430.635	1093.43
431.011	1113.54
431.387	1113.09
431.763	1132.3
432.138	1175.69
432.514	1172.3
432.89	1198.97
433.265	1197.84
433.641	1229.93
434.016	1270.6
434.392	1300.88
434.767	1315.35
435.143	1312.41
435.518	1368.45
435.894	1357.83
436.269	1373.65
436.644	1403.71
437.02	1435.34
437.395	1456.81
437.77	1464.72
438.145	1512.18
438.52	1518.73
438.895	1535
439.271	1565.06
439.646	1596.02
440.021	1629.69
440.395	1633.08
440.77	1628.78
441.145	1633.08
441.52	1707.43
441.895	1695.45
442.27	1742
442.645	1720.08
443.019	1802.79
443.394	1783.58
443.769	1777.71
444.143	1787.88
444.518	1841.43
444.892	1847.99
445.267	1870.81
445.641	1871.49
446.016	1893.18
446.39	1892.28
446.764	1901.32
447.139	1923.69
447.513	1949.68
447.887	1957.36
448.262	1966.63
448.636	1963.92
449.01	2005.05
449.384	2039.4
449.758	2037.14
450.132	2102.67
450.506	2065.84
450.88	2073.52
451.254	2068.77
451.628	2098.83
452.002	2118.94
452.376	2164.82
452.75	2199.17
453.123	2225.15
453.497	2215.21
453.871	2246.85
454.244	2279.16
454.618	2325.94
454.992	2296.34
455.365	2340.86
455.739	2366.39
456.112	2417.01
456.486	2438.26
456.859	2445.71
457.232	2533.85
457.606	2493.39
457.979	2526.39
458.352	2580.62
458.725	2584.92
459.099	2607.06
459.472	2655.2
459.845	2694.52
460.218	2740.39
460.591	2739.94
460.964	2768.19
461.337	2787.17
461.71	2872.37
462.083	2867.4
462.456	2880.5
462.829	2913.27
463.201	2937.9
463.574	2974.06
463.947	3037.34
464.32	3072.81
464.692	3101.06
465.065	3105.13
465.438	3131.8
465.81	3184.9
466.183	3258.8
466.555	3269.19
466.928	3325.69
467.3	3307.61
467.672	3394.61
468.045	3396.2
468.417	3416.76
468.789	3472.13
469.161	3499.02
469.534	3608.62
469.906	3625.12
470.278	3679.58
470.65	3675.06
471.022	3745.11
471.394	3787.82
471.766	3872.34
472.138	3879.35
472.51	3967.48
472.882	4026.01
473.253	4032.34
473.625	4080.02
473.997	4124.76
474.369	4212.67
474.74	4219
475.112	4273.01
475.484	4408.37
475.855	4438.88
476.227	4453.12
476.598	4574.02
476.97	4625.09
477.341	4740.79
477.713	4737.63
478.084	4839.32
478.455	4887.68
478.827	4958.41
479.198	5061.69
479.569	5080.22
479.94	5212.19
480.311	5223.27
480.682	5352.75
481.053	5442.92
481.424	5515.91
481.795	5531.51
482.166	5625.74
482.537	5686.08
482.908	5800.2
483.279	5843.36
483.65	5939.18
484.021	6067.76
484.391	6104.83
484.762	6159.97
485.133	6174.2
485.503	6240.42
485.874	6426.85
486.244	6425.95
486.615	6511.82
486.985	6642.66
487.356	6697.58
487.726	6723.79
488.097	6851.47
488.467	6859.61
488.837	7036.55
489.207	7135.76
489.578	7183.22
489.948	7234.74
490.318	7275.87
490.688	7315.64
491.058	7450.33
491.428	7531.68
491.798	7629.98
492.168	7687.83
492.538	7784.33
492.908	7761.73
493.278	7862.97
493.648	7840.15
494.017	7949.3
494.387	8021.39
494.757	8103.42
495.126	8199.23
495.496	8222.06
495.866	8250.98
496.235	8264.54
496.605	8360.59
496.974	8383.86
497.344	8443.97
497.713	8454.82
498.082	8502.5
498.452	8648.26
498.821	8580.92
499.19	8591.77
499.559	8732.33
499.928	8692.33
500.298	8773.68
500.667	8823.62
501.036	8797.18
501.405	8874.02
501.774	8858.2
502.143	8903.17
502.512	8940.01
502.88	9003.73
503.249	9021.58
503.618	9005.77
503.987	9111.3
504.356	9161.47
504.724	9159.66
505.093	9169.83
505.462	9135.48
505.83	9214.8
506.199	9301.13
506.567	9368.69
506.936	9288.7
507.304	9397.39
507.672	9452.76
508.041	9447.56
508.409	9462.93
508.777	9501.12
509.145	9535.92
509.514	9507
509.882	9480.56
510.25	9550.16
510.618	9562.59
510.986	9579.31
511.354	9684.17
511.722	9689.36
512.09	9721.68
512.458	9699.76
512.826	9786.54
513.193	9769.36
513.561	9729.59
513.929	9805.29
514.297	9840.32
514.664	9854.11
515.032	9856.59
515.4	9885.29
515.767	9912.86
516.135	9934.33
516.502	9970.26
516.869	10078.73
517.237	10023.82
517.604	9916.25
517.972	9973.65
518.339	9981.33
518.706	9979.3
519.073	9965.06
519.44	9986.76
519.808	10072.18
520.175	10048.45
520.542	10111.05
520.909	10135.23
521.276	10083.93
521.643	10112.63
522.009	10169.8
522.376	10171.84
522.743	10147.2
523.11	10312.17
523.477	10256.58
523.843	10203.02
524.21	10407.76
524.577	10358.5
524.943	10364.37
525.31	10356.24
525.676	10414.32
526.043	10451.83
526.409	10327.77
526.776	10414.32
527.142	10446.18
527.508	10381.55
527.874	10413.41
528.241	10395.79
528.607	10451.15
528.973	10475.33
529.339	10479.85
529.705	10454.99
530.071	10522.79
530.437	10466.29
530.803	10467.2
531.169	10495.44
531.535	10449.12
531.901	10402.57
532.267	10427.42
532.632	10507.87
532.998	10410.93
533.364	10419.97
533.73	10399.4
534.095	10420.64
534.461	10391.49
534.826	10419.06
535.192	10420.64
535.557	10378.39
535.923	10364.83
536.288	10329.8
536.653	10316.47
537.019	10259.52
537.384	10241.89
537.749	10258.84
538.114	10217.03
538.479	10238.28
538.845	10165.96
539.21	10102.01
539.575	10149.69
539.94	10074.21
540.305	10073.53
540.67	10059.3
541.034	10025.63
541.399	10069.92
541.764	9992.41
542.129	10030.15
542.494	9917.83
542.858	9886.42
543.223	9903.37
543.587	9837.38
543.952	9839.19
544.316	9830.6
544.681	9767.78
545.045	9770.49
545.41	9789.25
545.774	9718.74
546.138	9709.93
546.503	9636.26
546.867	9622.47
547.231	9651.85
547.595	9552.19
547.959	9578.86
548.324	9521.91
548.688	9508.8
549.052	9484.17
549.416	9491.18
549.779	9452.31
550.143	9462.7
550.507	9409.15
550.871	9442.14
551.235	9382.03
551.599	9370.95
551.962	9294.35
552.326	9239.88
552.689	9268.36
553.053	9224.07
553.417	9222.48
553.78	9272.65
554.143	9237.62
554.507	9212.54
554.87	9121.02
555.234	9198.08
555.597	9130.06
555.96	9165.08
556.323	9110.4
556.686	9113.79
557.05	9167.8
557.413	9088.02
557.776	9037.4
558.139	9057.97
558.502	9077.85
558.865	9017.74
559.228	9046.67
559.59	9048.48
559.953	9039.66
560.316	9043.05
560.679	9051.41
561.041	9027.69
561.404	9009.61
561.767	8994.24
562.129	9059.1
562.492	9022.49
562.854	9062.04
563.217	8994.69
563.579	9015.48
563.941	9026.78
564.304	9003.51
564.666	9077.63
565.028	9013.45
565.39	9046.67
565.753	9050.51
566.115	9050.06
566.477	9089.15
566.839	9081.02
567.201	9087.57
567.563	9045.09
567.925	9141.13
568.287	9112.88
568.648	9097.74
569.01	9154.24
569.372	9139.55
569.734	9073.79
570.095	9151.07
570.457	9150.62
570.819	9132.77
571.18	9080.11
571.542	9270.39
571.903	9251.64
572.265	9128.47
572.626	9212.54
572.987	9235.14
573.349	9145.65
573.71	9212.77
574.071	9236.27
574.432	9269.71
574.794	9356.27
575.155	9346.55
575.516	9236.04
575.877	9271.97
576.238	9253.44
576.599	9305.65
576.96	9315.36
577.32	9308.13
577.681	9370.05
578.042	9340.67
578.403	9300.67
578.763	9363.5
579.124	9386.77
579.485	9395.81
579.845	9470.84
580.206	9342.48
580.566	9379.99
580.927	9437.17
581.287	9457.28
581.648	9453.89
582.008	9480.1
582.368	9471.97
582.728	9434.91
583.089	9412.99
583.449	9470.16
583.809	9457.96
584.169	9503.38
584.529	9483.49
584.889	9592.42
585.249	9530.5
585.609	9425.87
585.969	9488.47
586.329	9493.66
586.688	9493.21
587.048	9501.12
587.408	9471.52
587.768	9497.73
588.127	9531.85
588.487	9537.73
588.846	9629.25
589.206	9547.22
589.565	9528.46
589.925	9612.3
590.284	9564.62
590.643	9596.03
591.003	9578.63
591.362	9564.85
591.721	9523.27
592.08	9541.35
592.44	9594
592.799	9627.9
593.158	9596.48
593.517	9589.03
593.876	9575.24
594.235	9561.01
594.593	9551.74
594.952	9646.65
595.311	9591.06
595.67	9619.99
596.029	9679.19
596.387	9644.17
596.746	9664.28
597.104	9603.26
597.463	9574.56
597.822	9676.26
598.18	9610.27
598.538	9575.02
598.897	9646.88
599.255	9493.21
599.613	9647.56
599.972	9628.8
600.33	9622.92
600.688	9567.79
601.046	9530.95
601.404	9685.97
601.762	9578.18
602.12	9694.79
602.478	9671.29
602.836	9730.72
603.194	9679.42
603.552	9724.84
603.91	9573.89
604.268	9705.18
604.625	9680.1
604.983	9652.08
605.341	9614.11
605.698	9643.72
606.056	9711.96
606.413	9657.05
606.771	9694.56
607.128	9674.67
607.485	9721.91
607.843	9690.49
608.2	9759.19
608.557	9770.27
608.914	9656.37
609.272	9760.77
609.629	9710.83
609.986	9772.07
610.343	9706.54
610.7	9718.74
611.057	9759.64
611.414	9724.62
611.771	9748.35
612.127	9779.53
612.484	9820.21
612.841	9770.04
613.198	9764.39
613.554	9714.67
613.911	9850.26
614.267	9847.78
614.624	9730.49
614.98	9778.4
615.337	9871.05
615.693	9818.85
616.05	9822.47
616.406	9880.77
616.762	9799.64
617.118	9869.25
617.475	9929.81
617.831	9885.74
618.187	9936.36
618.543	9942.01
618.899	9958.28
619.255	9953.54
619.611	9904.05
619.967	9931.84
620.323	9970.94
620.678	9989.69
621.034	9886.42
621.39	9920.32
621.746	9861.56
622.101	10069.01
622.457	9869.47
622.812	9914.22
623.168	10017.04
623.523	9880.09
623.879	9932.07
624.234	9845.29
624.589	9960.54
624.945	9946.53
625.3	9953.76
625.655	9920.77
626.01	9884.16
626.365	9874.44
626.72	9956.93
627.075	9931.39
627.43	9869.47
627.785	9863.37
628.14	9941.11
628.495	9896.82
628.85	9837.61
629.205	9856.82
629.559	9902.69
629.914	9887.55
630.269	9857.04
630.623	9882.35
630.978	9770.04
631.332	9918.51
631.687	9885.06
632.041	9758.29
632.396	9833.31
632.75	9798.06
633.104	9789.47
633.459	9782.24
633.813	9699.08
634.167	9711.51
634.521	9729.36
634.875	9791.51
635.229	9676.03
635.583	9651.62
635.937	9688.46
636.291	9615.24
636.645	9692.75
636.999	9640.55
637.352	9685.07
637.706	9588.12
638.06	9580.44
638.413	9628.57
638.767	9568.92
639.121	9554.45
639.474	9558.07
639.828	9556.26
640.181	9556.03
640.534	9493.66
640.888	9496.6
641.241	9518.75
641.594	9449.6
641.947	9502.7
642.301	9558.07
642.654	9522.14
643.007	9456.6
643.36	9464.96
643.713	9395.81
644.066	9518.52
644.419	9421.57
644.771	9351.97
645.124	9321.01
645.477	9263.61
645.83	9241.24
646.182	9184.74
646.535	9222.48
646.888	9221.13
647.24	9115.59
647.593	9168.02
647.945	9084.18
648.298	9124.86
648.65	9052.77
649.002	9073.79
649.355	9151.52
649.707	9149.72
650.059	9239.88
650.411	9299.77
650.763	9276.04
651.115	9388.13
651.467	9337.73
651.819	9304.97
652.171	9379.99
652.523	9310.84
652.875	9342.93
653.227	9294.35
653.578	9436.49
653.93	9337.73
654.282	9363.72
654.633	9273.1
654.985	9317.62
655.337	9281.69
655.688	9362.82
656.039	9290.28
656.391	9285.98
656.742	9347.45
657.094	9329.83
657.445	9345.42
657.796	9298.87
658.147	9321.69
658.498	9314.68
658.849	9353.78
659.2	9348.36
659.551	9313.55
659.902	9397.62
660.253	9404.17
660.604	9418.41
660.955	9371.63
661.306	9323.05
661.656	9382.03
662.007	9388.35
662.358	9385.19
662.708	9387
663.059	9400.56
663.409	9364.4
663.76	9432.2
664.11	9439.88
664.461	9436.94
664.811	9527.56
665.161	9389.71
665.511	9479.2
665.862	9431.07
666.212	9436.49
666.562	9409.15
666.912	9447.79
667.262	9406.43
667.612	9398.52
667.962	9459.77
668.312	9398.52
668.662	9554.23
669.011	9405.53
669.361	9365.76
669.711	9394.46
670.06	9420.9
670.41	9365.53
670.76	9353.78
671.109	9421.57
671.459	9363.27
671.808	9352.88
672.157	9405.98
672.507	9318.98
672.856	9253.9
673.205	9364.85
673.554	9316.49
673.904	9341.8
674.253	9358.3
674.602	9333.89
674.951	9221.58
675.3	9130.28
675.649	9316.49
675.998	9263.16
676.346	9205.76
676.695	9267.45
677.044	9222.48
677.393	9184.07
677.741	9212.31
678.09	9185.42
678.438	9142.26
678.787	9160.56
679.135	9204.18
679.484	9093
679.832	9154.69
680.181	9115.14
680.529	9171.64
680.877	9031.53
681.225	9116.72
681.573	9110.4
681.922	9058.42
682.27	9065.2
682.618	9030.17
682.966	9038.99
683.314	8994.69
683.661	9014.35
684.009	8971.42
684.357	8902.49
684.705	8900.01
685.053	8895.03
685.4	8806
685.748	8816.84
686.095	8817.52
686.443	8820.23
686.79	8826.11
687.138	8811.87
687.485	8784.3
687.832	8715.15
688.18	8689.84
688.527	8634.93
688.874	8651.2
689.221	8695.94
689.568	8644.87
689.915	8519
690.262	8580.69
690.609	8570.52
690.956	8562.84
691.303	8480.13
691.65	8468.61
691.997	8409.17
692.344	8401.94
692.69	8461.6
693.037	8387.25
693.383	8287.59
693.73	8315.39
694.077	8343.41
694.423	8320.81
694.769	8211.44
695.116	8207.82
695.462	8196.07
695.808	8196.3
696.155	8175.73
696.501	8138.67
696.847	8055.96
697.193	8016.41
697.539	8063.64
697.885	7989.3
698.231	7927.6
698.577	7983.42
698.923	7961.5
699.269	7845.34
699.614	7857.77
699.96	7791.33
700.306	7783.88
700.651	7726.03
700.997	7723.54
701.342	7638.34
701.688	7652.58
702.033	7580.94
702.379	7621.4
702.724	7577.55
703.069	7594.28
703.415	7515.41
703.76	7465.92
704.105	7501.17
704.45	7492.81
704.795	7368.07
705.14	7400.38
705.485	7337.79
705.83	7357.67
706.175	7358.58
706.52	7322.42
706.865	7272.48
707.209	7252.14
707.554	7261.41
707.899	7241.29
708.243	7214.4
708.588	7182.09
708.932	7158.13
709.277	7135.76
709.621	7076.55
709.966	7091.01
710.31	7061.41
710.654	7001.07
710.998	7091.01
711.342	7046.95
711.687	7027.51
712.031	7004.01
712.375	6981.64
712.719	6999.04
713.063	6934.41
713.407	6937.57
713.75	6926.95
714.094	6966.05
714.438	6884.92
714.782	6907.52
715.125	6838.14
715.469	6789.33
715.812	6796.33
716.156	6798.59
716.499	6834.07
716.843	6824.13
717.186	6733.51
717.53	6803.11
717.873	6814.41
718.216	6762.21
718.559	6713.85
718.902	6769.44
719.246	6723.57
719.589	6693.74
719.932	6730.8
720.275	6676.34
720.617	6683.12
720.96	6652.16
721.303	6687.41
721.646	6621.65
721.989	6611.03
722.331	6638.37
722.674	6600.86
723.016	6613.29
723.359	6627.52
723.701	6649.44
724.044	6585.04
724.386	6558.6
724.729	6552.05
725.071	6573.06
725.413	6535.55
725.755	6572.16
726.097	6540.52
726.439	6528.32
726.782	6535.55
727.124	6510.69
727.465	6503.01
727.807	6538.71
728.149	6490.8
728.491	6460.75
728.833	6557.69
729.175	6474.76
729.516	6491.48
729.858	6485.83
730.199	6505.04
730.541	6498.71
730.882	6517.7
731.224	6497.13
731.565	6400.86
731.906	6466.85
732.248	6500.3
732.589	6459.62
732.93	6473.86
733.271	6457.81
733.612	6510.92
733.953	6472.5
734.294	6501.43
734.635	6449.9
734.976	6501.88
735.317	6502.33
735.658	6450.8
735.999	6494.87
736.339	6544.36
736.68	6520.63
737.021	6492.39
737.361	6487.41
737.702	6527.19
738.042	6533.97
738.383	6528.77
738.723	6539.62
739.063	6550.92
739.404	6598.82
739.744	6611.25
740.084	6628.88
740.424	6559.95
740.764	6588.65
741.104	6574.42
741.444	6543.01
741.784	6603.8
742.124	6640.63
742.464	6653.74
742.804	6648.77
743.143	6712.49
743.483	6731.7
743.823	6758.59
744.162	6762.44
744.502	6736.22
744.841	6756.79
745.181	6820.74
745.52	6807.41
745.86	6920.62
746.199	6926.05
746.538	6991.13
746.877	7016.21
747.216	7063.9
747.556	7061.64
747.895	7154.06
748.234	7143.22
748.573	7169.2
748.911	7266.83
749.25	7243.78
749.589	7330.1
749.928	7401.74
750.267	7437.67
750.605	7541.85
750.944	7599.93
751.283	7719.02
751.621	7806.02
751.96	7813.93
752.298	7882.18
752.636	8052.57
752.975	8062.29
753.313	8167.6
753.651	8357.65
753.989	8432.45
754.327	8412.56
754.666	8566
755.004	8723.29
755.342	8924.41
755.679	8978.87
756.017	9119.21
756.355	9233.78
756.693	9332.76
757.031	9450.05
757.368	9626.99
757.706	9700.89
758.044	9812.3
758.381	10055.91
758.719	10165.28
759.056	10355.11
759.394	10512.39
759.731	10595.78
760.068	10798.49
760.405	10884.81
760.743	11064.24
761.08	11186.05
761.417	11407.51
761.754	11577.45
762.091	11703.1
762.428	11852.47
762.765	11981.73
763.102	12271.89
763.438	12415.39
763.775	12539.46
764.112	12711.43
764.449	12942.84
764.785	13019.22
765.122	13100.8
765.458	13304.18
765.795	13362.26
766.131	13602.48
766.467	13652.88
766.804	13837.28
767.14	14038.63
767.476	14184.39
767.812	14251.73
