Data from hue_32_FLMS001491_00017.txt Node
Date: Tue Feb 07 17:22:58 GMT 2017
User: dcchb
Spectrometer: FLMS00149
Trigger mode: 0
Integration Time (sec): 2.000000E-2
Scans to average: 10
Electric dark correction enabled: true
Nonlinearity correction enabled: false
Boxcar width: 0
XAxis mode: Wavelengths
Number of Pixels in Spectrum: 2048
>>>>>Begin Spectral Data<<<<<
341.393	-30.24
341.776	-30.24
342.16	-30.24
342.543	-69.56
342.927	-58.49
343.31	-66.4
343.693	-53.29
344.077	-56.45
344.46	-60.97
344.843	-53.29
345.226	-64.59
345.61	-17.58
345.993	-10.13
346.376	-11.48
346.759	4.11
347.142	29.42
347.525	45.24
347.908	66.48
348.291	55.63
348.674	99.25
349.057	94.05
349.44	134.73
349.823	136.08
350.206	169.08
350.588	199.36
350.971	194.61
351.354	222.64
351.737	264.44
352.119	273.26
352.502	279.81
352.884	274.16
353.267	285.46
353.65	314.84
354.032	289.98
354.414	310.54
354.797	308.73
355.179	315.29
355.562	324.55
355.944	343.08
356.326	338.79
356.709	328.4
357.091	345.34
357.473	341.05
357.855	358.68
358.238	348.96
358.62	349.64
359.002	335.63
359.384	320.03
359.766	345.8
360.148	358.23
360.53	341.5
360.912	335.85
361.294	322.29
361.676	340.15
362.057	348.06
362.439	344.21
362.821	344.89
363.203	328.62
363.584	327.49
363.966	332.91
364.348	335.63
364.729	332.46
365.111	322.29
365.493	326.14
365.874	323.88
366.256	314.38
366.637	323.42
367.019	330.66
367.4	329.3
367.781	312.12
368.163	319.13
368.544	338.34
368.925	317.32
369.306	318.9
369.688	333.59
370.069	310.77
370.45	312.12
370.831	303.31
371.212	339.02
371.593	322.07
371.974	337.43
372.355	310.99
372.736	334.04
373.117	328.4
373.498	325.46
373.879	320.26
374.26	293.14
374.641	318.23
375.021	329.3
375.402	350.54
375.783	321.16
376.163	333.82
376.544	341.73
376.925	330.66
377.305	339.92
377.686	323.65
378.066	323.65
378.447	330.88
378.827	368.62
379.208	346.47
379.588	339.02
379.968	343.76
380.349	314.61
380.729	334.72
381.109	337.66
381.489	344.21
381.87	354.16
382.25	331.79
382.63	360.94
383.01	374.04
383.39	340.6
383.77	363.2
384.15	358
384.53	353.71
384.91	364.78
385.29	362.29
385.67	345.34
386.049	360.94
386.429	358
386.809	344.21
387.189	335.4
387.568	350.32
387.948	350.09
388.328	369.52
388.707	362.97
389.087	348.96
389.466	362.52
389.846	364.78
390.225	375.85
390.605	385.34
390.984	347.83
391.363	377.66
391.743	384.67
392.122	371.33
392.501	373.37
392.881	381.28
393.26	366.59
393.639	395.51
394.018	370.2
394.397	398.68
394.776	399.13
395.155	404.55
395.534	383.76
395.913	379.02
396.292	382.18
396.671	401.84
397.05	392.57
397.429	376.08
397.808	402.74
398.186	391.67
398.565	388.73
398.944	394.16
399.323	400.94
399.701	375.85
400.08	410.88
400.458	389.41
400.837	406.81
401.215	390.99
401.594	407.72
401.972	397.55
402.351	416.3
402.729	422.86
403.107	424.21
403.486	428.28
403.864	441.84
404.242	406.36
404.62	412.69
404.999	437.32
405.377	414.27
405.755	427.15
406.133	410.2
406.511	438.22
406.889	431.44
407.267	464.44
407.645	449.3
408.023	433.48
408.401	441.39
408.779	447.94
409.156	460.14
409.534	449.07
409.912	446.13
410.29	448.39
410.667	463.08
411.045	460.6
411.422	458.56
411.8	473.25
412.178	471.22
412.555	462.4
412.933	487.71
413.31	478.45
413.687	486.36
414.065	478.45
414.442	502.85
414.819	492.91
415.197	490.88
415.574	497.88
415.951	517.09
416.328	505.34
416.705	495.17
417.082	521.84
417.46	506.47
417.837	515.51
418.214	519.12
418.591	514.15
418.967	531.78
419.344	539.46
419.721	518.9
420.098	525.68
420.475	531.1
420.852	543.76
421.228	538.56
421.605	528.16
421.982	549.86
422.358	551.89
422.735	532.23
423.111	556.41
423.488	556.86
423.864	573.81
424.241	580.82
424.617	598.67
424.994	553.47
425.37	577.65
425.746	576.3
426.123	567.94
426.499	605
426.875	560.25
427.251	606.81
427.627	599.57
428.003	601.16
428.379	613.81
428.756	610.2
429.132	638.9
429.507	618.33
429.883	642.74
430.259	634.6
430.635	632.79
431.011	655.17
431.387	662.62
431.763	674.6
432.138	653.81
432.514	652
432.89	688.39
433.265	682.74
433.641	685
434.016	678.44
434.392	699.46
434.767	710.08
435.143	695.17
435.518	701.27
435.894	696.75
436.269	694.71
436.644	709.18
437.02	713.24
437.395	728.61
437.77	736.52
438.145	728.38
438.52	730.87
438.895	746.01
439.271	758.89
439.646	774.49
440.021	760.25
440.395	750.98
440.77	777.42
441.145	762.06
441.52	775.84
441.895	791.66
442.27	812
442.645	783.07
443.019	809.96
443.394	810.19
443.769	804.32
444.143	806.8
444.518	810.19
444.892	817.65
445.267	829.85
445.641	853.58
446.016	843.41
446.39	843.41
446.764	834.6
447.139	819.68
447.513	867.36
447.887	849.29
448.262	874.14
448.636	842.51
449.01	858.32
449.384	892.9
449.758	887.48
450.132	878.21
450.506	881.38
450.88	870.75
451.254	891.77
451.628	908.27
452.002	926.8
452.376	915.5
452.75	925.89
453.123	929.28
453.497	930.41
453.871	949.85
454.244	964.76
454.618	983.75
454.992	978.77
455.365	984.42
455.739	998.66
456.112	979
456.486	1009.28
456.859	1033.01
457.232	1019
457.606	1042.27
457.979	1032.33
458.352	1052.9
458.725	1075.72
459.099	1073.69
459.472	1109.84
459.845	1092.44
460.218	1092.67
460.591	1132.22
460.964	1155.49
461.337	1144.87
461.71	1165.44
462.083	1196.17
462.456	1161.14
462.829	1183.06
463.201	1226.9
463.574	1212.21
463.947	1227.35
464.32	1242.5
464.692	1250.4
465.065	1266.68
465.438	1298.54
465.81	1312.78
466.183	1305.77
466.555	1353
466.928	1351.65
467.3	1347.35
467.672	1401.36
468.045	1388.71
468.417	1406.33
468.789	1420.57
469.161	1438.2
469.534	1457.63
469.906	1507.35
470.278	1519.78
470.65	1554.13
471.022	1560.45
471.394	1595.71
471.766	1600.23
472.138	1654.46
472.51	1689.04
472.882	1695.37
473.253	1724.06
473.625	1746.66
473.997	1783.27
474.369	1805.19
474.74	1876.15
475.112	1845.19
475.484	1912.53
475.855	1969.03
476.227	1994.34
476.598	2028.01
476.97	2041.12
477.341	2112.08
477.713	2132.42
478.084	2181.91
478.455	2229.14
478.827	2270.72
479.198	2358.85
479.569	2380.32
479.94	2446.76
480.311	2498.28
480.682	2603.36
481.053	2645.85
481.424	2665.96
481.795	2722.23
482.166	2824.37
482.537	2849.68
482.908	2936.01
483.279	2972.85
483.65	3082
484.021	3178.26
484.391	3228.66
484.762	3266.85
485.133	3289.9
485.503	3349.11
485.874	3478.59
486.244	3529.44
486.615	3604.69
486.985	3725.82
487.356	3839.94
487.726	3895.53
488.097	3961.97
488.467	4022.54
488.837	4120.16
489.207	4193.83
489.578	4288.97
489.948	4357.22
490.318	4433.15
490.688	4528.28
491.058	4608.51
491.428	4677.43
491.798	4727.83
492.168	4882.4
492.538	4935.73
492.908	5030.19
493.278	5134.14
493.648	5126.69
494.017	5259.57
494.387	5339.34
494.757	5460.24
495.126	5493.91
495.496	5491.2
495.866	5632.89
496.235	5691.19
496.605	5725.77
496.974	5833.79
497.344	5914.24
497.713	5945.2
498.082	6024.29
498.452	6121.01
498.821	6224.06
499.19	6239.2
499.559	6326.66
499.928	6356.94
500.298	6495.01
500.667	6524.16
501.036	6543.83
501.405	6598.96
501.774	6673.77
502.143	6798.06
502.512	6829.02
502.88	6858.39
503.249	6958.96
503.618	7014.77
503.987	6988.11
504.356	7075.56
504.724	7132.28
505.093	7221.1
505.462	7275.78
505.83	7333.18
506.199	7357.14
506.567	7504.93
506.936	7461.32
507.304	7525.27
507.672	7614.08
508.041	7680.97
508.409	7799.39
508.777	7811.14
509.145	7896.33
509.514	7861.76
509.882	7958.03
510.25	7952.83
510.618	8054.75
510.986	8049.55
511.354	8109.43
511.722	8206.15
512.09	8330.44
512.458	8293.38
512.826	8338.58
513.193	8426.49
513.561	8444.79
513.929	8433.72
514.297	8584.45
514.664	8617.89
515.032	8694.5
515.4	8715.07
515.767	8742.41
516.135	8784.67
516.502	8700.83
516.869	8855.63
517.237	8947.15
517.604	8952.8
517.972	9026.92
518.339	9035.06
518.706	9082.06
519.073	9071.44
519.44	9122.06
519.808	9209.07
520.175	9230.53
520.542	9322.51
520.909	9359.57
521.276	9393.69
521.643	9463.97
522.009	9520.24
522.376	9602.95
522.743	9609.06
523.11	9758.66
523.477	9837.75
523.843	9818.99
524.21	9964.07
524.577	9992.1
524.943	10066.22
525.31	10049.95
525.676	10172.43
526.043	10221.92
526.409	10211.3
526.776	10371.07
527.142	10408.81
527.508	10456.26
527.874	10488.13
528.241	10549.6
528.607	10590.95
528.973	10682.93
529.339	10691.51
529.705	10800.89
530.071	10870.72
530.437	10961.34
530.803	11034.55
531.169	10942.13
531.535	11051.96
531.901	11113.87
532.267	11138.28
532.632	11245.4
532.998	11203.59
533.364	11314.32
533.73	11332.4
534.095	11434.77
534.461	11420.08
534.826	11536.91
535.192	11552.28
535.557	11605.84
535.923	11699.85
536.288	11749.79
536.653	11739.17
537.019	11754.08
537.384	11749.11
537.749	11903.91
538.114	11908.88
538.479	11946.62
538.845	11968.32
539.21	12054.64
539.575	12148.88
539.94	12106.84
540.305	12188.87
540.67	12168.99
541.034	12240.17
541.399	12286.72
541.764	12317.01
542.129	12384.8
542.494	12452.37
542.858	12484.69
543.223	12520.62
543.587	12516.1
543.952	12613.5
544.316	12668.41
544.681	12696.88
545.045	12773.72
545.41	12825.92
545.774	12840.83
546.138	12840.38
546.503	12934.17
546.867	12953.37
547.231	13069.53
547.595	13094.84
547.959	13123.31
548.324	13142.07
548.688	13217.32
549.052	13245.57
549.416	13275.17
549.779	13306.81
550.143	13378.45
550.507	13436.07
550.871	13522.62
551.235	13521.04
551.599	13633.81
551.962	13664.54
552.326	13660.93
552.689	13695.28
553.053	13744.77
553.417	13675.16
553.78	13996.06
554.143	13913.8
554.507	14048.94
554.87	13853.92
555.234	14081.25
555.597	14123.96
555.96	14082.61
556.323	14133.91
556.686	14192.44
557.05	14319.21
557.413	14310.17
557.776	14304.53
558.139	14483.96
558.502	14454.13
558.865	14470.62
559.228	14549.26
559.59	14682.14
559.953	14582.48
560.316	14772.99
560.679	14779.09
561.041	14928.01
561.404	14916.26
561.767	15031.06
562.129	14888.46
562.492	15043.49
562.854	15133.2
563.217	15071.74
563.579	15203.03
563.941	15235.12
564.304	15378.17
564.666	15463.14
565.028	15380.43
565.39	15483.7
565.753	15578.62
566.115	15614.55
566.477	15677.37
566.839	15638.5
567.201	15789.46
567.563	15733.41
567.925	15911.94
568.287	15909.91
568.648	15939.96
569.01	15991.03
569.372	16171.14
569.734	16145.15
570.095	16270.8
570.457	16312.83
570.819	16423.79
571.18	16398.26
571.542	16524.58
571.903	16538.36
572.265	16658.36
572.626	16695.65
572.987	16772.48
573.349	16886.38
573.71	16997.11
574.071	16936.32
574.432	17134.06
574.794	17162.53
575.155	17282.98
575.516	17284.79
575.877	17465.57
576.238	17508.73
576.599	17662.63
576.96	17721.38
577.32	17837.99
577.681	17966.35
578.042	18063.07
578.403	18210.19
578.763	18242.73
579.124	18510.97
579.485	18721.36
579.845	18841.13
580.206	18901.24
580.566	19050.39
580.927	19201.12
581.287	19513.2
581.648	19592.97
582.008	19742.8
582.368	19837.03
582.728	20139.4
583.089	20238.38
583.449	20461.43
583.809	20632.72
584.169	20802.21
584.529	20948.87
584.889	21422.98
585.249	21390.21
585.609	21623.65
585.969	21971.67
586.329	22106.58
586.688	22321.26
587.048	22505.44
587.408	22787.47
587.768	22817.75
588.127	23231.52
588.487	23469.03
588.846	23849.36
589.206	23826.99
589.565	24212.29
589.925	24502
590.284	24783.12
590.643	24938.37
591.003	25441.63
591.362	25705.58
591.721	25850.21
592.08	26247.94
592.44	26475.73
592.799	26695.84
593.158	27059.44
593.517	27207.24
593.876	27559.32
594.235	27707.11
594.593	28120.43
594.952	28399.07
595.311	28577.37
595.67	28807.87
596.029	29270.23
596.387	29552.94
596.746	29771.46
597.104	29870.9
597.463	30249.64
597.822	30615.51
598.18	30654.15
598.538	30982.73
598.897	31294.36
599.255	31297.98
599.613	32053.44
599.972	32059.99
600.33	32325.29
600.688	32547.21
601.046	32900.42
601.404	33207.3
601.762	33235.78
602.12	33721.87
602.478	33959.38
602.836	34043.22
603.194	34217.45
603.552	34425.58
603.91	34449.31
604.268	34913.93
604.625	34955.73
604.983	35320.92
605.341	35393.91
605.698	35664.64
606.056	35944.63
606.413	36107.34
606.771	36490.61
607.128	36653.99
607.485	36685.86
607.843	37004.49
608.2	37283.36
608.557	37465.27
608.914	37503.24
609.272	37838.14
609.629	38064.13
609.986	38437.9
610.343	38234.29
610.7	38526.94
611.057	38705.47
611.414	38737.1
611.771	38911.56
612.127	39182.51
612.484	39262.51
612.841	39476.97
613.198	39565.33
613.554	39683.07
613.911	40038.99
614.267	40185.65
614.624	40168.93
614.98	40346.1
615.337	40759.42
615.693	40765.75
616.05	40739.31
616.406	41038.51
616.762	41130.71
617.118	41185.4
617.475	41308.56
617.831	41422.46
618.187	41612.06
618.543	41716.23
618.899	41993.74
619.255	41894.99
619.611	41962.1
619.967	42327.97
620.323	42385.37
620.678	42386.95
621.034	42385.59
621.39	42464.01
621.746	42289.55
622.101	42864.45
622.457	42792.36
622.812	42886.6
623.168	43037.1
623.523	42913.26
623.879	43308.96
624.234	42968.86
624.589	43233.26
624.945	43329.75
625.3	43288.4
625.655	43421.27
626.01	43511.89
626.365	43548.05
626.72	43619.46
627.075	43674.6
627.43	43572.91
627.785	43542.4
628.14	43787.14
628.495	43844.09
628.85	43795.95
629.205	43646.13
629.559	44029.62
629.914	43811.32
630.269	44009.28
630.623	43765.9
630.978	43782.62
631.332	43890.87
631.687	44068.04
632.041	43943.97
632.396	44080.47
632.75	44014.48
633.104	44004.99
633.459	43989.17
633.813	43836.4
634.167	43995.72
634.521	44027.36
634.875	44073.23
635.229	43930.41
635.583	43757.54
635.937	43879.34
636.291	43814.26
636.645	43954.82
636.999	43752.34
637.352	43922.5
637.706	43815.61
638.06	43980.35
638.413	43960.92
638.767	43796.4
639.121	43948.49
639.474	43633.25
639.828	43771.32
640.181	43909.4
640.534	43910.3
640.888	43808.83
641.241	43604.55
641.594	43733.81
641.947	43826.69
642.301	43644.09
642.654	43741.94
643.007	43620.14
643.36	43746.91
643.713	43779
644.066	43788.5
644.419	43555.51
644.771	43385.34
645.124	42953.94
645.477	42876.88
645.83	42595.98
646.182	42443.45
646.535	42289.55
646.888	42573.39
647.24	42363.45
647.593	42543.1
647.945	42447.74
648.298	42203
648.65	42289.78
649.002	42179.72
649.355	42300.4
649.707	42327.07
650.059	42464.91
650.411	42792.36
650.763	43002.53
651.115	43358
651.467	43122.3
651.819	43193.03
652.171	43142.86
652.523	43154.39
652.875	43100.38
653.227	42909.65
653.578	43071.9
653.93	43029.42
654.282	42971.12
654.633	42829.88
654.985	42949.65
655.337	42937.44
655.688	42876.43
656.039	43102.41
656.391	42735.64
656.742	42918.01
657.094	42784.91
657.445	42943.09
657.796	42855.64
658.147	42711.24
658.498	42776.77
658.849	42837.11
659.2	42841.63
659.551	42788.07
659.902	42864.68
660.253	42804.57
660.604	42782.87
660.955	42609.32
661.306	42817
661.656	42722.76
662.007	42744.46
662.358	42724.79
662.708	42700.84
663.059	42610
663.409	42447.06
663.76	42693.84
664.11	42748.3
664.461	42760.73
664.811	42675.98
665.161	42707.39
665.511	42605.7
665.862	42651.35
666.212	42828.07
666.562	42576.32
666.912	42581.97
667.262	42593.95
667.612	42450.23
667.962	42710.56
668.312	42451.81
668.662	42705.13
669.011	42543.56
669.361	42416.78
669.711	42469.66
670.06	42442.99
670.41	42459.04
670.76	42354.18
671.109	42552.6
671.459	42488.87
671.808	42267.18
672.157	42378.36
672.507	42256.56
672.856	42221.76
673.205	42325.94
673.554	42401.19
673.904	42298.37
674.253	42556.89
674.602	42359.15
674.951	41867.19
675.3	41649.79
675.649	42269.21
675.998	42192.83
676.346	42211.59
676.695	42299.04
677.044	41999.39
677.393	42078.71
677.741	42186.05
678.09	42164.36
678.438	42045.49
678.787	42074.42
679.135	42080.97
679.484	41768.89
679.832	41857.47
680.181	41717.14
680.529	41843.91
680.877	41680.98
681.225	41723.92
681.573	41781.99
681.922	41408.9
682.27	41440.99
682.618	41513.3
682.966	41362.8
683.314	41414.32
683.661	41288.45
684.009	41254.32
684.357	41173.88
684.705	41040.55
685.053	41137.72
685.4	41170.71
685.748	40793.32
686.095	40908.8
686.443	40867.44
686.79	40748.35
687.138	40965.07
687.485	40712.87
687.832	40572.31
688.18	40745.41
688.527	40524.63
688.874	40474.23
689.221	40352.2
689.568	40159.66
689.915	40170.96
690.262	40091.64
690.609	40036.28
690.956	39917.86
691.303	39916.28
691.65	39759.67
691.997	39783.18
692.344	39469.29
692.69	39268.84
693.037	39505.22
693.383	39145
693.73	39299.35
694.077	39038.34
694.423	39109.97
694.769	38997.89
695.116	38891.9
695.462	38879.47
695.808	38809.19
696.155	38860.94
696.501	38502.31
696.847	38567.84
697.193	38195.65
697.539	38392.03
697.885	37992.26
698.231	37985.71
698.577	38015.54
698.923	37939.16
699.269	37711.37
699.614	37687.86
699.96	37560.86
700.306	37672.05
700.651	37434.31
700.997	37274.54
701.342	37254.2
701.688	37289.68
702.033	37020.99
702.379	37098.95
702.724	36980.09
703.069	37067.77
703.415	36666.65
703.76	36560.44
704.105	36574
704.45	36524.51
704.795	36332.87
705.14	36261.01
705.485	36329.93
705.83	36028.47
706.175	36143.05
706.52	35923.17
706.865	35889.95
707.209	35972.66
707.554	35734.47
707.899	35644.53
708.243	35491.76
708.588	35530.41
708.932	35289.96
709.277	35301.49
709.621	35406.8
709.966	35195.5
710.31	35161.83
710.654	34969.52
710.998	34892.23
711.342	34842.06
711.687	34873.7
712.031	34719.58
712.375	34693.37
712.719	34720.94
713.063	34560.49
713.407	34777.43
713.75	34475.29
714.094	34533.15
714.438	34286.6
714.782	34415.63
715.125	34217
715.469	34233.94
715.812	34002.09
716.156	33899.72
716.499	33921.86
716.843	33861.98
717.186	33726.61
717.53	33903.56
717.873	33932.48
718.216	33827.85
718.559	33692.49
718.902	33397.13
719.246	33397.36
719.589	33447.98
719.932	33354.87
720.275	33290.69
720.617	33260.41
720.96	33213.86
721.303	33210.02
721.646	33190.13
721.989	32990.14
722.331	33000.08
722.674	32957.82
723.016	32869.23
723.359	32841.44
723.701	32834.66
724.044	32597.6
724.386	32471.73
724.729	32695.45
725.071	32533.42
725.413	32518.28
725.755	32603.7
726.097	32425.63
726.439	32247.33
726.782	32205.3
727.124	32328.46
727.465	32011.4
727.807	32200.1
728.149	32187.9
728.491	31983.61
728.833	32011.4
729.175	31946.32
729.516	31964.17
729.858	31776.83
730.199	31876.94
730.541	31709.94
730.882	31693.9
731.224	31831.07
731.565	31725.54
731.906	31579.1
732.248	31697.97
732.589	31464.75
732.93	31364.42
733.271	31354.02
733.612	31398.99
733.953	31491.64
734.294	31262.5
734.635	31203.52
734.976	31368.48
735.317	31003.07
735.658	31147.92
735.999	30952.9
736.339	31050.07
736.68	31187.47
737.021	31020.47
737.361	30907.48
737.702	30995.84
738.042	30856.63
738.383	30883.75
738.723	30810.08
739.063	30744.09
739.404	30840.14
739.744	30620.25
740.084	30435.63
740.424	30599.24
740.764	30424.33
741.104	30542.52
741.444	30464.78
741.784	30380.71
742.124	30394.27
742.464	30343.2
742.804	30176.2
743.143	30188.85
743.483	30249.19
743.823	29999.03
744.162	30045.81
744.502	30092.36
744.841	29908.41
745.181	30022.08
745.52	29917.9
745.86	29963.55
746.199	29929.42
746.538	29737.34
746.877	29896.21
747.216	29869.77
747.556	29752.03
747.895	29705.7
748.234	29584.8
748.573	29513.39
748.911	29481.75
749.25	29478.14
749.589	29325.15
749.928	29364.92
750.267	29375.54
750.605	29437.01
750.944	29218.94
751.283	29199.95
751.621	29260.29
751.96	29103.68
752.298	29069.56
752.636	29068.66
752.975	28952.73
753.313	28951.82
753.651	29018.26
753.989	28739.17
754.327	28771.94
754.666	28643.58
755.004	28680.87
755.342	28710.7
755.679	28519.52
756.017	28367.88
756.355	28602.68
756.693	28414.44
757.031	28342.8
757.368	28166.08
757.706	28139.64
758.044	28108.68
758.381	28086.76
