Data from hue_190_FLMS001491_00033.txt Node
Date: Tue Feb 07 16:45:11 GMT 2017
User: dcchb
Spectrometer: FLMS00149
Trigger mode: 0
Integration Time (sec): 2.000000E-2
Scans to average: 10
Electric dark correction enabled: true
Nonlinearity correction enabled: false
Boxcar width: 0
XAxis mode: Wavelengths
Number of Pixels in Spectrum: 2048
>>>>>Begin Spectral Data<<<<<
341.393	-18.64
341.776	-18.64
342.16	-18.64
342.543	-47.57
342.927	-63.16
343.31	-61.35
343.693	-57.96
344.077	-79.66
344.46	-56.83
344.843	-55.48
345.226	-25.88
345.61	-19.1
345.993	-20
346.376	-16.16
346.759	38.08
347.142	20.45
347.525	34.91
347.908	43.5
348.291	79.43
348.674	82.37
349.057	93.67
349.44	147.91
349.823	138.64
350.206	164.4
350.588	187.9
350.971	209.15
351.354	217.96
351.737	246.21
352.119	226.32
352.502	243.72
352.884	252.08
353.267	282.59
353.65	290.05
354.032	297.96
354.414	290.27
354.797	302.93
355.179	311.52
355.562	311.97
355.944	338.86
356.326	324.4
356.709	300.67
357.091	347.45
357.473	334.34
357.855	325.98
358.238	326.43
358.62	340.44
359.002	348.58
359.384	333.89
359.766	336.38
360.148	339.31
360.53	332.08
360.912	332.99
361.294	316.71
361.676	337.73
362.057	323.27
362.439	309.26
362.821	312.65
363.203	327.34
363.584	331.63
363.966	322.59
364.348	315.13
364.729	304.74
365.111	318.97
365.493	311.74
365.874	334.34
366.256	309.94
366.637	312.42
367.019	300.22
367.4	303.16
367.781	295.25
368.163	325.3
368.544	319.2
368.925	289.14
369.306	298.41
369.688	316.26
370.069	305.19
370.45	312.87
370.831	291.63
371.212	302.48
371.593	305.87
371.974	325.98
372.355	294.57
372.736	320.78
373.117	306.09
373.498	317.62
373.879	318.75
374.26	307
374.641	325.75
375.021	295.25
375.402	311.52
375.783	304.06
376.163	305.87
376.544	307
376.925	318.75
377.305	311.07
377.686	325.98
378.066	325.08
378.447	330.95
378.827	324.4
379.208	326.88
379.588	326.66
379.968	325.53
380.349	315.36
380.729	316.94
381.109	314
381.489	316.71
381.87	340.67
382.25	323.27
382.63	314.46
383.01	335.25
383.39	328.92
383.77	322.59
384.15	325.75
384.53	319.65
384.91	323.95
385.29	335.92
385.67	338.64
386.049	326.66
386.429	329.82
386.809	344.74
387.189	349.48
387.568	342.48
387.948	326.43
388.328	338.64
388.707	344.51
389.087	362.59
389.466	350.39
389.846	371.85
390.225	358.52
390.605	348.58
390.984	348.8
391.363	352.87
391.743	361.23
392.122	351.52
392.501	361.91
392.881	382.93
393.26	356.49
393.639	370.72
394.018	398.97
394.397	361.91
394.776	371.18
395.155	377.5
395.534	351.29
395.913	371.4
396.292	385.64
396.671	398.52
397.05	383.38
397.429	362.82
397.808	380.89
398.186	385.64
398.565	382.25
398.944	408.46
399.323	413.44
399.701	373.89
400.08	398.97
400.458	389.48
400.837	426.54
401.215	398.07
401.594	399.42
401.972	405.53
402.351	416.37
402.729	413.89
403.107	397.62
403.486	412.31
403.864	403.27
404.242	419.99
404.62	436.94
404.999	424.96
405.377	423.15
405.755	453.43
406.133	431.06
406.511	414.34
406.889	439.65
407.267	426.09
407.645	457.05
408.023	472.42
408.401	480.78
408.779	469.48
409.156	489.59
409.534	493.89
409.912	475.35
410.29	494.56
410.667	509.03
411.045	502.47
411.422	513.09
411.8	535.47
412.178	508.57
412.555	540.21
412.933	517.16
413.31	526.88
413.687	547.67
414.065	550.16
414.442	563.26
414.819	594.45
415.197	576.82
415.574	580.66
415.951	596.26
416.328	630.15
416.705	624.96
417.082	626.99
417.46	629.93
417.837	646.65
418.214	666.99
418.591	641.23
418.967	663.15
419.344	667.89
419.721	693.2
420.098	682.58
420.475	705.18
420.852	719.42
421.228	720.55
421.605	741.79
421.982	730.49
422.358	767.32
422.735	766.19
423.111	777.49
423.488	773.2
423.864	793.31
424.241	809.36
424.617	815.68
424.994	812.97
425.37	840.99
425.746	867.43
426.123	875.8
426.499	869.69
426.875	894.78
427.251	913.99
427.627	930.48
428.003	924.61
428.379	939.98
428.756	928.9
429.132	972.06
429.507	958.96
429.883	1010.93
430.259	995.79
430.635	998.5
431.011	1019.52
431.387	1031.27
431.763	1051.16
432.138	1050.71
432.514	1087.09
432.89	1072.85
433.265	1138.61
433.641	1123.47
434.016	1127.31
434.392	1151.95
434.767	1209.12
435.143	1186.07
435.518	1195.56
435.894	1238.05
436.269	1262.68
436.644	1274.66
437.02	1299.51
437.395	1335.45
437.77	1350.36
438.145	1389
438.52	1388.55
438.895	1391.71
439.271	1406.86
439.646	1469
440.021	1477.59
440.395	1493.18
440.77	1510.58
441.145	1516.23
441.52	1553.52
441.895	1539.96
442.27	1598.72
442.645	1596.91
443.019	1626.28
443.394	1627.87
443.769	1641.2
444.143	1629.67
444.518	1692.27
444.892	1665.38
445.267	1698.83
445.641	1716.9
446.016	1741.54
446.39	1721.42
446.764	1784.02
447.139	1772.72
447.513	1783.12
447.887	1802.33
448.262	1831.25
448.636	1850.23
449.01	1869.22
449.384	1868.54
449.758	1880.29
450.132	1901.76
450.506	1920.97
450.88	1912.15
451.254	1934.3
451.628	1986.95
452.002	1960.97
452.376	2038.03
452.75	1992.83
453.123	2048.87
453.497	2078.48
453.871	2105.37
454.244	2116.67
454.618	2125.03
454.992	2171.81
455.365	2156.67
455.739	2245.48
456.112	2256.78
456.486	2280.73
456.859	2287.51
457.232	2343.33
457.606	2343.55
457.979	2345.81
458.352	2422.42
458.725	2433.27
459.099	2422.65
459.472	2507.84
459.845	2526.37
460.218	2559.37
460.591	2577.22
460.964	2589.65
461.337	2690.21
461.71	2702.87
462.083	2725.69
462.456	2708.97
462.829	2765.46
463.201	2801.62
463.574	2855.63
463.947	2870.09
464.32	2947.61
464.692	2939.7
465.065	2984.67
465.438	3055.85
465.81	3079.58
466.183	3114.38
466.555	3173.59
466.928	3202.74
467.3	3179.01
467.672	3230.08
468.045	3351.21
468.417	3350.99
468.789	3378.1
469.161	3419.46
469.534	3493.35
469.906	3596.18
470.278	3583.52
470.65	3604.09
471.022	3659.23
471.394	3755.27
471.766	3800.69
472.138	3832.33
472.51	3938.77
472.882	4000.69
473.253	4010.4
473.625	4097.18
473.997	4160
474.369	4201.81
474.74	4268.93
475.112	4318.64
475.484	4428.7
475.855	4511.41
476.227	4536.49
476.598	4690.61
476.97	4697.84
477.341	4830.04
477.713	4893.32
478.084	4897.16
478.455	5041.56
478.827	5092.63
479.198	5261.9
479.569	5289.69
479.94	5451.5
480.311	5521.55
480.682	5537.82
481.053	5703.01
481.424	5794.99
481.795	5819.62
482.166	5992.27
482.537	6056.9
482.908	6141.19
483.279	6227.07
483.65	6272.26
484.021	6432.03
484.391	6474.75
484.762	6617.34
485.133	6673.84
485.503	6779.6
485.874	6904.79
486.244	6971.91
486.615	7065.46
486.985	7180.26
487.356	7265.68
487.726	7340.71
488.097	7483.53
488.467	7528.5
488.837	7699.57
489.207	7844.88
489.578	7921.03
489.948	7976.85
490.318	8116.74
490.688	8069.51
491.058	8211.42
491.428	8320.8
491.798	8395.82
492.168	8574.8
492.538	8536.61
492.908	8695.93
493.278	8774.35
493.648	8779.54
494.017	8914.91
494.387	8968.01
494.757	9010.5
495.126	9165.97
495.496	9175.69
495.866	9247.55
496.235	9288.23
496.605	9329.59
496.974	9350.15
497.344	9427.21
497.713	9476.47
498.082	9551.5
498.452	9620.65
498.821	9666.3
499.19	9665.62
499.559	9796.47
499.928	9858.61
500.298	9864.03
500.667	9920.3
501.036	9873.07
501.405	9937.03
501.774	9922.56
502.143	10079.4
502.512	10096.57
502.88	10132.05
503.249	10183.35
503.618	10205.49
503.987	10186.06
504.356	10254.31
504.724	10300.41
505.093	10292.05
505.462	10341.08
505.83	10397.35
506.199	10369.11
506.567	10483.23
506.936	10464.7
507.304	10533.62
507.672	10537.46
508.041	10597.8
508.409	10694.75
508.777	10725.03
509.145	10665.82
509.514	10636.67
509.882	10712.37
510.25	10750.56
510.618	10779.72
510.986	10799.38
511.354	10825.82
511.722	10965.02
512.09	10912.37
512.458	10846.16
512.826	10971.8
513.193	10939.94
513.561	10978.13
513.929	10972.93
514.297	11019.03
514.664	11035.76
515.032	11012.03
515.4	11140.84
515.767	11014.74
516.135	11104.45
516.502	11034.85
516.869	11113.72
517.237	11118.01
517.604	11073.72
517.972	11158.46
518.339	11192.14
518.706	11085.02
519.073	11108.52
519.44	11141.97
519.808	11251.12
520.175	11166.15
520.542	11223.55
520.909	11230.33
521.276	11156.2
521.643	11221.74
522.009	11171.34
522.376	11275.52
522.743	11284.34
523.11	11305.13
523.477	11298.35
523.843	11312.36
524.21	11382.41
524.577	11390.55
524.943	11333.83
525.31	11284.56
525.676	11384.9
526.043	11409.76
526.409	11377.67
526.776	11372.7
527.142	11456.99
527.508	11318.46
527.874	11407.72
528.241	11394.62
528.607	11338.12
528.973	11325.24
529.339	11265.13
529.705	11353.26
530.071	11414.5
530.437	11328.85
530.803	11257.22
531.169	11243.43
531.535	11140.16
531.901	11209.54
532.267	11165.7
532.632	11162.53
532.998	11126.15
533.364	11080.95
533.73	11091.8
534.095	11021.97
534.461	10981.29
534.826	10985.36
535.192	10962.99
535.557	10913.05
535.923	10813.39
536.288	10849.32
536.653	10834.63
537.019	10751.02
537.384	10732.03
537.749	10684.58
538.114	10595.54
538.479	10579.04
538.845	10567.52
539.21	10446.84
539.575	10445.94
539.94	10461.76
540.305	10478.26
540.67	10382.21
541.034	10352.38
541.399	10210.92
541.764	10145.83
542.129	10155.78
542.494	10097.02
542.858	10098.83
543.223	10002.56
543.587	10058.38
543.952	9969.57
544.316	9885.05
544.681	9849.35
545.045	9832.85
545.41	9737.71
545.774	9730.25
546.138	9652.06
546.503	9592.18
546.867	9507.43
547.231	9591.95
547.595	9411.39
547.959	9430.6
548.324	9340.88
548.688	9385.85
549.052	9245.75
549.416	9258.63
549.779	9191.51
550.143	9164.84
550.507	9130.04
550.871	9091.17
551.235	9007.56
551.599	9021.34
551.962	8948.8
552.326	8914.45
552.689	8954
553.053	8797.62
553.417	8761.69
553.78	8829.26
554.143	8672.2
554.507	8770.73
554.87	8640.56
555.234	8708.81
555.597	8603.5
555.96	8550.62
556.323	8542.26
556.686	8528.7
557.05	8599.89
557.413	8431.76
557.776	8411.42
558.139	8402.83
558.502	8434.24
558.865	8359.89
559.228	8381.59
559.59	8300.46
559.953	8244.19
560.316	8305.21
560.679	8282.16
561.041	8252.55
561.404	8284.87
561.767	8214.36
562.129	8142.72
562.492	8212.55
562.854	8182.04
563.217	8166.45
563.579	8148.83
563.941	8212.55
564.304	8198.77
564.666	8130.07
565.028	8161.48
565.39	8163.51
565.753	8168.03
566.115	8150.63
566.477	8147.24
566.839	8114.48
567.201	8104.08
567.563	8156.96
567.925	8115.38
568.287	8132.55
568.648	8110.63
569.01	8108.37
569.372	8123.06
569.734	8049.84
570.095	8076.96
570.457	8101.37
570.819	8091.2
571.18	8041.03
571.542	8104.08
571.903	8121.93
572.265	8076.28
572.626	8079.45
572.987	8093.69
573.349	8067.92
573.71	8109.96
574.071	8065.66
574.432	8077.87
574.794	8158.54
575.155	8105.89
575.516	8042.84
575.877	8093.23
576.238	8036.29
576.599	8093.91
576.96	8080.35
577.32	8051.65
577.681	8045.1
578.042	8052.33
578.403	8044.87
578.763	8058.66
579.124	8052.78
579.485	8050.75
579.845	8096.4
580.206	8047.59
580.566	8050.52
580.927	8024.31
581.287	8083.97
581.648	8013.01
582.008	8074.25
582.368	7997.42
582.728	7969.62
583.089	8003.29
583.449	7927.59
583.809	7922.16
584.169	7938.66
584.529	7929.62
584.889	7983.18
585.249	7948.15
585.609	7840.58
585.969	7927.36
586.329	7816.63
586.688	7969.39
587.048	7920.13
587.408	7956.29
587.768	7872.45
588.127	7824.99
588.487	7876.97
588.846	7916.29
589.206	7848.49
589.565	7840.58
589.925	7846.69
590.284	7824.54
590.643	7807.59
591.003	7829.29
591.362	7818.66
591.721	7849.62
592.08	7827.48
592.44	7783.41
592.799	7814.37
593.158	7795.84
593.517	7753.36
593.876	7741.38
594.235	7769.63
594.593	7731.21
594.952	7758.78
595.311	7722.62
595.67	7764.43
596.029	7730.08
596.387	7760.81
596.746	7771.89
597.104	7687.82
597.463	7670.42
597.822	7649.4
598.18	7633.13
598.538	7629.52
598.897	7714.26
599.255	7580.7
599.613	7696.86
599.972	7676.52
600.33	7686.92
600.688	7719.91
601.046	7540.03
601.404	7709.74
601.762	7647.82
602.12	7688.72
602.478	7716.75
602.836	7694.83
603.194	7568.5
603.552	7663.19
603.91	7586.35
604.268	7705.22
604.625	7586.35
604.983	7634.71
605.341	7617.31
605.698	7607.82
606.056	7654.38
606.413	7644.21
606.771	7627.94
607.128	7639.01
607.485	7562.63
607.843	7631.1
608.2	7622.74
608.557	7642.62
608.914	7639.01
609.272	7676.3
609.629	7651.44
609.986	7645.34
610.343	7631.55
610.7	7699.57
611.057	7681.94
611.414	7623.42
611.771	7653.92
612.127	7664.09
612.484	7629.52
612.841	7750.19
613.198	7667.26
613.554	7648.27
613.911	7749.51
614.267	7706.13
614.624	7750.87
614.98	7700.02
615.337	7777.99
615.693	7723.98
616.05	7670.65
616.406	7752.45
616.762	7758.1
617.118	7672.68
617.475	7706.13
617.831	7818.44
618.187	7725.79
618.543	7740.02
618.899	7759.68
619.255	7723.98
619.611	7787.7
619.967	7737.31
620.323	7731.89
620.678	7763.75
621.034	7735.28
621.39	7760.81
621.746	7705.22
622.101	7772.34
622.457	7733.47
622.812	7740.93
623.168	7728.05
623.523	7749.06
623.879	7838.32
624.234	7776.63
624.589	7767.14
624.945	7763.98
625.3	7720.14
625.655	7771.21
626.01	7688.95
626.365	7736.63
626.72	7784.09
627.075	7687.82
627.43	7726.01
627.785	7702.96
628.14	7789.29
628.495	7710.87
628.85	7733.69
629.205	7652.12
629.559	7769.4
629.914	7674.26
630.269	7679.01
630.623	7681.49
630.978	7640.82
631.332	7729.18
631.687	7670.42
632.041	7592.68
632.396	7603.75
632.75	7657.31
633.104	7597.88
633.459	7558.56
633.813	7627.71
634.167	7551.1
634.521	7610.76
634.875	7622.51
635.229	7539.35
635.583	7578.22
635.937	7505
636.291	7542.51
636.645	7613.25
636.999	7511.78
637.352	7485.11
637.706	7492.35
638.06	7489.63
638.413	7495.06
638.767	7503.42
639.121	7485.34
639.474	7403.76
639.828	7479.24
640.181	7392.46
640.534	7461.39
640.888	7432.23
641.241	7420.26
641.594	7367.15
641.947	7454.38
642.301	7455.74
642.654	7398.34
643.007	7425.23
643.36	7369.64
643.713	7385
644.066	7399.92
644.419	7365.34
644.771	7319.02
645.124	7234.5
645.477	7235.18
645.83	7189.3
646.182	7181.62
646.535	7122.19
646.888	7180.04
647.24	7140.04
647.593	7140.72
647.945	7122.19
648.298	7108.17
648.65	7138.68
649.002	7127.16
649.355	7166.48
649.707	7125.58
650.059	7065.69
650.411	7220.94
650.763	7227.04
651.115	7311.56
651.467	7303.88
651.819	7281.5
652.171	7305.68
652.523	7243.54
652.875	7209.64
653.227	7245.35
653.578	7320.37
653.93	7225.91
654.282	7225.91
654.633	7245.12
654.985	7328.96
655.337	7303.65
655.688	7281.5
656.039	7329.19
656.391	7323.31
656.742	7304.1
657.094	7310.43
657.445	7375.06
657.796	7272.46
658.147	7283.09
658.498	7311.56
658.849	7326.7
659.2	7259.58
659.551	7308.85
659.902	7404.89
660.253	7316.53
660.604	7317.66
660.955	7239.24
661.306	7359.24
661.656	7311.79
662.007	7366.02
662.358	7303.88
662.708	7356.98
663.059	7363.76
663.409	7288.06
663.76	7392.01
664.11	7341.39
664.461	7376.87
664.811	7346.36
665.161	7359.02
665.511	7314.04
665.862	7406.47
666.212	7399.69
666.562	7380.48
666.912	7384.1
667.262	7396.3
667.612	7388.62
667.962	7376.42
668.312	7344.1
668.662	7439.01
669.011	7344.55
669.361	7356.98
669.711	7378.45
670.06	7352.24
670.41	7363.31
670.76	7390.43
671.109	7402.63
671.459	7321.05
671.808	7273.14
672.157	7370.77
672.507	7305.01
672.856	7257.55
673.205	7341.16
673.554	7310.43
673.904	7324.44
674.253	7354.27
674.602	7250.09
674.951	7147.95
675.3	7175.29
675.649	7255.74
675.998	7254.16
676.346	7248.74
676.695	7319.69
677.044	7246.93
677.393	7211.45
677.741	7213.71
678.09	7261.62
678.438	7207.16
678.787	7268.17
679.135	7185.91
679.484	7197.66
679.832	7191.34
680.181	7164.22
680.529	7188.62
680.877	7121.28
681.225	7099.36
681.573	7122.86
681.922	7099.81
682.27	7059.81
682.618	7104.56
682.966	7085.8
683.314	7054.39
683.661	7016.65
684.009	7031.79
684.357	6976.65
684.705	6936.2
685.053	6933.72
685.4	6958.12
685.748	6901.63
686.095	6888.97
686.443	6864.11
686.79	6851.91
687.138	6937.56
687.485	6891.91
687.832	6824.57
688.18	6859.82
688.527	6801.06
688.874	6780.5
689.221	6767.39
689.568	6742.99
689.915	6702.76
690.262	6708.64
690.609	6666.38
690.956	6653.72
691.303	6632.71
691.65	6645.36
691.997	6667.73
692.344	6634.74
692.69	6629.77
693.037	6543.44
693.383	6532.82
693.73	6450.34
694.077	6417.35
694.423	6420.96
694.769	6463.67
695.116	6400.4
695.462	6395.88
695.808	6337.35
696.155	6363.11
696.501	6310.91
696.847	6298.25
697.193	6266.61
697.539	6274.07
697.885	6227.52
698.231	6231.36
698.577	6245.37
698.923	6204.47
699.269	6117.01
699.614	6136.67
699.96	6070.01
700.306	6034.76
700.651	6078.82
700.997	6037.47
701.342	6053.51
701.688	6000.63
702.033	5940.75
702.379	5996.34
702.724	5962.44
703.069	5927.19
703.415	5853.52
703.76	5883.35
704.105	5888.09
704.45	5780.3
704.795	5802.45
705.14	5771.26
705.485	5801.54
705.83	5766.97
706.175	5769
706.52	5706.4
706.865	5740.75
707.209	5727.42
707.554	5669.12
707.899	5664.37
708.243	5639.96
708.588	5587.08
708.932	5563.36
709.277	5577.14
709.621	5532.85
709.966	5555.67
710.31	5581.89
710.654	5557.71
710.998	5556.8
711.342	5463.7
711.687	5505.96
712.031	5479.97
712.375	5451.5
712.719	5437.71
713.063	5451.95
713.407	5480.65
713.75	5441.55
714.094	5424.15
714.438	5404.49
714.782	5385.96
715.125	5380.31
715.469	5409.01
715.812	5316.13
716.156	5329.24
716.499	5322.01
716.843	5369.69
717.186	5301.44
717.53	5338.05
717.873	5333.76
718.216	5362.01
718.559	5305.74
718.902	5245.62
719.246	5325.17
719.589	5313.19
719.932	5232.74
720.275	5276.13
720.617	5219.18
720.96	5238.39
721.303	5238.39
721.646	5261.44
721.989	5253.31
722.331	5261.67
722.674	5233.2
723.016	5229.58
723.359	5218.05
723.701	5260.77
724.044	5203.14
724.386	5188.23
724.729	5166.08
725.071	5180.09
725.413	5199.98
725.755	5210.15
726.097	5156.14
726.439	5169.02
726.782	5181.45
727.124	5190.48
727.465	5153.88
727.807	5154.78
728.149	5145.06
728.491	5132.18
728.833	5143.93
729.175	5144.38
729.516	5124.27
729.858	5109.58
730.199	5118.62
730.541	5185.51
730.882	5193.2
731.224	5173.54
731.565	5147.1
731.906	5143.71
732.248	5137.61
732.589	5136.48
732.93	5135.12
733.271	5115.91
733.612	5134.22
733.953	5145.74
734.294	5163.37
734.635	5126.53
734.976	5175.57
735.317	5146.42
735.658	5164.72
735.999	5174.89
736.339	5153.65
736.68	5210.82
737.021	5170.6
737.361	5121.11
737.702	5147.32
738.042	5180.54
738.383	5175.8
738.723	5244.27
739.063	5230.94
739.404	5238.39
739.744	5237.04
740.084	5242.46
740.424	5269.35
740.764	5281.56
741.104	5288.34
741.444	5275
741.784	5266.19
742.124	5354.77
742.464	5329.92
742.804	5340.09
743.143	5429.12
743.483	5392.51
743.823	5362.91
744.162	5391.84
744.502	5480.65
744.841	5445.62
745.181	5538.95
745.52	5535.11
745.86	5488.56
746.199	5578.27
746.538	5670.02
746.877	5688.1
747.216	5700.08
747.556	5740.98
747.895	5815.1
748.234	5821.88
748.573	5831.82
748.911	5885.61
749.25	6010.12
749.589	5993.85
749.928	6091.25
750.267	6160.85
750.605	6212.38
750.944	6225.03
751.283	6289.21
751.621	6449.21
751.96	6547.06
752.298	6547.06
752.636	6651.24
752.975	6738.47
753.313	6834.06
753.651	6948.86
753.989	6985.24
754.327	7123.09
754.666	7225.23
755.004	7363.76
755.342	7434.72
755.679	7615.73
756.017	7705.45
756.355	7888.04
756.693	7961.03
757.031	8177.98
757.368	8251.42
757.706	8436.95
758.044	8544.07
758.381	8697.06
758.719	8809.6
759.056	8971.4
759.394	9181.34
759.731	9270.83
760.068	9445.97
760.405	9615.68
760.743	9778.16
761.08	9895.9
761.417	10080.98
761.754	10299.05
762.091	10380.86
762.428	10621.75
762.765	10774.07
763.102	10944.23
763.438	11089.31
763.775	11287.73
764.112	11466.7
764.449	11517.55
764.785	11760.03
765.122	11972
765.458	12043.86
765.795	12221.94
766.131	12386.23
766.467	12551.2
766.804	12726.56
