Data from hue_190_FLMS001491_00055.txt Node
Date: Tue Feb 07 16:45:28 GMT 2017
User: dcchb
Spectrometer: FLMS00149
Trigger mode: 0
Integration Time (sec): 2.000000E-2
Scans to average: 10
Electric dark correction enabled: true
Nonlinearity correction enabled: false
Boxcar width: 0
XAxis mode: Wavelengths
Number of Pixels in Spectrum: 2048
>>>>>Begin Spectral Data<<<<<
341.393	-11.65
341.776	-11.65
342.16	-11.65
342.543	-59.33
342.927	-78.77
343.31	-55.04
343.693	-64.98
344.077	-58.66
344.46	-53.69
344.843	-43.06
345.226	-48.04
345.61	-31.09
345.993	-29.05
346.376	-3.97
346.759	-6.45
347.142	18.4
347.525	44.17
347.908	66.54
348.291	64.28
348.674	90.72
349.057	109.93
349.44	131.85
349.823	157.38
350.206	153.99
350.588	180.43
350.971	222.47
351.354	207.55
351.737	241
352.119	245.06
352.502	260.88
352.884	260.21
353.267	267.21
353.65	288
354.032	308.57
354.414	293.65
354.797	304.72
355.179	315.57
355.562	307.21
355.944	320.54
356.326	333.2
356.709	334.55
357.091	352.86
357.473	340.65
357.855	330.49
358.238	335.91
358.62	330.94
359.002	339.07
359.384	336.14
359.766	332.75
360.148	331.62
360.53	342.01
360.912	315.8
361.294	335.46
361.676	331.62
362.057	322.58
362.439	301.33
362.821	339.52
363.203	328
363.584	323.25
363.966	318.96
364.348	318.51
364.729	328
365.111	318.28
365.493	305.63
365.874	307.44
366.256	312.18
366.637	320.99
367.019	302.92
367.4	318.51
367.781	309.7
368.163	318.06
368.544	299.75
368.925	308.57
369.306	313.76
369.688	311.5
370.069	315.34
370.45	295.01
370.831	316.02
371.212	302.46
371.593	324.38
371.974	315.57
372.355	338.62
372.736	280.09
373.117	303.82
373.498	302.01
373.879	312.41
374.26	313.31
374.641	299.75
375.021	321.22
375.402	319.86
375.783	310.83
376.163	321.67
376.544	310.6
376.925	293.42
377.305	315.57
377.686	313.31
378.066	342.46
378.447	303.14
378.827	296.59
379.208	324.38
379.588	322.35
379.968	323.93
380.349	312.63
380.729	298.62
381.109	337.49
381.489	326.19
381.87	341.56
382.25	334.1
382.63	327.1
383.01	326.19
383.39	320.54
383.77	349.02
384.15	344.5
384.53	338.85
384.91	320.54
385.29	324.61
385.67	350.37
386.049	356.93
386.429	339.52
386.809	337.27
387.189	338.85
387.568	351.05
387.948	320.54
388.328	347.66
388.707	328
389.087	347.66
389.466	348.34
389.846	358.28
390.225	360.09
390.605	379.3
390.984	354.21
391.363	355.12
391.743	372.29
392.122	360.32
392.501	371.16
392.881	372.07
393.26	374.55
393.639	372.74
394.018	375.23
394.397	367.55
394.776	384.95
395.155	389.02
395.534	372.74
395.913	361.67
396.292	396.25
396.671	387.43
397.05	370.48
397.429	386.76
397.808	386.53
398.186	405.29
398.565	383.37
398.944	398.28
399.323	380.43
399.701	401.22
400.08	389.24
400.458	392.86
400.837	426.3
401.215	383.82
401.594	418.62
401.972	404.16
402.351	418.84
402.729	403.7
403.107	421.1
403.486	419.07
403.864	424.04
404.242	426.3
404.62	418.84
404.999	423.14
405.377	459.3
405.755	425.17
406.133	462.69
406.511	444.15
406.889	456.58
407.267	467.21
407.645	472.63
408.023	479.18
408.401	482.57
408.779	485.06
409.156	470.59
409.534	518.73
409.912	490.71
410.29	504.27
410.667	504.94
411.045	503.81
411.422	546.07
411.8	512.63
412.178	544.94
412.555	549.69
412.933	564.15
413.31	547.66
413.687	575.22
414.065	563.02
414.442	580.42
414.819	609.8
415.197	612.06
415.574	622.68
415.951	629.46
416.328	639.4
416.705	616.81
417.082	655
417.46	657.48
417.837	636.24
418.214	676.69
418.591	663.13
418.967	680.31
419.344	702.23
419.721	687.09
420.098	703.58
420.475	689.12
420.852	714.43
421.228	742
421.605	735.67
421.982	748.55
422.358	778.38
422.735	772.96
423.111	779.74
423.488	810.02
423.864	797.82
424.241	858.83
424.617	828.55
424.994	880.75
425.37	865.61
425.746	873.97
426.123	890.24
426.499	903.35
426.875	918.94
427.251	935.22
427.627	968.66
428.003	978.38
428.379	974.99
428.756	980.64
429.132	979.51
429.507	1000.07
429.883	1018.6
430.259	1034.2
430.635	1048.66
431.011	1055.44
431.387	1079.62
431.763	1080.52
432.138	1116.23
432.514	1093.18
432.89	1127.98
433.265	1173.85
433.641	1164.14
434.016	1194.19
434.392	1203.91
434.767	1228.54
435.143	1258.82
435.518	1260.18
435.894	1299.05
436.269	1308.09
436.644	1333.17
437.02	1353.74
437.395	1403.45
437.77	1419.72
438.145	1433.96
438.52	1447.97
438.895	1481.64
439.271	1487.07
439.646	1522.77
440.021	1547.63
440.395	1536.78
440.77	1551.47
441.145	1571.36
441.52	1608.19
441.895	1608.42
442.27	1674.63
442.645	1657.46
443.019	1702.2
443.394	1700.17
443.769	1727.06
444.143	1747.17
444.518	1745.36
444.892	1752.82
445.267	1760.73
445.641	1795.08
446.016	1820.62
446.39	1849.99
446.764	1882.08
447.139	1857
447.513	1865.81
447.887	1851.35
448.262	1895.42
448.636	1894.96
449.01	1932.7
449.384	1952.14
449.758	1973.61
450.132	1996.66
450.506	1983.32
450.88	2018.35
451.254	2019.93
451.628	2087.73
452.002	2050.89
452.376	2077.78
452.75	2118.24
453.123	2151.68
453.497	2178.8
453.871	2170.21
454.244	2194.62
454.618	2215.18
454.992	2276.2
455.365	2251.34
455.739	2348.29
456.112	2350.09
456.486	2370.88
456.859	2402.3
457.232	2450.43
457.606	2429.41
457.979	2485.23
458.352	2527.04
458.725	2553.93
459.099	2547.6
459.472	2642.74
459.845	2642.06
460.218	2638.9
460.591	2679.12
460.964	2738.56
461.337	2767.26
461.71	2809.52
462.083	2877.99
462.456	2874.83
462.829	2873.24
463.201	2953.24
463.574	2958.67
463.947	3041.37
464.32	3078.89
464.692	3107.36
465.065	3136.29
465.438	3188.49
465.81	3216.29
466.183	3243.86
466.555	3349.62
466.928	3346.9
467.3	3346.68
467.672	3392.78
468.045	3486.79
468.417	3509.39
468.789	3559.33
469.161	3585.99
469.534	3645.43
469.906	3735.59
470.278	3710.74
470.65	3816.72
471.022	3869.15
471.394	3943.05
471.766	3979.2
472.138	4051.29
472.51	4104.17
472.882	4181.46
473.253	4238.86
473.625	4308.69
473.997	4350.04
474.369	4385.75
474.74	4462.81
475.112	4573.76
475.484	4656.25
475.855	4722.23
476.227	4740.77
476.598	4868.9
476.97	4934.66
477.341	5032.28
477.713	5089.91
478.084	5163.13
478.455	5324.93
478.827	5352.5
479.198	5534.87
479.569	5520.63
479.94	5671.36
480.311	5714.98
480.682	5885.14
481.053	5987.74
481.424	6056.66
481.795	6151.8
482.166	6256.43
482.537	6365.36
482.908	6447.61
483.279	6553.37
483.65	6623.65
484.021	6776.19
484.391	6843.31
484.762	6948.62
485.133	6994.49
485.503	7114.26
485.874	7263.41
486.244	7360.81
486.615	7453.91
486.985	7575.27
487.356	7753.12
487.726	7768.26
488.097	7904.52
488.467	7941.58
488.837	8103.84
489.207	8205.76
489.578	8272.65
489.948	8373.89
490.318	8582.02
490.688	8511.74
491.058	8686.88
491.428	8806.42
491.798	8812.97
492.168	9070.37
492.538	9099.52
492.908	9153.08
493.278	9273.3
493.648	9309.68
494.017	9396.46
494.387	9491.83
494.757	9548.32
495.126	9657.02
495.496	9636.68
495.866	9794.64
496.235	9748.09
496.605	9941.76
496.974	9862.44
497.344	9986.73
497.713	10064.92
498.082	10047.74
498.452	10202.77
498.821	10116.67
499.19	10255.65
499.559	10308.08
499.928	10349.21
500.298	10465.36
500.667	10464.46
501.036	10420.16
501.405	10571.35
501.774	10512.14
502.143	10603.66
502.512	10656.54
502.88	10705.13
503.249	10677.78
503.618	10835.07
503.987	10793.71
504.356	10840.94
504.724	10965.91
505.093	10904.9
505.462	10901.73
505.83	11014.95
506.199	10978.57
506.567	11096.08
506.936	11061.95
507.304	11195.06
507.672	11163.87
508.041	11177.66
508.409	11244.77
508.777	11332.46
509.145	11292.23
509.514	11315.06
509.882	11350.31
510.25	11413.81
510.618	11460.59
510.986	11403.87
511.354	11474.83
511.722	11526.8
512.09	11557.08
512.458	11501.94
512.826	11584.43
513.193	11564.31
513.561	11635.05
513.929	11679.79
514.297	11720.24
514.664	11740.13
515.032	11677.31
515.4	11783.07
515.767	11799.34
516.135	11829.17
516.502	11707.14
516.869	11920.92
517.237	11833.46
517.604	11808.6
517.972	11853.35
518.339	11853.12
518.706	11886.57
519.073	11838.88
519.44	11863.52
519.808	11928.37
520.175	11870.3
520.542	11959.33
520.909	11960.46
521.276	11902.84
521.643	11947.81
522.009	11954.36
522.376	12051.08
522.743	12059.89
523.11	12058.54
523.477	12092.66
523.843	12149.61
524.21	12172.21
524.577	12149.61
524.943	12052.89
525.31	12201.36
525.676	12211.76
526.043	12155.71
526.409	12144.41
526.776	12237.52
527.142	12209.72
527.508	12146.45
527.874	12221.7
528.241	12153.9
528.607	12129.27
528.973	12247.69
529.339	12170.4
529.705	12165.2
530.071	12216.27
530.437	12140.57
530.803	12220.57
531.169	12048.14
531.535	11957.07
531.901	12046.34
532.267	12028.71
532.632	12018.54
532.998	11931.76
533.364	11944.64
533.73	11956.85
534.095	11927.92
534.461	11920.46
534.826	11950.75
535.192	11823.52
535.557	11845.66
535.923	11694.93
536.288	11726.34
536.653	11689.06
537.019	11613.35
537.384	11614.26
537.749	11602.96
538.114	11491.77
538.479	11436.41
538.845	11423.98
539.21	11411.1
539.575	11321.61
539.94	11318.22
540.305	11312.12
540.67	11214.95
541.034	11201.16
541.399	11203.19
541.764	11130.2
542.129	11094.5
542.494	10965.23
542.858	11007.72
543.223	10942.86
543.587	10893.82
543.952	10830.32
544.316	10783.32
544.681	10759.14
545.045	10714.39
545.41	10655.86
545.774	10624
546.138	10614.74
546.503	10507.39
546.867	10466.49
547.231	10460.39
547.595	10366.15
547.959	10390.56
548.324	10297.46
548.688	10268.08
549.052	10207.51
549.416	10220.17
549.779	10087.07
550.143	10078.25
550.507	10030.12
550.871	10037.58
551.235	9966.39
551.599	9960.74
551.962	9795.1
552.326	9920.52
552.689	9773.63
553.053	9787.41
553.417	9736.57
553.78	9732.05
554.143	9581.32
554.507	9636
554.87	9643.69
555.234	9603.91
555.597	9436.23
555.96	9492.05
556.323	9527.98
556.686	9448.21
557.05	9423.81
557.413	9409.34
557.776	9383.35
558.139	9374.54
558.502	9375.22
558.865	9303.36
559.228	9282.57
559.59	9226.07
559.953	9184.94
560.316	9291.15
560.679	9216.81
561.041	9224.49
561.404	9238.05
561.767	9299.52
562.129	9115.57
562.492	9184.49
562.854	9169.58
563.217	9123.7
563.579	9146.75
563.941	9165.51
564.304	9105.62
564.666	9156.02
565.028	9086.64
565.39	9114.44
565.753	9171.84
566.115	9111.95
566.477	9143.81
566.839	9124.15
567.201	9106.75
567.563	9082.12
567.925	9146.75
568.287	9107.43
568.648	9087.77
569.01	9071.05
569.372	9107.66
569.734	9081.67
570.095	9073.08
570.457	9056.13
570.819	9113.08
571.18	9031.5
571.542	9054.78
571.903	9053.65
572.265	9069.92
572.626	9072.4
572.987	9056.13
573.349	9086.87
573.71	9138.62
574.071	9121.44
574.432	9045.06
574.794	9167.32
575.155	9106.3
575.516	9053.87
575.877	9056.36
576.238	9091.39
576.599	9088.67
576.96	9043.02
577.32	9038.05
577.681	9096.81
578.042	9085.96
578.403	9116.47
578.763	9096.36
579.124	9041.44
579.485	9128.67
579.845	9116.24
580.206	9088.45
580.566	9047.77
580.927	9049.8
581.287	9056.13
581.648	9059.75
582.008	9091.84
582.368	9062.46
582.728	9001.44
583.089	9015.46
583.449	8972.07
583.809	8981.11
584.169	8917.6
584.529	8936.14
584.889	9027.21
585.249	8907.66
585.609	8975
585.969	8930.71
586.329	8927.77
586.688	8921.67
587.048	8921.9
587.408	8922.58
587.768	8881.45
588.127	8829.02
588.487	8852.07
588.846	8822.69
589.206	8859.98
589.565	8845.06
589.925	8808.68
590.284	8804.16
590.643	8807.32
591.003	8856.59
591.362	8827.21
591.721	8759.42
592.08	8799.42
592.44	8822.92
592.799	8756.25
593.158	8753.99
593.517	8747.67
593.876	8761
594.235	8791.28
594.593	8796.03
594.952	8725.75
595.311	8745.63
595.67	8675.8
596.029	8762.35
596.387	8673.09
596.746	8735.01
597.104	8678.74
597.463	8660.21
597.822	8694.79
598.18	8615.01
598.538	8628.57
598.897	8690.72
599.255	8544.28
599.613	8647.33
599.972	8637.16
600.33	8609.14
600.688	8632.41
601.046	8663.37
601.404	8669.25
601.762	8614.56
602.12	8671.51
602.478	8690.72
602.836	8701.11
603.194	8653.2
603.552	8689.81
603.91	8619.76
604.268	8662.47
604.625	8595.35
604.983	8679.87
605.341	8643.49
605.698	8640.1
606.056	8647.78
606.413	8603.49
606.771	8683.94
607.128	8691.4
607.485	8637.61
607.843	8597.84
608.2	8648.46
608.557	8640.55
608.914	8639.19
609.272	8718.74
609.629	8705.86
609.986	8663.6
610.343	8618.18
610.7	8717.61
611.057	8704.5
611.414	8678.51
611.771	8651.4
612.127	8711.73
612.484	8671.28
612.841	8732.3
613.198	8677.61
613.554	8657.27
613.911	8704.28
614.267	8750.6
614.624	8734.56
614.98	8704.5
615.337	8753.32
615.693	8705.41
616.05	8704.28
616.406	8865.4
616.762	8728.46
617.118	8779.98
617.475	8733.88
617.831	8834.89
618.187	8841.45
618.543	8798.29
618.899	8768.68
619.255	8737.95
619.611	8774.11
619.967	8768
620.323	8798.74
620.678	8781.11
621.034	8724.39
621.39	8776.14
621.746	8742.24
622.101	8843.71
622.457	8739.08
622.812	8804.84
623.168	8806.42
623.523	8805.29
623.879	8897.04
624.234	8807.32
624.589	8756.25
624.945	8800.32
625.3	8838.06
625.655	8721.23
626.01	8785.63
626.365	8773.65
626.72	8807.1
627.075	8718.74
627.43	8782.69
627.785	8729.36
628.14	8751.06
628.495	8779.53
628.85	8746.08
629.205	8671.28
629.559	8704.73
629.914	8733.2
630.269	8726.88
630.623	8745.18
630.978	8684.62
631.332	8675.13
631.687	8681.23
632.041	8701.11
632.396	8632.64
632.75	8575.47
633.104	8628.35
633.459	8585.18
633.813	8601.45
634.167	8666.99
634.521	8580.89
634.875	8562.36
635.229	8618.4
635.583	8490.95
635.937	8545.41
636.291	8544.73
636.645	8574.11
636.999	8532.76
637.352	8571.17
637.706	8505.19
638.06	8506.77
638.413	8518.74
638.767	8466.77
639.121	8441.01
639.474	8472.64
639.828	8467.22
640.181	8467.45
640.534	8470.16
640.888	8433.1
641.241	8372.08
641.594	8440.1
641.947	8395.36
642.301	8355.59
642.654	8414.79
643.007	8443.72
643.36	8407.79
643.713	8360.56
644.066	8381.12
644.419	8385.19
644.771	8332.76
645.124	8260.22
645.477	8313.55
645.83	8185.19
646.182	8137.06
646.535	8100.45
646.888	8155.36
647.24	8070.62
647.593	8188.58
647.945	8097.51
648.298	8074.01
648.65	8099.77
649.002	8099.55
649.355	8067.23
649.707	8118.3
650.059	8083.05
650.411	8279.43
650.763	8234.23
651.115	8311.74
651.467	8214.35
651.819	8302.25
652.171	8263.16
652.523	8205.53
652.875	8215.02
653.227	8271.52
653.578	8341.12
653.93	8266.1
654.282	8300.9
654.633	8231.07
654.985	8204.85
655.337	8245.98
655.688	8235.59
656.039	8321.24
656.391	8189.71
656.742	8249.37
657.094	8255.02
657.445	8277.17
657.796	8262.93
658.147	8274.23
658.498	8284.17
658.849	8264.97
659.2	8217.96
659.551	8245.31
659.902	8322.59
660.253	8254.35
660.604	8345.87
660.955	8221.8
661.306	8315.13
661.656	8315.13
662.007	8321.46
662.358	8349.26
662.708	8341.12
663.059	8319.43
663.409	8248.7
663.76	8356.94
664.11	8332.08
664.461	8330.28
664.811	8337.05
665.161	8306.32
665.511	8255.02
665.862	8314
666.212	8322.14
666.562	8374.57
666.912	8338.86
667.262	8306.55
667.612	8344.74
667.962	8347.45
668.312	8358.75
668.662	8343.61
669.011	8370.5
669.361	8381.57
669.711	8298.19
670.06	8309.03
670.41	8329.82
670.76	8253.44
671.109	8313.55
671.459	8295.7
671.808	8292.08
672.157	8290.05
672.507	8236.04
672.856	8253.67
673.205	8290.05
673.554	8350.84
673.904	8198.98
674.253	8299.09
674.602	8238.75
674.951	8125.53
675.3	8031.75
675.649	8231.52
675.998	8209.6
676.346	8221.35
676.695	8193.56
677.044	8100.68
677.393	8131.41
677.741	8144.29
678.09	8159.43
678.438	8118.98
678.787	8144.29
679.135	8175.25
679.484	8055.48
679.832	8091.86
680.181	8060.23
680.529	7993.79
680.877	8061.13
681.225	8018.19
681.573	8076.5
681.922	8040.79
682.27	7979.78
682.618	7988.14
682.966	7977.29
683.314	7985.2
683.661	7967.12
684.009	7924.86
684.357	7916.5
684.705	7859.1
685.053	7865.43
685.4	7881.7
685.748	7827.92
686.095	7814.58
686.443	7760.57
686.79	7731.2
687.138	7763.51
687.485	7673.34
687.832	7729.61
688.18	7716.51
688.527	7646.23
688.874	7656.62
689.221	7647.58
689.568	7648.94
689.915	7565.78
690.262	7581.82
690.609	7559.67
690.956	7576.17
691.303	7499.11
691.65	7467.7
691.997	7445.1
692.344	7375.5
692.69	7445.33
693.037	7439.68
693.383	7290.08
693.73	7322.84
694.077	7320.36
694.423	7276.97
694.769	7250.76
695.116	7212.79
695.462	7220.7
695.808	7228.16
696.155	7156.29
696.501	7104.09
696.847	7101.83
697.193	7098.9
697.539	7081.72
697.885	7026.35
698.231	6970.31
698.577	6974.15
698.923	6971.89
699.269	6933.25
699.614	6890.09
699.96	6851.44
700.306	6858.22
700.651	6874.27
700.997	6790.65
701.342	6810.54
701.688	6770.77
702.033	6739.13
702.379	6723.54
702.724	6670.43
703.069	6686.93
703.415	6607.61
703.76	6611.22
704.105	6609.87
704.45	6630.43
704.795	6537.55
705.14	6512.02
705.485	6556.54
705.83	6456.43
706.175	6500.49
706.52	6469.53
706.865	6461.62
707.209	6388.41
707.554	6384.56
707.899	6396.09
708.243	6354.51
708.588	6360.61
708.932	6327.62
709.277	6259.6
709.621	6316.09
709.966	6291.46
710.31	6268.18
710.654	6230.9
710.998	6259.82
711.342	6251.91
711.687	6188.41
712.031	6162.65
712.375	6149.77
712.719	6142.31
713.063	6149.09
713.407	6121.97
713.75	6101.63
714.094	6072.71
714.438	6108.41
714.782	6105.48
715.125	6123.1
715.469	6081.07
715.812	6038.58
716.156	6061.18
716.499	6018.47
716.843	6015.08
717.186	5976.89
717.53	6008.75
717.873	6029.54
718.216	6014.4
718.559	5986.16
718.902	5978.92
719.246	5957.23
719.589	5913.84
719.932	5943.22
720.275	5889.89
720.617	5918.36
720.96	5911.36
721.303	5852.83
721.646	5923.33
721.989	5919.27
722.331	5900.06
722.674	5916.33
723.016	5882.43
723.359	5904.8
723.701	5911.58
724.044	5902.77
724.386	5808.53
724.729	5842.21
725.071	5823.67
725.413	5871.81
725.755	5813.05
726.097	5761.08
726.439	5807.18
726.782	5788.42
727.124	5847.4
727.465	5802.21
727.807	5782.77
728.149	5768.76
728.491	5785.26
728.833	5766.95
729.175	5802.21
729.516	5809.66
729.858	5845.82
730.199	5809.66
730.541	5806.95
730.882	5787.07
731.224	5863
731.565	5785.03
731.906	5844.69
732.248	5827.29
732.589	5774.64
732.93	5793.17
733.271	5792.49
733.612	5854.41
733.953	5841.53
734.294	5859.38
734.635	5794.52
734.976	5818.93
735.317	5789.78
735.658	5841.53
735.999	5834.07
736.339	5816.67
736.68	5833.39
737.021	5830.23
737.361	5814.64
737.702	5887.4
738.042	5791.81
738.383	5800.4
738.723	5802.66
739.063	5868.42
739.404	5905.48
739.744	5865.48
740.084	5899.38
740.424	5883.56
740.764	5870.9
741.104	5938.02
741.444	5881.3
741.784	5980.28
742.124	5982.77
742.464	5947.29
742.804	5975.31
743.143	6037.23
743.483	6048.75
743.823	6047.4
744.162	6102.76
744.502	6129.2
744.841	6140.05
745.181	6171.24
745.52	6169.65
745.86	6232.25
746.199	6285.13
746.538	6275.19
746.877	6323.1
747.216	6398.35
747.556	6413.49
747.895	6411.23
748.234	6518.57
748.573	6543.2
748.911	6603.54
749.25	6688.06
749.589	6676.76
749.928	6781.62
750.267	6864.33
750.605	6915.17
750.944	6931.89
751.283	7012.8
751.621	7129.18
751.96	7154.49
752.298	7308.16
752.636	7402.84
752.975	7455.27
753.313	7570.75
753.651	7680.57
753.989	7777.97
754.327	7877.18
754.666	7937.52
755.004	8076.95
755.342	8208.92
755.679	8378.41
756.017	8494.56
756.355	8632.64
756.693	8700.66
757.031	8845.06
757.368	9057.71
757.706	9158.05
758.044	9280.76
758.381	9424.48
758.719	9658.15
759.056	9832.61
759.394	9895.88
759.731	10066.73
760.068	10258.81
760.405	10441.41
760.743	10593.94
761.08	10744.68
761.417	10964.1
761.754	11153.03
762.091	11284.77
762.428	11435.28
762.765	11586.01
763.102	11871.88
763.438	11958.88
763.775	12031.87
764.112	12314.58
764.449	12473.44
764.785	12677.28
765.122	12749.82
765.458	12854.68
765.795	13054.67
766.131	13336.25
766.467	13372.63
