Data from hue_250_FLMS001491_00079.txt Node
Date: Tue Feb 07 16:01:27 GMT 2017
User: dcchb
Spectrometer: FLMS00149
Trigger mode: 0
Integration Time (sec): 2.000000E-2
Scans to average: 10
Electric dark correction enabled: true
Nonlinearity correction enabled: false
Boxcar width: 0
XAxis mode: Wavelengths
Number of Pixels in Spectrum: 2048
>>>>>Begin Spectral Data<<<<<
341.393	-10.85
341.776	-10.85
342.16	-10.85
342.543	-44.52
342.927	-52.43
343.31	-63.05
343.693	-47.46
344.077	-79.32
344.46	-77.29
344.843	-47.68
345.226	-41.58
345.61	-22.82
345.993	-18.53
346.376	-2.49
346.759	-10.85
347.142	27.34
347.525	24.63
347.908	75.48
348.291	58.3
348.674	101.47
349.057	123.84
349.44	120.9
349.823	151.86
350.206	158.19
350.588	179.2
350.971	211.97
351.354	216.27
351.737	223.5
352.119	239.54
352.502	263.5
352.884	253.55
353.267	283.38
353.65	289.26
354.032	289.26
354.414	305.08
354.797	296.49
355.179	308.69
355.562	324.06
355.944	302.14
356.326	319.77
356.709	325.87
357.091	309.82
357.473	328.8
357.855	315.02
358.238	329.48
358.62	318.41
359.002	312.08
359.384	328.35
359.766	324.51
360.148	334.68
360.53	322.93
360.912	328.13
361.294	333.1
361.676	325.64
362.057	313.89
362.439	328.8
362.821	308.92
363.203	335.58
363.584	337.39
363.966	309.82
364.348	301.01
364.729	334.91
365.111	331.06
365.493	311.18
365.874	338.75
366.256	313.44
366.637	305.08
367.019	290.39
367.4	293.33
367.781	328.13
368.163	287
368.544	315.25
368.925	303.95
369.306	307.11
369.688	317.73
370.069	303.04
370.45	305.08
370.831	311.4
371.212	303.95
371.593	299.43
371.974	301.24
372.355	277.73
372.736	299.2
373.117	322.25
373.498	313.89
373.879	317.28
374.26	296.49
374.641	323.38
375.021	320.9
375.402	307.11
375.783	315.92
376.163	327.45
376.544	312.76
376.925	308.24
377.305	338.07
377.686	320.9
378.066	324.06
378.447	303.95
378.827	334.45
379.208	335.13
379.588	336.49
379.968	344.85
380.349	353.44
380.729	330.16
381.109	325.42
381.489	338.07
381.87	344.17
382.25	323.83
382.63	330.61
383.01	342.36
383.39	355.02
383.77	326.77
384.15	322.7
384.53	338.07
384.91	336.26
385.29	343.72
385.67	361.57
386.049	349.14
386.429	336.94
386.809	329.93
387.189	342.82
387.568	355.7
387.948	349.14
388.328	343.27
388.707	337.17
389.087	354.57
389.466	350.05
389.846	374.45
390.225	376.71
390.605	374.23
390.984	355.7
391.363	376.26
391.743	354.57
392.122	361.57
392.501	351.63
392.881	373.78
393.26	370.84
393.639	389.14
394.018	380.33
394.397	379.65
394.776	354.57
395.155	378.52
395.534	387.56
395.913	385.53
396.292	371.52
396.671	394.79
397.05	395.7
397.429	377.62
397.808	391.18
398.186	401.8
398.565	389.37
398.944	415.81
399.323	400.89
399.701	421.46
400.08	404.06
400.458	407.45
400.837	414
401.215	417.62
401.594	417.16
401.972	430.05
402.351	427.56
402.729	433.89
403.107	449.71
403.486	433.21
403.864	427.56
404.242	450.16
404.62	426.66
404.999	447.22
405.377	454.23
405.755	461.91
406.133	443.15
406.511	451.06
406.889	466.2
407.267	458.75
407.645	470.27
408.023	495.13
408.401	491.06
408.779	476.37
409.156	493.09
409.534	514.56
409.912	489.48
410.29	508.91
410.667	523.6
411.045	519.53
411.422	520.66
411.8	541.45
412.178	555.69
412.555	527.67
412.933	532.87
413.31	559.08
413.687	566.09
414.065	584.62
414.442	561.12
414.819	581.91
415.197	577.61
415.574	591.17
415.951	623.26
416.328	597.27
416.705	617.38
417.082	598.4
417.46	627.78
417.837	640.21
418.214	628.91
418.591	654.22
418.967	651.51
419.344	665.29
419.721	657.84
420.098	671.62
420.475	676.37
420.852	691.96
421.228	699.87
421.605	715.46
421.982	709.81
422.358	728.12
422.735	726.76
423.111	735.12
423.488	749.36
423.864	741.68
424.241	750.71
424.617	778.28
424.994	806.08
425.37	776.7
425.746	799.98
426.123	796.36
426.499	818.06
426.875	822.13
427.251	832.75
427.627	874.1
428.003	837.27
428.379	873.2
428.756	869.13
429.132	875.91
429.507	901.67
429.883	901.22
430.259	912.07
430.635	940.99
431.011	940.31
431.387	952.52
431.763	982.35
432.138	975.12
432.514	1006.98
432.89	987.77
433.265	1032.74
433.641	1032.29
434.016	1057.37
434.392	1071.61
434.767	1065.73
435.143	1122.46
435.518	1096.47
435.894	1118.39
436.269	1137.6
436.644	1161.55
437.02	1143.7
437.395	1183.25
437.77	1227.31
438.145	1215.11
438.52	1239.06
438.895	1234.54
439.271	1266.86
439.646	1277.71
440.021	1288.1
440.395	1319.97
440.77	1299.4
441.145	1300.98
441.52	1361.32
441.895	1371.49
442.27	1368.33
442.645	1384.6
443.019	1415.78
443.394	1394.99
443.769	1393.18
444.143	1425.5
444.518	1457.14
444.892	1460.98
445.267	1452.84
445.641	1457.36
446.016	1494.65
446.39	1481.32
446.764	1496.46
447.139	1477.7
447.513	1545.27
447.887	1521.32
448.262	1537.13
448.636	1525.38
449.01	1569.9
449.384	1576.91
449.758	1572.39
450.132	1606.74
450.506	1595.66
450.88	1614.87
451.254	1604.7
451.628	1650.8
452.002	1664.81
452.376	1696.23
452.75	1703.91
453.123	1709.11
453.497	1737.81
453.871	1759.05
454.244	1756.79
454.618	1780.97
454.992	1787.07
455.365	1817.81
455.739	1826.84
456.112	1837.01
456.486	1878.82
456.859	1900.29
457.232	1912.27
457.606	1888.09
457.979	1919.72
458.352	1970.57
458.725	2011.25
459.099	2010.12
459.472	2046.5
459.845	2053.96
460.218	2100.74
460.591	2087.18
460.964	2069.55
461.337	2129.89
461.71	2152.94
462.083	2212.15
462.456	2201.07
462.829	2192.03
463.201	2264.12
463.574	2251.47
463.947	2283.33
464.32	2311.35
464.692	2354.06
465.065	2349.32
465.438	2379.15
465.81	2423.89
466.183	2423.21
466.555	2474.29
466.928	2498.47
467.3	2511.8
467.672	2510.89
468.045	2602.87
468.417	2609.2
468.789	2617.11
469.161	2652.59
469.534	2705.47
469.906	2748.85
470.278	2719.93
470.65	2726.71
471.022	2808.97
471.394	2866.14
471.766	2879.47
472.138	2946.14
472.51	2986.59
472.882	2996.31
473.253	3016.64
473.625	3069.98
473.997	3153.82
474.369	3119.92
474.74	3202.63
475.112	3220.03
475.484	3308.61
475.855	3321.27
476.227	3328.05
476.598	3448.04
476.97	3458.21
477.341	3519.68
477.713	3592
478.084	3551.55
478.455	3640.81
478.827	3690.07
479.198	3764.65
479.569	3757.64
479.94	3860.01
480.311	3891.42
480.682	3970.97
481.053	4077.63
481.424	4121.7
481.795	4144.98
482.166	4184.3
482.537	4235.82
482.908	4323.05
483.279	4322.15
483.65	4431.97
484.021	4481.24
484.391	4520.79
484.762	4577.96
485.133	4602.59
485.503	4645.53
485.874	4712.64
486.244	4744.28
486.615	4832.64
486.985	4893.66
487.356	4962.13
487.726	4977.04
488.097	5115.12
488.467	5105.4
488.837	5153.08
489.207	5312.85
489.578	5333.65
489.948	5364.15
490.318	5433.3
490.688	5449.8
491.058	5505.62
491.428	5604.6
491.798	5628.55
492.168	5744.71
492.538	5725.95
492.908	5796.23
493.278	5821.32
493.648	5817.02
494.017	5926.85
494.387	5969.56
494.757	5979.73
495.126	6038.71
495.496	6048.43
495.866	6072.16
496.235	6104.92
496.605	6198.03
496.974	6212.72
497.344	6279.16
497.713	6295.65
498.082	6311.92
498.452	6370
498.821	6429.89
499.19	6389.66
499.559	6488.64
499.928	6478.47
500.298	6499.04
500.667	6578.81
501.036	6563.22
501.405	6573.39
501.774	6600.96
502.143	6642.31
502.512	6680.28
502.88	6706.04
503.249	6672.37
503.618	6755.08
503.987	6789.43
504.356	6819.71
504.724	6799.6
505.093	6880.5
505.462	6935.86
505.83	6874.62
506.199	6958.91
506.567	7008.86
506.936	7022.87
507.304	7042.3
507.672	7045.69
508.041	7066.03
508.409	7147.61
508.777	7160.49
509.145	7234.16
509.514	7199.81
509.882	7302.63
510.25	7268.74
510.618	7250.43
510.986	7238.68
511.354	7344.89
511.722	7407.71
512.09	7334.95
512.458	7377.66
512.826	7387.83
513.193	7438
513.561	7462.18
513.929	7467.6
514.297	7508.5
514.664	7559.12
515.032	7577.43
515.4	7603.87
515.767	7607.03
516.135	7664.43
516.502	7590.99
516.869	7682.28
517.237	7756.86
517.604	7626.47
517.972	7757.99
518.339	7745.79
518.706	7761.83
519.073	7732.68
519.44	7796.86
519.808	7803.41
520.175	7763.19
520.542	7866.91
520.909	7941.71
521.276	7926.8
521.643	7947.14
522.009	8035.49
522.376	7945.78
522.743	7988.04
523.11	8075.95
523.477	8102.16
523.843	8152.33
524.21	8100.13
524.577	8190.52
524.943	8174.25
525.31	8236.17
525.676	8213.12
526.043	8238.88
526.409	8291.76
526.776	8335.6
527.142	8283.85
527.508	8353.9
527.874	8356.62
528.241	8401.14
528.607	8396.39
528.973	8403.62
529.339	8429.83
529.705	8420.12
530.071	8475.71
530.437	8493.11
530.803	8472.55
531.169	8521.81
531.535	8480
531.901	8491.08
532.267	8444.52
532.632	8594.12
532.998	8515.03
533.364	8480.91
533.73	8544.18
534.095	8523.39
534.461	8544.63
534.826	8578.98
535.192	8629.38
535.557	8609.04
535.923	8596.84
536.288	8641.58
536.653	8609.72
537.019	8502.6
537.384	8571.53
537.749	8602.26
538.114	8577.85
538.479	8610.62
538.845	8617.4
539.21	8581.7
539.575	8575.37
539.94	8597.51
540.305	8642.26
540.67	8564.29
541.034	8579.44
541.399	8608.14
541.764	8583.28
542.129	8609.94
542.494	8559.1
542.858	8569.49
543.223	8623.95
543.587	8573.79
543.952	8611.75
544.316	8565.42
544.681	8536.72
545.045	8543.5
545.41	8626.89
545.774	8576.5
546.138	8532.66
546.503	8544.41
546.867	8529.95
547.231	8530.85
547.595	8563.16
547.959	8501.25
548.324	8546.44
548.688	8626.67
549.052	8596.16
549.416	8591.86
549.779	8486.78
550.143	8493.79
550.507	8538.53
550.871	8606.33
551.235	8578.53
551.599	8636.61
551.962	8551.19
552.326	8504.18
552.689	8536.05
553.053	8470.96
553.417	8541.02
553.78	8594.8
554.143	8584.86
554.507	8573.33
554.87	8606.55
555.234	8637.74
555.597	8555.71
555.96	8620.34
556.323	8657.85
556.686	8545.31
557.05	8670.28
557.413	8622.6
557.776	8694.91
558.139	8662.37
558.502	8641.35
558.865	8686.33
559.228	8674.12
559.59	8727.68
559.953	8748.47
560.316	8816.04
560.679	8755.48
561.041	8759.09
561.404	8847.68
561.767	8894
562.129	8844.29
562.492	8907.79
562.854	8873.66
563.217	8880.9
563.579	8925.19
563.941	8930.84
564.304	8980.55
564.666	9018.29
565.028	9044.73
565.39	9062.59
565.753	9130.83
566.115	9059.2
566.477	9076.37
566.839	9160.21
567.201	9203.15
567.563	9163.83
567.925	9137.84
568.287	9234.79
568.648	9220.55
569.01	9298.29
569.372	9366.76
569.734	9293.77
570.095	9353.43
570.457	9360.43
570.819	9397.94
571.18	9369.47
571.542	9500.77
571.903	9465.06
572.265	9488.56
572.626	9483.37
572.987	9527.66
573.349	9517.49
573.71	9499.64
574.071	9580.54
574.432	9596.58
574.794	9656.47
575.155	9684.27
575.516	9580.77
575.877	9705.51
576.238	9736.02
576.599	9708.22
576.96	9736.02
577.32	9726.98
577.681	9765.84
578.042	9815.56
578.403	9843.58
578.763	9835.67
579.124	9884.94
579.485	9849.23
579.845	9912.51
580.206	9884.49
580.566	9881.32
580.927	9940.53
581.287	9950.25
581.648	9909.12
582.008	10004.03
582.368	10013.07
582.728	10027.53
583.089	10044.48
583.449	10061.43
583.809	10085.16
584.169	10058.04
584.529	10087.19
584.889	10152.05
585.249	10113.41
585.609	10085.16
585.969	10166.74
586.329	10140.52
586.688	10222.1
587.048	10179.17
587.408	10180.98
587.768	10186.17
588.127	10097.59
588.487	10201.54
588.846	10289.22
589.206	10154.31
589.565	10159.73
589.925	10260.07
590.284	10269.79
590.643	10284.7
591.003	10342.78
591.362	10333.97
591.721	10279.05
592.08	10307.3
592.44	10292.84
592.799	10352.04
593.158	10312.5
593.517	10309.79
593.876	10378.48
594.235	10300.07
594.593	10363.34
594.952	10386.62
595.311	10298.49
595.67	10418.71
596.029	10443.57
596.387	10455.77
596.746	10434.3
597.104	10398.82
597.463	10439.05
597.822	10440.4
598.18	10392.95
598.538	10421.87
598.897	10496.67
599.255	10460.52
599.613	10553.85
599.972	10463.45
600.33	10554.98
600.688	10507.29
601.046	10570.12
601.404	10546.62
601.762	10519.5
602.12	10533.96
602.478	10578.7
602.836	10592.94
603.194	10461.65
603.552	10561.08
603.91	10513.85
604.268	10574.41
604.625	10514.98
604.983	10556.78
605.341	10577.57
605.698	10677.69
606.056	10579.83
606.413	10572.6
606.771	10640.17
607.128	10703.45
607.485	10621.87
607.843	10569.21
608.2	10663.45
608.557	10726.72
608.914	10648.53
609.272	10714.75
609.629	10730.79
609.986	10712.71
610.343	10684.69
610.7	10757.23
611.057	10812.6
611.414	10740.73
611.771	10795.42
612.127	10870.67
612.484	10863.67
612.841	10731.7
613.198	10748.42
613.554	10771.02
613.911	10957.23
614.267	10882.2
614.624	10889.88
614.98	10853.95
615.337	10919.71
615.693	10845.14
616.05	10868.41
616.406	10924.68
616.762	10909.54
617.118	10896.44
617.475	10882.65
617.831	10963.1
618.187	10938.02
618.543	10979.15
618.899	11020.95
619.255	10993.38
619.611	11009.43
619.967	10918.13
620.323	10984.8
620.678	10928.75
621.034	10947.06
621.39	10946.83
621.746	10960.39
622.101	11035.42
622.457	11038.58
622.812	10974.17
623.168	11021.41
623.523	11044.91
623.879	11048.98
624.234	10961.75
624.589	10971.46
624.945	11052.59
625.3	11040.39
625.655	10999.94
626.01	10975.3
626.365	10976.43
626.72	11009.2
627.075	10984.12
627.43	10980.73
627.785	10935.76
628.14	11016.89
628.495	10916.78
628.85	11041.74
629.205	10856.89
629.559	10944.12
629.914	10873.84
630.269	10890.34
630.623	10831.81
630.978	10874.97
631.332	10950.9
631.687	10957.45
632.041	10879.49
632.396	10881.52
632.75	10865.48
633.104	10874.06
633.459	10871.35
633.813	10792.71
634.167	10830.45
634.521	10803.33
634.875	10779.38
635.229	10790.68
635.583	10692.6
635.937	10758.59
636.291	10710.23
636.645	10739.6
636.999	10663
637.352	10710.68
637.706	10644.24
638.06	10681.98
638.413	10644.24
638.767	10629.78
639.121	10680.62
639.474	10590.23
639.828	10562.21
640.181	10629.78
640.534	10641.53
640.888	10569.89
641.241	10534.41
641.594	10577.57
641.947	10568.76
642.301	10491.48
642.654	10523.11
643.007	10583.45
643.36	10500.29
643.713	10523.79
644.066	10553.62
644.419	10410.8
644.771	10397.01
645.124	10297.81
645.477	10319.95
645.83	10234.08
646.182	10211.93
646.535	10160.86
646.888	10105.72
647.24	10129.9
647.593	10132.16
647.945	9986.63
648.298	10059.85
648.65	10057.81
649.002	10078.61
649.355	10078.83
649.707	10073.41
650.059	10085.84
650.411	10217.13
650.763	10259.17
651.115	10369.44
651.467	10280.86
651.819	10330.35
652.171	10332.16
652.523	10259.17
652.875	10232.27
653.227	10200.18
653.578	10260.07
653.93	10338.03
654.282	10170.35
654.633	10269.33
654.985	10160.18
655.337	10321.54
655.688	10251.93
656.039	10277.92
656.391	10232.95
656.742	10246.06
657.094	10216
657.445	10275.44
657.796	10186.17
658.147	10243.12
658.498	10225.95
658.849	10232.05
659.2	10130.13
659.551	10151.6
659.902	10223.91
660.253	10157.7
660.604	10171.71
660.955	10224.14
661.306	10213.29
661.656	10218.71
662.007	10192.5
662.358	10234.76
662.708	10241.54
663.059	10191.82
663.409	10140.75
663.76	10171.94
664.11	10236.79
664.461	10223.69
664.811	10221.88
665.161	10187.08
665.511	10163.35
665.862	10169.45
666.212	10182.33
666.562	10320.18
666.912	10248.54
667.262	10221.2
667.612	10232.73
667.962	10211.48
668.312	10131.26
668.662	10263.68
669.011	10191.14
669.361	10132.39
669.711	10221.43
670.06	10131.26
670.41	10167.87
670.76	10105.5
671.109	10099.85
671.459	10132.39
671.808	10111.82
672.157	10128.55
672.507	10080.19
672.856	10037.93
673.205	10153.41
673.554	10201.99
673.904	10099.62
674.253	10169
674.602	10096.23
674.951	10019.4
675.3	9925.16
675.649	10106.63
675.998	10008.1
676.346	10058.94
676.695	9993.18
677.044	9954.09
677.393	9973.07
677.741	9996.12
678.09	9969.91
678.438	9957.25
678.787	9915.22
679.135	9885.39
679.484	9913.19
679.832	9942.79
680.181	9842
680.529	9912.06
680.877	9857.59
681.225	9870.93
681.573	9884.94
681.922	9822.57
682.27	9803.81
682.618	9797.71
682.966	9775.11
683.314	9766.3
683.661	9759.52
684.009	9736.47
684.357	9673.64
684.705	9724.04
685.053	9682.68
685.4	9676.13
685.748	9642.46
686.095	9629.8
686.443	9556.13
686.79	9576.92
687.138	9614.21
687.485	9519.98
687.832	9512.74
688.18	9563.59
688.527	9493.08
688.874	9496.47
689.221	9487.89
689.568	9459.64
689.915	9396.82
690.262	9363.6
690.609	9349.58
690.956	9312.07
691.303	9290.6
691.65	9223.71
691.997	9249.7
692.344	9181.68
692.69	9165.18
693.037	9164.96
693.383	9129.7
693.73	9143.49
694.077	9102.13
694.423	8973.1
694.769	8987.33
695.116	8960.44
695.462	9006.99
695.808	8963.61
696.155	8915.47
696.501	8839.32
696.847	8880.22
697.193	8811.29
697.539	8866.21
697.885	8786.44
698.231	8704.86
698.577	8743.27
698.923	8696.72
699.269	8666.44
699.614	8602.49
699.96	8645.87
700.306	8576.95
700.651	8595.48
700.997	8558.65
701.342	8456.5
701.688	8494.47
702.033	8430.96
702.379	8454.01
702.724	8395.26
703.069	8372.89
703.415	8311.65
703.76	8333.79
704.105	8290.63
704.45	8265.55
704.795	8297.18
705.14	8230.74
705.485	8199.56
705.83	8211.76
706.175	8174.02
706.52	8184.64
706.865	8130.63
707.209	8103.29
707.554	8038.66
707.899	8066.91
708.243	8060.81
708.588	8012.22
708.932	7986.23
709.277	7978.55
709.621	8011.99
709.966	7950.07
710.31	7959.11
710.654	7924.31
710.998	7864.88
711.342	7880.24
711.687	7827.82
712.031	7768.61
712.375	7741.04
712.719	7767.48
713.063	7778.55
713.407	7790.76
713.75	7695.62
714.094	7740.14
714.438	7748.95
714.782	7701.94
715.125	7674.15
715.469	7701.27
715.812	7656.97
716.156	7610.65
716.499	7572.68
716.843	7627.6
717.186	7562.74
717.53	7610.87
717.873	7603.64
718.216	7598.67
718.559	7485.45
718.902	7495.4
719.246	7481.39
719.589	7445.45
719.932	7467.6
720.275	7430.31
720.617	7471.22
720.96	7448.17
721.303	7427.38
721.646	7399.35
721.989	7370.65
722.331	7353.7
722.674	7383.08
723.016	7355.74
723.359	7371.56
723.701	7363.42
724.044	7359.35
724.386	7283.2
724.729	7390.77
725.071	7343.99
725.413	7284.55
725.755	7323.65
726.097	7314.16
726.439	7216.08
726.782	7299.7
727.124	7303.31
727.465	7193.48
727.807	7199.13
728.149	7204.1
728.491	7220.38
728.833	7277.1
729.175	7230.77
729.516	7183.99
729.858	7172.01
730.199	7153.03
730.541	7192.35
730.882	7198.91
731.224	7223.31
731.565	7199.13
731.906	7180.83
732.248	7165.91
732.589	7191
732.93	7165.69
733.271	7140.6
733.612	7144.44
733.953	7166.82
734.294	7128.63
734.635	7105.12
734.976	7119.13
735.317	7122.07
735.658	7103.09
735.999	7098.57
736.339	7068.74
736.68	7140.38
737.021	7109.42
737.361	7067.38
737.702	7108.74
738.042	7125.24
738.383	7121.17
738.723	7135.18
739.063	7221.28
739.404	7135.41
739.744	7101.96
740.084	7138.57
740.424	7159.13
740.764	7184.67
741.104	7149.87
741.444	7116.65
741.784	7139.25
742.124	7144.9
742.464	7121.17
742.804	7165.91
743.143	7097.67
743.483	7164.11
743.823	7123.2
744.162	7235.97
744.502	7239.81
744.841	7225.35
745.181	7247.95
745.52	7288.17
745.86	7285.91
746.199	7324.1
746.538	7249.98
746.877	7329.07
747.216	7390.54
747.556	7372.69
747.895	7436.19
748.234	7438.67
748.573	7445.91
748.911	7544.89
749.25	7544.66
749.589	7571.55
749.928	7571.1
750.267	7661.04
750.605	7705.56
750.944	7779.91
751.283	7715.5
751.621	7834.6
751.96	7846.12
752.298	7942.16
752.636	7960.92
752.975	8003.18
753.313	8024.42
753.651	8168.37
753.989	8230.29
754.327	8281.82
754.666	8268.03
755.004	8417.86
755.342	8470.06
755.679	8574.69
756.017	8656.72
756.355	8722.93
756.693	8703.95
757.031	8890.84
757.368	8910.27
757.706	9033.89
758.044	9108.46
758.381	9242.02
758.719	9239.08
759.056	9472.75
759.394	9487.21
759.731	9545.96
760.068	9726.3
760.405	9742.12
760.743	9853.53
761.08	9918.61
761.417	9999.29
761.754	10117.7
762.091	10205.38
762.428	10347.98
762.765	10377.58
763.102	10550.68
763.438	10586.39
763.775	10664.58
764.112	10822.09
764.449	10987.06
