Data from hue_22_FLMS001491_00069.txt Node
Date: Tue Feb 07 17:10:30 GMT 2017
User: dcchb
Spectrometer: FLMS00149
Trigger mode: 0
Integration Time (sec): 2.000000E-2
Scans to average: 10
Electric dark correction enabled: true
Nonlinearity correction enabled: false
Boxcar width: 0
XAxis mode: Wavelengths
Number of Pixels in Spectrum: 2048
>>>>>Begin Spectral Data<<<<<
341.393	-25.35
341.776	-25.35
342.16	-25.35
342.543	-85.69
342.927	-83.66
343.31	-89.76
343.693	-39.14
344.077	-81.85
344.46	-56.09
344.843	-52.02
345.226	-44.56
345.61	-29.87
345.993	-18.12
346.376	-6.82
346.759	6.29
347.142	28.66
347.525	34.98
347.908	48.77
348.291	67.07
348.674	119.05
349.057	113.4
349.44	135.55
349.823	151.37
350.206	171.48
350.588	198.37
350.971	237.47
351.354	236.79
351.737	240.4
352.119	261.65
352.502	273.4
352.884	253.28
353.267	274.98
353.65	289.89
354.032	289.22
354.414	318.14
354.797	298.48
355.179	324.47
355.562	347.75
355.944	330.57
356.326	328.99
356.709	359.72
357.091	331.7
357.473	357.91
357.855	339.61
358.238	355.88
358.62	348.2
359.002	353.85
359.384	360.85
359.766	343.68
360.148	343.9
360.53	365.82
360.912	351.59
361.294	322.89
361.676	344.58
362.057	337.35
362.439	335.09
362.821	342.32
363.203	333.06
363.584	330.34
363.966	344.13
364.348	334.41
364.729	344.36
365.111	314.75
365.493	320.63
365.874	326.73
366.256	344.58
366.637	336.45
367.019	328.76
367.4	320.18
367.781	308.2
368.163	312.27
368.544	324.92
368.925	310.91
369.306	331.02
369.688	316.11
370.069	309.55
370.45	331.93
370.831	311.36
371.212	294.19
371.593	330.57
371.974	326.5
372.355	328.99
372.736	335.77
373.117	314.07
373.498	315.43
373.879	306.16
374.26	304.13
374.641	317.69
375.021	335.32
375.402	334.19
375.783	350.23
376.163	337.35
376.544	325.6
376.925	353.62
377.305	338.48
377.686	337.35
378.066	334.64
378.447	328.99
378.827	366.5
379.208	341.87
379.588	339.84
379.968	358.82
380.349	348.2
380.729	334.86
381.109	365.82
381.489	343.68
381.87	346.62
382.25	346.84
382.63	344.36
383.01	342.55
383.39	346.84
383.77	337.35
384.15	366.95
384.53	360.4
384.91	367.86
385.29	351.36
385.67	364.02
386.049	344.36
386.429	376.44
386.809	356.11
387.189	347.75
387.568	366.5
387.948	356.56
388.328	366.95
388.707	361.08
389.087	359.72
389.466	376.67
389.846	380.06
390.225	385.03
390.605	380.96
390.984	374.41
391.363	370.12
391.743	407.63
392.122	383.45
392.501	404.01
392.881	375.99
393.26	366.28
393.639	390.68
394.018	383.22
394.397	399.5
394.776	380.74
395.155	415.99
395.534	418.7
395.913	402.21
396.292	404.47
396.671	415.09
397.05	387.29
397.429	412.6
397.808	421.87
398.186	424.81
398.565	390.46
398.944	414.64
399.323	412.38
399.701	410.79
400.08	418.48
400.458	427.07
400.837	404.47
401.215	433.39
401.594	410.79
401.972	421.42
402.351	420.29
402.729	433.17
403.107	428.42
403.486	451.7
403.864	439.49
404.242	432.26
404.62	428.19
404.999	446.05
405.377	439.27
405.755	457.35
406.133	454.63
406.511	420.74
406.889	460.96
407.267	459.61
407.645	452.15
408.023	468.65
408.401	466.16
408.779	460.28
409.156	471.81
409.534	448.31
409.912	479.49
410.29	497.35
410.667	470
411.045	492.37
411.422	475.65
411.8	490.57
412.178	496.22
412.555	495.54
412.933	503.9
413.31	502.77
413.687	518.14
414.065	488.76
414.442	516.55
414.819	514.29
415.197	511.58
415.574	531.02
415.951	530.34
416.328	538.7
416.705	523.11
417.082	549.1
417.46	540.96
417.837	533.95
418.214	542.54
418.591	563.33
418.967	538.7
419.344	533.95
419.721	536.89
420.098	567.4
420.475	564.24
420.852	574.86
421.228	581.41
421.605	585.03
421.982	578.93
422.358	599.04
422.735	599.49
423.111	580.51
423.488	612.6
423.864	584.35
424.241	594.52
424.617	611.47
424.994	608.08
425.37	599.94
425.746	610.56
426.123	618.25
426.499	604.01
426.875	611.69
427.251	611.24
427.627	650.34
428.003	637.45
428.379	644.23
428.756	651.69
429.132	644.01
429.507	652.14
429.883	647.17
430.259	659.83
430.635	680.62
431.011	686.49
431.387	709.32
431.763	695.08
432.138	709.77
432.514	714.06
432.89	711.58
433.265	707.96
433.641	734.4
434.016	727.17
434.392	747.28
434.767	759.71
435.143	776.66
435.518	763.1
435.894	754.06
436.269	764.23
436.644	786.38
437.02	797.68
437.395	794.29
437.77	789.32
438.145	802.65
438.52	799.94
438.895	826.6
439.271	825.7
439.646	830.44
440.021	842.87
440.395	852.59
440.77	840.84
441.145	849.88
441.52	841.07
441.895	858.69
442.27	862.53
442.645	862.76
443.019	856.88
443.394	873.83
443.769	889.43
444.143	854.85
444.518	895.08
444.892	895.53
445.267	893.27
445.641	886.04
446.016	901.4
446.39	908.86
446.764	892.82
447.139	916.32
447.513	915.64
447.887	938.01
448.262	920.16
448.636	928.52
449.01	964
449.384	930.33
449.758	960.61
450.132	997.22
450.506	989.76
450.88	989.76
451.254	968.97
451.628	993.38
452.002	968.97
452.376	1005.81
452.75	1008.74
453.123	1047.39
453.497	1059.36
453.871	1045.35
454.244	1058.46
454.618	1078.57
454.992	1095.52
455.365	1071.57
455.739	1109.08
456.112	1136.65
456.486	1113.83
456.859	1138.68
457.232	1138.68
457.606	1130.1
457.979	1153.37
458.352	1179.36
458.725	1216.87
459.099	1184.33
459.472	1238.57
459.845	1212.58
460.218	1267.72
460.591	1268.85
460.964	1246.03
461.337	1295.97
461.71	1306.36
462.083	1289.87
462.456	1320.37
462.829	1322.18
463.201	1334.16
463.574	1342.75
463.947	1387.27
464.32	1410.54
464.692	1410.32
465.065	1409.41
465.438	1405.34
465.81	1450.31
466.183	1465.91
466.555	1498.68
466.928	1482.4
467.3	1532.8
467.672	1523.08
468.045	1564.44
468.417	1568.5
468.789	1583.19
469.161	1597.2
469.534	1644.43
469.906	1690.31
470.278	1675.39
470.65	1706.58
471.022	1751.78
471.394	1762.62
471.766	1760.14
472.138	1795.62
472.51	1826.35
472.882	1871.77
473.253	1878.78
473.625	1907.48
473.997	1946.8
474.369	1981.37
474.74	1988.38
475.112	2022.5
475.484	2063.63
475.855	2066.34
476.227	2121.71
476.598	2201.03
476.97	2219.11
477.341	2238.32
477.713	2295.49
478.084	2295.04
478.455	2374.58
478.827	2385.21
479.198	2491.19
479.569	2452.32
479.94	2533.45
480.311	2564.41
480.682	2643.05
481.053	2728.93
481.424	2748.81
481.795	2767.57
482.166	2821.58
482.537	2873.1
482.908	2962.59
483.279	2967.79
483.65	3015.92
484.021	3077.62
484.391	3104.28
484.762	3163.72
485.133	3205.75
485.503	3252.3
485.874	3358.51
486.244	3339.98
486.615	3435.57
486.985	3498.4
487.356	3606.19
487.726	3619.75
488.097	3684.83
488.467	3701.56
488.837	3767.99
489.207	3850.48
489.578	3916.24
489.948	3927.31
490.318	4015.22
490.688	4042.79
491.058	4073.75
491.428	4132.96
491.798	4198.27
492.168	4275.33
492.538	4289.11
492.908	4365.94
493.278	4457.92
493.648	4445.72
494.017	4543.12
494.387	4567.52
494.757	4587.63
495.126	4671.25
495.496	4704.92
495.866	4700.17
496.235	4787.85
496.605	4803
496.974	4822.88
497.344	4866.04
497.713	4922.77
498.082	4957.79
498.452	5016.55
498.821	5027.62
499.19	5085.93
499.559	5186.94
499.928	5156.88
500.298	5199.37
500.667	5240.72
501.036	5259.93
501.405	5258.58
501.774	5325.69
502.143	5365.24
502.512	5394.39
502.88	5423.09
503.249	5456.31
503.618	5485.46
503.987	5463.32
504.356	5515.29
504.724	5592.58
505.093	5605.46
505.462	5604.33
505.83	5649.98
506.199	5711.67
506.567	5819.01
506.936	5741.73
507.304	5814.72
507.672	5864.66
508.041	5878.67
508.409	5904.44
508.777	5975.39
509.145	6018.78
509.514	5959.57
509.882	6021.49
510.25	6064.88
510.618	6079.12
510.986	6078.22
511.354	6177.2
511.722	6212
512.09	6277.76
512.458	6237.31
512.826	6336.06
513.193	6328.15
513.561	6328.38
513.929	6355.04
514.297	6399.34
514.664	6446.79
515.032	6433.23
515.4	6467.58
515.767	6501.93
516.135	6548.94
516.502	6507.13
516.869	6656.96
517.237	6664.64
517.604	6666.9
517.972	6685.43
518.339	6685.43
518.706	6678.88
519.073	6771.53
519.44	6848.82
519.808	6810.17
520.175	6850.62
520.542	6920
520.909	6932.88
521.276	6911.64
521.643	7036.83
522.009	6993.67
522.376	7089.71
522.743	7076.83
523.11	7186.66
523.477	7196.6
523.843	7291.97
524.21	7365.64
524.577	7372.19
524.943	7392.31
525.31	7404.51
525.676	7522.7
526.043	7506.2
526.409	7510.27
526.776	7622.58
527.142	7649.25
527.508	7652.41
527.874	7757.72
528.241	7742.13
528.607	7741
528.973	7883.82
529.339	7845.63
529.705	7928.56
530.071	7909.58
530.437	8029.13
530.803	8069.12
531.169	8115.9
531.535	8110.7
531.901	8184.15
532.267	8163.81
532.632	8211.95
532.998	8248.78
533.364	8353.18
533.73	8343.24
534.095	8396.12
534.461	8473.86
534.826	8461.66
535.192	8530.58
535.557	8599.73
535.923	8526.74
536.288	8604.7
536.653	8647.87
537.019	8653.74
537.384	8694.87
537.749	8744.13
538.114	8788.88
538.479	8738.26
538.845	8803.34
539.21	8894.41
539.575	8882.66
539.94	8880.4
540.305	8959.27
540.67	8926.73
541.034	9026.61
541.399	9052.37
541.764	9022.32
542.129	9140.51
542.494	9112.49
542.858	9193.39
543.223	9220.73
543.587	9253.27
543.952	9245.82
544.316	9342.99
544.681	9398.35
545.045	9446.49
545.41	9462.08
545.774	9459.14
546.138	9467.28
546.503	9548.18
546.867	9561.29
547.231	9605.35
547.595	9622.53
547.959	9655.07
548.324	9699.82
548.688	9644.22
549.052	9714.73
549.416	9754.73
549.779	9824.56
550.143	9804.45
550.507	9880.38
550.871	9846.25
551.235	9919.02
551.599	9990.88
551.962	9991.11
552.326	10045.12
552.689	10105.45
553.053	10105.91
553.417	10065
553.78	10212.8
554.143	10178.22
554.507	10216.41
554.87	10251.44
555.234	10325.34
555.597	10285.56
555.96	10330.76
556.323	10376.63
556.686	10363.53
557.05	10544.77
557.413	10518.33
557.776	10476.97
558.139	10633.12
558.502	10600.81
558.865	10580.02
559.228	10679.22
559.59	10719.9
559.953	10668.83
560.316	10831.76
560.679	10872.21
561.041	10901.82
561.404	10956.51
561.767	11017.3
562.129	11002.61
562.492	11084.41
562.854	11106.78
563.217	11104.52
563.579	11128.7
563.941	11228.36
564.304	11225.2
564.666	11238.31
565.028	11335.03
565.39	11363.95
565.753	11443.27
566.115	11409.15
566.477	11511.29
566.839	11547.68
567.201	11665.19
567.563	11655.02
567.925	11705.64
568.287	11646.88
568.648	11684.17
569.01	11803.72
569.372	11936.37
569.734	11897.5
570.095	12019.08
570.457	11974.78
570.819	11965.29
571.18	12017.95
571.542	12142.46
571.903	12193.99
572.265	12208.45
572.626	12242.57
572.987	12271.27
573.349	12369.8
573.71	12471.27
574.071	12518.95
574.432	12622.9
574.794	12660.87
575.155	12704.03
575.516	12706.06
575.877	12836.46
576.238	12790.36
576.599	12962.55
576.96	13076.22
577.32	13113.51
577.681	13261.53
578.042	13310.57
578.403	13377.68
578.763	13471.24
579.124	13572.71
579.485	13682.76
579.845	13798.46
580.206	13946.03
580.566	14034.62
580.927	14124.78
581.287	14277.1
581.648	14430.31
582.008	14635.05
582.368	14733.58
582.728	14885.22
583.089	15080.92
583.449	15210.41
583.809	15387.8
584.169	15655.14
584.529	15749.83
584.889	15990.27
585.249	16044.73
585.609	16245.63
585.969	16576.47
586.329	16762.68
586.688	17053.07
587.048	17263.23
587.408	17418.71
587.768	17629.32
588.127	17915.87
588.487	18092.82
588.846	18496.19
589.206	18609.41
589.565	18928.05
589.925	19280.81
590.284	19389.28
590.643	19716.73
591.003	20108.13
591.362	20392.19
591.721	20645.29
592.08	20939.75
592.44	21320.75
592.799	21639.61
593.158	21893.62
593.517	22258.81
593.876	22544
594.235	22793.26
594.593	23178.33
594.952	23500.58
595.311	23724.31
595.67	24078.42
596.029	24588.24
596.387	24864.61
596.746	25270.71
597.104	25467.54
597.463	25803.57
597.822	26328.76
598.18	26432.48
598.538	26733.72
598.897	27144.33
599.255	27382.74
599.613	27935.72
599.972	28097.75
600.33	28441.02
600.688	28739.54
601.046	29099.08
601.404	29589.46
601.762	29777.71
602.12	30118.71
602.478	30475.31
602.836	30775.87
603.194	30847.51
603.552	31316.87
603.91	31449.75
604.268	32009.06
604.625	32075.5
604.983	32593.22
605.341	32656.5
605.698	33040.9
606.056	33460.77
606.413	33537.15
606.771	34031.38
607.128	34331.48
607.485	34427.3
607.843	34828.19
608.2	35045.59
608.557	35404
608.914	35608.74
609.272	36051.44
609.629	36206.01
609.986	36543.63
610.343	36649.39
610.7	36989.49
611.057	37191.97
611.414	37292.54
611.771	37531.63
612.127	37798.29
612.484	37949.02
612.841	38411.15
613.198	38456.12
613.554	38704.02
613.911	39033.28
614.267	39186.05
614.624	39346.49
614.98	39584.23
615.337	39933.6
615.693	40098.79
616.05	39943.31
616.406	40428.27
616.762	40520.02
617.118	40621.04
617.475	40866
617.831	41132.21
618.187	41197.52
618.543	41551.63
618.899	41772.19
619.255	41731.29
619.611	41950.72
619.967	42245.4
620.323	42387.32
620.678	42543.47
621.034	42430.25
621.39	42487.2
621.746	42603.81
622.101	43230.46
622.457	42900.3
622.812	43116.56
623.168	43331.25
623.523	43318.37
623.879	43618.47
624.234	43522.66
624.589	43651.69
624.945	43808.75
625.3	43966.94
625.655	43950.21
626.01	44008.52
626.365	44024.56
626.72	44140.72
627.075	44132.58
627.43	44202.19
627.785	44265.91
628.14	44270.21
628.495	44431.11
628.85	44418.68
629.205	44555.17
629.559	44768.72
629.914	44634.94
630.269	44808.72
630.623	44727.14
630.978	44665.9
631.332	44901.38
631.687	44930.08
632.041	44897.53
632.396	44934.14
632.75	44861.15
633.104	44979.11
633.459	44858.21
633.813	44942.5
634.167	44863.18
634.521	45022.28
634.875	45063.86
635.229	45078.55
635.583	45001.26
635.937	44959
636.291	45076.96
636.645	44982.73
636.999	44914.71
637.352	45158.54
637.706	44836.07
638.06	44990.87
638.413	44970.07
638.767	44878.1
639.121	45022.95
639.474	44786.12
639.828	44922.84
640.181	44926.91
640.534	44970.3
640.888	44836.52
641.241	44857.99
641.594	44879.23
641.947	44925.56
642.301	44748.16
642.654	44827.48
643.007	44794.03
643.36	45015.95
643.713	44838.1
644.066	44947.7
644.419	44794.26
644.771	44577.77
645.124	44171.23
645.477	44073.6
645.83	43840.39
646.182	43839.71
646.535	43816.21
646.888	43831.57
647.24	43603.78
647.593	43679.26
647.945	43784.8
648.298	43604.46
648.65	43517.91
649.002	43547.06
649.355	43642.88
649.707	43573.95
650.059	43742.08
650.411	44344.33
650.763	44291.67
651.115	44723.98
651.467	44527.83
651.819	44472.91
652.171	44417.09
652.523	44432.24
652.875	44331.9
653.227	44373.71
653.578	44611.44
653.93	44422.07
654.282	44182.52
654.633	44166.71
654.985	44247.83
655.337	44345.01
655.688	44328.06
656.039	44537.32
656.391	44076.99
656.742	44262.3
657.094	44161.06
657.445	44336.87
657.796	44169.87
658.147	44224.33
658.498	44219.81
658.849	44244.9
659.2	44289.87
659.551	44156.08
659.902	44250.09
660.253	44167.16
660.604	44199.47
660.955	44002.87
661.306	44158.12
661.656	44135.07
662.007	44036.31
662.358	44186.37
662.708	44168.97
663.059	44165.8
663.409	43840.16
663.76	44242.64
664.11	44100.94
664.461	44143.66
664.811	44252.13
665.161	44165.12
665.511	43971.46
665.862	44007.84
666.212	44187.27
666.562	44087.84
666.912	44061.17
667.262	43971.23
667.612	44168.97
667.962	44009.87
668.312	44108.63
668.662	44097.78
669.011	43989.76
669.361	43879.71
669.711	43783.67
670.06	43914.06
670.41	43861.4
670.76	43835.87
671.109	43968.52
671.459	43872.25
671.808	43865.24
672.157	43979.59
672.507	43620.96
672.856	43711.35
673.205	43885.81
673.554	43840.39
673.904	43818.47
674.253	43955.19
674.602	43767.85
674.951	43366.05
675.3	43069.33
675.649	43725.14
675.998	43646.72
676.346	43673.16
676.695	43701.63
677.044	43436.78
677.393	43539.15
677.741	43440.85
678.09	43370.34
678.438	43430.45
678.787	43459.83
679.135	43417.57
679.484	43282.44
679.832	43542.99
680.181	43150.91
680.529	43169.67
680.877	43065.72
681.225	43141.2
681.573	43385.48
681.922	43156.56
682.27	42927.87
682.618	42988.66
682.966	42867.53
683.314	42835.67
683.661	42808.32
684.009	42587.76
684.357	42519.97
684.705	42580.76
685.053	42569.01
685.4	42584.6
685.748	42334.66
686.095	42356.58
686.443	42063.03
686.79	42117.95
687.138	42238.62
687.485	42219.41
687.832	42081.11
688.18	42204.27
688.527	41863.26
688.874	41919.53
689.221	41785.75
689.568	41689.26
689.915	41617.39
690.262	41654.46
690.609	41603.16
690.956	41307.35
691.303	41408.13
691.65	41259.89
691.997	41261.92
692.344	40850.18
692.69	40864.19
693.037	40955.26
693.383	40593.01
693.73	40705.78
694.077	40576.52
694.423	40551.43
694.769	40323.42
695.116	40379.01
695.462	40265.34
695.808	40180.6
696.155	40308.05
696.501	39859.02
696.847	39925.69
697.193	39658.12
697.539	39888.4
697.885	39655.64
698.231	39410.22
698.577	39470.11
698.923	39394.18
699.269	39323.44
699.614	39099.27
699.96	38979.05
700.306	39007.52
700.651	38750.35
700.997	38643.46
701.342	38673.07
701.688	38506.06
702.033	38384.94
702.379	38368.21
702.724	38189.69
703.069	38370.02
703.415	37931.16
703.76	38006.19
704.105	38032.4
704.45	37869.7
704.795	37886.42
705.14	37613.43
705.485	37587.44
705.83	37474.9
706.175	37430.16
706.52	37425.64
706.865	37231.07
707.209	37222.71
707.554	37084.86
707.899	37187.68
708.243	37006.44
708.588	36902.26
708.932	36580.69
709.277	36747.69
709.621	36600.13
709.966	36385.67
710.31	36542.73
710.654	36282.85
710.998	36389.96
711.342	36332.11
711.687	36116.97
712.031	36037.88
712.375	35994.94
712.719	35990.42
713.063	35851.9
713.407	35996.53
713.75	35674.27
714.094	35738.23
714.438	35490.32
714.782	35596.31
715.125	35504.11
715.469	35594.5
715.812	35352.47
716.156	35237
716.499	35229.31
716.843	35197.45
717.186	34979.6
717.53	35110.22
717.873	35261.63
718.216	35032.26
718.559	34863.45
718.902	34573.06
719.246	34721.76
719.589	34594.75
719.932	34432.95
720.275	34543.68
720.617	34523.12
720.96	34432.27
721.303	34397.02
721.646	34374.87
721.989	34137.82
722.331	34356.79
722.674	34094.88
723.016	34188.21
723.359	34009.68
723.701	34060.08
724.044	33793.87
724.386	33885.17
724.729	33872.74
725.071	33736.25
725.413	33749.58
725.755	33772.85
726.097	33517.72
726.439	33344.84
726.782	33370.38
727.124	33656.25
727.465	33302.13
727.807	33341.45
728.149	33421.23
728.491	33202.93
728.833	33236.37
729.175	33091.52
729.516	33159.54
729.858	33035.93
730.199	33124.28
730.541	33010.39
730.882	33009.26
731.224	33032.76
731.565	32689.95
731.906	32769.49
732.248	32859.88
732.589	32577.86
732.93	32509.84
733.271	32525.2
733.612	32566.56
733.953	32523.17
734.294	32413.34
734.635	32243.86
734.976	32541.7
735.317	32181.71
735.658	32255.83
735.999	32279.56
736.339	32215.83
736.68	32267.36
737.021	32093.58
737.361	32082.05
737.702	32336.06
738.042	32085.44
738.383	31934.49
738.723	32116.4
739.063	32023.52
739.404	32000.7
739.744	31938.33
740.084	31762.29
740.424	31823.53
740.764	31807.71
741.104	31798.44
741.444	31520.26
741.784	31495.85
742.124	31589.18
742.464	31448.17
742.804	31516.19
743.143	31333.15
743.483	31372.69
743.823	31101.29
744.162	31225.58
744.502	31144.22
744.841	31206.82
745.181	31194.17
745.52	31033.27
745.86	31069.2
746.199	31061.29
746.538	31002.53
746.877	31091.34
747.216	31116.88
747.556	30928.86
747.895	30944.68
748.234	30785.59
748.573	30776.1
748.911	30582.66
749.25	30683.44
749.589	30558.25
749.928	30608.64
750.267	30604.35
750.605	30435.54
750.944	30527.97
751.283	30425.37
751.621	30514.86
751.96	30226.73
752.298	30260.18
752.636	30285.94
752.975	29993.52
753.313	29990.81
753.651	30116.68
753.989	29941.77
754.327	29837.37
754.666	29777.71
755.004	29798.95
755.342	29739.51
755.679	29718.05
756.017	29528.22
756.355	29736.12
756.693	29563.02
757.031	29515.11
757.368	29458.84
757.706	29204.16
758.044	29193.09
758.381	29391.5
758.719	29191.51
