Data from hue_32_FLMS001491_00029.txt Node
Date: Tue Feb 07 17:23:07 GMT 2017
User: dcchb
Spectrometer: FLMS00149
Trigger mode: 0
Integration Time (sec): 2.000000E-2
Scans to average: 10
Electric dark correction enabled: true
Nonlinearity correction enabled: false
Boxcar width: 0
XAxis mode: Wavelengths
Number of Pixels in Spectrum: 2048
>>>>>Begin Spectral Data<<<<<
341.393	-1.82
341.776	-1.82
342.16	-1.82
342.543	-54.93
342.927	-52.67
343.31	-55.38
343.693	-68.49
344.077	-72.33
344.46	-60.58
344.843	-25.1
345.226	-61.26
345.61	-29.62
345.993	-19
346.376	-24.65
346.759	9.7
347.142	27.1
347.525	38.63
347.908	58.52
348.291	80.21
348.674	87.22
349.057	115.01
349.44	122.92
349.823	140.77
350.206	162.47
350.588	202.69
350.971	207.44
351.354	246.31
351.737	255.57
352.119	246.53
352.502	270.26
352.884	270.26
353.267	289.02
353.65	300.99
354.032	297.83
354.414	312.29
354.797	315.68
355.179	326.08
355.562	336.02
355.944	326.53
356.326	327.43
356.709	338.06
357.091	319.07
357.473	340.09
357.855	350.26
358.238	347.1
358.62	351.39
359.002	347.55
359.384	354.78
359.766	352.07
360.148	348.68
360.53	332.63
360.912	326.98
361.294	371.5
361.676	323.82
362.057	348.23
362.439	339.19
362.821	338.51
363.203	342.58
363.584	337.15
363.966	325.85
364.348	329.24
364.729	329.69
365.111	317.27
365.493	350.26
365.874	323.82
366.256	321.56
366.637	300.77
367.019	324.27
367.4	311.62
367.781	308.9
368.163	313.2
368.544	302.8
368.925	312.07
369.306	329.92
369.688	323.14
370.069	324.95
370.45	322.92
370.831	331.28
371.212	305.97
371.593	324.05
371.974	321.33
372.355	319.3
372.736	329.92
373.117	335.8
373.498	336.02
373.879	333.08
374.26	323.37
374.641	307.32
375.021	314.1
375.402	314.33
375.783	323.82
376.163	325.18
376.544	328.11
376.925	348.45
377.305	336.47
377.686	357.26
378.066	337.38
378.447	342.58
378.827	346.19
379.208	340.09
379.588	337.83
379.968	349.81
380.349	344.16
380.729	336.7
381.109	351.39
381.489	357.26
381.87	354.1
382.25	332.86
382.63	358.39
383.01	324.95
383.39	356.81
383.77	347.32
384.15	355.23
384.53	364.27
384.91	363.82
385.29	353.42
385.67	346.42
386.049	348.45
386.429	382.8
386.809	359.75
387.189	366.98
387.568	371.73
387.948	375.12
388.328	365.85
388.707	372.18
389.087	358.85
389.466	357.49
389.846	364.5
390.225	357.94
390.605	367.21
390.984	361.11
391.363	395
391.743	375.34
392.122	381.44
392.501	397.94
392.881	374.67
393.26	389.13
393.639	395.23
394.018	396.81
394.397	388.9
394.776	375.34
395.155	397.26
395.534	400.2
395.913	379.64
396.292	393.42
396.671	391.84
397.05	381.67
397.429	384.38
397.808	406.75
398.186	411.5
398.565	396.13
398.944	399.07
399.323	394.1
399.701	424.16
400.08	410.14
400.458	407.88
400.837	408.11
401.215	381.9
401.594	394.33
401.972	411.5
402.351	416.92
402.729	413.53
403.107	436.36
403.486	423.25
403.864	431.39
404.242	414.44
404.62	428
404.999	418.51
405.377	427.09
405.755	437.26
406.133	435.91
406.511	459.86
406.889	450.82
407.267	447.66
407.645	447.43
408.023	446.3
408.401	458.28
408.779	456.47
409.156	457.37
409.534	459.63
409.912	460.76
410.29	471.84
410.667	481.33
411.045	486.75
411.422	483.81
411.8	482.91
412.178	490.82
412.555	487.66
412.933	486.75
413.31	481.78
413.687	477.49
414.065	500.76
414.442	501.67
414.819	530.59
415.197	505.06
415.574	522.23
415.951	514.77
416.328	528.11
416.705	494.44
417.082	530.37
417.46	539.18
417.837	526.3
418.214	533.31
418.591	532.18
418.967	516.81
419.344	520.65
419.721	548.67
420.098	526.98
420.475	518.62
420.852	546.41
421.228	539.63
421.605	555.68
421.982	565.39
422.358	566.07
422.735	580.08
423.111	575.34
423.488	550.48
423.864	556.36
424.241	581.89
424.617	577.82
424.994	585.28
425.37	590.25
425.746	598.84
426.123	598.39
426.499	595.68
426.875	605.62
427.251	619.86
427.627	603.59
428.003	607.43
428.379	625.05
428.756	625.96
429.132	609.91
429.507	618.05
429.883	660.08
430.259	653.75
430.635	632.74
431.011	642.91
431.387	649.69
431.763	671.15
432.138	659.86
432.514	668.44
432.89	700.98
433.265	698.5
433.641	685.62
434.016	686.52
434.392	724.71
434.767	721.1
435.143	709.35
435.518	710.93
435.894	713.64
436.269	719.29
436.644	745.73
437.02	748.44
437.395	719.06
437.77	733.53
438.145	765.62
438.52	764.94
438.895	755.67
439.271	776.24
439.646	798.83
440.021	795.67
440.395	799.51
440.77	794.09
441.145	791.6
441.52	843.35
441.895	814.2
442.27	844.94
442.645	821.43
443.019	820.3
443.394	822.56
443.769	829.34
444.143	818.5
444.518	849
444.892	842.68
445.267	842.22
445.641	856.91
446.016	848.55
446.39	863.01
446.764	862.79
447.139	859.85
447.513	869.12
447.887	865.73
448.262	886.74
448.636	882.22
449.01	908.89
449.384	919.51
449.758	895.1
450.132	881.77
450.506	892.39
450.88	918.83
451.254	935.55
451.628	938.72
452.002	953.18
452.376	933.52
452.75	961.77
453.123	955.89
453.497	990.69
453.871	969.9
454.244	991.37
454.618	984.59
454.992	1002.22
455.365	1006.74
455.739	1044.48
456.112	1035.44
456.486	1073.4
456.859	1061.88
457.232	1089.67
457.606	1061.2
457.979	1091.03
458.352	1099.39
458.725	1121.09
459.099	1101.43
459.472	1125.61
459.845	1156.57
460.218	1171.25
460.591	1166.96
460.964	1165.38
461.337	1213.74
461.71	1204.02
462.083	1230.46
462.456	1232.95
462.829	1257.35
463.201	1244.7
463.574	1257.58
463.947	1281.31
464.32	1308.43
464.692	1336
465.065	1333.74
465.438	1335.77
465.81	1326.73
466.183	1363.11
466.555	1414.64
466.928	1427.29
467.3	1430.23
467.672	1409.44
468.045	1472.49
468.417	1477.91
468.789	1477.46
469.161	1499.16
469.534	1550.45
469.906	1603.79
470.278	1579.38
470.65	1622.09
471.022	1615.54
471.394	1667.74
471.766	1725.14
472.138	1726.27
472.51	1735.76
472.882	1781.63
473.253	1778.24
473.625	1831.8
473.997	1894.17
474.369	1873.61
474.74	1943.44
475.112	1975.98
475.484	1996.77
475.855	2073.15
476.227	2090.55
476.598	2137.33
476.97	2169.87
477.341	2235.18
477.713	2235.41
478.084	2270.66
478.455	2366.93
478.827	2408.06
479.198	2480.6
479.569	2499.81
479.94	2600.37
480.311	2609.86
480.682	2650.76
481.053	2771.21
481.424	2820.02
481.795	2859.57
482.166	2930.3
482.537	2994.03
482.908	3062.28
483.279	3102.5
483.65	3169.62
484.021	3269.73
484.391	3354.02
484.762	3386.34
485.133	3459.1
485.503	3548.59
485.874	3565.32
486.244	3706.78
486.615	3740.9
486.985	3861.81
487.356	3948.36
487.726	4010.05
488.097	4115.13
488.467	4198.97
488.837	4250.5
489.207	4283.49
489.578	4438.97
489.948	4498.17
490.318	4634.21
490.688	4646.42
491.058	4744.72
491.428	4810.48
491.798	4943.58
492.168	5054.99
492.538	5098.16
492.908	5151.04
493.278	5309.45
493.648	5350.35
494.017	5419.28
494.387	5464.02
494.757	5583.57
495.126	5721.19
495.496	5702.89
495.866	5749.89
496.235	5853.39
496.605	5989.88
496.974	6024.46
497.344	6085.7
497.713	6202.99
498.082	6270.78
498.452	6359.82
498.821	6391.46
499.19	6400.72
499.559	6464.22
499.928	6613.6
500.298	6572.47
500.667	6731.11
501.036	6731.33
501.405	6814.5
501.774	6893.14
502.143	6926.36
502.512	6982.18
502.88	7071.66
503.249	7123.64
503.618	7252.22
503.987	7187.82
504.356	7312.79
504.724	7381.26
505.093	7344.88
505.462	7446.34
505.83	7532.44
506.199	7575.61
506.567	7672.1
506.936	7752.32
507.304	7763.85
507.672	7827.35
508.041	7859.21
508.409	7927.69
508.777	8048.14
509.145	8062.6
509.514	8128.13
509.882	8158.87
510.25	8226.21
510.618	8296.04
510.986	8305.98
511.354	8354.57
511.722	8396.6
512.09	8521.12
512.458	8514.11
512.826	8564.28
513.193	8642.47
513.561	8697.61
513.929	8756.37
514.297	8798.85
514.664	8926.3
515.032	8876.14
515.4	8953.42
515.767	8943.48
516.135	9082.23
516.502	8997.72
516.869	9193.87
517.237	9182.34
517.604	9230.03
517.972	9274.54
518.339	9333.75
518.706	9330.81
519.073	9332.62
519.44	9430.92
519.808	9498.95
520.175	9477.48
520.542	9690.8
520.909	9621.2
521.276	9647.64
521.643	9751.82
522.009	9815.55
522.376	9874.75
522.743	9925.83
523.11	10017.12
523.477	10079.04
523.843	10156.33
524.21	10141.41
524.577	10235.87
524.943	10279.26
525.31	10359.94
525.676	10435.19
526.043	10426.83
526.409	10576.66
526.776	10662.08
527.142	10641.51
527.508	10787.72
527.874	10826.14
528.241	10842.64
528.607	10870.43
528.973	10963.77
529.339	11042.86
529.705	11017.78
530.071	11159.24
530.437	11201.05
530.803	11277.66
531.169	11382.51
531.535	11357.2
531.901	11337.77
532.267	11465.22
532.632	11455.73
532.998	11500.47
533.364	11673.8
533.73	11656.4
534.095	11704.99
534.461	11813.01
534.826	11808.71
535.192	11894.14
535.557	11914.93
535.923	12002.61
536.288	12092.1
536.653	12136.39
537.019	12088.71
537.384	12128.25
537.749	12252.55
538.114	12251.42
538.479	12248.48
538.845	12392.65
539.21	12358.3
539.575	12465.19
539.94	12488.02
540.305	12543.61
540.67	12638.98
541.034	12572.54
541.399	12678.07
541.764	12720.78
542.129	12785.19
542.494	12779.54
542.858	12865.86
543.223	12866.99
543.587	12999.87
543.952	12995.12
544.316	13001.45
544.681	13100.88
545.045	13166.19
545.41	13233.31
545.774	13261.78
546.138	13347.66
546.503	13375.68
546.867	13392.4
547.231	13552.17
547.595	13499.29
547.959	13551.04
548.324	13523.92
548.688	13619.97
549.052	13741.77
549.416	13700.42
549.779	13849.34
550.143	13761.88
550.507	13832.84
550.871	13874.2
551.235	13861.99
551.599	14060.63
551.962	14027.41
552.326	14167.75
552.689	14216.56
553.053	14096.79
553.417	14244.36
553.78	14373.62
554.143	14268.54
554.507	14394.41
554.87	14527.29
555.234	14588.98
555.597	14572.71
555.96	14560.73
556.323	14639.15
556.686	14634.4
557.05	14723.44
557.413	14738.58
557.776	14795.98
558.139	14823.55
558.502	14845.92
558.865	14889.31
559.228	15082.53
559.59	15110.77
559.953	15147.84
560.316	15283.2
560.679	15215.63
561.041	15289.98
561.404	15342.41
561.767	15523.65
562.129	15408.62
562.492	15560.48
562.854	15590.76
563.217	15584.89
563.579	15670.08
563.941	15737.2
564.304	15825.78
564.666	15833.24
565.028	15821.26
565.39	15955.5
565.753	16060.58
566.115	16081.82
566.477	16128.83
566.839	16194.36
567.201	16294.92
567.563	16275.04
567.925	16424.19
568.287	16448.14
568.648	16567.01
569.01	16649.04
569.372	16669.15
569.734	16665.76
570.095	16788.7
570.457	16751.18
570.819	16875.02
571.18	16940.33
571.542	17024.17
571.903	17107.56
572.265	17171.74
572.626	17234.11
572.987	17317.27
573.349	17377.83
573.71	17472.75
574.071	17575.57
574.432	17544.84
574.794	17787.31
575.155	17792.51
575.516	17952.96
575.877	18111.6
576.238	18120.87
576.599	18183.24
576.96	18211.48
577.32	18457.58
577.681	18554.53
578.042	18748.65
578.403	18770.57
578.763	18947.96
579.124	19145.25
579.485	19230.44
579.845	19424.56
580.206	19455.97
580.566	19635.63
580.927	19772.8
581.287	20060.7
581.648	20139.34
582.008	20282.39
582.368	20427.02
582.728	20662.27
583.089	20877.4
583.449	21023.39
583.809	21193.1
584.169	21448.46
584.529	21600.32
584.889	21910.6
585.249	21943.59
585.609	22086.18
585.969	22515.1
586.329	22665.15
586.688	22891.59
587.048	23125.71
587.408	23305.59
587.768	23560.95
588.127	23614.73
588.487	23919.36
588.846	24332.45
589.206	24432.11
589.565	24632.11
589.925	25003.17
590.284	25141.02
590.643	25498.3
591.003	25860.1
591.362	26080.66
591.721	26373.53
592.08	26486.97
592.44	26891.48
592.799	27101.19
593.158	27384.58
593.517	27683.55
593.876	27891.68
594.235	28144.78
594.593	28448.28
594.952	28622.74
595.311	28864.54
595.67	29257.3
596.029	29606.21
596.387	29838.98
596.746	30072.64
597.104	30183.15
597.463	30518.73
597.822	30744.26
598.18	30967.31
598.538	31219.5
598.897	31591.7
599.255	31595.77
599.613	32275.3
599.972	32335.18
600.33	32664.66
600.688	32663.76
601.046	33008.61
601.404	33289.51
601.762	33480.46
602.12	33661.7
602.478	33937.85
602.836	34178.07
603.194	34143.27
603.552	34564.27
603.91	34611.73
604.268	34921.78
604.625	35061.44
604.983	35458.04
605.341	35398.6
605.698	35697.35
606.056	35932.37
606.413	36140.5
606.771	36400.16
607.128	36508.86
607.485	36651.45
607.843	36860.26
608.2	37110.2
608.557	37348.16
608.914	37337.54
609.272	37664.08
609.629	37916.95
609.986	38215.7
610.343	38028.36
610.7	38525.07
611.057	38541.8
611.414	38754.9
611.771	38775.92
612.127	39151.95
612.484	39135.45
612.841	39402.34
613.198	39362.34
613.554	39520.08
613.911	39892.72
614.267	39930.69
614.624	39893.85
614.98	40133.17
615.337	40454.52
615.693	40433.95
616.05	40318.93
616.406	40775.86
616.762	40806.82
617.118	40822.87
617.475	40952.13
617.831	41089.75
618.187	41229.86
618.543	41426.69
618.899	41659.46
619.255	41580.36
619.611	41786.68
619.967	41875.27
620.323	41962.95
620.678	42009.5
621.034	42026.9
621.39	42147.8
621.746	42122.49
622.101	42613.55
622.457	42355.71
622.812	42583.95
623.168	42741.23
623.523	42555.48
623.879	42924.73
624.234	42668.02
624.589	42870.05
624.945	42955.01
625.3	43094.67
625.655	43030.04
626.01	43064.16
626.365	43141.22
626.72	43206.53
627.075	43114.33
627.43	43314.55
627.785	43118.85
628.14	43390.94
628.495	43420.09
628.85	43355.68
629.205	43261
629.559	43557.94
629.914	43357.26
630.269	43512.74
630.623	43460.76
630.978	43331.28
631.332	43572.4
631.687	43741.43
632.041	43592.29
632.396	43570.14
632.75	43459.86
633.104	43621.66
633.459	43299.86
633.813	43405.4
634.167	43468.9
634.521	43602.46
634.875	43607.65
635.229	43594.32
635.583	43384.83
635.937	43471.16
636.291	43471.39
636.645	43388.45
636.999	43470.03
637.352	43646.97
637.706	43354.78
638.06	43589.57
638.413	43439.97
638.767	43322.69
639.121	43297.15
639.474	43281.33
639.828	43262.13
640.181	43240.2
640.534	43346.87
640.888	43090.6
641.241	42964.96
641.594	43242.69
641.947	43275.01
642.301	43061
642.654	43023.49
643.007	43188.91
643.36	43154.56
643.713	43127.21
644.066	43302.58
644.419	42959.99
644.771	42797.96
645.124	42455.82
645.477	42453.56
645.83	42063.96
646.182	42036.62
646.535	41868.04
646.888	42154.13
647.24	41803.86
647.593	42040.24
647.945	42009.05
648.298	41801.6
648.65	41738.55
649.002	41789.4
649.355	41918.43
649.707	41723.86
650.059	41949.62
650.411	42525.2
650.763	42487.46
651.115	42814
651.467	42742.36
651.819	42715.25
652.171	42651.07
652.523	42487.91
652.875	42584.18
653.227	42440.45
653.578	42836.15
653.93	42600.9
654.282	42364.52
654.633	42438.64
654.985	42489.49
655.337	42501.24
655.688	42573.56
656.039	42516.16
656.391	42202.72
656.742	42340.79
657.094	42340.12
657.445	42532.65
657.796	42399.32
658.147	42250.17
658.498	42298.99
658.849	42450.4
659.2	42322.04
659.551	42185.32
659.902	42434.58
660.253	42236.39
660.604	42314.58
660.955	42186.67
661.306	42428.7
661.656	42181.7
662.007	42225.09
662.358	42267.35
662.708	42243.85
663.059	42130.86
663.409	41755.72
663.76	42244.98
664.11	42081.14
664.461	42255.37
664.811	42278.65
665.161	42202.94
665.511	42016.51
665.862	42194.81
666.212	42297.86
666.562	42211.98
666.912	42081.37
667.262	42003.85
667.612	42084.98
667.962	42189.61
668.312	42078.65
668.662	42233
669.011	41989.84
669.361	42023.97
669.711	42031.65
670.06	42016.73
670.41	42097.41
670.76	41931.09
671.109	42145.54
671.459	41958.66
671.808	41941.71
672.157	41928.83
672.507	41770.19
672.856	41854.7
673.205	41828.49
673.554	42027.81
673.904	41774.03
674.253	41963.18
674.602	41905.55
674.951	41263.08
675.3	41004.33
675.649	41730.41
675.998	41836.17
676.346	41739
676.695	41867.59
677.044	41467.6
677.393	41702.39
677.741	41724.09
678.09	41649.06
678.438	41503.98
678.787	41725.67
679.135	41683.64
679.484	41267.6
679.832	41452.46
680.181	41256.08
680.529	41437.99
680.877	41282.29
681.225	41259.69
681.573	41446.13
681.922	41079.81
682.27	41062.86
682.618	41114.84
682.966	41003.2
683.314	41072.8
683.661	40828.52
684.009	40750.1
684.357	40655.19
684.705	40707.16
685.053	40585.81
685.4	40594.17
685.748	40458.13
686.095	40560.05
686.443	40386.72
686.79	40220.85
687.138	40430.79
687.485	40355.08
687.832	40170
688.18	40097.24
688.527	39959.61
688.874	40103.11
689.221	39947.64
689.568	39719.39
689.915	39764.36
690.262	39757.81
690.609	39478.27
690.956	39513.75
691.303	39366.63
691.65	39228.11
691.997	39262.91
692.344	39008.68
692.69	39134.32
693.037	39013.88
693.383	38707.89
693.73	38856.14
694.077	38636.48
694.423	38636.48
694.769	38462.48
695.116	38477.84
695.462	38369.15
695.808	38501.35
696.155	38422.25
696.501	38055.71
696.847	37963.96
697.193	37918.08
697.539	37962.38
697.885	37750.18
698.231	37738.2
698.577	37631.99
698.923	37561.03
699.269	37468.38
699.614	37323.52
699.96	37209.18
700.306	37170.08
700.651	37081.27
700.997	36945.46
701.342	36881.28
701.688	36826.36
702.033	36765.35
702.379	36680.38
702.724	36564.22
703.069	36581.62
703.415	36161.52
703.76	36264.57
704.105	36309.09
704.45	36138.47
704.795	35975.09
705.14	35801.53
705.485	35870.46
705.83	35669.33
706.175	35668.43
706.52	35638.82
706.865	35471.37
707.209	35425.95
707.554	35352.28
707.899	35439.28
708.243	35070.02
708.588	35067.54
708.932	35004.04
709.277	34974.66
709.621	35037.71
709.966	34772.4
710.31	34825.06
710.654	34484.05
710.998	34519.98
711.342	34618.96
711.687	34609.92
712.031	34336.03
712.375	34323.15
712.719	34337.84
713.063	34226.2
713.407	34265.3
713.75	34216.49
714.094	34059.66
714.438	33908.92
714.782	34028.47
715.125	33835.25
715.469	33869.15
715.812	33703.51
716.156	33550.97
716.499	33606.56
716.843	33572.66
717.186	33255.83
717.53	33488.37
717.873	33511.2
718.216	33413.57
718.559	33158.89
718.902	33009.97
719.246	33040.47
719.589	33049.29
719.932	32855.17
720.275	32974.26
720.617	32942.17
720.96	32904.66
721.303	32772.91
721.646	32743.08
721.989	32669.41
722.331	32657.43
722.674	32664.89
723.016	32640.26
723.359	32560.26
723.701	32602.74
724.044	32297.22
724.386	32101.74
724.729	32314.84
725.071	32096.77
725.413	32231.68
725.755	32209.99
726.097	32070.78
726.439	31802.77
726.782	31831.47
727.124	31938.58
727.465	31812.93
727.807	31780.39
728.149	31683.9
728.491	31727.51
728.833	31742.43
729.175	31544.47
729.516	31612.26
729.858	31286.85
730.199	31491.81
730.541	31446.39
730.882	31313.74
731.224	31349.67
731.565	31292.04
731.906	31364.58
732.248	31203.01
732.589	31018.38
732.93	31060.86
733.271	31002.79
733.612	31004.82
733.953	31044.37
734.294	30793.3
734.635	31003.92
734.976	30896.35
735.317	30742.91
735.658	30838.05
735.999	30775.9
736.339	30677.82
736.68	30670.82
737.021	30538.62
737.361	30424.27
737.702	30660.42
738.042	30600.09
738.383	30437.15
738.723	30428.56
739.063	30377.94
739.404	30449.81
739.744	30382.46
740.084	30235.58
740.424	30377.27
740.764	30055.01
741.104	30307.21
741.444	30128.01
741.784	30064.73
742.124	30022.47
742.464	29974.79
742.804	29925.98
743.143	29870.61
743.483	29908.8
743.823	29695.7
744.162	29759.88
744.502	29843.49
744.841	29600.79
745.181	29796.04
745.52	29560.56
745.86	29593.33
746.199	29583.61
746.538	29502.04
746.877	29671.75
747.216	29490.06
747.556	29487.35
747.895	29464.97
748.234	29268.82
748.573	29154.93
748.911	29261.59
749.25	29339.78
749.589	29120.8
749.928	29119.9
750.267	29200.8
750.605	28947.25
750.944	28917.42
751.283	28860.24
751.621	28801.71
751.96	28773.47
752.298	28783.18
752.636	28643.98
752.975	28621.83
753.313	28457.54
753.651	28696.41
753.989	28487.37
754.327	28562.85
754.666	28287.83
755.004	28272.69
755.342	28347.26
755.679	28297.55
756.017	28248.28
756.355	28273.37
756.693	28002.19
757.031	28195.85
757.368	27973.04
757.706	27928.29
