Data from hue_26_FLMS001491_00029.txt Node
Date: Tue Feb 07 17:13:47 GMT 2017
User: dcchb
Spectrometer: FLMS00149
Trigger mode: 0
Integration Time (sec): 2.000000E-2
Scans to average: 10
Electric dark correction enabled: true
Nonlinearity correction enabled: false
Boxcar width: 0
XAxis mode: Wavelengths
Number of Pixels in Spectrum: 2048
>>>>>Begin Spectral Data<<<<<
341.393	1.74
341.776	1.74
342.16	1.74
342.543	-69.22
342.927	-61.31
343.31	-73.52
343.693	-80.52
344.077	-55.66
344.46	-30.58
344.843	-62.67
345.226	-57.7
345.61	-20.41
345.993	-26.51
346.376	-13.63
346.759	4
347.142	29.31
347.525	32.7
347.908	55.3
348.291	92.13
348.674	96.88
349.057	110.89
349.44	128.97
349.823	148.85
350.206	174.84
350.588	182.75
350.971	206.48
351.354	224.1
351.737	237.89
352.119	253.93
352.502	277.66
352.884	271.11
353.267	265.01
353.65	312.01
354.032	302.97
354.414	316.31
354.797	317.44
355.179	321.73
355.562	339.13
355.944	314.27
356.326	325.57
356.709	336.19
357.091	327.6
357.473	332.58
357.855	351.78
358.238	348.85
358.62	348.17
359.002	355.17
359.384	339.13
359.766	327.6
360.148	347.49
360.53	328.06
360.912	326.47
361.294	324.21
361.676	324.67
362.057	322.63
362.439	337.32
362.821	326.02
363.203	320.82
363.584	325.12
363.966	330.54
364.348	328.06
364.729	323.31
365.111	327.83
365.493	310.2
365.874	297.1
366.256	321.95
366.637	314.5
367.019	311.56
367.4	309.3
367.781	317.89
368.163	302.52
368.544	315.85
368.925	317.44
369.306	327.83
369.688	312.01
370.069	316.53
370.45	311.11
370.831	326.7
371.212	301.39
371.593	310.43
371.974	306.36
372.355	327.6
372.736	328.06
373.117	320.82
373.498	301.84
373.879	332.35
374.26	320.82
374.641	315.85
375.021	297.1
375.402	342.07
375.783	336.19
376.163	326.93
376.544	337.55
376.925	316.08
377.305	303.2
377.686	315.4
378.066	322.86
378.447	344.33
378.827	327.6
379.208	339.58
379.588	319.69
379.968	346.81
380.349	332.58
380.729	356.98
381.109	348.39
381.489	347.49
381.87	344.78
382.25	332.35
382.63	327.15
383.01	328.51
383.39	347.94
383.77	344.33
384.15	350.2
384.53	347.94
384.91	344.33
385.29	361.73
385.67	355.85
386.049	344.33
386.429	343.88
386.809	366.93
387.189	365.12
387.568	338.45
387.948	349.98
388.328	369.41
388.707	350.43
389.087	348.62
389.466	380.71
389.846	372.8
390.225	362.86
390.605	361.28
390.984	367.83
391.363	366.02
391.743	343.2
392.122	385
392.501	366.02
392.881	384.55
393.26	376.42
393.639	377.55
394.018	406.92
394.397	370.54
394.776	350.88
395.155	374.38
395.534	373.7
395.913	380.48
396.292	382.07
396.671	398.34
397.05	405.57
397.429	392.69
397.808	378.68
398.186	397.89
398.565	400.6
398.944	393.14
399.323	387.26
399.701	408.96
400.08	389.52
400.458	405.79
400.837	380.03
401.215	387.04
401.594	394.95
401.972	405.12
402.351	397.89
402.729	396.3
403.107	408.51
403.486	401.27
403.864	389.52
404.242	379.81
404.62	407.6
404.999	406.92
405.377	425.45
405.755	420.94
406.133	426.36
406.511	413.03
406.889	419.58
407.267	418.9
407.645	417.77
408.023	443.08
408.401	454.61
408.779	436.53
409.156	406.7
409.534	435.85
409.912	434.27
410.29	449.41
410.667	467.26
411.045	448.73
411.422	451.22
411.8	451.67
412.178	455.06
412.555	482.4
412.933	485.79
413.31	451.22
413.687	472.69
414.065	455.74
414.442	479.92
414.819	494.15
415.197	477.2
415.574	474.72
415.951	458
416.328	469.97
416.705	497.09
417.082	490.09
417.46	472.46
417.837	505.45
418.214	511.55
418.591	513.59
418.967	511.78
419.344	494.83
419.721	510.65
420.098	500.93
420.475	498.45
420.852	519.24
421.228	524.44
421.605	526.7
421.982	519.01
422.358	520.37
422.735	520.82
423.111	540.25
423.488	541.16
423.864	537.54
424.241	540.03
424.617	551.33
424.994	549.29
425.37	554.49
425.746	558.78
426.123	575.96
426.499	559.24
426.875	554.49
427.251	559.46
427.627	563.98
428.003	562.4
428.379	561.72
428.756	608.27
429.132	603.76
429.507	576.64
429.883	608.05
430.259	616.18
430.635	584.32
431.011	597.43
431.387	626.35
431.763	618.22
432.138	629.97
432.514	637.88
432.89	645.11
433.265	626.81
433.641	631.33
434.016	658.22
434.392	641.72
434.767	642.4
435.143	660.93
435.518	698.44
435.894	667.26
436.269	664.54
436.644	675.62
437.02	685.11
437.395	706.13
437.77	720.36
438.145	704.32
438.52	727.37
438.895	720.81
439.271	694.83
439.646	735.05
440.021	707.71
440.395	735.73
440.77	712.45
441.145	731.89
441.52	748.38
441.895	750.42
442.27	741.15
442.645	770.08
443.019	770.3
443.394	750.64
443.769	765.33
444.143	744.32
444.518	777.31
444.892	759.46
445.267	759.01
445.641	773.24
446.016	763.75
446.39	797.42
446.764	793.58
447.139	787.25
447.513	792.68
447.887	798.1
448.262	794.03
448.636	806.01
449.01	809.85
449.384	838.1
449.758	836.07
450.132	840.13
450.506	833.58
450.88	841.49
451.254	846.46
451.628	832
452.002	834.03
452.376	875.16
452.75	878.55
453.123	901.6
453.497	909.51
453.871	908.38
454.244	891.88
454.618	901.6
454.992	905.22
455.365	932.33
455.739	952.9
456.112	954.93
456.486	945.89
456.859	985.44
457.232	976.17
457.606	976.4
457.979	990.41
458.352	1000.13
458.725	1006
459.099	1031.77
459.472	1040.81
459.845	1055.95
460.218	1039.22
460.591	1060.92
460.964	1056.62
461.337	1069.05
461.71	1106.34
462.083	1103.18
462.456	1095.27
462.829	1113.8
463.201	1146.57
463.574	1140.01
463.947	1154.48
464.32	1161.48
464.692	1194.47
465.065	1192.21
465.438	1194.47
465.81	1225.43
466.183	1244.19
466.555	1262.27
466.928	1243.06
467.3	1242.16
467.672	1269.05
468.045	1326.22
468.417	1328.48
468.789	1334.36
469.161	1342.49
469.534	1347.69
469.906	1382.27
470.278	1386.56
470.65	1415.49
471.022	1436.95
471.394	1475.6
471.766	1453
472.138	1483.28
472.51	1537.97
472.882	1558.08
473.253	1566.67
473.625	1580.9
473.997	1635.82
474.369	1637.85
474.74	1659.55
475.112	1704.74
475.484	1702.26
475.855	1752.65
476.227	1750.39
476.598	1813.22
476.97	1845.53
477.341	1897.28
477.713	1901.57
478.084	1920.78
478.455	1977.05
478.827	1994.91
479.198	2048.69
479.569	2048.69
479.94	2120.55
480.311	2121.68
480.682	2202.81
481.053	2264.5
481.424	2293.88
481.795	2323.03
482.166	2365.97
482.537	2396.93
482.908	2451.39
483.279	2467.44
483.65	2563.7
484.021	2573.42
484.391	2647.54
484.762	2660.42
485.133	2694.32
485.503	2751.5
485.874	2787.88
486.244	2813.19
486.615	2854.77
486.985	2926.18
487.356	2992.85
487.726	3056.35
488.097	3104.48
488.467	3136.8
488.837	3205.72
489.207	3232.16
489.578	3316.9
489.948	3299.28
490.318	3371.82
490.688	3386.51
491.058	3459.73
491.428	3523.23
491.798	3555.09
492.168	3654.07
492.538	3638.48
492.908	3706.05
493.278	3761.41
493.648	3758.47
494.017	3856.55
494.387	3937.45
494.757	3899.26
495.126	3937.45
495.496	4004.12
495.866	4015.19
496.235	4058.35
496.605	4104.91
496.974	4152.36
497.344	4188.97
497.713	4212.02
498.082	4262.42
498.452	4304
498.821	4365.01
499.19	4346.03
499.559	4404.33
499.928	4456.31
500.298	4428.29
500.667	4495.18
501.036	4543.54
501.405	4539.7
501.774	4565.01
502.143	4614.05
502.512	4654.04
502.88	4674.83
503.249	4694.04
503.618	4742.18
503.987	4779.24
504.356	4806.36
504.724	4826.02
505.093	4860.14
505.462	4864.43
505.83	4884.77
506.199	4903.98
506.567	5018.33
506.936	4955.96
507.304	5019.46
507.672	5013.58
508.041	5069.17
508.409	5120.25
508.777	5142.39
509.145	5188.49
509.514	5203.18
509.882	5162.96
510.25	5176.29
510.618	5214.26
510.986	5249.96
511.354	5261.26
511.722	5271.66
512.09	5399.56
512.458	5396.62
512.826	5422.84
513.193	5412.22
513.561	5455.83
513.929	5475.49
514.297	5527.92
514.664	5560.24
515.032	5604.53
515.4	5577.86
515.767	5613.12
516.135	5614.47
516.502	5602.04
516.869	5716.84
517.237	5691.08
517.604	5698.54
517.972	5775.37
518.339	5770.63
518.706	5805.65
519.073	5822.83
519.44	5808.59
519.808	5833.45
520.175	5859.21
520.542	5935.82
520.909	5934.46
521.276	5956.83
521.643	5970.85
522.009	6023.05
522.376	6054.46
522.743	6088.36
523.11	6171.29
523.477	6203.38
523.843	6211.29
524.21	6247.45
524.577	6279.76
524.943	6279.76
525.31	6353.43
525.676	6420.78
526.043	6372.87
526.409	6464.84
526.776	6465.3
527.142	6472.08
527.508	6486.99
527.874	6582.58
528.241	6573.54
528.607	6649.92
528.973	6691.5
529.339	6638.4
529.705	6760.66
530.071	6752.75
530.437	6827.77
530.803	6822.35
531.169	6908.67
531.535	6865.96
531.901	6844.95
532.267	6932.4
532.632	7013.08
532.998	6997.03
533.364	7102.79
533.73	7045.62
534.095	7126.07
534.461	7179.63
534.826	7234.77
535.192	7261.43
535.557	7250.81
535.923	7277.25
536.288	7321.54
536.653	7346.4
537.019	7351.6
537.384	7359.96
537.749	7387.76
538.114	7390.7
538.479	7401.77
538.845	7445.38
539.21	7436.12
539.575	7542.56
539.94	7538.71
540.305	7567.41
540.67	7523.57
541.034	7620.75
541.399	7634.08
541.764	7650.8
542.129	7714.3
542.494	7777.8
542.858	7836.79
543.223	7808.76
543.587	7873.85
543.952	7847.86
544.316	7932.38
544.681	7938.48
545.045	7956.56
545.41	8067.06
545.774	8019.38
546.138	8051.47
546.503	8114.74
546.867	8055.54
547.231	8173.5
547.595	8147.74
547.959	8191.58
548.324	8297.34
548.688	8282.2
549.052	8232.71
549.416	8319.94
549.779	8257.57
550.143	8392.93
550.507	8454.4
550.871	8363.78
551.235	8390.67
551.599	8459.59
551.962	8511.57
552.326	8506.6
552.689	8561.51
553.053	8527.84
553.417	8578.69
553.78	8681.74
554.143	8675.41
554.507	8685.58
554.87	8712.92
555.234	8755.86
555.597	8740.49
555.96	8811.45
556.323	8825.46
556.686	8854.61
557.05	8867.04
557.413	8894.16
557.776	8933.25
558.139	8993.37
558.502	9029.07
558.865	9023.87
559.228	9058.22
559.59	9085.57
559.953	9115.62
560.316	9202.17
560.679	9202.17
561.041	9206.92
561.404	9296.18
561.767	9313.58
562.129	9310.65
562.492	9429.96
562.854	9396.74
563.217	9413.47
563.579	9453.01
563.941	9474.93
564.304	9470.41
564.666	9591.32
565.028	9585.67
565.39	9607.81
565.753	9624.99
566.115	9722.84
566.477	9780.24
566.839	9802.38
567.201	9787.02
567.563	9826.56
567.925	9815.26
568.287	9927.58
568.648	9933.68
569.01	10001.93
569.372	10031.3
569.734	9962.83
570.095	10083.96
570.457	10154.69
570.819	10177.29
571.18	10215.93
571.542	10262.71
571.903	10309.26
572.265	10344.97
572.626	10410.05
572.987	10372.99
573.349	10457.96
573.71	10524.17
574.071	10577.5
574.432	10687.33
574.794	10688.24
575.155	10756.71
575.516	10784.96
575.877	10847.78
576.238	10949.7
576.599	11041
576.96	11050.49
577.32	11175.45
577.681	11277.6
578.042	11349.46
578.403	11460.42
578.763	11548.33
579.124	11642.11
579.485	11693.18
579.845	11886.62
580.206	11983.57
580.566	12035.32
580.927	12223.79
581.287	12386.95
581.648	12429.66
582.008	12659.26
582.368	12769.09
582.728	12847.95
583.089	12989.19
583.449	13175.63
583.809	13375.85
584.169	13474.38
584.529	13641.83
584.889	13870.98
585.249	14020.13
585.609	14240.68
585.969	14499.21
586.329	14598.64
586.688	14884.96
587.048	15094.45
587.408	15242.01
587.768	15526.53
588.127	15679.74
588.487	15910.02
588.846	16281.08
589.206	16384.36
589.565	16605.82
589.925	16971.91
590.284	17259.36
590.643	17513.37
591.003	17815.96
591.362	18065.22
591.721	18273.35
592.08	18625.2
592.44	18826.33
592.799	19232.64
593.158	19389.02
593.517	19739.52
593.876	20063.13
594.235	20337.47
594.593	20523.46
594.952	20997.8
595.311	21082.99
595.67	21456.77
596.029	21889.07
596.387	22166.13
596.746	22503.07
597.104	22707.13
597.463	22999.78
597.822	23440.89
598.18	23632.75
598.538	23870.94
598.897	24332.17
599.255	24411.94
599.613	25081.08
599.972	25134.41
600.33	25534.17
600.688	25542.08
601.046	26020.94
601.404	26328.05
601.762	26561.72
602.12	27024.08
602.478	27217.07
602.836	27566.21
603.194	27638.75
603.552	27987.44
603.91	28234.67
604.268	28530.48
604.625	28741.32
604.983	29167.52
605.341	29220.18
605.698	29694.52
606.056	29865.36
606.413	30092.92
606.771	30475.51
607.128	30678.44
607.485	30800.25
607.843	31073.01
608.2	31383.51
608.557	31684.52
608.914	31784.18
609.272	32140.78
609.629	32401.34
609.986	32734.21
610.343	32716.36
610.7	33156.8
611.057	33245.61
611.414	33368.32
611.771	33678.59
612.127	34014.4
612.484	34304.11
612.841	34375.97
613.198	34588.4
613.554	34572.58
613.911	34933.25
614.267	35127.14
614.624	35303.86
614.98	35434.93
615.337	35702.04
615.693	35978.64
616.05	36029.26
616.406	36343.61
616.762	36218.86
617.118	36415.47
617.475	36666.99
617.831	36765.97
618.187	36935.68
618.543	37076.69
618.899	37400.3
619.255	37454.99
619.611	37492.05
619.967	37787.41
620.323	37892.94
620.678	37802.78
621.034	37952.83
621.39	38033.73
621.746	38172.03
622.101	38617.22
622.457	38396.66
622.812	38599.14
623.168	38723.88
623.523	38744.67
623.879	38976.08
624.234	38942.41
624.589	39191.89
624.945	39134.95
625.3	39229.41
625.655	39306.24
626.01	39440.25
626.365	39569.28
626.72	39424.2
627.075	39727.25
627.43	39656.74
627.785	39672.78
628.14	39758.88
628.495	39920.01
628.85	39828.94
629.205	39804.31
629.559	40092.43
629.914	40061.7
630.269	39900.35
630.623	40042.72
630.978	40101.93
631.332	40203.17
631.687	40281.36
632.041	40180.34
632.396	40281.13
632.75	40091.3
633.104	40390.28
633.459	40187.35
633.813	40183.96
634.167	40275.03
634.521	40324.74
634.875	40283.62
635.229	40230.96
635.583	40307.57
635.937	40289.49
636.291	40234.58
636.645	40420.34
636.999	40274.8
637.352	40367.46
637.706	40254.69
638.06	40285.2
638.413	40288.14
638.767	40033.23
639.121	40238.87
639.474	40192.77
639.828	40122.04
640.181	40193.45
640.534	40243.17
640.888	40074.13
641.241	39957.97
641.594	40127.69
641.947	40359.09
642.301	40201.36
642.654	40178.53
643.007	40276.16
643.36	40158.87
643.713	40051.31
644.066	40269.61
644.419	40098.54
644.771	39946.68
645.124	39414.94
645.477	39305.34
645.83	39140.6
646.182	39064.44
646.535	38956.19
646.888	39134.49
647.24	38888.85
647.593	39056.3
647.945	39092.91
648.298	38922.97
648.65	38846.37
649.002	38814.73
649.355	38893.14
649.707	38983.54
650.059	39038.22
650.411	39535.84
650.763	39513.69
651.115	39942.38
651.467	39868.94
651.819	39779
652.171	39799.33
652.523	39652.9
652.875	39709.17
653.227	39552.34
653.578	39906.9
653.93	39658.77
654.282	39501.49
654.633	39490.64
654.985	39660.58
655.337	39619.9
655.688	39583.52
656.039	39807.02
656.391	39434.15
656.742	39562.5
657.094	39391.89
657.445	39537.19
657.796	39585.1
658.147	39533.81
658.498	39326.35
658.849	39501.94
659.2	39522.51
659.551	39272.57
659.902	39577.42
660.253	39499
660.604	39465.78
660.955	39322.96
661.306	39628.72
661.656	39378.1
662.007	39470.3
662.358	39397.31
662.708	39374.71
663.059	39316.86
663.409	39220.82
663.76	39521.6
664.11	39425.33
664.461	39383.07
664.811	39456.75
665.161	39320.93
665.511	39411.32
665.862	39341.27
666.212	39509.62
666.562	39517.08
666.912	39440.7
667.262	39289.29
667.612	39334.94
667.962	39324.09
668.312	39299.01
668.662	39398.22
669.011	39331.32
669.361	39241.84
669.711	39167.71
670.06	39259.91
670.41	39203.19
670.76	39095.62
671.109	39232.12
671.459	39175.85
671.808	39173.59
672.157	39147.37
672.507	39034.16
672.856	38978.34
673.205	39122.29
673.554	39060.82
673.904	39080.26
674.253	39331.78
674.602	39139.24
674.951	38508.07
675.3	38370.9
675.649	39023.54
675.998	38877.33
676.346	38927.27
676.695	39040.71
677.044	38755.29
677.393	38830.55
677.741	38965.68
678.09	38756.65
678.438	38892.69
678.787	38884.56
679.135	38774.28
679.484	38533.83
679.832	38811.79
680.181	38499.93
680.529	38679.59
680.877	38557.79
681.225	38528.63
681.573	38599.82
681.922	38329.99
682.27	38212.94
682.618	38238.02
682.966	38223.11
683.314	38388.07
683.661	38200.51
684.009	37988.99
684.357	38031.02
684.705	38035.99
685.053	38085.26
685.4	37967.29
685.748	37861.53
686.095	37788.54
686.443	37580.18
686.79	37521.2
687.138	37642.33
687.485	37652.72
687.832	37480.98
688.18	37414.76
688.527	37241.89
688.874	37253.87
689.221	37118.28
689.568	37112.17
689.915	37023.36
690.262	36971.84
690.609	36874.67
690.956	36644.62
691.303	36784.95
691.65	36630.38
691.997	36523.26
692.344	36275.59
692.69	36405.75
693.037	36327.11
693.383	36125.99
693.73	36240.56
694.077	36066.1
694.423	36017.51
694.769	35943.62
695.116	35773.68
695.462	35815.03
695.808	35700.91
696.155	35799.67
696.501	35555.38
696.847	35434.48
697.193	35231.09
697.539	35479.67
697.885	35222.96
698.231	34994.94
698.577	34959.91
698.923	34994.04
699.269	34804.66
699.614	34685.35
699.96	34596.99
700.306	34563.99
700.651	34344.79
700.997	34370.1
701.342	34335.07
701.688	34291.68
702.033	34185.25
702.379	34097.11
702.724	34053.72
703.069	34075.87
703.415	33757.69
703.76	33796.33
704.105	33772.37
704.45	33624.13
704.795	33437.24
705.14	33395.44
705.485	33329.67
705.83	33222.78
706.175	33265.04
706.52	33133.3
706.865	33009.23
707.209	33023.92
707.554	32767.2
707.899	32805.17
708.243	32681.78
708.588	32691.5
708.932	32612.63
709.277	32539.86
709.621	32533.76
709.966	32335.58
710.31	32341.9
710.654	32132.42
710.998	32228.69
711.342	32123.15
711.687	32035.47
712.031	32062.14
712.375	31945.08
712.719	31962.93
713.063	31875.48
713.407	31906.66
713.75	31634.58
714.094	31696.95
714.438	31401.82
714.782	31617.4
715.125	31382.61
715.469	31495.82
715.812	31362.27
716.156	31196.17
716.499	31221.26
716.843	31214.02
717.186	31009.28
717.53	31041.83
717.873	31090.19
718.216	30988.49
718.559	30942.62
718.902	30710.08
719.246	30782.62
719.589	30718.44
719.932	30582.18
720.275	30519.58
720.617	30603.42
720.96	30530.65
721.303	30512.8
721.646	30409.98
721.989	30318.23
722.331	30382.86
722.674	30297.21
723.016	30320.94
723.359	30266.48
723.701	30302.18
724.044	30171.57
724.386	29967.95
724.729	30058.12
725.071	30014.06
725.413	29890.22
725.755	30009.08
726.097	29727.28
726.439	29705.36
726.782	29613.39
727.124	29773.16
727.465	29598.7
727.807	29597.34
728.149	29507.63
728.491	29488.87
728.833	29399.38
729.175	29311.25
729.516	29318.48
729.858	29264.02
730.199	29386.95
730.541	29170.69
730.882	29184.02
731.224	29232.16
731.565	29095.89
731.906	29061.99
732.248	29052.72
732.589	28924.14
732.93	28835.33
733.271	28821.54
733.612	28873.52
733.953	28927.53
734.294	28726.18
734.635	28730.7
734.976	28716.01
735.317	28528.22
735.658	28746.52
735.999	28634.66
736.339	28653.19
736.68	28666.07
737.021	28430.37
737.361	28314.89
737.702	28559.86
738.042	28493.19
738.383	28428.56
738.723	28410.26
739.063	28239.41
739.404	28298.39
739.744	28198.96
740.084	28075.58
740.424	28186.08
740.764	28069.02
741.104	28209.81
741.444	27996.48
741.784	27904.28
742.124	27975.69
742.464	27884.85
742.804	27885.75
743.143	27882.59
743.483	27858.18
743.823	27663.16
744.162	27625.87
744.502	27787.67
744.841	27584.06
745.181	27761.01
745.52	27571.63
745.86	27487.34
746.199	27569.37
746.538	27414.12
746.877	27460
747.216	27506.78
747.556	27406.44
747.895	27354.01
748.234	27174.13
748.573	27229.95
748.911	27232.43
749.25	27144.3
749.589	27151.76
749.928	27101.59
750.267	27237.63
750.605	27031.99
750.944	26920.8
751.283	26954.93
751.621	26991.31
751.96	26779.79
752.298	26847.13
752.636	26776.63
752.975	26624.31
753.313	26663.64
753.651	26779.79
753.989	26517.88
754.327	26570.76
754.666	26340.71
755.004	26498.22
755.342	26477.65
755.679	26365.79
756.017	26208.28
756.355	26292.57
756.693	26256.87
757.031	26274.49
757.368	26096.19
757.706	26034.27
758.044	26019.58
758.381	25880.83
758.719	25864.33
759.056	25823.43
759.394	25707.73
759.731	25634.74
760.068	25570.33
