Data from hue_290_FLMS001491_00080.txt Node
Date: Tue Feb 07 15:53:14 GMT 2017
User: dcchb
Spectrometer: FLMS00149
Trigger mode: 0
Integration Time (sec): 2.000000E-2
Scans to average: 10
Electric dark correction enabled: true
Nonlinearity correction enabled: false
Boxcar width: 0
XAxis mode: Wavelengths
Number of Pixels in Spectrum: 2048
>>>>>Begin Spectral Data<<<<<
341.393	-4.59
341.776	-4.59
342.16	-4.59
342.543	-62.44
342.927	-69.9
343.31	-47.08
343.693	-66.28
344.077	-60.41
344.46	-72.39
344.843	-43.46
345.226	-54.53
345.61	-30.8
345.993	-21.09
346.376	-27.19
346.759	10.78
347.142	30.89
347.525	31.57
347.908	49.87
348.291	75.86
348.674	103.43
349.057	120.83
349.44	120.6
349.823	152.02
350.206	144.78
350.588	202.18
350.971	206.48
351.354	215.52
351.737	209.42
352.119	228.85
352.502	246.25
352.884	250.77
353.267	280.37
353.65	287.38
354.032	286.93
354.414	297.1
354.797	294.84
355.179	313.14
355.562	309.98
355.944	301.39
356.326	315.63
356.709	315.63
357.091	327.15
357.473	334.38
357.855	338.9
358.238	337.77
358.62	332.58
359.002	314.27
359.384	360.37
359.766	323.76
360.148	326.25
360.53	341.39
360.912	334.38
361.294	327.83
361.676	347.94
362.057	331.67
362.439	326.7
362.821	308.17
363.203	340.49
363.584	326.7
363.966	320.6
364.348	321.5
364.729	301.62
365.111	316.08
365.493	295.51
365.874	319.24
366.256	312.46
366.637	317.44
367.019	305.46
367.4	324.21
367.781	298.23
368.163	315.18
368.544	298.45
368.925	326.25
369.306	315.63
369.688	312.92
370.069	300.71
370.45	308.17
370.831	306.59
371.212	323.08
371.593	322.86
371.974	298.23
372.355	302.52
372.736	298.68
373.117	306.14
373.498	307.27
373.879	323.76
374.26	308.17
374.641	292.35
375.021	289.41
375.402	303.88
375.783	317.21
376.163	311.11
376.544	326.93
376.925	312.24
377.305	325.8
377.686	320.37
378.066	339.81
378.447	324.21
378.827	329.64
379.208	310.88
379.588	338.68
379.968	332.8
380.349	334.61
380.729	337.77
381.109	318.79
381.489	330.09
381.87	324.21
382.25	330.09
382.63	321.05
383.01	324.89
383.39	338
383.77	318.34
384.15	343.42
384.53	331.22
384.91	340.71
385.29	316.31
385.67	351.33
386.049	341.39
386.429	341.62
386.809	339.58
387.189	345.91
387.568	350.65
387.948	362.86
388.328	364.67
388.707	381.16
389.087	369.64
389.466	354.27
389.846	369.64
390.225	368.73
390.605	368.73
390.984	374.61
391.363	323.76
391.743	374.83
392.122	365.57
392.501	362.41
392.881	367.83
393.26	361.28
393.639	367.83
394.018	363.54
394.397	380.71
394.776	387.26
395.155	375.06
395.534	369.64
395.913	387.72
396.292	405.57
396.671	359.47
397.05	391.56
397.429	408.51
397.808	382.74
398.186	375.29
398.565	386.36
398.944	397.21
399.323	390.88
399.701	385.23
400.08	414.16
400.458	398.56
400.837	415.51
401.215	430.88
401.594	404.66
401.972	399.01
402.351	427.71
402.729	433.82
403.107	423.87
403.486	456.64
403.864	450.76
404.242	467.71
404.62	440.82
404.999	445.34
405.377	439.01
405.755	444.89
406.133	463.42
406.511	453.25
406.889	468.17
407.267	452.35
407.645	465.23
408.023	477.88
408.401	473.82
408.779	493.48
409.156	482.18
409.534	493.93
409.912	497.77
410.29	486.92
410.667	526.02
411.045	542.51
411.422	511.55
411.8	513.81
412.178	549.75
412.555	563.08
412.933	516.98
413.31	555.4
413.687	561.04
414.065	595.62
414.442	559.01
414.819	586.35
415.197	595.85
415.574	599.01
415.951	614.38
416.328	625.22
416.705	614.83
417.082	634.26
417.46	632.46
417.837	674.94
418.214	646.47
418.591	683.53
418.967	652.57
419.344	676.07
419.721	695.28
420.098	695.96
420.475	695.96
420.852	704.54
421.228	715.39
421.605	728.72
421.982	722.4
422.358	728.5
422.735	762.4
423.111	758.78
423.488	768.95
423.864	774.37
424.241	783.64
424.617	813.02
424.994	831.09
425.37	829.29
425.746	810.3
426.123	822.05
426.499	845.56
426.875	843.3
427.251	862.05
427.627	870.19
428.003	871.32
428.379	887.14
428.756	908.38
429.132	899.57
429.507	934.14
429.883	924.88
430.259	959.68
430.635	975.27
431.011	950.64
431.387	991.77
431.763	974.59
432.138	1007.13
432.514	1004.65
432.89	1005.78
433.265	1070.41
433.641	1059.79
434.016	1079.68
434.392	1070.64
434.767	1103.18
435.143	1128.94
435.518	1122.84
435.894	1132.78
436.269	1135.27
436.644	1184.76
437.02	1182.05
437.395	1158.54
437.77	1197.19
438.145	1190.63
438.52	1224.3
438.895	1224.76
439.271	1231.99
439.646	1254.59
440.021	1240.8
440.395	1284.87
440.77	1270.63
441.145	1266.79
441.52	1289.84
441.895	1299.33
442.27	1309.05
442.645	1323.96
443.019	1332.78
443.394	1337.75
443.769	1340.23
444.143	1337.52
444.518	1387.01
444.892	1342.27
445.267	1366.22
445.641	1371.42
446.016	1386.33
446.39	1383.85
446.764	1395.82
447.139	1391.53
447.513	1411.64
447.887	1397.41
448.262	1430.63
448.636	1425.43
449.01	1445.99
449.384	1475.37
449.758	1448.03
450.132	1496.61
450.506	1464.52
450.88	1467.69
451.254	1487.35
451.628	1495.26
452.002	1516.73
452.376	1490.74
452.75	1533.9
453.123	1488.48
453.497	1535.48
453.871	1565.76
454.244	1574.35
454.618	1578.64
454.992	1601.24
455.365	1613.22
455.739	1633.11
456.112	1649.83
456.486	1634.91
456.859	1676.95
457.232	1679.21
457.606	1685.31
457.979	1693.9
458.352	1765.31
458.725	1701.13
459.099	1741.13
459.472	1771.41
459.845	1800.11
460.218	1791.29
460.591	1814.8
460.964	1802.59
461.337	1825.19
461.71	1880.11
462.083	1896.15
462.456	1880.56
462.829	1890.28
463.201	1889.82
463.574	1949.71
463.947	1925.53
464.32	1974.79
464.692	1979.09
465.065	1974.11
465.438	1988.58
465.81	2047.56
466.183	2053.89
466.555	2069.71
466.928	2085.75
467.3	2094.56
467.672	2124.39
468.045	2143.6
468.417	2172.08
468.789	2125.98
469.161	2181.79
469.534	2227.22
469.906	2229.7
470.278	2250.27
470.65	2302.92
471.022	2346.31
471.394	2356.03
471.766	2340.66
472.138	2363.71
472.51	2408.45
472.882	2431.96
473.253	2447.1
473.625	2485.51
473.997	2490.03
474.369	2530.26
474.74	2545.17
475.112	2584.95
475.484	2595.57
475.855	2632.63
476.227	2661.1
476.598	2690.25
476.97	2714.21
477.341	2799.63
477.713	2815.67
478.084	2815.45
478.455	2859.74
478.827	2897.71
479.198	2939.06
479.569	2963.47
479.94	3010.25
480.311	3013.41
480.682	3053.86
481.053	3113.97
481.424	3154.87
481.795	3197.36
482.166	3197.36
482.537	3242.33
482.908	3275.78
483.279	3306.06
483.65	3363.68
484.021	3428.31
484.391	3442.78
484.762	3483.45
485.133	3468.09
485.503	3511.02
485.874	3564.81
486.244	3581.76
486.615	3662.21
486.985	3679.15
487.356	3732.49
487.726	3764.58
488.097	3777.91
488.467	3823.33
488.837	3877.79
489.207	3907.4
489.578	3944.23
489.948	3952.59
490.318	4052.03
490.688	4030.33
491.058	4090.9
491.428	4138.8
491.798	4159.14
492.168	4195.3
492.538	4190.78
492.908	4203.21
493.278	4313.94
493.648	4287.27
494.017	4318.01
494.387	4350.32
494.757	4395.07
495.126	4431
495.496	4419.93
495.866	4443.88
496.235	4485.91
496.605	4532.69
496.974	4531.11
497.344	4562.3
497.713	4612.46
498.082	4586.25
498.452	4655.63
498.821	4624.21
499.19	4680.03
499.559	4627.15
499.928	4696.3
500.298	4751.44
500.667	4818.79
501.036	4781.05
501.405	4768.39
501.774	4781.95
502.143	4811.55
502.512	4809.52
502.88	4852.91
503.249	4841.38
503.618	4935.39
503.987	4929.97
504.356	4943.75
504.724	4969.52
505.093	4961.15
505.462	4990.08
505.83	4992.11
506.199	5068.27
506.567	5006.58
506.936	5072.34
507.304	5106.91
507.672	5108.04
508.041	5139.91
508.409	5140.59
508.777	5142.39
509.145	5201.37
509.514	5211.32
509.882	5218.55
510.25	5233.46
510.618	5249.06
510.986	5296.97
511.354	5277.08
511.722	5357.75
512.09	5402.95
512.458	5374.48
512.826	5418.32
513.193	5419.9
513.561	5402.05
513.929	5425.78
514.297	5427.58
514.664	5473.46
515.032	5519.56
515.4	5509.16
515.767	5538.99
516.135	5526.34
516.502	5500.58
516.869	5565.88
517.237	5580.35
517.604	5538.54
517.972	5606.34
518.339	5618.31
518.706	5661.02
519.073	5642.49
519.44	5686.33
519.808	5681.36
520.175	5707.58
520.542	5783.51
520.909	5786.44
521.276	5758.65
521.643	5765.65
522.009	5784.41
522.376	5833.45
522.743	5870.06
523.11	5868.48
523.477	5949.38
523.843	5999.32
524.21	6026.89
524.577	6043.61
524.943	6017.62
525.31	6051.52
525.676	6066.21
526.043	6102.14
526.409	6124.97
526.776	6222.59
527.142	6199.99
527.508	6187.56
527.874	6317.05
528.241	6313.89
528.607	6332.42
528.973	6329.93
529.339	6309.37
529.705	6426.65
530.071	6411.29
530.437	6448.8
530.803	6476.6
531.169	6484.73
531.535	6462.81
531.901	6508.68
532.267	6530.15
532.632	6564.95
532.998	6575.35
533.364	6591.17
533.73	6639.75
534.095	6704.39
534.461	6701.45
534.826	6731.96
535.192	6750.71
535.557	6789.58
535.923	6760.43
536.288	6780.32
536.653	6826.19
537.019	6755.68
537.384	6820.09
537.749	6825.29
538.114	6890.6
538.479	6854.66
538.845	6877.26
539.21	6879.07
539.575	6901.44
539.94	6897.38
540.305	6977.6
540.67	6966.07
541.034	6973.98
541.399	7056.92
541.764	6999.75
542.129	6992.51
542.494	7122.45
542.858	7051.95
543.223	7105.96
543.587	7162.23
543.952	7109.35
544.316	7180.98
544.681	7188.89
545.045	7172.85
545.41	7216.46
545.774	7216.46
546.138	7273.64
546.503	7288.1
546.867	7293.3
547.231	7336.91
547.595	7314.77
547.959	7324.71
548.324	7407.64
548.688	7388.66
549.052	7432.73
549.416	7404.25
549.779	7401.99
550.143	7461.88
550.507	7506.17
550.871	7453.97
551.235	7496.23
551.599	7588.43
551.962	7531.48
552.326	7539.17
552.689	7587.07
553.053	7562.44
553.417	7577.81
553.78	7689.22
554.143	7646.73
554.507	7688.99
554.87	7655.77
555.234	7749.78
555.597	7656.68
555.96	7697.13
556.323	7726.05
556.686	7778.03
557.05	7794.53
557.413	7838.14
557.776	7821.87
558.139	7844.02
558.502	7823.23
558.865	7888.54
559.228	7903.9
559.59	7908.42
559.953	7954.75
560.316	8019.15
560.679	7928.76
561.041	8023.9
561.404	8107.51
561.767	8129.89
562.129	8065.93
562.492	8167.85
562.854	8098.7
563.217	8093.73
563.579	8187.51
563.941	8142.31
564.304	8254.4
564.666	8225.02
565.028	8272.03
565.39	8278.58
565.753	8328.3
566.115	8357.9
566.477	8409.65
566.839	8361.07
567.201	8427.05
567.563	8480.38
567.925	8517.45
568.287	8514.06
568.648	8519.48
569.01	8633.37
569.372	8630.44
569.734	8612.13
570.095	8594.96
570.457	8730.77
570.819	8745.01
571.18	8791.34
571.542	8823.88
571.903	8792.24
572.265	8870.88
572.626	8890.54
572.987	8909.98
573.349	8940.94
573.71	8941.39
574.071	8963.76
574.432	9024.78
574.794	9151.1
575.155	9199.69
575.516	9148.39
575.877	9211.44
576.238	9198.11
576.599	9316.97
576.96	9364.43
577.32	9405.56
577.681	9540.02
578.042	9531.88
578.403	9541.37
578.763	9624.08
579.124	9749.05
579.485	9773.68
579.845	9880.57
580.206	9936.84
580.566	9917.63
580.927	10001.25
581.287	10165.54
581.648	10140
582.008	10281.69
582.368	10280.56
582.728	10420.9
583.089	10551.06
583.449	10654.79
583.809	10699.54
584.169	10922.81
584.529	10893.2
584.889	11101.78
585.249	11099.75
585.609	11189.92
585.969	11312.4
586.329	11435.79
586.688	11592.39
587.048	11614.31
587.408	11766.4
587.768	11904.93
588.127	12031.03
588.487	12081.19
588.846	12320.51
589.206	12442.99
589.565	12448.42
589.925	12652.93
590.284	12773.6
590.643	12884.34
591.003	12964.56
591.362	13225.8
591.721	13332.69
592.08	13513.02
592.44	13618.33
592.799	13708.5
593.158	13839.34
593.517	13989.39
593.876	14201.14
594.235	14279.1
594.593	14452.66
594.952	14546.89
595.311	14612.65
595.67	14718.41
596.029	15007.9
596.387	15108.46
596.746	15187.55
597.104	15350.26
597.463	15479.97
597.822	15627.32
598.18	15654.88
598.538	15772.85
598.897	16055.33
599.255	15950.02
599.613	16365.6
599.972	16258.26
600.33	16489.21
600.688	16498.7
601.046	16706.38
601.404	16902.54
601.762	16870.9
602.12	16973.95
602.478	17126.26
602.836	17263.2
603.194	17317.89
603.552	17414.16
603.91	17468.4
604.268	17675.85
604.625	17709.75
604.983	17787.26
605.341	17808.73
605.698	18008.5
606.056	18095.27
606.413	18164.88
606.771	18322.61
607.128	18404.42
607.485	18301.6
607.843	18500.23
608.2	18653.45
608.557	18709.27
608.914	18716.95
609.272	18978.19
609.629	18899.55
609.986	19018.19
610.343	18964.85
610.7	19364.84
611.057	19298.41
611.414	19278.52
611.771	19478.74
612.127	19609.81
612.484	19490.04
612.841	19767.32
613.198	19772.52
613.554	19702.91
613.911	19853.19
614.267	19967.31
614.624	19978.61
614.98	19906.3
615.337	20115.33
615.693	20153.07
616.05	20194.2
616.406	20293.18
616.762	20269.45
617.118	20334.08
617.475	20288.66
617.831	20551.48
618.187	20651.82
618.543	20428.09
618.899	20676
619.255	20739.72
619.611	20723
619.967	20850.91
620.323	20850.45
620.678	20842.55
621.034	20891.13
621.39	20887.52
621.746	20904.24
622.101	21137.45
622.457	20995.99
622.812	20974.52
623.168	21158.47
623.523	21180.39
623.879	21201.63
624.234	21028.75
624.589	21186.04
624.945	21193.72
625.3	21266.71
625.655	21286.15
626.01	21390.55
626.365	21270.56
626.72	21374.06
627.075	21397.56
627.43	21333.83
627.785	21331.35
628.14	21380.16
628.495	21487.5
628.85	21413.15
629.205	21337.67
629.559	21471.23
629.914	21424
630.269	21368.41
630.623	21342.42
630.978	21344.23
631.332	21438.01
631.687	21427.84
632.041	21417.67
632.396	21435.07
632.75	21326.15
633.104	21295.41
633.459	21322.08
633.813	21330.22
634.167	21330.67
634.521	21172.03
634.875	21378.58
635.229	21350.33
635.583	21135.42
635.937	21303.55
636.291	21190.78
636.645	21253.16
636.999	21187.17
637.352	21347.16
637.706	21107.17
638.06	21277.11
638.413	21176.32
638.767	21126.38
639.121	21109.43
639.474	21014.07
639.828	21153.95
640.181	21141.29
640.534	21048.87
640.888	21045.03
641.241	21076.44
641.594	20982.88
641.947	21108.98
642.301	20984.69
642.654	21063.78
643.007	21024.69
643.36	21013.16
643.713	20992.82
644.066	21117.57
644.419	20946.05
644.771	20793.28
645.124	20648.43
645.477	20617.24
645.83	20496.57
646.182	20476.23
646.535	20380.18
646.888	20461.76
647.24	20340.64
647.593	20424.7
647.945	20249.57
648.298	20325.27
648.65	20185.16
649.002	20259.51
649.355	20402.56
649.707	20388.32
650.059	20402.56
650.411	20695.88
650.763	20751.7
651.115	20879.83
651.467	20817.46
651.819	20847.06
652.171	20825.82
652.523	20726.84
652.875	20809.33
653.227	20804.13
653.578	20897.68
653.93	20853.62
654.282	20846.61
654.633	20713.06
654.985	20755.54
655.337	20818.59
655.688	20888.65
656.039	20987.4
656.391	20824.24
656.742	20831.02
657.094	20812.49
657.445	20870.12
657.796	20814.98
658.147	20934.07
658.498	20828.76
658.849	20913.73
659.2	20857.23
659.551	20797.12
659.902	20970
660.253	20817.69
660.604	20880.51
660.955	20663.79
661.306	20894.75
661.656	20835.99
662.007	20773.62
662.358	20863.34
662.708	20967.97
663.059	20863.11
663.409	20782.89
663.76	21002.77
664.11	20975.42
664.461	20921.64
664.811	20890.68
665.161	20904.46
665.511	20812.26
665.862	20915.09
666.212	20928.87
666.562	20925.71
666.912	20872.15
667.262	20915.99
667.612	20880.51
667.962	20826.27
668.312	20970.45
668.662	20945.14
669.011	20908.08
669.361	20833.51
669.711	20884.8
670.06	20894.52
670.41	20801.64
670.76	20913.73
671.109	20887.06
671.459	20825.6
671.808	20812.72
672.157	20801.64
672.507	20756.9
672.856	20736.11
673.205	20762.32
673.554	20838.7
673.904	20760.51
674.253	20835.54
674.602	20714.41
674.951	20384.7
675.3	20290.47
675.649	20621.99
675.998	20690.68
676.346	20593.29
676.695	20732.94
677.044	20505.15
677.393	20541.54
677.741	20649.33
678.09	20668.54
678.438	20619.95
678.787	20691.59
679.135	20494.31
679.484	20448.88
679.832	20475.32
680.181	20403.91
680.529	20452.5
680.877	20399.84
681.225	20224.03
681.573	20349.68
681.922	20259.74
682.27	20209.12
682.618	20178.16
682.966	20164.82
683.314	20119.4
683.661	20102.9
684.009	20067.65
684.357	19887.09
684.705	19865.4
685.053	19949.46
685.4	19918.5
685.748	19744.27
686.095	19723.93
686.443	19717.6
686.79	19727.09
687.138	19756.02
687.485	19698.62
687.832	19619.3
688.18	19678.96
688.527	19548.34
688.874	19534.33
689.221	19483.03
689.568	19433.09
689.915	19428.12
690.262	19291.85
690.609	19258.18
690.956	19124.62
691.303	19114.23
691.65	19070.61
691.997	19109.48
692.344	19036.49
692.69	18917.62
693.037	18932.09
693.383	18784.52
693.73	18769.61
694.077	18668.59
694.423	18641.7
694.769	18555.83
695.116	18476.28
695.462	18491.42
695.808	18422.27
696.155	18442.16
696.501	18359.67
696.847	18326.45
697.193	18108.83
697.539	18199.68
697.885	18061.38
698.231	18032.45
698.577	18157.42
698.923	18024.77
699.269	17896.86
699.614	17850.53
699.96	17868.39
700.306	17787.71
700.651	17804.43
700.997	17666.13
701.342	17486.7
701.688	17535.74
702.033	17569.18
702.379	17441.73
702.724	17398.12
703.069	17421.17
703.415	17166.71
703.76	17170.33
704.105	17192.92
704.45	17031.8
704.795	17076.32
705.14	16959.48
705.485	16876.55
705.83	16845.59
706.175	16789.32
706.52	16814.85
706.865	16712.71
707.209	16679.26
707.554	16646.27
707.899	16655.08
708.243	16604.24
708.588	16586.84
708.932	16455.99
709.277	16365.83
709.621	16345.49
709.966	16346.84
710.31	16380.74
710.654	16169.67
710.998	16271.82
711.342	16150.01
711.687	16047.87
712.031	16027.3
712.375	15948.89
712.719	15997.02
713.063	15933.3
713.407	15999.73
713.75	15941.88
714.094	15961.77
714.438	15827.76
714.782	15872.73
715.125	15768.1
715.469	15808.1
715.812	15681.78
716.156	15691.95
716.499	15621.89
716.843	15682.45
717.186	15562.01
717.53	15643.13
717.873	15554.32
718.216	15505.06
718.559	15582.34
718.902	15465.06
719.246	15442.91
719.589	15393.87
719.932	15282.69
720.275	15423.93
720.617	15374.89
720.96	15338.96
721.303	15316.14
721.646	15232.52
721.989	15111.62
722.331	15284.05
722.674	15227.33
723.016	15256.7
723.359	15156.37
723.701	15195.24
724.044	15054
724.386	15051.06
724.729	15065.07
725.071	15012.42
725.413	15046.09
725.755	15127.22
726.097	15029.82
726.439	14981.91
726.782	14943.04
727.124	15130.83
727.465	14976.48
727.807	14952.3
728.149	14895.81
728.491	14899.2
728.833	14915.47
729.175	14901.68
729.516	14802.25
729.858	14800.9
730.199	14840.44
730.541	14801.8
730.882	14814.68
731.224	14805.87
731.565	14761.35
731.906	14795.47
732.248	14890.84
732.589	14708.24
732.93	14721.8
733.271	14763.16
733.612	14686.32
733.953	14773.78
734.294	14665.53
734.635	14696.27
734.976	14777.85
735.317	14715.25
735.658	14675.25
735.999	14819.43
736.339	14709.83
736.68	14762.93
737.021	14685.87
737.361	14675.48
737.702	14712.08
738.042	14796.38
738.383	14765.87
738.723	14821.46
739.063	14700.79
739.404	14793.89
739.744	14674.8
740.084	14751.86
740.424	14809.03
740.764	14730.16
741.104	14869.82
741.444	14741.69
741.784	14717.28
742.124	14794.57
742.464	14752.99
742.804	14817.62
743.143	14899.2
743.483	14797.73
743.823	14868.69
744.162	14905.3
744.502	14902.81
744.841	14920.67
745.181	14953.43
745.52	14964.73
745.86	15074.79
746.199	15129.48
746.538	15194.78
746.877	15194.11
747.216	15203.82
747.556	15231.62
747.895	15301.45
748.234	15250.38
748.573	15341.45
748.911	15340.54
749.25	15476.81
749.589	15429.35
749.928	15644.72
750.267	15646.98
750.605	15672.51
750.944	15666.41
751.283	15774.88
751.621	15864.6
751.96	15959.06
752.298	16056.46
752.636	16108.66
752.975	16092.61
753.313	16190.24
753.651	16363.11
753.989	16309.56
754.327	16458.25
754.666	16470.23
755.004	16688.08
755.342	16753.61
755.679	16823.44
756.017	16861.41
756.355	17111.12
756.693	17147.95
757.031	17290.1
757.368	17264.11
757.706	17479.02
758.044	17513.59
758.381	17725.57
758.719	17731.44
759.056	17886.46
