Data from hue_200_FLMS001491_00095.txt Node
Date: Tue Feb 07 16:44:13 GMT 2017
User: dcchb
Spectrometer: FLMS00149
Trigger mode: 0
Integration Time (sec): 2.000000E-2
Scans to average: 10
Electric dark correction enabled: true
Nonlinearity correction enabled: false
Boxcar width: 0
XAxis mode: Wavelengths
Number of Pixels in Spectrum: 2048
>>>>>Begin Spectral Data<<<<<
341.393	-4.48
341.776	-4.48
342.16	-4.48
342.543	-56.91
342.927	-65.72
343.31	-59.84
343.693	-82.22
344.077	-58.94
344.46	-69.56
344.843	-53.52
345.226	-13.74
345.61	-25.49
345.993	-17.13
346.376	2.75
346.759	12.47
347.142	33.49
347.525	37.1
347.908	45.24
348.291	62.87
348.674	77.78
349.057	108.74
349.44	118.23
349.823	151.45
350.206	148.51
350.588	183.09
350.971	176.31
351.354	224.9
351.737	208.85
352.119	266.25
352.502	278
352.884	267.38
353.267	272.8
353.65	300.15
354.032	293.14
354.414	303.99
354.797	326.14
355.179	324.1
355.562	310.09
355.944	313.71
356.326	332.91
356.709	318.23
357.091	348.51
357.473	349.19
357.855	348.28
358.238	337.66
358.62	343.08
359.002	320.71
359.384	334.5
359.766	327.72
360.148	326.81
360.53	344.89
360.912	333.37
361.294	320.26
361.676	340.15
362.057	329.07
362.439	326.36
362.821	320.94
363.203	332.01
363.584	327.04
363.966	334.72
364.348	308.96
364.729	309.86
365.111	308.28
365.493	321.84
365.874	342.18
366.256	315.74
366.637	311.45
367.019	298.11
367.4	308.28
367.781	292.46
368.163	307.38
368.544	298.57
368.925	312.35
369.306	304.44
369.688	311.67
370.069	299.47
370.45	309.41
370.831	316.64
371.212	320.26
371.593	303.99
371.974	324.33
372.355	297.66
372.736	306.02
373.117	308.28
373.498	312.58
373.879	310.77
374.26	293.59
374.641	305.8
375.021	317.32
375.402	325.68
375.783	307.15
376.163	290.2
376.544	335.17
376.925	333.82
377.305	336.76
377.686	333.37
378.066	320.03
378.447	304.44
378.827	321.84
379.208	312.35
379.588	333.14
379.968	310.54
380.349	310.09
380.729	337.21
381.109	322.52
381.489	314.38
381.87	323.65
382.25	336.53
382.63	337.43
383.01	349.41
383.39	333.82
383.77	328.17
384.15	336.3
384.53	341.73
384.91	342.18
385.29	353.48
385.67	337.66
386.049	346.25
386.429	364.1
386.809	360.94
387.189	358.68
387.568	354.84
387.948	333.82
388.328	350.77
388.707	362.97
389.087	310.99
389.466	348.28
389.846	356.87
390.225	372.91
390.605	357.55
390.984	362.97
391.363	339.92
391.743	346.7
392.122	372.69
392.501	381.5
392.881	380.82
393.26	367.94
393.639	377.89
394.018	361.61
394.397	372.91
394.776	380.82
395.155	362.29
395.534	393.93
395.913	372.24
396.292	379.69
396.671	374.5
397.05	383.31
397.429	375.4
397.808	391.22
398.186	402.07
398.565	391.44
398.944	394.38
399.323	390.77
399.701	409.07
400.08	409.98
400.458	412.91
400.837	397.32
401.215	416.53
401.594	412.91
401.972	414.49
402.351	414.27
402.729	435.29
403.107	435.51
403.486	422.4
403.864	437.32
404.242	434.83
404.62	433.7
404.999	439.35
405.377	441.39
405.755	448.17
406.133	432.57
406.511	447.71
406.889	464.89
407.267	452.01
407.645	468.28
408.023	469.63
408.401	480.26
408.779	513.02
409.156	486.81
409.534	487.49
409.912	487.71
410.29	521.16
410.667	515.28
411.045	543.53
411.422	559.8
411.8	541.5
412.178	567.03
412.555	579.69
412.933	583.53
413.31	584.66
413.687	580.59
414.065	594.38
414.442	599.8
414.819	593.93
415.197	635.96
415.574	662.17
415.951	642.51
416.328	667.82
416.705	666.01
417.082	663.98
417.46	670.31
417.837	697.43
418.214	686.58
418.591	694.26
418.967	721.15
419.344	708.95
419.721	739.68
420.098	751.66
420.475	767.93
420.852	769.29
421.228	767.03
421.605	774.71
421.982	834.82
422.358	804.09
422.735	823.75
423.111	845.44
423.488	869.62
423.864	856.97
424.241	926.35
424.617	915.5
424.994	932.67
425.37	960.24
425.746	957.53
426.123	984.65
426.499	995.72
426.875	976.74
427.251	1030.3
427.627	1043.86
428.003	1060.13
428.379	1083.63
428.756	1056.06
429.132	1112.56
429.507	1077.53
429.883	1074.36
430.259	1127.24
430.635	1134.48
431.011	1131.09
431.387	1189.84
431.763	1210.41
432.138	1203.4
432.514	1219.45
432.89	1249.05
433.265	1272.55
433.641	1268.26
434.016	1328.82
434.392	1330.18
434.767	1371.08
435.143	1392.77
435.518	1440.46
435.894	1441.13
436.269	1488.14
436.644	1512.77
437.02	1519.55
437.395	1545.76
437.77	1576.27
438.145	1609.72
438.52	1607.01
438.895	1651.98
439.271	1668.93
439.646	1715.93
440.021	1731.52
440.395	1764.52
440.77	1745.31
441.145	1773.78
441.52	1841.35
441.895	1801.58
442.27	1854.23
442.645	1854.68
443.019	1888.13
443.394	1935.58
443.769	1907.79
444.143	1920.44
444.518	1966.54
444.892	1948.92
445.267	2015.58
445.641	1992.98
446.016	2028.24
446.39	2068.91
446.764	2086.09
447.139	2116.82
447.513	2125.64
447.887	2121.12
448.262	2117.95
448.636	2126.77
449.01	2164.96
449.384	2181
449.758	2220.1
450.132	2251.51
450.506	2225.97
450.88	2281.34
451.254	2270.94
451.628	2283.82
452.002	2314.78
452.376	2345.97
452.75	2379.87
453.123	2393.2
453.497	2460.77
453.871	2461.67
454.244	2489.69
454.618	2502.12
454.992	2563.59
455.365	2569.47
455.739	2593.65
456.112	2616.7
456.486	2661.44
456.859	2665.96
457.232	2705.06
457.606	2726.07
457.979	2775.34
458.352	2848.56
458.725	2861.21
459.099	2871.15
459.472	2920.64
459.845	2964.48
460.218	2982.56
460.591	2989.79
460.964	2970.13
461.337	3119.28
461.71	3096.46
462.083	3207.64
462.456	3168.55
462.829	3152.73
463.201	3207.87
463.574	3243.12
463.947	3284.7
464.32	3361.99
464.692	3373.29
465.065	3402.89
465.438	3477.24
465.81	3514.53
466.183	3530.35
466.555	3638.59
466.928	3601.76
467.3	3669.1
467.672	3699.61
468.045	3819.83
468.417	3814.86
468.789	3822.77
469.161	3873.61
469.534	3984.34
469.906	4008.52
470.278	4036.77
470.65	4066.83
471.022	4153.83
471.394	4236.09
471.766	4211.01
472.138	4295.97
472.51	4416.65
472.882	4425.69
473.253	4495.07
473.625	4542.3
473.997	4697.55
474.369	4647.6
474.74	4719.01
475.112	4840.14
475.484	4860.93
475.855	4957.65
476.227	4941.16
476.598	5093.47
476.97	5117.42
477.341	5208.04
477.713	5324.2
478.084	5324.2
478.455	5429.5
478.827	5456.4
479.198	5656.16
479.569	5631.53
479.94	5806.44
480.311	5842.37
480.682	5968.02
481.053	6083.95
481.424	6169.6
481.795	6238.97
482.166	6316.49
482.537	6342.25
482.908	6480.78
483.279	6483.26
483.65	6582.92
484.021	6771.84
484.391	6783.82
484.762	6865.17
485.133	6967.77
485.503	7037.82
485.874	7196.01
486.244	7174.32
486.615	7281.21
486.985	7381.32
487.356	7451.37
487.726	7544.7
488.097	7680.07
488.467	7678.03
488.837	7895.65
489.207	7995.31
489.578	8086.61
489.948	8049.77
490.318	8244.12
490.688	8236.21
491.058	8367.73
491.428	8409.31
491.798	8473.27
492.168	8634.39
492.538	8603.66
492.908	8702.86
493.278	8823.54
493.648	8758.68
494.017	8858.11
494.387	8894.72
494.757	9026.02
495.126	9103.08
495.496	9160.48
495.866	9159.12
496.235	9222.85
496.605	9322.96
496.974	9362.28
497.344	9376.29
497.713	9410.42
498.082	9456.97
498.452	9544.88
498.821	9570.86
499.19	9517.31
499.559	9641.14
499.928	9663.29
500.298	9737.64
500.667	9815.83
501.036	9780.58
501.405	9791.65
501.774	9777.41
502.143	9936.73
502.512	9940.8
502.88	9990.06
503.249	9999.33
503.618	10044.98
503.987	10080
504.356	10059.89
504.724	10096.27
505.093	10129.72
505.462	10132.43
505.83	10229.6
506.199	10177.63
506.567	10302.14
506.936	10258.3
507.304	10329.94
507.672	10400.67
508.041	10388.24
508.409	10388.7
508.777	10477.28
509.145	10499.88
509.514	10520.22
509.882	10569.71
510.25	10499.88
510.618	10604.96
510.986	10547.34
511.354	10641.8
511.722	10616.49
512.09	10710.27
512.458	10621.68
512.826	10727.67
513.193	10675.92
513.561	10722.7
513.929	10786.65
514.297	10805.63
514.664	10906.2
515.032	10814.45
515.4	10899.64
515.767	10820.55
516.135	10908.46
516.502	10789.82
516.869	10919.3
517.237	10922.24
517.604	10802.92
517.972	10833.88
518.339	10858.51
518.706	10889.93
519.073	10853.77
519.44	10925.4
519.808	10961.79
520.175	10888.12
520.542	11015.57
520.909	11060.54
521.276	11004.5
521.643	11135.79
522.009	11012.41
522.376	11077.72
522.743	11067.77
523.11	11096.93
523.477	11096.7
523.843	11189.58
524.21	11160.43
524.577	11219.63
524.943	11199.52
525.31	11141.22
525.676	11168.56
526.043	11117.49
526.409	11240.88
526.776	11180.09
527.142	11243.59
527.508	11239.97
527.874	11286.07
528.241	11164.49
528.607	11167.88
528.973	11185.06
529.339	11121.78
529.705	11174.44
530.071	11201.78
530.437	11098.96
530.803	11191.39
531.169	11137.38
531.535	11126.98
531.901	11088.34
532.267	11068.45
532.632	11046.53
532.998	11036.14
533.364	11020.09
533.73	10999.53
534.095	11005.18
534.461	10995.23
534.826	11007.44
535.192	10915.91
535.557	10903.71
535.923	10847.44
536.288	10885.18
536.653	10825.29
537.019	10789.14
537.384	10732.64
537.749	10705.07
538.114	10651.97
538.479	10586.66
538.845	10574
539.21	10540.56
539.575	10454.46
539.94	10428.69
540.305	10420.33
540.67	10350.05
541.034	10416.27
541.399	10337.4
541.764	10243.84
542.129	10245.42
542.494	10188.7
542.858	10178.08
543.223	10063.28
543.587	10115.71
543.952	10027.35
544.316	10027.35
544.681	9886.56
545.045	9922.95
545.41	9941.25
545.774	9783.74
546.138	9800.24
546.503	9808.6
546.867	9659.9
547.231	9764.98
547.595	9685.44
547.959	9646.12
548.324	9569.51
548.688	9521.15
549.052	9480.25
549.416	9471.66
549.779	9401.83
550.143	9357.54
550.507	9407.25
550.871	9307.14
551.235	9291.55
551.599	9242.06
551.962	9176.07
552.326	9167.48
552.689	9169.97
553.053	9155.06
553.417	9031.9
553.78	9139.46
554.143	9087.49
554.507	9016.98
554.87	8961.16
555.234	9011.78
555.597	8914.84
555.96	8883.2
556.323	8864.22
556.686	8852.46
557.05	8849.98
557.413	8823.09
557.776	8807.95
558.139	8776.53
558.502	8734.5
558.865	8734.5
559.228	8712.58
559.59	8698.8
559.953	8635.75
560.316	8671.68
560.679	8645.01
561.041	8650.44
561.404	8674.62
561.767	8703.32
562.129	8577.22
562.492	8657.44
562.854	8587.16
563.217	8562.76
563.579	8565.69
563.941	8550.1
564.304	8548.29
564.666	8549.42
565.028	8564.11
565.39	8559.37
565.753	8626.48
566.115	8546.48
566.477	8547.61
566.839	8547.39
567.201	8626.03
567.563	8562.53
567.925	8619.7
568.287	8606.6
568.648	8600.04
569.01	8603.43
569.372	8591.23
569.734	8550.78
570.095	8609.08
570.457	8579.7
570.819	8591.91
571.18	8520.04
571.542	8545.35
571.903	8515.98
572.265	8669.64
572.626	8585.58
572.987	8599.14
573.349	8591.68
573.71	8634.17
574.071	8660.15
574.432	8640.72
574.794	8614.05
575.155	8690.89
575.516	8620.38
575.877	8680.94
576.238	8609.99
576.599	8624.9
576.96	8626.26
577.32	8567.95
577.681	8642.98
578.042	8612.47
578.403	8616.99
578.763	8656.09
579.124	8661.96
579.485	8661.51
579.845	8613.6
580.206	8623.09
580.566	8591.45
580.927	8610.89
581.287	8633.71
581.648	8645.92
582.008	8642.98
582.368	8620.15
582.728	8581.74
583.089	8586.48
583.449	8572.47
583.809	8624.9
584.169	8565.24
584.529	8588.74
584.889	8639.36
585.249	8557.56
585.609	8586.94
585.969	8631.91
586.329	8584
586.688	8587.84
587.048	8516.2
587.408	8492.7
587.768	8539.03
588.127	8481.18
588.487	8507.39
588.846	8635.3
589.206	8462.87
589.565	8483.66
589.925	8579.7
590.284	8555.3
590.643	8475.3
591.003	8450.44
591.362	8491.8
591.721	8499.03
592.08	8531.8
592.44	8465.36
592.799	8517.78
593.158	8540.83
593.517	8495.19
593.876	8521.17
594.235	8384.68
594.593	8413.83
594.952	8470.33
595.311	8422.87
595.67	8414.74
596.029	8457.9
596.387	8483.66
596.746	8507.84
597.104	8433.04
597.463	8426.26
597.822	8465.36
598.18	8404.12
598.538	8402.31
598.897	8457.22
599.255	8326.38
599.613	8457
599.972	8398.92
600.33	8343.55
600.688	8382.42
601.046	8414.28
601.404	8453.15
601.762	8393.72
602.12	8419.93
602.478	8415.64
602.836	8361.63
603.194	8334.51
603.552	8395.75
603.91	8319.6
604.268	8398.24
604.625	8293.61
604.983	8356.88
605.341	8335.64
605.698	8334.74
606.056	8373.61
606.413	8339.26
606.771	8417.45
607.128	8368.18
607.485	8375.87
607.843	8354.17
608.2	8424.23
608.557	8415.19
608.914	8425.13
609.272	8459.25
609.629	8404.34
609.986	8441.18
610.343	8391.69
610.7	8485.24
611.057	8441.4
611.414	8395.3
611.771	8460.84
612.127	8481.63
612.484	8449.54
612.841	8464.68
613.198	8438.92
613.554	8481.63
613.911	8496.99
614.267	8444.57
614.624	8427.84
614.98	8451.8
615.337	8514.17
615.693	8506.94
616.05	8536.77
616.406	8533.6
616.762	8506.49
617.118	8508.52
617.475	8502.87
617.831	8497.22
618.187	8544.68
618.543	8494.73
618.899	8561.4
619.255	8570.21
619.611	8544.45
619.967	8526.82
620.323	8564.79
620.678	8517.11
621.034	8489.54
621.39	8517.78
621.746	8563.21
622.101	8649.53
622.457	8520.95
622.812	8530.89
623.168	8574.28
623.523	8567.05
623.879	8519.14
624.234	8446.37
624.589	8568.4
624.945	8553.72
625.3	8596.43
625.655	8574.96
626.01	8507.84
626.365	8528.18
626.72	8479.37
627.075	8549.65
627.43	8519.14
627.785	8438.46
628.14	8504.68
628.495	8504
628.85	8525.69
629.205	8468.97
629.559	8550.78
629.914	8464.45
630.269	8469.42
630.623	8446.6
630.978	8438.46
631.332	8464.9
631.687	8452.25
632.041	8397.11
632.396	8468.52
632.75	8395.98
633.104	8439.59
633.459	8377.9
633.813	8381.97
634.167	8414.74
634.521	8368.41
634.875	8377.9
635.229	8252.93
635.583	8264.01
635.937	8240.96
636.291	8351.69
636.645	8325.7
636.999	8238.02
637.352	8316.89
637.706	8244.12
638.06	8274.18
638.413	8196.21
638.767	8199.37
639.121	8259.26
639.474	8223.78
639.828	8155.08
640.181	8180.62
640.534	8196.66
640.888	8179.26
641.241	8173.61
641.594	8168.42
641.947	8165.25
642.301	8191.01
642.654	8159.83
643.007	8188.3
643.36	8125.03
643.713	8142.65
644.066	8129.32
644.419	8093.16
644.771	8075.54
645.124	8021.07
645.477	7963
645.83	7922.09
646.182	7925.26
646.535	7924.81
646.888	7881.87
647.24	7846.16
647.593	7901.76
647.945	7904.02
648.298	7805.49
648.65	7764.13
649.002	7840.51
649.355	7873.51
649.707	7865.15
650.059	7879.84
650.411	7961.87
650.763	8020.62
651.115	8026.05
651.467	7995.31
651.819	8057.91
652.171	8027.18
652.523	8028.53
652.875	8013.62
653.227	8054.07
653.578	8112.15
653.93	8051.81
654.282	8033.5
654.633	7969.55
654.985	8005.26
655.337	7983.56
655.688	8085.25
656.039	8066.27
656.391	7964.8
656.742	8016.33
657.094	8078.7
657.445	8071.47
657.796	8030.57
658.147	8033.96
658.498	8021.98
658.849	8059.72
659.2	8009.78
659.551	8040.28
659.902	8077.8
660.253	8081.86
660.604	8126.83
660.955	8070.56
661.306	8067.17
661.656	8061.53
662.007	8104.46
662.358	8147.85
662.708	8114.18
663.059	8126.16
663.409	8126.83
663.76	8081.64
664.11	8155.99
664.461	8134.29
664.811	8151.47
665.161	8167.06
665.511	8100.85
665.862	8089.32
666.212	8131.58
666.562	8130.22
666.912	8127.06
667.262	8120.73
667.612	8081.19
667.962	8165.03
668.312	8142.88
668.662	8196.44
669.011	8108.53
669.361	8049.32
669.711	8133.61
670.06	8098.13
670.41	8095.42
670.76	8066.72
671.109	8116.21
671.459	8059.94
671.808	8055.88
672.157	8070.11
672.507	8047.06
672.856	8024.92
673.205	8054.97
673.554	8076.89
673.904	8026.27
674.253	8080.73
674.602	8071.02
674.951	7948.76
675.3	7880.74
675.649	8014.75
675.998	7987.18
676.346	7991.7
676.695	8065.37
677.044	7939.72
677.393	7992.6
677.741	7959.61
678.09	8018.81
678.438	7923.45
678.787	7942.88
679.135	7937.69
679.484	7873.73
679.832	7903.56
680.181	7853.62
680.529	7896.11
680.877	7840.97
681.225	7784.7
681.573	7819.5
681.922	7808.2
682.27	7791.02
682.618	7766.39
682.966	7726.62
683.314	7771.82
683.661	7773.4
684.009	7648.43
684.357	7683
684.705	7688.88
685.053	7617.92
685.4	7739.95
685.748	7646.85
686.095	7676.22
686.443	7612.5
686.79	7544.02
687.138	7583.12
687.485	7551.48
687.832	7563.69
688.18	7559.39
688.527	7525.95
688.874	7475.78
689.221	7442.33
689.568	7441.43
689.915	7407.76
690.262	7410.24
690.609	7303.58
690.956	7361.88
691.303	7364.59
691.65	7367.98
691.997	7275.11
692.344	7264.94
692.69	7254.77
693.037	7231.49
693.383	7139.29
693.73	7113.98
694.077	7188.1
694.423	7169.35
694.769	7125.73
695.116	7077.82
695.462	7057.26
695.808	7071.27
696.155	6984.94
696.501	6980.42
696.847	6938.17
697.193	6898.39
697.539	6900.43
697.885	6867.66
698.231	6831.5
698.577	6832.18
698.923	6894.32
699.269	6801.45
699.614	6736.59
699.96	6672.64
700.306	6691.17
700.651	6640.09
700.997	6655.69
701.342	6624.27
701.688	6629.92
702.033	6567.78
702.379	6583.37
702.724	6544.5
703.069	6549.93
703.415	6447.1
703.76	6467.89
704.105	6449.14
704.45	6450.72
704.795	6401.91
705.14	6274.23
705.485	6322.59
705.83	6302.25
706.175	6365.52
706.52	6292.76
706.865	6232.42
707.209	6247.34
707.554	6223.38
707.899	6229.03
708.243	6138.41
708.588	6170.95
708.932	6173.44
709.277	6083.72
709.621	6157.39
709.966	6108.13
710.31	6114.68
710.654	6045.76
710.998	6113.55
711.342	6073.78
711.687	6035.14
712.031	5991.3
712.375	5933.9
712.719	5995.82
713.063	5983.84
713.407	5983.84
713.75	5960.11
714.094	5937.51
714.438	5901.13
714.782	5923.28
715.125	5907.91
715.469	5900.68
715.812	5926.67
716.156	5835.82
716.499	5905.88
716.843	5863.84
717.186	5883.28
717.53	5835.6
717.873	5853.67
718.216	5799.66
718.559	5822.26
718.902	5754.69
719.246	5806.67
719.589	5803.96
719.932	5770.06
720.275	5723.28
720.617	5706.33
720.96	5817.52
721.303	5750.4
721.646	5724.86
721.989	5689.84
722.331	5748.37
722.674	5760.57
723.016	5800.12
723.359	5716.28
723.701	5738.87
724.044	5628.14
724.386	5629.27
724.729	5696.62
725.071	5708.59
725.413	5643.51
725.755	5672.21
726.097	5681.93
726.439	5634.7
726.782	5648.48
727.124	5662.49
727.465	5619.78
727.807	5605.09
728.149	5621.14
728.491	5679.44
728.833	5662.72
729.175	5639.67
729.516	5641.7
729.858	5674.7
730.199	5652.32
730.541	5585.43
730.882	5622.49
731.224	5630.63
731.565	5615.49
731.906	5606.45
732.248	5648.48
732.589	5641.48
732.93	5636.28
733.271	5681.7
733.612	5592.21
733.953	5681.47
734.294	5637.63
734.635	5616.62
734.976	5661.81
735.317	5660.46
735.658	5654.36
735.999	5679.44
736.339	5624.98
736.68	5707.91
737.021	5678.31
737.361	5653.91
737.702	5672.66
738.042	5703.62
738.383	5673.34
738.723	5716.5
739.063	5697.75
739.404	5709.5
739.744	5727.58
740.084	5777.29
740.424	5791.53
740.764	5780.91
741.104	5796.95
741.444	5767.57
741.784	5801.7
742.124	5821.36
742.464	5806.67
742.804	5834.69
743.143	5865.42
743.483	5902.71
743.823	5881.24
744.162	5920.11
744.502	5920.56
744.841	5924.86
745.181	6054.12
745.52	6066.32
745.86	6124.63
746.199	6084.85
746.538	6152.65
746.877	6156.72
747.216	6163.27
747.556	6254.34
747.895	6303.38
748.234	6344.28
748.573	6449.36
748.911	6455.01
749.25	6475.35
749.589	6501.57
749.928	6650.94
750.267	6704.5
750.605	6758.06
750.944	6841.22
751.283	6859.52
751.621	6948.11
751.96	7024.26
752.298	7123.24
752.636	7225.39
752.975	7324.37
753.313	7405.05
753.651	7499.51
753.989	7600.29
754.327	7672.16
754.666	7788.09
755.004	7942.43
755.342	8061.53
755.679	8133.39
756.017	8315.98
756.355	8435.3
756.693	8552.59
757.031	8705.12
757.368	8816.76
757.706	8896.08
758.044	9175.17
758.381	9295.17
758.719	9451.09
759.056	9669.62
759.394	9782.38
759.731	9889.27
760.068	10082.26
760.405	10198.19
760.743	10379.2
761.08	10586.66
761.417	10640.89
761.754	10882.47
762.091	11055.34
762.428	11202.01
762.765	11330.59
763.102	11526.07
763.438	11705.72
763.775	11847.41
764.112	12053.28
764.449	12230.68
764.785	12389.32
765.122	12493.73
765.458	12654.62
765.795	12783.66
766.131	12963.32
766.467	13200.15
766.804	13372.35
