Data from hue_180_FLMS001491_00100.txt Node
Date: Tue Feb 07 16:47:45 GMT 2017
User: dcchb
Spectrometer: FLMS00149
Trigger mode: 0
Integration Time (sec): 2.000000E-2
Scans to average: 10
Electric dark correction enabled: true
Nonlinearity correction enabled: false
Boxcar width: 0
XAxis mode: Wavelengths
Number of Pixels in Spectrum: 2048
>>>>>Begin Spectral Data<<<<<
341.393	22.94
341.776	22.94
342.16	22.94
342.543	-64.07
342.927	-75.82
343.31	-69.72
343.693	-49.38
344.077	-67.23
344.46	-70.39
344.843	-71.07
345.226	-41.92
345.61	-24.07
345.993	-17.51
346.376	2.6
346.759	13.9
347.142	16.61
347.525	35.82
347.908	53.67
348.291	62.48
348.674	97.06
349.057	129.15
349.44	144.06
349.823	172.54
350.206	138.19
350.588	202.37
350.971	228.81
351.354	200.11
351.737	240.56
352.119	247.34
352.502	253.44
352.884	278.52
353.267	279.2
353.65	288.69
354.032	321.46
354.414	301.57
354.797	288.47
355.179	323.95
355.562	309.26
355.944	330.05
356.326	340.22
356.709	315.58
357.091	315.58
357.473	312.2
357.855	332.31
358.238	340.67
358.62	340.67
359.002	346.09
359.384	339.99
359.766	345.19
360.148	329.14
360.53	339.77
360.912	332.99
361.294	344.28
361.676	330.05
362.057	341.57
362.439	334.79
362.821	342.25
363.203	325.53
363.584	313.78
363.966	336.15
364.348	310.84
364.729	320.78
365.111	320.33
365.493	328.01
365.874	313.1
366.256	317.17
366.637	317.84
367.019	319.43
367.4	316.49
367.781	316.49
368.163	308.13
368.544	322.36
368.925	310.16
369.306	314
369.688	307.45
370.069	305.19
370.45	320.78
370.831	341.12
371.212	321.23
371.593	305.19
371.974	334.57
372.355	302.03
372.736	303.38
373.117	328.24
373.498	330.27
373.879	329.82
374.26	316.26
374.641	299.54
375.021	327.79
375.402	317.17
375.783	339.09
376.163	329.37
376.544	345.64
376.925	321.69
377.305	325.3
377.686	318.52
378.066	307.22
378.447	329.82
378.827	326.21
379.208	313.33
379.588	314.23
379.968	338.18
380.349	347.22
380.729	310.16
381.109	316.71
381.489	330.73
381.87	334.12
382.25	343.15
382.63	331.86
383.01	326.66
383.39	355.36
383.77	337.05
384.15	334.57
384.53	341.8
384.91	342.02
385.29	349.48
385.67	348.35
386.049	364.17
386.429	342.93
386.809	349.71
387.189	338.86
387.568	342.7
387.948	347.22
388.328	365.75
388.707	361.46
389.087	338.41
389.466	353.1
389.846	353.55
390.225	355.58
390.605	355.81
390.984	358.97
391.363	358.07
391.743	375.47
392.122	378.86
392.501	360.78
392.881	380.89
393.26	365.53
393.639	382.7
394.018	371.18
394.397	376.83
394.776	349.93
395.155	390.39
395.534	372.31
395.913	371.18
396.292	377.05
396.671	384.74
397.05	376.6
397.429	391.06
397.808	377.73
398.186	387.45
398.565	419.76
398.944	404.4
399.323	411.63
399.701	403.27
400.08	393.32
400.458	374.57
400.837	403.04
401.215	431.51
401.594	391.97
401.972	424.51
402.351	403.72
402.729	414.34
403.107	415.92
403.486	390.61
403.864	421.12
404.242	416.6
404.62	439.88
404.999	441.23
405.377	428.8
405.755	433.32
406.133	438.52
406.511	439.65
406.889	442.59
407.267	470.84
407.645	435.81
408.023	445.75
408.401	458.86
408.779	459.54
409.156	500.89
409.534	480.1
409.912	492.76
410.29	498.18
410.667	486.43
411.045	506.77
411.422	506.09
411.8	522.36
412.178	524.62
412.555	521.23
412.933	544.96
413.31	547.44
413.687	553.09
414.065	563.71
414.442	552.19
414.819	577.95
415.197	596.71
415.574	587.67
415.951	591.28
416.328	615.01
416.705	610.27
417.082	615.24
417.46	621.34
417.837	636.25
418.214	609.81
418.591	651.17
418.967	633.54
419.344	638.06
419.721	650.04
420.098	681.23
420.475	691.62
420.852	664.5
421.228	701.79
421.605	679.87
421.982	698.85
422.358	739.98
422.735	736.82
423.111	744.27
423.488	758.29
423.864	755.8
424.241	745.86
424.617	786.53
424.994	789.92
425.37	779.08
425.746	779.53
426.123	810.49
426.499	797.61
426.875	819.75
427.251	855.91
427.627	856.14
428.003	871.95
428.379	900.43
428.756	889.13
429.132	903.82
429.507	887.77
429.883	913.76
430.259	924.61
430.635	944.72
431.011	963.03
431.387	987.21
431.763	979.07
432.138	975.68
432.514	978.17
432.89	993.53
433.265	1007.54
433.641	1055.9
434.016	1062.23
434.392	1081.67
434.767	1093.19
435.143	1099.52
435.518	1121.44
435.894	1125.51
436.269	1151.27
436.644	1170.7
437.02	1168.67
437.395	1190.14
437.77	1208.89
438.145	1233.98
438.52	1272.17
438.895	1254.09
439.271	1272.62
439.646	1301.32
440.021	1335.9
440.395	1335.45
440.77	1327.31
441.145	1341.32
441.52	1377.7
441.895	1374.31
442.27	1433.07
442.645	1379.74
443.019	1444.14
443.394	1469.45
443.769	1461.09
444.143	1444.14
444.518	1483.46
444.892	1505.84
445.267	1512.84
445.641	1513.07
446.016	1519.17
446.39	1552.16
446.764	1558.94
447.139	1564.59
447.513	1564.37
447.887	1583.8
448.262	1584.93
448.636	1586.29
449.01	1622.22
449.384	1629.22
449.758	1666.51
450.132	1675.32
450.506	1676.23
450.88	1700.41
451.254	1687.3
451.628	1727.98
452.002	1757.13
452.376	1767.07
452.75	1807.3
453.123	1805.04
453.497	1814.98
453.871	1854.08
454.244	1854.08
454.618	1863.79
454.992	1897.46
455.365	1910.57
455.739	1937.46
456.112	1960.06
456.486	2014.3
456.859	2027.18
457.232	2059.49
457.606	2067.18
457.979	2048.87
458.352	2118.48
458.725	2138.59
459.099	2132.71
459.472	2201.19
459.845	2216.55
460.218	2214.74
460.591	2264.01
460.964	2288.41
461.337	2310.79
461.71	2360.05
462.083	2392.82
462.456	2383.33
462.829	2404.34
463.201	2447.73
463.574	2500.61
463.947	2514.62
464.32	2549.2
464.692	2581.74
465.065	2586.71
465.438	2655.64
465.81	2703.09
466.183	2718.01
466.555	2777.89
466.928	2824.22
467.3	2786.48
467.672	2911.45
468.045	2960.04
468.417	2948.28
468.789	2956.19
469.161	3061.5
469.534	3100.14
469.906	3162.97
470.278	3160.93
470.65	3185.11
471.022	3258.56
471.394	3341.95
471.766	3380.82
472.138	3423.53
472.51	3503.75
472.882	3565.22
473.253	3630.3
473.625	3674.59
473.997	3747.81
474.369	3797.53
474.74	3838.66
475.112	3846.57
475.484	3997.75
475.855	4047.46
476.227	4089.05
476.598	4237.06
476.97	4264.63
477.341	4352.54
477.713	4413.33
478.084	4478.19
478.455	4601.8
478.827	4655.58
479.198	4768.35
479.569	4776.94
479.94	4962.92
480.311	4984.61
480.682	5162.69
481.053	5305.96
481.424	5427.31
481.795	5381.89
482.166	5545.05
482.537	5628.67
482.908	5681.09
483.279	5775.33
483.65	5861.88
484.021	6040.41
484.391	6071.37
484.762	6185.26
485.133	6270.23
485.503	6368.53
485.874	6496.89
486.244	6566.27
486.615	6700.05
486.985	6817.33
487.356	6891.91
487.726	7034.96
488.097	7216.87
488.467	7206.25
488.837	7390.2
489.207	7385
489.578	7581.38
489.948	7699.12
490.318	7746.58
490.688	7858.89
491.058	7969.85
491.428	8060.92
491.798	8195.38
492.168	8313.34
492.538	8434.92
492.908	8415.26
493.278	8589.72
493.648	8575.71
494.017	8765.08
494.387	8770.28
494.757	8876.26
495.126	8999.42
495.496	8971.18
495.866	9097.5
496.235	9180.21
496.605	9229.25
496.974	9225.86
497.344	9337.95
497.713	9421.56
498.082	9518.96
498.452	9574.32
498.821	9636.7
499.19	9663.36
499.559	9737.71
499.928	9798.73
500.298	9855.45
500.667	9942.45
501.036	9931.6
501.405	10031.04
501.774	10014.31
502.143	10125.27
502.512	10110.13
502.88	10183.57
503.249	10191.94
503.618	10286.85
503.987	10316.68
504.356	10312.38
504.724	10394.19
505.093	10392.83
505.462	10393.29
505.83	10414.75
506.199	10485.71
506.567	10657.69
506.936	10604.81
507.304	10759.15
507.672	10793.95
508.041	10727.06
508.409	10844.8
508.777	10884.12
509.145	10912.14
509.514	10797.57
509.882	10955.53
510.25	10971.12
510.618	10951.46
510.986	10995.98
511.354	11054.74
511.722	11124.11
512.09	11189.42
512.458	11160.05
512.826	11174.51
513.193	11138.8
513.561	11114.62
513.929	11275.75
514.297	11315.07
514.664	11402.53
515.032	11358.46
515.4	11360.04
515.767	11402.3
516.135	11437.55
516.502	11257.22
516.869	11527.04
517.237	11485.91
517.604	11508.96
517.972	11471.22
518.339	11535.63
518.706	11510.32
519.073	11541.5
519.44	11573.37
519.808	11536.76
520.175	11511.9
520.542	11581.05
520.909	11624.67
521.276	11580.6
521.643	11679.81
522.009	11664.67
522.376	11722.06
522.743	11683.65
523.11	11815.17
523.477	11806.36
523.843	11825.79
524.21	11940.82
524.577	11870.08
524.943	11901.95
525.31	11906.01
525.676	11869.41
526.043	11970.42
526.409	11859.01
526.776	12048.84
527.142	12016.07
527.508	11954.6
527.874	12013.36
528.241	11932
528.607	11986.92
528.973	12014.26
529.339	11860.37
529.705	11998.89
530.071	12010.19
530.437	11912.79
530.803	12012
531.169	12011.77
531.535	11884.09
531.901	11961.38
532.267	11838.67
532.632	11876.64
532.998	11875.05
533.364	11813.81
533.73	11813.14
534.095	11841.61
534.461	11807.94
534.826	11781.27
535.192	11751.89
535.557	11762.06
535.923	11746.7
536.288	11577.89
536.653	11661.28
537.019	11589.64
537.384	11551.9
537.749	11516.19
538.114	11531.34
538.479	11440.94
538.845	11459.02
539.21	11388.29
539.575	11415.41
539.94	11355.97
540.305	11370.44
540.67	11267.61
541.034	11224.45
541.399	11224
541.764	11156.88
542.129	11144.45
542.494	11016.55
542.858	11065.13
543.223	10978.81
543.587	11042.53
543.952	10923.22
544.316	10949.2
544.681	10910.33
545.045	10820.62
545.41	10901.07
545.774	10873.73
546.138	10746.72
546.503	10741.07
546.867	10655.2
547.231	10644.8
547.595	10607.29
547.959	10632.38
548.324	10521.87
548.688	10474.19
549.052	10473.28
549.416	10463.34
549.779	10418.14
550.143	10348.54
550.507	10347.19
550.871	10298.37
551.235	10224.48
551.599	10290.46
551.962	10123.46
552.326	10177.92
552.689	10160.75
553.053	10041.2
553.417	10002.56
553.78	10112.62
554.143	10047.31
554.507	9997.36
554.87	10008.44
555.234	10019.74
555.597	9879.85
555.96	9986.29
556.323	9924.6
556.686	9826.3
557.05	9820.19
557.413	9905.39
557.776	9771.38
558.139	9794.43
558.502	9812.96
558.865	9744.72
559.228	9782.45
559.59	9728.67
559.953	9747.88
560.316	9739.74
560.679	9732.51
561.041	9708.11
561.404	9687.32
561.767	9688.9
562.129	9672.18
562.492	9726.86
562.854	9664.04
563.217	9682.8
563.579	9643.93
563.941	9699.07
564.304	9665.85
564.666	9726.86
565.028	9647.32
565.39	9673.98
565.753	9686.64
566.115	9663.36
566.477	9655.9
566.839	9713.98
567.201	9746.75
567.563	9664.04
567.925	9727.09
568.287	9681.21
568.648	9678.95
569.01	9702.68
569.372	9732.51
569.734	9681.21
570.095	9711.5
570.457	9716.92
570.819	9685.51
571.18	9743.59
571.542	9708.33
571.903	9782
572.265	9719.18
572.626	9795.56
572.987	9700.2
573.349	9716.69
573.71	9762.79
574.071	9729.57
574.432	9686.41
574.794	9719.63
575.155	9701.55
575.516	9705.85
575.877	9760.53
576.238	9765.51
576.599	9730.25
576.96	9716.69
577.32	9714.66
577.681	9776.81
578.042	9818.61
578.403	9741.78
578.763	9754.88
579.124	9737.03
579.485	9708.56
579.845	9743.13
580.206	9710.82
580.566	9701.33
580.927	9784.49
581.287	9765.73
581.648	9729.12
582.008	9738.39
582.368	9701.33
582.728	9751.72
583.089	9722.12
583.449	9717.6
583.809	9746.75
584.169	9706.07
584.529	9647.99
584.889	9706.3
585.249	9606.64
585.609	9597.37
585.969	9573.65
586.329	9631.27
586.688	9602.57
587.048	9615.23
587.408	9536.59
587.768	9501.11
588.127	9552.63
588.487	9543.14
588.846	9595.34
589.206	9584.49
589.565	9494.1
589.925	9579.75
590.284	9451.62
590.643	9541.78
591.003	9549.01
591.362	9582.46
591.721	9491.16
592.08	9481.45
592.44	9543.14
592.799	9487.77
593.158	9526.87
593.517	9537.72
593.876	9418.17
594.235	9404.61
594.593	9401.9
594.952	9502.91
595.311	9399.19
595.67	9415.91
596.029	9496.36
596.387	9395.12
596.746	9450.26
597.104	9386.98
597.463	9365.74
597.822	9457.04
598.18	9402.13
598.538	9381.56
598.897	9396.25
599.255	9358.96
599.613	9444.16
599.972	9424.5
600.33	9376.36
600.688	9303.82
601.046	9384.72
601.404	9391.73
601.762	9389.92
602.12	9427.66
602.478	9422.69
602.836	9384.72
603.194	9363.26
603.552	9346.99
603.91	9341.79
604.268	9306.76
604.625	9319.87
604.983	9357.38
605.341	9299.08
605.698	9385.4
606.056	9340.88
606.413	9358.29
606.771	9392.86
607.128	9304.73
607.485	9313.31
607.843	9321
608.2	9431.28
608.557	9343.6
608.914	9332.97
609.272	9378.62
609.629	9415.91
609.986	9455.46
610.343	9345.86
610.7	9430.37
611.057	9439.86
611.414	9346.31
611.771	9371.39
612.127	9409.36
612.484	9443.25
612.841	9402.8
613.198	9400.32
613.554	9403.03
613.911	9476.02
614.267	9413.42
614.624	9487.77
614.98	9443.71
615.337	9536.59
615.693	9457.72
616.05	9401.67
616.406	9535.46
616.762	9464.27
617.118	9541.56
617.475	9477.15
617.831	9490.26
618.187	9528.45
618.543	9491.16
618.899	9577.71
619.255	9508.34
619.611	9539.3
619.967	9606.19
620.323	9618.39
620.678	9518.51
621.034	9502.01
621.39	9506.53
621.746	9533.65
622.101	9617.26
622.457	9528.45
622.812	9523.93
623.168	9552.4
623.523	9590.82
623.879	9564.38
624.234	9480.09
624.589	9559.18
624.945	9620.2
625.3	9564.83
625.655	9498.62
626.01	9503.82
626.365	9562.12
626.72	9504.04
627.075	9568.67
627.43	9528.45
627.785	9532.74
628.14	9522.57
628.495	9617.71
628.85	9540.2
629.205	9500.43
629.559	9487.77
629.914	9431.96
630.269	9497.72
630.623	9447.55
630.978	9411.84
631.332	9542.23
631.687	9464.72
632.041	9505.63
632.396	9425.18
632.75	9330.49
633.104	9409.13
633.459	9361.45
633.813	9375.69
634.167	9310.38
634.521	9399.87
634.875	9302.47
635.229	9330.04
635.583	9272.64
635.937	9310.83
636.291	9301.56
636.645	9290.72
636.999	9257.5
637.352	9259.53
637.706	9232.86
638.06	9207.78
638.413	9277.84
638.767	9183.6
639.121	9142.92
639.474	9141.79
639.828	9198.97
640.181	9159.42
640.534	9165.75
640.888	9166.43
641.241	9110.61
641.594	9166.2
641.947	9131.62
642.301	9149.93
642.654	9120.55
643.007	9102.25
643.36	9150.15
643.713	9077.84
644.066	9107.44
644.419	9072.19
644.771	9019.31
645.124	8979.99
645.477	8911.29
645.83	8867
646.182	8836.04
646.535	8774.35
646.888	8835.13
647.24	8739.09
647.593	8794.68
647.945	8769.6
648.298	8781.58
648.65	8745.87
649.002	8721.92
649.355	8810.5
649.707	8772.54
650.059	8832.65
650.411	8911.29
650.763	8903.61
651.115	9001.01
651.467	8949.93
651.819	8954.91
652.171	8978.41
652.523	8971.63
652.875	8967.79
653.227	8947.45
653.578	9037.84
653.93	8954.91
654.282	8962.36
654.633	8939.09
654.985	8990.16
655.337	8967.33
655.688	9012.98
656.039	8985.41
656.391	9024.28
656.742	8995.13
657.094	8952.42
657.445	8971.4
657.796	9014.79
658.147	9006.66
658.498	9050.04
658.849	8973.44
659.2	9024.51
659.551	9006.43
659.902	8994.9
660.253	9012.98
660.604	9024.06
660.955	8987
661.306	9077.39
661.656	9003.72
662.007	9050.5
662.358	9066.09
662.708	9060.89
663.059	9051.85
663.409	8952.19
663.76	9022.7
664.11	9065.86
664.461	9044.85
664.811	9103.38
665.161	9093.43
665.511	9081
665.862	9026.09
666.212	9041.91
666.562	9173.66
666.912	9112.64
667.262	9062.93
667.612	8985.64
667.962	9090.04
668.312	9065.86
668.662	9060.67
669.011	9029.93
669.361	9139.08
669.711	9028.12
670.06	9012.08
670.41	9067.9
670.76	9016.6
671.109	9084.85
671.459	9035.81
671.808	8978.63
672.157	9026.54
672.507	8906.55
672.856	8955.58
673.205	8971.85
673.554	9007.56
673.904	8942.02
674.253	9007.56
674.602	8941.35
674.951	8808.47
675.3	8733.22
675.649	8933.44
675.998	8925.53
676.346	8904.51
676.695	8892.31
677.044	8882.37
677.393	8870.16
677.741	8936.83
678.09	8827
678.438	8840.56
678.787	8828.13
679.135	8791.52
679.484	8748.58
679.832	8799.66
680.181	8714.23
680.529	8798.3
680.877	8739.09
681.225	8727.57
681.573	8834.91
681.922	8709.26
682.27	8687.79
682.618	8677.85
682.966	8676.72
683.314	8695.48
683.661	8612.99
684.009	8600.34
684.357	8594.46
684.705	8544.07
685.053	8582.71
685.4	8521.47
685.748	8474.47
686.095	8495.26
686.443	8551.3
686.79	8486.67
687.138	8462.72
687.485	8476.95
687.832	8422.72
688.18	8397.86
688.527	8367.12
688.874	8400.8
689.221	8302.04
689.568	8297.07
689.915	8302.49
690.262	8273.34
690.609	8263.62
690.956	8192.67
691.303	8157.19
691.65	8191.76
691.997	8126.45
692.344	8082.61
692.69	8086
693.037	7974.59
693.383	7949.06
693.73	8041.48
694.077	7983.41
694.423	7949.51
694.769	7941.37
695.116	7919
695.462	7861.15
695.808	7841.71
696.155	7871.77
696.501	7796.07
696.847	7788.16
697.193	7678.33
697.539	7699.35
697.885	7695.73
698.231	7648.95
698.577	7600.59
698.923	7584.77
699.269	7555.85
699.614	7493.25
699.96	7556.75
700.306	7509.29
700.651	7392.24
700.997	7428.17
701.342	7361.73
701.688	7436.3
702.033	7403.53
702.379	7365.8
702.724	7300.71
703.069	7392.46
703.415	7239.24
703.76	7199.92
704.105	7193.37
704.45	7147.5
704.795	7185.23
705.14	7065.01
705.485	7065.24
705.83	7087.16
706.175	7122.19
706.52	7036.76
706.865	6997.67
707.209	7017.78
707.554	6921.29
707.899	6995.86
708.243	6955.41
708.588	6921.96
708.932	6854.62
709.277	6855.53
709.621	6882.64
709.966	6852.59
710.31	6821.4
710.654	6744.79
710.998	6761.74
711.342	6831.35
711.687	6712.25
712.031	6694.85
712.375	6714.51
712.719	6726.94
713.063	6693.5
713.407	6670.9
713.75	6635.87
714.094	6649.2
714.438	6615.76
714.782	6633.84
715.125	6607.4
715.469	6615.76
715.812	6592.26
716.156	6474.07
716.499	6495.31
716.843	6553.84
717.186	6555.65
717.53	6546.83
717.873	6551.35
718.216	6546.16
718.559	6491.92
718.902	6461.64
719.246	6445.82
719.589	6431.36
719.932	6431.58
720.275	6426.16
720.617	6430
720.96	6418.02
721.303	6382.77
721.646	6413.73
721.989	6402.88
722.331	6418.93
722.674	6357.01
723.016	6442.66
723.359	6370.79
723.701	6358.59
724.044	6354.3
724.386	6311.13
724.729	6378.25
725.071	6355.88
725.413	6377.35
725.755	6308.87
726.097	6286.05
726.439	6286.95
726.782	6274.52
727.124	6338.7
727.465	6319.04
727.807	6300.06
728.149	6319.72
728.491	6275.43
728.833	6284.02
729.175	6272.72
729.516	6290.12
729.858	6272.72
730.199	6296.44
730.541	6300.29
730.882	6255.32
731.224	6264.81
731.565	6263
731.906	6303.9
732.248	6268.87
732.589	6250.34
732.93	6228.2
733.271	6230.46
733.612	6225.94
733.953	6272.26
734.294	6266.39
734.635	6251.25
734.976	6317.46
735.317	6235.88
735.658	6273.62
735.999	6310.91
736.339	6267.97
736.68	6302.55
737.021	6288.31
737.361	6274.07
737.702	6264.81
738.042	6300.96
738.383	6263
738.723	6308.87
739.063	6309.1
739.404	6329.89
739.744	6321.98
740.084	6322.88
740.424	6328.08
740.764	6355.88
741.104	6370.79
741.444	6371.47
741.784	6414.86
742.124	6404.24
742.464	6416.89
742.804	6438.81
743.143	6481.3
743.483	6473.62
743.823	6444.01
744.162	6531.69
744.502	6539.38
744.841	6548.64
745.181	6589.77
745.52	6606.72
745.86	6667.06
746.199	6633.16
746.538	6724.23
746.877	6773.95
747.216	6846.26
747.556	6847.39
747.895	6872.93
748.234	6892.81
748.573	6948.4
748.911	7035.63
749.25	7074.28
749.589	7155.86
749.928	7206.7
750.267	7301.39
750.605	7287.6
750.944	7397.43
751.283	7439.01
751.621	7586.35
751.96	7621.61
752.298	7696.18
752.636	7799.23
752.975	7843.3
753.313	7957.19
753.651	8115.83
753.989	8103.63
754.327	8213.23
754.666	8297.3
755.004	8433.34
755.342	8619.32
755.679	8705.65
756.017	8792.65
756.355	8861.57
756.693	9027.22
757.031	9251.62
757.368	9312.41
757.706	9423.14
758.044	9531.61
758.381	9720.76
758.719	9847.09
759.056	9992.84
759.394	10077.81
759.731	10189.45
760.068	10402.78
760.405	10437.35
760.743	10669.21
761.08	10812.03
761.417	10994.85
761.754	11152.81
762.091	11337.22
762.428	11450.21
762.765	11544.67
763.102	11767.94
763.438	12017.65
763.775	12046.58
764.112	12231.66
764.449	12447.7
764.785	12554.81
765.122	12635.49
765.458	12810.62
765.795	12959.32
766.131	13156.15
766.467	13331.74
