Data from hue_38_FLMS001491_00009.txt Node
Date: Tue Feb 07 17:30:59 GMT 2017
User: dcchb
Spectrometer: FLMS00149
Trigger mode: 0
Integration Time (sec): 2.000000E-2
Scans to average: 10
Electric dark correction enabled: true
Nonlinearity correction enabled: false
Boxcar width: 0
XAxis mode: Wavelengths
Number of Pixels in Spectrum: 2048
>>>>>Begin Spectral Data<<<<<
341.393	-18.53
341.776	-18.53
342.16	-18.53
342.543	-42.71
342.927	-71.41
343.31	-69.15
343.693	-79.09
344.077	-62.82
344.46	-62.82
344.843	-36.61
345.226	-29.15
345.61	-30.28
345.993	-2.26
346.376	-12.88
346.759	-18.08
347.142	41.58
347.525	39.32
347.908	57.4
348.291	54.69
348.674	88.36
349.057	121.8
349.44	131.07
349.823	167.45
350.206	170.17
350.588	206.32
350.971	207.9
351.354	230.5
351.737	235.7
352.119	254.46
352.502	274.12
352.884	289.48
353.267	283.16
353.65	304.17
354.032	294.46
354.414	322.48
354.797	337.39
355.179	309.37
355.562	316.15
355.944	340.78
356.326	324.29
356.709	347.79
357.091	353.44
357.473	337.62
357.855	326.55
358.238	342.36
358.62	336.94
359.002	351.18
359.384	334.45
359.766	351.63
360.148	337.39
360.53	328.35
360.912	350.27
361.294	338.3
361.676	328.13
362.057	318.18
362.439	317.05
362.821	316.6
363.203	326.77
363.584	321.57
363.966	328.8
364.348	337.17
364.729	312.08
365.111	329.71
365.493	320.67
365.874	337.62
366.256	335.13
366.637	335.81
367.019	329.48
367.4	315.47
367.781	324.06
368.163	340.33
368.544	322.25
368.925	325.87
369.306	314.79
369.688	314.79
370.069	321.8
370.45	318.86
370.831	318.86
371.212	325.87
371.593	337.39
371.974	315.7
372.355	323.38
372.736	345.98
373.117	333.32
373.498	317.51
373.879	324.51
374.26	319.09
374.641	301.69
375.021	326.77
375.402	310.73
375.783	322.7
376.163	325.64
376.544	353.21
376.925	331.97
377.305	339.65
377.686	311.4
378.066	336.71
378.447	323.38
378.827	349.6
379.208	327.45
379.588	343.72
379.968	345.98
380.349	345.98
380.729	325.42
381.109	360.89
381.489	341.01
381.87	341.46
382.25	349.37
382.63	349.82
383.01	332.87
383.39	341.91
383.77	360.22
384.15	345.75
384.53	348.47
384.91	350.5
385.29	364.74
385.67	354.57
386.049	349.82
386.429	367
386.809	345.08
387.189	353.44
387.568	343.49
387.948	337.39
388.328	369.48
388.707	347.79
389.087	348.47
389.466	373.1
389.846	368.13
390.225	374.23
390.605	371.97
390.984	370.16
391.363	388.92
391.743	369.26
392.122	368.58
392.501	362.93
392.881	377.39
393.26	381.46
393.639	388.92
394.018	366.09
394.397	367.9
394.776	386.66
395.155	369.03
395.534	357.28
395.913	381.68
396.292	394.79
396.671	378.75
397.05	385.53
397.429	392.31
397.808	383.94
398.186	379.43
398.565	397.96
398.944	412.64
399.323	398.18
399.701	392.76
400.08	417.84
400.458	388.69
400.837	402.7
401.215	400.22
401.594	404.06
401.972	378.3
402.351	397.96
402.729	402.93
403.107	411.51
403.486	413.1
403.864	411.29
404.242	409.25
404.62	420.55
404.999	406.77
405.377	414.9
405.755	436.6
406.133	431.63
406.511	437.95
406.889	452.42
407.267	437.5
407.645	433.89
408.023	431.63
408.401	442.02
408.779	445.86
409.156	448.12
409.534	462.13
409.912	449.48
410.29	446.77
410.667	466.2
411.045	455.58
411.422	475.92
411.8	461.46
412.178	475.92
412.555	491.06
412.933	472.3
413.31	493.32
413.687	479.08
414.065	478.18
414.442	488.35
414.819	506.43
415.197	498.29
415.574	499.2
415.951	505.07
416.328	503.26
416.705	513.66
417.082	510.72
417.46	515.69
417.837	513.88
418.214	521.34
418.591	507.78
418.967	533.09
419.344	527.44
419.721	528.8
420.098	513.43
420.475	538.52
420.852	537.84
421.228	557.05
421.605	557.27
421.982	560.89
422.358	560.66
422.735	558.4
423.111	569.48
423.488	583.49
423.864	561.57
424.241	576.03
424.617	564.73
424.994	585.07
425.37	603.37
425.746	572.19
426.123	585.3
426.499	584.84
426.875	606.54
427.251	595.24
427.627	602.92
428.003	613.77
428.379	598.85
428.756	602.02
429.132	620.32
429.507	635.46
429.883	642.24
430.259	640.66
430.635	647.44
431.011	647.21
431.387	661.9
431.763	644.05
432.138	682.24
432.514	655.8
432.89	665.75
433.265	696.25
433.641	696.48
434.016	700.09
434.392	703.71
434.767	708
435.143	705.74
435.518	715.69
435.894	722.01
436.269	726.53
436.644	753.65
437.02	748.68
437.395	747.1
437.77	776.7
438.145	766.31
438.52	773.99
438.895	772.86
439.271	765.4
439.646	788.45
440.021	787.78
440.395	798.62
440.77	777.83
441.145	794.33
441.52	777.15
441.895	785.29
442.27	800.66
442.645	814.89
443.019	806.31
443.394	848.79
443.769	819.41
444.143	827.77
444.518	826.87
444.892	855.34
445.267	839.53
445.641	843.82
446.016	851.28
446.39	873.42
446.764	867.32
447.139	868.23
447.513	889.69
447.887	871.16
448.262	857.6
448.636	886.76
449.01	919.75
449.384	901.22
449.758	896.7
450.132	903.03
450.506	901.9
450.88	912.52
451.254	942.35
451.628	924.72
452.002	970.14
452.376	971.73
452.75	953.2
453.123	967.66
453.497	946.19
453.871	969.01
454.244	1007.21
454.618	997.71
454.992	1016.24
455.365	1014.66
455.739	1050.14
456.112	1039.52
456.486	1035.9
456.859	1061.22
457.232	1086.53
457.606	1091.04
457.979	1101.21
458.352	1111.61
458.725	1096.92
459.099	1114.32
459.472	1133.3
459.845	1156.13
460.218	1157.48
460.591	1159.52
460.964	1177.14
461.337	1225.28
461.71	1228.44
462.083	1233.64
462.456	1227.09
462.829	1220.98
463.201	1264.15
463.574	1260.98
463.947	1279.74
464.32	1337.37
464.692	1335.33
465.065	1353.18
465.438	1364.26
465.81	1380.08
466.183	1367.65
466.555	1428.21
466.928	1436.57
467.3	1453.3
467.672	1465.95
468.045	1458.72
468.417	1505.05
468.789	1509.79
469.161	1537.13
469.534	1573.07
469.906	1597.7
470.278	1597.02
470.65	1624.14
471.022	1649.67
471.394	1697.58
471.766	1714.08
472.138	1710.92
472.51	1792.72
472.882	1838.14
473.253	1873.85
473.625	1871.59
473.997	1912.04
474.369	1939.61
474.74	1970.57
475.112	2006.5
475.484	2074.52
475.855	2087.18
476.227	2135.76
476.598	2209.21
476.97	2209.89
477.341	2309.09
477.713	2301.86
478.084	2341.18
478.455	2454.62
478.827	2519.93
479.198	2539.82
479.569	2626.82
479.94	2702.08
480.311	2756.99
480.682	2811.23
481.053	2879.92
481.424	2947.72
481.795	3014.16
482.166	3094.61
482.537	3116.3
482.908	3223.64
483.279	3272
483.65	3363.53
484.021	3493.92
484.391	3588.83
484.762	3606.91
485.133	3694.82
485.503	3747.7
485.874	3864.53
486.244	3936.62
486.615	4054.81
486.985	4147.24
487.356	4229.49
487.726	4326.44
488.097	4433.1
488.467	4480.79
488.837	4600.78
489.207	4729.82
489.578	4829.93
489.948	4938.85
490.318	5002.13
490.688	5100.66
491.058	5179.98
491.428	5295.68
491.798	5369.12
492.168	5537.26
492.538	5640.3
492.908	5726.4
493.278	5840.75
493.648	5837.59
494.017	5956.68
494.387	6086.39
494.757	6238.48
495.126	6287.29
495.496	6377.91
495.866	6490
496.235	6551.69
496.605	6639.15
496.974	6777.45
497.344	6857.67
497.713	6947.61
498.082	7045.92
498.452	7115.75
498.821	7194.61
499.19	7310.09
499.559	7372.91
499.928	7482.52
500.298	7518.9
500.667	7664.43
501.036	7697.88
501.405	7846.57
501.774	7819.91
502.143	7975.84
502.512	8075.72
502.88	8151.88
503.249	8175.6
503.618	8216.06
503.987	8292.66
504.356	8394.13
504.724	8456.05
505.093	8588.93
505.462	8638.19
505.83	8707.57
506.199	8806.77
506.567	8929.26
506.936	8865.3
507.304	9034.79
507.672	9073.89
508.041	9198.63
508.409	9264.62
508.777	9374.44
509.145	9410.37
509.514	9462.58
509.882	9504.16
510.25	9551.61
510.618	9667.32
510.986	9763.81
511.354	9842.23
511.722	9911.15
512.09	9974.88
512.458	9926.52
512.826	10105.27
513.193	10145.72
513.561	10245.83
513.929	10316.11
514.297	10364.25
514.664	10491.25
515.032	10505.26
515.4	10623
515.767	10582.55
516.135	10716.1
516.502	10714.29
516.869	10905.7
517.237	10893.27
517.604	10959.03
517.972	11055.75
518.339	11083.55
518.706	11190.89
519.073	11223.66
519.44	11326.93
519.808	11475.4
520.175	11388.4
520.542	11537.78
520.909	11605.57
521.276	11636.08
521.643	11715.4
522.009	11765.57
522.376	11856.86
522.743	11903.64
523.11	12008.27
523.477	12138.89
523.843	12270.64
524.21	12316.96
524.577	12425.66
524.943	12482.16
525.31	12545.88
525.676	12672.66
526.043	12725.77
526.409	12760.12
526.776	12898.87
527.142	12996.72
527.508	13011.64
527.874	13040.11
528.241	13220.44
528.607	13180.22
528.973	13327.79
529.339	13261.8
529.705	13479.65
530.071	13639.19
530.437	13665.18
530.803	13690.04
531.169	13786.53
531.535	13808.68
531.901	13870.6
532.267	13997.15
532.632	14047.09
532.998	14115.11
533.364	14214.32
533.73	14195.33
534.095	14422.9
534.461	14370.02
534.826	14424.48
535.192	14481.88
535.557	14552.39
535.923	14592.16
536.288	14652.5
536.653	14745.15
537.019	14754.41
537.384	14748.54
537.749	14885.03
538.114	14915.09
538.479	14989.44
538.845	14954.18
539.21	14997.8
539.575	15186.49
539.94	15208.19
540.305	15341.74
540.67	15278.69
541.034	15390.56
541.399	15417.9
541.764	15421.29
542.129	15493.15
542.494	15552.59
542.858	15549.2
543.223	15619.93
543.587	15786.25
543.952	15765.69
544.316	15831.9
544.681	15800.26
545.045	15944.67
545.41	16053.36
545.774	16089.52
546.138	16087.71
546.503	16258.78
546.867	16131.33
547.231	16460.81
547.595	16371.77
547.959	16451.32
548.324	16498.78
548.688	16520.92
549.052	16628.72
549.416	16660.8
549.779	16703.74
550.143	16699.9
550.507	16875.26
550.871	16943.06
551.235	16864.19
551.599	17035.26
551.962	17050.17
552.326	17109.38
552.689	17267.57
553.053	17124.75
553.417	17271.18
553.78	17418.53
554.143	17428.69
554.507	17428.69
554.87	17551.63
555.234	17650.16
555.597	17540.56
555.96	17611.51
556.323	17717.73
556.686	17786.42
557.05	17884.28
557.413	17863.49
557.776	17980.09
558.139	17978.74
558.502	18198.39
558.865	18187.54
559.228	18296.47
559.59	18266.41
559.953	18343.7
560.316	18640.41
560.679	18635.67
561.041	18687.64
561.404	18717.47
561.767	18893.29
562.129	18783.23
562.492	19003.79
562.854	18954.53
563.217	18862.1
563.579	19003.34
563.941	19061.19
564.304	19165.6
564.666	19291.92
565.028	19363.56
565.39	19455.31
565.753	19474.74
566.115	19578.47
566.477	19677.9
566.839	19724
567.201	19923.77
567.563	19845.81
567.925	20034.73
568.287	20023.2
568.648	20091.45
569.01	20222.52
569.372	20315.85
569.734	20283.53
570.095	20524.66
570.457	20551.78
570.819	20638.55
571.18	20573.02
571.542	20699.79
571.903	20862.05
572.265	20924.2
572.626	20974.36
572.987	21111.54
573.349	21147.24
573.71	21204.41
574.071	21334.13
574.432	21473.33
574.794	21691.63
575.155	21640.33
575.516	21738.19
575.877	21870.61
576.238	21910.61
576.599	22113.32
576.96	22148.12
577.32	22338.85
577.681	22485.06
578.042	22566.19
578.403	22670.36
578.763	22716.69
579.124	22926.18
579.485	23198.94
579.845	23208.88
580.206	23319.39
580.566	23391.93
580.927	23621.3
581.287	23871.91
581.648	23983.32
582.008	24144.9
582.368	24261.96
582.728	24402.3
583.089	24576.98
583.449	24682.51
583.809	24924.32
584.169	25193.24
584.529	25068.04
584.889	25470.29
585.249	25480.91
585.609	25656.27
585.969	26025.76
586.329	26157.5
586.688	26515.46
587.048	26552.52
587.408	26720.2
587.768	26974.88
588.127	27169.23
588.487	27378.04
588.846	27694.19
589.206	27666.17
589.565	27974.86
589.925	28274.51
590.284	28360.16
590.643	28697.32
591.003	28885.34
591.362	29239.91
591.721	29296.18
592.08	29425.22
592.44	29830.4
592.799	29994.47
593.158	30171.86
593.517	30426.77
593.876	30568.46
594.235	30667.44
594.593	31029.47
594.952	31208.67
595.311	31422.22
595.67	31608.66
596.029	31878.94
596.387	32289.77
596.746	32386.95
597.104	32454.74
597.463	32580.84
597.822	32936.31
598.18	33035.06
598.538	33179.69
598.897	33546.24
599.255	33435.51
599.613	34079.78
599.972	34058.31
600.33	34376.95
600.688	34307.57
601.046	34652.42
601.404	34783.27
601.762	34981.91
602.12	35130.83
602.478	35425.06
602.836	35500.54
603.194	35540.53
603.552	35835.44
603.91	35695.56
604.268	36086.73
604.625	36167.86
604.983	36522.66
605.341	36284.92
605.698	36667.06
606.056	36904.57
606.413	36848.07
606.771	37173.71
607.128	37431.11
607.485	37322.41
607.843	37435.17
608.2	37752.91
608.557	38007.36
608.914	38018.89
609.272	38157.87
609.629	38518.54
609.986	38668.36
610.343	38601.24
610.7	38911.52
611.057	38996.94
611.414	39045.08
611.771	39080.1
612.127	39341.79
612.484	39255.92
612.841	39638.05
613.198	39578.17
613.554	39664.04
613.911	39962.11
614.267	40118.04
614.624	40005.05
614.98	40157.36
615.337	40454.53
615.693	40432.84
616.05	40399.62
616.406	40595.09
616.762	40720.74
617.118	40765.26
617.475	40815.42
617.831	40951.47
618.187	41020.16
618.543	41182.19
618.899	41391.23
619.255	41421.06
619.611	41336.54
619.967	41632.13
620.323	41649.53
620.678	41645.91
621.034	41625.35
621.39	41819.24
621.746	41707.6
622.101	42226.23
622.457	41993.92
622.812	41950.31
623.168	42138.1
623.523	42265.1
623.879	42302.84
624.234	42139.23
624.589	42322.73
624.945	42280.7
625.3	42399.79
625.655	42480.69
626.01	42572.67
626.365	42584.19
626.72	42476.85
627.075	42433.91
627.43	42732.44
627.785	42541.03
628.14	42642.04
628.495	42733.79
628.85	42739.44
629.205	42632.55
629.559	42922.26
629.914	42658.31
630.269	42804.3
630.623	42679.78
630.978	42683.4
631.332	42913.9
631.687	42926.55
632.041	42779.44
632.396	42835.03
632.75	42796.39
633.104	42823.28
633.459	42690.85
633.813	42640.91
634.167	42733.57
634.521	42800.23
634.875	42733.57
635.229	42741.7
635.583	42602.95
635.937	42688.14
636.291	42720.91
636.645	42745.32
636.999	42576.28
637.352	42713.23
637.706	42437.75
638.06	42640.46
638.413	42578.32
638.767	42422.39
639.121	42494.7
639.474	42394.59
639.828	42393.46
640.181	42444.53
640.534	42515.72
640.888	42347.14
641.241	42221.94
641.594	42334.48
641.947	42516.85
642.301	42346.23
642.654	42300.13
643.007	42380.58
643.36	42290.41
643.713	42256.52
644.066	42371.09
644.419	42061.49
644.771	41880.03
645.124	41449.53
645.477	41437.1
645.83	41234.4
646.182	41118.01
646.535	41071.69
646.888	41207.96
647.24	40900.62
647.593	41170.67
647.945	41194.17
648.298	40843.45
648.65	40829.66
649.002	40754.63
649.355	40967.28
649.707	40792.6
650.059	41002.09
650.411	41419.7
650.763	41430.32
651.115	41920.71
651.467	41840.26
651.819	41793.93
652.171	41654.5
652.523	41695.85
652.875	41601.84
653.227	41437.55
653.578	41824.44
653.93	41675.29
654.282	41531.11
654.633	41382.87
654.985	41476.65
655.337	41525.91
655.688	41540.15
656.039	41575.86
656.391	41343.55
656.742	41391.45
657.094	41458.12
657.445	41547.16
657.796	41519.81
658.147	41418.35
658.498	41316.2
658.849	41448.85
659.2	41231.46
659.551	41299.71
659.902	41440.49
660.253	41334.51
660.604	41362.3
660.955	41080.73
661.306	41276.2
661.656	41305.58
662.007	41191.91
662.358	41241.63
662.708	41248.63
663.059	41322.3
663.409	40951.47
663.76	41205.24
664.11	41093.16
664.461	41209.09
664.811	41225.13
665.161	41323.66
665.511	41083.89
665.862	41053.16
666.212	41196.88
666.562	41151.23
666.912	41160.05
667.262	41161.86
667.612	41155.53
667.962	41011.13
668.312	41065.59
668.662	41275.98
669.011	41026.04
669.361	41052.48
669.711	41035.98
670.06	40869.43
670.41	40962.31
670.76	40962.99
671.109	41035.08
671.459	40913.05
671.808	40866.5
672.157	40894.52
672.507	40796.44
672.856	40648.2
673.205	40877.8
673.554	40977
673.904	40792.15
674.253	40904.46
674.602	40842.77
674.951	40269.68
675.3	40103.8
675.649	40805.71
675.998	40641.42
676.346	40704.92
676.695	40687.07
677.044	40571.81
677.393	40531.14
677.741	40669.67
678.09	40538.6
678.438	40358.71
678.787	40545.37
679.135	40517.58
679.484	40314.42
679.832	40504.92
680.181	40363.91
680.529	40453.4
680.877	40233.29
681.225	40156.68
681.573	40432.38
681.922	40006.86
682.27	39946.29
682.618	40010.93
682.966	39876.47
683.314	39923.24
683.661	39811.38
684.009	39882.57
684.357	39694.78
684.705	39640.77
685.053	39656.36
685.4	39683.48
685.748	39579.52
686.095	39465.63
686.443	39371.39
686.79	39172.3
687.138	39431.05
687.485	39299.31
687.832	39133.21
688.18	39266.31
688.527	38978.18
688.874	39030.84
689.221	38879.88
689.568	38780.68
689.915	38658.42
690.262	38608.25
690.609	38512.89
690.956	38434.92
691.303	38361.93
691.65	38339.78
691.997	38299.56
692.344	37942.05
692.69	38111.99
693.037	38185.89
693.383	37683.53
693.73	37873.58
694.077	37648.73
694.423	37576.64
694.769	37539.35
695.116	37480.6
695.462	37476.98
695.808	37300.26
696.155	37316.98
696.501	37044.9
696.847	37029.31
697.193	36848.52
697.539	37027.05
697.885	36684.46
698.231	36568.08
698.577	36715.87
698.923	36535.31
699.269	36343.23
699.614	36211.48
699.96	36203.12
700.306	36178.26
700.651	36038.83
700.997	36052.16
701.342	35826.85
701.688	35838.61
702.033	35619.4
702.379	35648.33
702.724	35537.37
703.069	35738.72
703.415	35221.9
703.76	35281.56
704.105	35319.98
704.45	35101.9
704.795	35047.67
705.14	34841.12
705.485	34846.32
705.83	34668.47
706.175	34783.72
706.52	34685.87
706.865	34540.11
707.209	34472.54
707.554	34534.91
707.899	34437.74
708.243	34288.14
708.588	34152.1
708.932	34064.19
709.277	34140.8
709.621	33949.39
709.966	33827.13
710.31	33835.04
710.654	33453.81
710.998	33657.87
711.342	33561.38
711.687	33613.58
712.031	33315.73
712.375	33340.59
712.719	33433.7
713.063	33234.83
713.407	33304.21
713.75	33195.29
714.094	33047.04
714.438	32989.19
714.782	33015.18
715.125	32797.1
715.469	32923.88
715.812	32768.18
716.156	32608.18
716.499	32744.45
716.843	32534.06
717.186	32416.32
717.53	32505.81
717.873	32604.34
718.216	32416.32
718.559	32331.81
718.902	32104.01
719.246	32155.99
719.589	32063.56
719.932	32004.58
720.275	31939.73
720.617	31924.36
720.96	31862.67
721.303	31842.33
721.646	31729.34
721.989	31682.1
722.331	31760.52
722.674	31719.62
723.016	31621.77
723.359	31553.52
723.701	31576.8
724.044	31386.07
724.386	31260.42
724.729	31345.62
725.071	31283.47
725.413	31300.42
725.755	31248.67
726.097	31101.33
726.439	31080.54
726.782	31016.81
727.124	31058.17
727.465	30790.38
727.807	30791.51
728.149	30830.6
728.491	30862.69
728.833	30899.98
729.175	30679.87
729.516	30794.22
729.858	30554.9
730.199	30586.77
730.541	30493.66
730.882	30471.29
731.224	30652.53
731.565	30419.54
731.906	30399.65
732.248	30440.78
732.589	30244.85
732.93	30133.9
733.271	30187.23
733.612	30231.3
733.953	30303.38
734.294	30055.03
734.635	30012.32
734.976	30127.34
735.317	29981.58
735.658	29857.29
735.999	29779.33
736.339	29769.84
736.68	29905.65
737.021	29834.24
737.361	29587.47
737.702	29812.32
738.042	29601.26
738.383	29582.27
738.723	29649.84
739.063	29624.31
739.404	29465.44
739.744	29422.96
740.084	29351.54
740.424	29377.08
740.764	29256.41
741.104	29409.17
741.444	29203.98
741.784	29157.65
742.124	29211.89
742.464	29093.92
742.804	28952.46
743.143	29057.54
743.483	29020.48
743.823	28834.95
744.162	28735.74
744.502	28911.33
744.841	28683.54
745.181	28817.32
745.52	28631.56
745.86	28847.6
746.199	28599.02
746.538	28676.99
746.877	28702.07
747.216	28576.65
747.556	28535.29
747.895	28448.52
748.234	28399.71
748.573	28439.48
748.911	28385.92
749.25	28379.82
749.589	28229.77
749.928	28122.2
750.267	28263.89
750.605	28126.72
750.944	28083.33
751.283	27876.56
751.621	27995.87
751.96	27834.3
752.298	27769.89
752.636	27886.72
752.975	27725.6
753.313	27668.65
753.651	27672.72
753.989	27618.71
754.327	27528.54
754.666	27424.82
755.004	27470.01
755.342	27497.36
755.679	27377.81
756.017	27229.79
756.355	27272.96
756.693	27212.17
757.031	27199.51
