Data from hue_38_FLMS001491_00088.txt Node
Date: Tue Feb 07 17:32:06 GMT 2017
User: dcchb
Spectrometer: FLMS00149
Trigger mode: 0
Integration Time (sec): 2.000000E-2
Scans to average: 10
Electric dark correction enabled: true
Nonlinearity correction enabled: false
Boxcar width: 0
XAxis mode: Wavelengths
Number of Pixels in Spectrum: 2048
>>>>>Begin Spectral Data<<<<<
341.393	4.9
341.776	4.9
342.16	4.9
342.543	-51.37
342.927	-72.39
343.31	-88.66
343.693	-72.84
344.077	-64.48
344.46	-77.58
344.843	-52.05
345.226	-52.95
345.61	-45.27
345.993	-2.78
346.376	9.65
346.759	8.74
347.142	17.33
347.525	46.93
347.908	60.49
348.291	94.62
348.674	96.65
349.057	122.19
349.44	120.6
349.823	136.42
350.206	173.03
350.588	194.27
350.971	191.34
351.354	249.19
351.737	240.83
352.119	263.65
352.502	269.53
352.884	288.96
353.267	288.74
353.65	286.25
354.032	295.29
354.414	293.26
354.797	310.2
355.179	328.28
355.562	322.41
355.944	339.13
356.326	333.71
356.709	346.59
357.091	341.62
357.473	333.71
357.855	350.88
358.238	349.3
358.62	359.47
359.002	337.1
359.384	346.81
359.766	351.33
360.148	374.61
360.53	343.42
360.912	343.42
361.294	338.68
361.676	332.35
362.057	323.99
362.439	308.62
362.821	343.42
363.203	337.55
363.584	309.07
363.966	326.47
364.348	329.41
364.729	336.19
365.111	321.5
365.493	304.33
365.874	325.34
366.256	322.41
366.637	334.38
367.019	312.24
367.4	312.01
367.781	311.11
368.163	320.82
368.544	299.13
368.925	302.07
369.306	320.15
369.688	323.31
370.069	314.72
370.45	303.2
370.831	313.37
371.212	324.21
371.593	325.8
371.974	318.11
372.355	335.06
372.736	309.07
373.117	302.29
373.498	322.63
373.879	316.53
374.26	324.89
374.641	308.62
375.021	332.8
375.402	333.48
375.783	319.47
376.163	346.36
376.544	331.22
376.925	327.38
377.305	333.48
377.686	337.32
378.066	314.72
378.447	313.59
378.827	309.75
379.208	332.58
379.588	356.53
379.968	315.4
380.349	326.93
380.729	325.8
381.109	323.08
381.489	336.19
381.87	344.55
382.25	344.55
382.63	363.76
383.01	344.33
383.39	346.59
383.77	353.37
384.15	342.97
384.53	342.52
384.91	335.74
385.29	355.85
385.67	358.11
386.049	361.73
386.429	366.93
386.809	346.59
387.189	372.35
387.568	366.7
387.948	365.12
388.328	359.92
388.707	368.96
389.087	381.84
389.466	352.91
389.846	366.25
390.225	360.37
390.605	384.78
390.984	366.47
391.363	381.16
391.743	348.62
392.122	370.99
392.501	363.76
392.881	370.99
393.26	371.45
393.639	372.12
394.018	362.63
394.397	383.87
394.776	383.87
395.155	383.87
395.534	375.29
395.913	370.32
396.292	368.73
396.671	384.33
397.05	375.06
397.429	394.5
397.808	404.66
398.186	395.4
398.565	378.45
398.944	408.28
399.323	396.08
399.701	384.55
400.08	386.36
400.458	412.57
400.837	376.64
401.215	410.99
401.594	412.12
401.972	405.12
402.351	402.4
402.729	385.68
403.107	430.2
403.486	429.75
403.864	402.18
404.242	425.68
404.62	438.11
404.999	424.78
405.377	438.56
405.755	424.78
406.133	445.12
406.511	430.65
406.889	473.82
407.267	427.94
407.645	439.47
408.023	425.91
408.401	444.44
408.779	441.73
409.156	446.7
409.534	442.63
409.912	454.15
410.29	453.7
410.667	470.43
411.045	449.41
411.422	465.68
411.8	467.04
412.178	440.37
412.555	488.5
412.933	479.24
413.31	483.53
413.687	482.4
414.065	453.48
414.442	492.12
414.819	456.64
415.197	494.15
415.574	499.8
415.951	494.15
416.328	481.27
416.705	504.1
417.082	501.16
417.46	509.29
417.837	520.14
418.214	495.06
418.591	509.52
418.967	528.05
419.344	524.89
419.721	524.89
420.098	523.53
420.475	553.14
420.852	531.21
421.228	544.1
421.605	574.6
421.982	533.47
422.358	557.65
422.735	547.71
423.111	546.36
423.488	554.94
423.864	553.59
424.241	559.01
424.617	547.94
424.994	580.03
425.37	579.58
425.746	586.13
426.123	604.43
426.499	587.26
426.875	583.64
427.251	592.23
427.627	605.56
428.003	606.47
428.379	609.18
428.756	594.04
429.132	621.83
429.507	637.88
429.883	617.99
430.259	645.34
430.635	620.03
431.011	636.97
431.387	652.34
431.763	651.66
432.138	644.43
432.514	664.32
432.89	677.65
433.265	670.87
433.641	688.05
434.016	704.32
434.392	705.45
434.767	692.79
435.143	690.76
435.518	712.68
435.894	690.76
436.269	736.41
436.644	714.26
437.02	711.1
437.395	729.85
437.77	730.53
438.145	749.74
438.52	743.86
438.895	755.84
439.271	767.37
439.646	744.54
440.021	751.55
440.395	770.3
440.77	773.47
441.145	783.86
441.52	811.43
441.895	788.38
442.27	801.26
442.645	801.04
443.019	795.61
443.394	808.95
443.769	806.24
444.143	806.01
444.518	800.81
444.892	790.19
445.267	789.51
445.641	824.09
446.016	852.34
446.39	842.62
446.764	849.17
447.139	810.3
447.513	843.3
447.887	859.34
448.262	835.84
448.636	876.97
449.01	886.23
449.384	888.72
449.758	916.06
450.132	876.74
450.506	900.92
450.88	898.44
451.254	891.66
451.628	921.49
452.002	902.73
452.376	940.92
452.75	929.17
453.123	970.07
453.497	952.45
453.871	960.13
454.244	974.59
454.618	966.91
454.992	1020.69
455.365	999.68
455.739	1003.07
456.112	1020.69
456.486	1012.56
456.859	1027.47
457.232	1049.62
457.606	1053.91
457.979	1055.49
458.352	1099.11
458.725	1091.88
459.099	1109.05
459.472	1107.24
459.845	1141.82
460.218	1126.45
460.591	1128.94
460.964	1133.01
461.337	1165.55
461.71	1177.53
462.083	1214.59
462.456	1221.59
462.829	1215.26
463.201	1249.61
463.574	1254.81
463.947	1258.65
464.32	1280.35
464.692	1301.36
465.065	1295.26
465.438	1319.22
465.81	1352.89
466.183	1374.81
466.555	1392.66
466.928	1403.28
467.3	1422.94
467.672	1435.37
468.045	1445.09
468.417	1467.24
468.789	1499.55
469.161	1514.69
469.534	1554.92
469.906	1553.56
470.278	1587.01
470.65	1601.24
471.022	1657.96
471.394	1690.96
471.766	1695.48
472.138	1727.79
472.51	1755.36
472.882	1787.45
473.253	1828.13
473.625	1857.96
473.997	1914
474.369	1887.79
474.74	1931.86
475.112	1977.5
475.484	2024.06
475.855	2114.9
476.227	2136.14
476.598	2182.02
476.97	2220.44
477.341	2285.52
477.713	2330.26
478.084	2373.88
478.455	2442.8
478.827	2503.14
479.198	2599.18
479.569	2610.48
479.94	2680.76
480.311	2757.15
480.682	2819.97
481.053	2923.02
481.424	2985.61
481.795	3043.92
482.166	3091.83
482.537	3186.74
482.908	3269.22
483.279	3339.73
483.65	3394.87
484.021	3518.03
484.391	3614.3
484.762	3685.48
485.133	3785.37
485.503	3829.21
485.874	3944.68
486.244	4026.72
486.615	4152.14
486.985	4226.48
487.356	4391.45
487.726	4438.23
488.097	4515.06
488.467	4583.99
488.837	4718.22
489.207	4841.84
489.578	4917.54
489.948	5072.11
490.318	5148.95
490.688	5257.19
491.058	5392.1
491.428	5458.99
491.798	5548.94
492.168	5764.07
492.538	5825.09
492.908	5954.58
493.278	6028.02
493.648	6134.23
494.017	6255.81
494.387	6285.41
494.757	6425.3
495.126	6528.8
495.496	6629.81
495.866	6712.52
496.235	6821.67
496.605	6937.15
496.974	6973.53
497.344	7099.4
497.713	7182.11
498.082	7288.33
498.452	7423.69
498.821	7531.71
499.19	7545.49
499.559	7682.44
499.928	7746.39
500.298	7854.19
500.667	8006.95
501.036	7985.93
501.405	8162.88
501.774	8213.5
502.143	8303.21
502.512	8330.33
502.88	8418.69
503.249	8454.85
503.618	8584.11
503.987	8657.55
504.356	8755.86
504.724	8805.12
505.093	8865.01
505.462	8912.46
505.83	8935.29
506.199	9185
506.567	9246.47
506.936	9300.7
507.304	9426.12
507.672	9434.94
508.041	9483.52
508.409	9655.27
508.777	9763.29
509.145	9783.63
509.514	9821.59
509.882	9898.88
510.25	9968.93
510.618	10070.85
510.986	10107.23
511.354	10223.16
511.722	10293.67
512.09	10412.08
512.458	10339.54
512.826	10425.87
513.193	10604.85
513.561	10607.33
513.929	10757.16
514.297	10765.3
514.664	10879.64
515.032	10897.5
515.4	11000.09
515.767	11034.22
516.135	11157.38
516.502	11115.57
516.869	11291.16
517.237	11346.07
517.604	11316.24
517.972	11523.24
518.339	11520.53
518.706	11594.43
519.073	11649.79
519.44	11761.65
519.808	11780.86
520.175	11816.34
520.542	11991.25
520.909	12068.54
521.276	11984.47
521.643	12202.77
522.009	12267.63
522.376	12328.19
522.743	12451.35
523.11	12519.15
523.477	12645.7
523.843	12678.01
524.21	12840.27
524.577	12835.07
524.943	12916.43
525.31	12948.97
525.676	13167.04
526.043	13199.81
526.409	13178.34
526.776	13339.01
527.142	13379.92
527.508	13512.57
527.874	13612.9
528.241	13636.86
528.607	13700.81
528.973	13826.23
529.339	13790.3
529.705	13933.57
530.071	14026.45
530.437	14117.75
530.803	14188.93
531.169	14345.09
531.535	14258.76
531.901	14442.26
532.267	14490.62
532.632	14517.06
532.998	14537.63
533.364	14625.31
533.73	14690.84
534.095	14799.54
534.461	14923.15
534.826	14839.09
535.192	15040.21
535.557	15168.57
535.923	15087.89
536.288	15126.99
536.653	15280.66
537.019	15186.42
537.384	15409.92
537.749	15393.42
538.114	15405.17
538.479	15473.19
538.845	15587.32
539.21	15552.97
539.575	15685.84
539.94	15727.2
540.305	15826.41
540.67	15848.78
541.034	15948.89
541.399	15969.23
541.764	15985.27
542.129	16193.18
542.494	16159.96
542.858	16149.56
543.223	16277.24
543.587	16340.74
543.952	16422.77
544.316	16400.85
544.681	16521.08
545.045	16449.21
545.41	16602.88
545.774	16730.11
546.138	16691.02
546.503	16837.9
546.867	16805.36
547.231	16992.02
547.595	16998.58
547.959	16986.38
548.324	17166.03
548.688	17224.56
549.052	17292.36
549.416	17228.85
549.779	17345.46
550.143	17283.77
550.507	17464.78
550.871	17526.47
551.235	17447.61
551.599	17621.61
551.962	17735.73
552.326	17646.7
552.689	17835.39
553.053	17785
553.417	17790.2
553.78	18076.06
554.143	17997.65
554.507	18091.21
554.87	18188.6
555.234	18335.72
555.597	18197.64
555.96	18283.97
556.323	18435.6
556.686	18404.87
557.05	18668.82
557.413	18648.03
557.776	18691.19
558.139	18799.89
558.502	18764.63
558.865	18837.63
559.228	18957.85
559.59	19058.86
559.953	19111.74
560.316	19260.67
560.679	19272.19
561.041	19287.11
561.404	19450.94
561.767	19542.69
562.129	19416.59
562.492	19685.74
562.854	19623.37
563.217	19697.94
563.579	19791.27
563.941	19841.67
564.304	19937.48
564.666	20047.54
565.028	20067.42
565.39	20151.72
565.753	20196.23
566.115	20305.84
566.477	20347.87
566.839	20423.35
567.201	20551.03
567.563	20591.03
567.925	20791.93
568.287	20690.91
568.648	20724.36
569.01	20878.93
569.372	21101.3
569.734	21072.14
570.095	21256.09
570.457	21217.22
570.819	21379.93
571.18	21324.79
571.542	21592.36
571.903	21629.19
572.265	21722.3
572.626	21824.44
572.987	21892.46
573.349	21981.27
573.71	22099.24
574.071	22162.74
574.432	22283.64
574.794	22498.09
575.155	22449.28
575.516	22446.8
575.877	22740.8
576.238	22610.18
576.599	22932.66
576.96	22899.89
577.32	23117.97
577.681	23261.46
578.042	23356.38
578.403	23534.9
578.763	23484.51
579.124	23734.9
579.485	23920.2
579.845	23979.19
580.206	24119.75
580.566	24340.31
580.927	24486.74
581.287	24601.77
581.648	24601.77
582.008	24917.69
582.368	25013.96
582.728	25196.33
583.089	25377.34
583.449	25535.08
583.809	25697.33
584.169	25932.35
584.529	25949.08
584.889	26402.4
585.249	26453.25
585.609	26535.95
585.969	26958.77
586.329	26967.58
586.688	27170.97
587.048	27382.49
587.408	27480.11
587.768	27881.91
588.127	27994
588.487	28147.21
588.846	28546.52
589.206	28521.44
589.565	28665.62
589.925	29147.86
590.284	29236.22
590.643	29490.45
591.003	29619.04
591.362	30017.22
591.721	30038.24
592.08	30276.2
592.44	30563.19
592.799	30805.9
593.158	30956.18
593.517	31117.53
593.876	31227.58
594.235	31458.99
594.593	31731.07
594.952	31940.11
595.311	32110.27
595.67	32286.09
596.029	32682.01
596.387	32854.66
596.746	33034.77
597.104	33100.53
597.463	33265.04
597.822	33678.37
598.18	33654.41
598.538	33902.77
598.897	34213.04
599.255	34123.78
599.613	34691.9
599.972	34675.18
600.33	34976.64
600.688	35037.43
601.046	35192.9
601.404	35664.3
601.762	35484.65
602.12	35776.84
602.478	35998.76
602.836	36044.86
603.194	36081.69
603.552	36337.05
603.91	36384.28
604.268	36768.68
604.625	36783.37
604.983	37032.18
605.341	36929.58
605.698	37234.2
606.056	37403.01
606.413	37567.76
606.771	37740.86
607.128	37950.8
607.485	37746.28
607.843	37964.35
608.2	38257
608.557	38442.99
608.914	38457.45
609.272	38780.15
609.629	38838
609.986	39001.39
610.343	39019.92
610.7	39375.39
611.057	39417.42
611.414	39362.74
611.771	39659
612.127	39810.86
612.484	39894.7
612.841	40113.45
613.198	40040.91
613.554	40159.55
613.911	40448.36
614.267	40397.96
614.624	40416.04
614.98	40634.34
615.337	40830.49
615.693	40736.26
616.05	40805.41
616.406	41061.22
616.762	41140.99
617.118	41178.73
617.475	41386.41
617.831	41368.11
618.187	41540.31
618.543	41573.53
618.899	41906.85
619.255	41841.77
619.611	41817.81
619.967	41990.92
620.323	42111.36
620.678	42036.56
621.034	42135.32
621.39	42138.93
621.746	42189.1
622.101	42781.18
622.457	42347.52
622.812	42456.89
623.168	42538.02
623.523	42649.43
623.879	42814.85
624.234	42653.05
624.589	42799.93
624.945	42774.4
625.3	42795.41
625.655	42929.65
626.01	42815.98
626.365	42995.41
626.72	42954.28
627.075	43047.84
627.43	42965.81
627.785	42964.68
628.14	43052.13
628.495	43196.08
628.85	43174.61
629.205	42991.34
629.559	43346.81
629.914	43127.83
630.269	43208.51
630.623	43107.27
630.978	43020.27
631.332	43249.41
631.687	43344.78
632.041	43149.76
632.396	43378.68
632.75	43197.66
633.104	43327.6
633.459	43185.69
633.813	43110.66
634.167	43138.46
634.521	43158.34
634.875	43293.71
635.229	43279.92
635.583	43160.83
635.937	43098.68
636.291	42999.25
636.645	43147.04
636.999	42995.18
637.352	43161.51
637.706	42907.5
638.06	43125.8
638.413	43000.83
638.767	42933.49
639.121	43012.36
639.474	42858.69
639.828	42911.57
640.181	42999.02
640.534	42909.31
640.888	42778.69
641.241	42548.87
641.594	42691.01
641.947	42807.62
642.301	42723.55
642.654	42734.62
643.007	42673.16
643.36	42624.12
643.713	42594.29
644.066	42758.58
644.419	42486.72
644.771	42302.55
645.124	41865.04
645.477	41856
645.83	41621.43
646.182	41442.23
646.535	41419.63
646.888	41484.04
647.24	41372.17
647.593	41641.55
647.945	41445.39
648.298	41329.46
648.65	41360.65
649.002	41145.51
649.355	41446.52
649.707	41403.13
650.059	41546.18
650.411	41930.8
650.763	41962.44
651.115	42301.19
651.467	42304.58
651.819	42237.91
652.171	42030.46
652.523	42079.05
652.875	42121.31
653.227	41895.1
653.578	42166.05
653.93	42131.93
654.282	41936.68
654.633	41799.51
654.985	41969.45
655.337	41884.03
655.688	41953.85
656.039	42060.52
656.391	41743.24
656.742	41810.58
657.094	41779.62
657.445	41945.04
657.796	41830.92
658.147	41902.33
658.498	41802.45
658.849	41789.34
659.2	41785.95
659.551	41682.22
659.902	41869.56
660.253	41764.71
660.604	41872.73
660.955	41579.63
661.306	41810.13
661.656	41703.47
662.007	41637.7
662.358	41677.93
662.708	41718.83
663.059	41676.35
663.409	41544.37
663.76	41623.92
664.11	41568.33
664.461	41732.62
664.811	41745.05
665.161	41568.78
665.511	41512.96
665.862	41532.17
666.212	41751.37
666.562	41717.25
666.912	41633.41
667.262	41459.18
667.612	41615.33
667.962	41616.91
668.312	41710.25
668.662	41769.45
669.011	41573.3
669.361	41460.76
669.711	41428.22
670.06	41308.45
670.41	41410.82
670.76	41350.48
671.109	41540.76
671.459	41366.07
671.808	41455.11
672.157	41337.37
672.507	41169.92
672.856	41301.44
673.205	41262.12
673.554	41413.53
673.904	41255.79
674.253	41581.21
674.602	41407.65
674.951	40766.09
675.3	40725.86
675.649	41184.61
675.998	41220.31
676.346	41285.62
676.695	41385.73
677.044	41166.76
677.393	41160.88
677.741	41173.99
678.09	41086.53
678.438	41004.05
678.787	41116.59
679.135	40936.71
679.484	40793.21
679.832	41015.8
680.181	40626.66
680.529	40882.02
680.877	40720.89
681.225	40693.55
681.573	40966.99
681.922	40620.78
682.27	40436.83
682.618	40559.99
682.966	40414.01
683.314	40555.93
683.661	40436.38
684.009	40207.91
684.357	40247.46
684.705	40114.35
685.053	40112.32
685.4	40138.76
685.748	39847.7
686.095	39927.02
686.443	39827.13
686.79	39828.26
687.138	39878.43
687.485	39749.39
687.832	39607.02
688.18	39737.87
688.527	39452.23
688.874	39396.86
689.221	39460.59
689.568	39260.14
689.915	39156.87
690.262	39335.62
690.609	39106.02
690.956	38989.41
691.303	38939.7
691.65	38798.46
691.997	38749.87
692.344	38652.25
692.69	38477.34
693.037	38494.96
693.383	38393.04
693.73	38320.73
694.077	38165.93
694.423	38051.81
694.769	37917.8
695.116	37968.2
695.462	37875.77
695.808	37720.07
696.155	37772.72
696.501	37542.9
696.847	37404.82
697.193	37125.73
697.539	37385.16
697.885	37104.26
698.231	37027.2
698.577	37174.77
698.923	36949.47
699.269	36867.89
699.614	36709.02
699.96	36491.63
700.306	36775.69
700.651	36583.83
700.997	36397.39
701.342	36324.17
701.688	36295.47
702.033	36290.5
702.379	36240.56
702.724	36011.86
703.069	36127.12
703.415	35718.99
703.76	35789.95
704.105	35729.84
704.45	35718.99
704.795	35347.93
705.14	35419.56
705.485	35372.56
705.83	35139.34
706.175	35271.54
706.52	35000.37
706.865	35106.58
707.209	34830.88
707.554	34889.41
707.899	34930.08
708.243	34682.41
708.588	34619.36
708.932	34391.79
709.277	34340.27
709.621	34504.56
709.966	34152.7
710.31	34312.47
710.654	34050.33
710.998	34181.63
711.342	34095.76
711.687	33897.8
712.031	33856.21
712.375	33729.66
712.719	33738.48
713.063	33680.17
713.407	33718.59
713.75	33668.87
714.094	33616.45
714.438	33374.65
714.782	33421.42
715.125	33290.13
715.469	33267.08
715.812	33209.68
716.156	33019.4
716.499	33119.51
716.843	33119.96
717.186	32797.26
717.53	33148.89
717.873	32996.8
718.216	32887.2
718.559	32658.96
718.902	32595.46
719.246	32695.34
719.589	32533.31
719.932	32321.34
720.275	32482.47
720.617	32371.28
720.96	32296.26
721.303	32286.09
721.646	32236.37
721.989	32018.52
722.331	32199.08
722.674	32051.97
723.016	32034.79
723.359	32063.04
723.701	32099.88
724.044	31804.97
724.386	31631.87
724.729	31875.93
725.071	31662.37
725.413	31705.54
725.755	31652.43
726.097	31399.78
726.439	31494.24
726.782	31465.99
727.124	31551.64
727.465	31393.68
727.807	31368.6
728.149	31184.42
728.491	31239.11
728.833	31246.79
729.175	31147.36
729.516	31000.02
729.858	31023.52
730.199	31129.96
730.541	30993.92
730.882	30802.28
731.224	30880.02
731.565	30778.1
731.906	30727.26
732.248	30891.55
732.589	30586.47
732.93	30528.84
733.271	30618.11
733.612	30630.54
733.953	30613.14
734.294	30433.25
734.635	30384.22
734.976	30398.9
735.317	30252.47
735.658	30250.21
735.999	30182.64
736.339	30242.98
736.68	30258.12
737.021	30125.69
737.361	29975.19
737.702	30172.02
738.042	30087.05
738.383	29918.92
738.723	30051.12
739.063	29821.29
739.404	29979.71
739.744	29878.69
740.084	29790.78
740.424	29774.51
740.764	29758.24
741.104	29849.77
741.444	29627.4
741.784	29599.15
742.124	29596.44
742.464	29548.98
742.804	29493.39
743.143	29426.27
743.483	29494.52
743.823	29263.79
744.162	29339.95
744.502	29286.84
744.841	29115.77
745.181	29274.87
745.52	29107.64
745.86	29172.72
746.199	29182.66
746.538	29014.31
746.877	29113.06
747.216	28999.62
747.556	28865.39
747.895	28959.17
748.234	28774.54
748.573	28779.06
748.911	28838.72
749.25	28648.67
749.589	28550.82
749.928	28667.88
750.267	28583.58
750.605	28652.06
750.944	28514.66
751.283	28290.71
751.621	28397.37
751.96	28380.88
752.298	28143.6
752.636	28253.65
752.975	28115.57
753.313	28125.74
753.651	28140.21
753.989	27987.22
754.327	27989.25
754.666	27854.11
755.004	27948.35
755.342	27848.01
755.679	27897.95
756.017	27722.59
756.355	27775.24
756.693	27623.84
