Data from hue_100_FLMS001491_00076.txt Node
Date: Tue Feb 07 17:03:38 GMT 2017
User: dcchb
Spectrometer: FLMS00149
Trigger mode: 0
Integration Time (sec): 2.000000E-2
Scans to average: 10
Electric dark correction enabled: true
Nonlinearity correction enabled: false
Boxcar width: 0
XAxis mode: Wavelengths
Number of Pixels in Spectrum: 2048
>>>>>Begin Spectral Data<<<<<
341.393	-5.85
341.776	-5.85
342.16	-5.85
342.543	-52.63
342.927	-75.68
343.31	-57.82
343.693	-56.92
344.077	-47.65
344.46	-60.99
344.843	-66.18
345.226	-54.43
345.61	-56.69
345.993	-36.81
346.376	8.39
346.759	10.42
347.142	28.73
347.525	66.47
347.908	40.03
348.291	68.05
348.674	100.59
349.057	114.83
349.44	129.52
349.823	142.4
350.206	165
350.588	203.64
350.971	205.9
351.354	223.53
351.737	239.12
352.119	259.23
352.502	243.19
352.884	281.15
353.267	303.52
353.65	271.66
354.032	293.13
354.414	302.39
354.797	325.44
355.179	320.25
355.562	322.28
355.944	314.37
356.326	335.61
356.709	326.8
357.091	352.79
357.473	347.36
357.855	353.01
358.238	354.14
358.62	346.23
359.002	339.45
359.384	354.6
359.766	321.15
360.148	356.4
360.53	350.3
360.912	348.27
361.294	356.63
361.676	337.19
362.057	350.75
362.439	343.3
362.821	329.29
363.203	348.49
363.584	346.23
363.966	335.84
364.348	324.77
364.729	331.32
365.111	337.65
365.493	320.92
365.874	313.69
366.256	343.07
366.637	313.69
367.019	314.37
367.4	319.12
367.781	321.38
368.163	343.3
368.544	330.64
368.925	318.89
369.306	342.62
369.688	332.9
370.069	326.35
370.45	327.03
370.831	317.99
371.212	324.31
371.593	327.25
371.974	330.64
372.355	313.92
372.736	331.54
373.117	328.16
373.498	322.28
373.879	315.27
374.26	321.83
374.641	325.44
375.021	322.28
375.402	331.09
375.783	334.03
376.163	333.13
376.544	352.56
376.925	348.72
377.305	320.7
377.686	336.06
378.066	324.99
378.447	347.82
378.827	348.72
379.208	348.49
379.588	354.6
379.968	342.39
380.349	340.36
380.729	369.28
381.109	351.88
381.489	350.98
381.87	339.68
382.25	377.87
382.63	340.36
383.01	366.57
383.39	369.96
383.77	374.93
384.15	334.03
384.53	371.54
384.91	364.54
385.29	360.47
385.67	366.35
386.049	376.29
386.429	355.95
386.809	385.1
387.189	371.54
387.568	376.52
387.948	379.23
388.328	384.2
388.707	367.48
389.087	379.91
389.466	367.48
389.846	355.95
390.225	400.24
390.605	375.84
390.984	380.36
391.363	359.57
391.743	396.18
392.122	393.46
392.501	388.72
392.881	402.05
393.26	407.25
393.639	372.67
394.018	408.38
394.397	419
394.776	400.92
395.155	388.04
395.534	396.18
395.913	401.6
396.292	430.3
396.671	398.21
397.05	414.03
397.429	423.29
397.808	421.26
398.186	406.12
398.565	414.03
398.944	448.15
399.323	416.74
399.701	426.23
400.08	431.2
400.458	407.7
400.837	431.88
401.215	438.43
401.594	425.55
401.972	431.43
402.351	430.3
402.729	449.73
403.107	454.93
403.486	453.8
403.864	440.47
404.242	435.05
404.62	449.51
404.999	445.44
405.377	469.39
405.755	433.69
406.133	458.32
406.511	475.27
406.889	489.73
407.267	463.07
407.645	479.34
408.023	468.72
408.401	505.1
408.779	489.51
409.156	496.06
409.534	494.48
409.912	483.41
410.29	501.26
410.667	497.19
411.045	493.8
411.422	515.27
411.8	523.86
412.178	543.06
412.555	512.56
412.933	504.2
413.31	517.98
413.687	554.14
414.065	522.95
414.442	544.87
414.819	531.09
415.197	554.14
415.574	558.88
415.951	550.07
416.328	557.98
416.705	554.59
417.082	579.67
417.46	572.44
417.837	573.35
418.214	538.55
418.591	583.29
418.967	585.32
419.344	559.11
419.721	570.41
420.098	581.26
420.475	596.62
420.852	601.59
421.228	588.26
421.605	604.53
421.982	626
422.358	617.64
422.735	626.68
423.111	653.57
423.488	609.73
423.864	643.18
424.241	640.01
424.617	642.5
424.994	644.31
425.37	637.07
425.746	647.69
426.123	674.13
426.499	671.65
426.875	671.2
427.251	677.3
427.627	680.01
428.003	694.93
428.379	706
428.756	726.34
429.132	728.6
429.507	697.64
429.883	720.69
430.259	720.91
430.635	745.77
431.011	754.36
431.387	748.48
431.763	761.82
432.138	768.6
432.514	765.21
432.89	750.07
433.265	770.4
433.641	797.52
434.016	784.41
434.392	803.17
434.767	821.48
435.143	805.88
435.518	812.21
435.894	816.05
436.269	840.46
436.644	852.66
437.02	877.97
437.395	866.22
437.77	865.32
438.145	879.33
438.52	878.2
438.895	911.42
439.271	893.34
439.646	904.86
440.021	896.95
440.395	924.98
440.77	921.59
441.145	938.31
441.52	928.37
441.895	955.71
442.27	933.79
442.645	951.64
443.019	956.84
443.394	977.86
443.769	958.2
444.143	974.92
444.518	976.5
444.892	976.5
445.267	983.05
445.641	1011.08
446.016	996.16
446.39	1001.13
446.764	1007.69
447.139	1016.5
447.513	1029.61
447.887	1040.9
448.262	1053.56
448.636	1038.19
449.01	1072.99
449.384	1050.62
449.758	1090.85
450.132	1095.82
450.506	1085.2
450.88	1103.95
451.254	1112.99
451.628	1117.51
452.002	1107.57
452.376	1138.53
452.75	1161.58
453.123	1155.93
453.497	1149.83
453.871	1168.13
454.244	1200.67
454.618	1182.37
454.992	1235.93
455.365	1220.34
455.739	1257.85
456.112	1269.37
456.486	1290.84
456.859	1292.65
457.232	1337.85
457.606	1296.94
457.979	1324.06
458.352	1368.81
458.725	1334.46
459.099	1391.18
459.472	1407
459.845	1418.52
460.218	1452.65
460.591	1435.24
460.964	1490.84
461.337	1477.05
461.71	1509.59
462.083	1548.24
462.456	1513.21
462.829	1544.85
463.201	1566.99
463.574	1566.31
463.947	1613.55
464.32	1642.47
464.692	1649.7
465.065	1672.75
465.438	1691.96
465.81	1733.54
466.183	1748.46
466.555	1775.12
466.928	1801.11
467.3	1818.06
467.672	1838.85
468.045	1891.5
468.417	1898.28
468.789	1912.52
469.161	1953.42
469.534	2020.31
469.906	2037.26
470.278	2061.89
470.65	2114.32
471.022	2143.7
471.394	2202.68
471.766	2215.34
472.138	2249.91
472.51	2334.88
472.882	2371.27
473.253	2418.95
473.625	2445.84
473.997	2531.26
474.369	2574.2
474.74	2605.16
475.112	2631.15
475.484	2715.44
475.855	2804.47
476.227	2816.23
476.598	2962.44
476.97	2991.59
477.341	3104.58
477.713	3129.89
478.084	3163.79
478.455	3293.5
478.827	3360.84
479.198	3470.9
479.569	3522.87
479.94	3654.4
480.311	3716.99
480.682	3827.05
481.053	3898.68
481.424	4044.67
481.795	4090.99
482.166	4240.37
482.537	4307.49
482.908	4444.88
483.279	4573.02
483.65	4675.39
484.021	4781.37
484.391	4929.84
484.762	4999.9
485.133	5120.8
485.503	5243.73
485.874	5394.46
486.244	5523.95
486.615	5743.15
486.985	5777.05
487.356	5989.7
487.726	6022.24
488.097	6274.89
488.467	6395.57
488.837	6573.87
489.207	6699.74
489.578	6859.51
489.948	6993.74
490.318	7189.9
490.688	7159.39
491.058	7411.36
491.428	7582.2
491.798	7722.31
492.168	7986.03
492.538	8026.71
492.908	8191.45
493.278	8396.64
493.648	8429.41
494.017	8669.63
494.387	8843.19
494.757	8955.72
495.126	9154.36
495.496	9193.23
495.866	9332.89
496.235	9531.3
496.605	9642.71
496.974	9819.66
497.344	9936.94
497.713	10004.06
498.082	10179.2
498.452	10432.07
498.821	10479.07
499.19	10560.2
499.559	10666.87
499.928	10826.64
500.298	10900.76
500.667	11029.12
501.036	11077.25
501.405	11243.8
501.774	11366.06
502.143	11462.33
502.512	11581.19
502.88	11738.25
503.249	11672.72
503.618	11872.03
503.987	11878.36
504.356	12095.98
504.724	12104.34
505.093	12301.17
505.462	12321.74
505.83	12429.31
506.199	12563.09
506.567	12709.07
506.936	12714.27
507.304	12935.73
507.672	12963.98
508.041	13071.77
508.409	13135.73
508.777	13317.87
509.145	13341.37
509.514	13390.86
509.882	13403.74
510.25	13492.55
510.618	13537.98
510.986	13627.92
511.354	13739.1
511.722	13909.49
512.09	13859.1
512.458	13867.01
512.826	14071.07
513.193	14150.39
513.561	14129.6
513.929	14264.51
514.297	14375.02
514.664	14450.72
515.032	14397.16
515.4	14566.65
515.767	14523.04
516.135	14708.79
516.502	14698.17
516.869	14831.28
517.237	14855.91
517.604	14786.31
517.972	14942.91
518.339	14954.89
518.706	14992.4
519.073	15044.15
519.44	15138.39
519.808	15168.44
520.175	15189.91
520.542	15350.13
520.909	15391.94
521.276	15342.22
521.643	15443.69
522.009	15516.91
522.376	15533.63
522.743	15609.34
523.11	15746.73
523.477	15739.28
523.843	15740.63
524.21	15921.19
524.577	15938.59
524.943	16033.05
525.31	16051.81
525.676	16142.88
526.043	16147.4
526.409	16121.64
526.776	16334.51
527.142	16318.24
527.508	16410.9
527.874	16358.24
528.241	16335.64
528.607	16348.75
528.973	16508.75
529.339	16471.01
529.705	16574.51
530.071	16683.21
530.437	16601.85
530.803	16640.72
531.169	16648.4
531.535	16616.99
531.901	16614.05
532.267	16607.95
532.632	16633.26
532.998	16687.95
533.364	16729.53
533.73	16709.19
534.095	16748.97
534.461	16694.5
534.826	16828.51
535.192	16727.72
535.557	16809.53
535.923	16684.56
536.288	16761.85
536.653	16773.15
537.019	16635.07
537.384	16648.86
537.749	16718.46
538.114	16652.25
538.479	16661.06
538.845	16651.57
539.21	16570.89
539.575	16492.02
539.94	16507.16
540.305	16622.64
540.67	16518.46
541.034	16439.14
541.399	16510.78
541.764	16530.67
542.129	16495.41
542.494	16417
542.858	16497.67
543.223	16415.42
543.587	16427.39
543.952	16372.25
544.316	16361.41
544.681	16350.11
545.045	16368.64
545.41	16332.25
545.774	16289.32
546.138	16253.61
546.503	16301.52
546.867	16148.76
547.231	16269.88
547.595	16117.57
547.959	16140.85
548.324	16084.35
548.688	16109.66
549.052	16007.52
549.416	16026.05
549.779	15982.88
550.143	15980.85
550.507	16059.04
550.871	16010.91
551.235	15920.97
551.599	16004.58
551.962	15979.95
552.326	15939.27
552.689	15922.32
553.053	15881.64
553.417	15797.8
553.78	15961.42
554.143	15831.25
554.507	15910.12
554.87	15895.66
555.234	15890.23
555.597	15856.79
555.96	15869.67
556.323	15824.47
556.686	15759.84
557.05	15843.68
557.413	15809.78
557.776	15813.62
558.139	15942.66
558.502	15859.05
558.865	15845.49
559.228	15969.1
559.59	15867.86
559.953	15892.72
560.316	16056.33
560.679	15909.67
561.041	15960.06
561.404	15917.35
561.767	15998.03
562.129	15942.43
562.492	16039.15
562.854	15930.68
563.217	15960.06
563.579	15978.82
563.941	16055.43
564.304	16031.47
564.666	16088.42
565.028	16134.52
565.39	16191.01
565.753	16170
566.115	16147.4
566.477	16165.03
566.839	16222.2
567.201	16275.98
567.563	16251.58
567.925	16360.05
568.287	16268.98
568.648	16311.24
569.01	16447.96
569.372	16422.87
569.734	16332.48
570.095	16452.03
570.457	16475.75
570.819	16467.39
571.18	16461.06
571.542	16526.83
571.903	16621.96
572.265	16614.28
572.626	16594.62
572.987	16616.54
573.349	16637.78
573.71	16646.6
574.071	16689.53
574.432	16663.32
574.794	16709.42
575.155	16691.34
575.516	16735.18
575.877	16714.62
576.238	16792.58
576.599	16742.19
576.96	16699.48
577.32	16779.93
577.681	16780.6
578.042	16795.97
578.403	16773.82
578.763	16820.6
579.124	16744.45
579.485	16855.18
579.845	16850.21
580.206	16852.01
580.566	16858.79
580.927	16841.17
581.287	16827.61
581.648	16803.2
582.008	16828.29
582.368	16806.59
582.728	16875.06
583.089	16824.44
583.449	16817.67
583.809	16802.52
584.169	16812.69
584.529	16821.51
584.889	16826.48
585.249	16762.53
585.609	16716.42
585.969	16792.58
586.329	16668.74
586.688	16700.83
587.048	16750.77
587.408	16673.04
587.768	16691.34
588.127	16670.32
588.487	16695.18
588.846	16742.19
589.206	16676.2
589.565	16537.9
589.925	16697.67
590.284	16609.54
590.643	16680.72
591.003	16642.08
591.362	16607.73
591.721	16669.19
592.08	16521.18
592.44	16591.46
592.799	16696.99
593.158	16557.33
593.517	16615.86
593.876	16573.6
594.235	16551.68
594.593	16514.62
594.952	16512.36
595.311	16476.21
595.67	16532.93
596.029	16604.79
596.387	16656.31
596.746	16597.33
597.104	16555.07
597.463	16578.12
597.822	16587.84
598.18	16529.09
598.538	16522.53
598.897	16611.57
599.255	16514.85
599.613	16663.32
599.972	16597.78
600.33	16645.01
600.688	16532.7
601.046	16586.71
601.404	16648.63
601.762	16607.5
602.12	16663.32
602.478	16713.26
602.836	16629.42
603.194	16621.06
603.552	16546.26
603.91	16496.09
604.268	16592.36
604.625	16529.99
604.983	16675.3
605.341	16517.56
605.698	16593.49
606.056	16641.17
606.413	16600.27
606.771	16604.56
607.128	16671.91
607.485	16668.29
607.843	16589.65
608.2	16674.39
608.557	16765.69
608.914	16621.29
609.272	16676.2
609.629	16652.47
609.986	16695.86
610.343	16660.83
610.7	16822.86
611.057	16746.48
611.414	16769.08
611.771	16762.98
612.127	16774.95
612.484	16880.94
612.841	16890.66
613.198	16815.18
613.554	16793.03
613.911	16948.06
614.267	16933.37
614.624	16877.1
614.98	16929.3
615.337	16986.93
615.693	17042.29
616.05	16953.48
616.406	17051.11
616.762	16965.91
617.118	16918.91
617.475	17035.74
617.831	17090.65
618.187	17056.3
618.543	17040.03
618.899	17102.86
619.255	17028.06
619.611	17007.72
619.967	17175.17
620.323	17127.04
620.678	17093.14
621.034	17017.43
621.39	17070.09
621.746	17032.8
622.101	17318.22
622.457	17145.79
622.812	17171.33
623.168	17205.68
623.523	17108.96
623.879	17250.87
624.234	17065.34
624.589	17161.61
624.945	17160.48
625.3	17108.28
625.655	17143.53
626.01	17149.86
626.365	17150.54
626.72	17051.33
627.075	17068.73
627.43	17164.55
627.785	16990.32
628.14	17055.4
628.495	17051.33
628.85	17067.15
629.205	17038.68
629.559	17150.54
629.914	17025.8
630.269	17009.07
630.623	16968.4
630.978	17014.27
631.332	17049.3
631.687	17030.09
632.041	16913.26
632.396	17008.62
632.75	16946.93
633.104	16897.21
633.459	16825.35
633.813	16849.53
634.167	16837.33
634.521	16784.22
634.875	16849.53
635.229	16795.07
635.583	16742.19
635.937	16655.18
636.291	16774.95
636.645	16602.53
636.999	16705.13
637.352	16681.4
637.706	16549.88
638.06	16751
638.413	16598.46
638.767	16634.85
639.121	16563.21
639.474	16442.76
639.828	16506.94
640.181	16508.52
640.534	16564.56
640.888	16535.86
641.241	16352.82
641.594	16386.26
641.947	16498.35
642.301	16421.74
642.654	16496.32
643.007	16492.48
643.36	16409.99
643.713	16317.34
644.066	16486.6
644.419	16287.06
644.771	16246.15
645.124	16198.92
645.477	16111.47
645.83	15968.65
646.182	15934.3
646.535	15874.87
646.888	15869.22
647.24	15739.5
647.593	15798.03
647.945	15792.16
648.298	15745.38
648.65	15765.49
649.002	15725.49
649.355	15800.97
649.707	15755.09
650.059	15903.56
650.411	16180.17
650.763	16043
651.115	16152.37
651.467	16115.31
651.819	16152.37
652.171	16199.38
652.523	16086.61
652.875	16074.86
653.227	16064.46
653.578	16156.89
653.93	16239.83
654.282	16052.71
654.633	16044.35
654.985	16001.87
655.337	16086.38
655.688	16064.92
656.039	16175.42
656.391	16050.68
656.742	16036.44
657.094	16120.73
657.445	16155.99
657.796	16110.34
658.147	16096.78
658.498	16184.01
658.849	16202.77
659.2	16177
659.551	16063.79
659.902	16209.77
660.253	16128.19
660.604	16208.64
660.955	16100.17
661.306	16115.54
661.656	16184.46
662.007	16180.85
662.358	16115.76
662.708	16225.82
663.059	16166.61
663.409	16120.96
663.76	16141.52
664.11	16158.7
664.461	16272.59
664.811	16188.98
665.161	16105.37
665.511	16171.58
665.862	16182.2
666.212	16180.85
666.562	16144.91
666.912	16145.37
667.262	16114.86
667.612	16144.91
667.962	16220.17
668.312	16246.61
668.662	16308.98
669.011	16170.45
669.361	16176.55
669.711	16153.5
670.06	16131.36
670.41	16073.5
670.76	16024.69
671.109	16116.89
671.459	16054.52
671.808	16067.63
672.157	16081.19
672.507	15960.74
672.856	16083.67
673.205	16035.09
673.554	16051.58
673.904	15916.45
674.253	16115.76
674.602	15952.83
674.951	15784.47
675.3	15708.09
675.649	15896.79
675.998	15892.72
676.346	15930.91
676.695	15945.37
677.044	15826.05
677.393	15901.98
677.741	15968.65
678.09	15793.96
678.438	15757.35
678.787	15770.46
679.135	15877.58
679.484	15783.57
679.832	15819.27
680.181	15567.3
680.529	15769.33
680.877	15582.44
681.225	15548.09
681.573	15756
681.922	15487.76
682.27	15562.33
682.618	15561.65
682.966	15512.84
683.314	15524.14
683.661	15527.98
684.009	15345.16
684.357	15308.33
684.705	15296.58
685.053	15311.26
685.4	15330.47
685.748	15199.18
686.095	15215.9
686.443	15151.95
686.79	15186.52
687.138	15186.07
687.485	15167.99
687.832	15071.5
688.18	15147.43
688.527	15023.81
688.874	15051.61
689.221	14921.9
689.568	14906.53
689.915	14858.62
690.262	14808.23
690.609	14863.14
690.956	14746.99
691.303	14714.9
691.65	14625.18
691.997	14664.28
692.344	14506.77
692.69	14488.69
693.037	14474.22
693.383	14320.33
693.73	14382.47
694.077	14308.35
694.423	14353.55
694.769	14177.73
695.116	14224.51
695.462	14196.94
695.808	14066.78
696.155	14133.89
696.501	14008.25
696.847	13987.91
697.193	13815.48
697.539	13861.81
697.885	13768.03
698.231	13841.92
698.577	13682.38
698.923	13638.77
699.269	13702.94
699.614	13590.63
699.96	13452.56
700.306	13513.8
700.651	13490.97
700.997	13384.31
701.342	13322.62
701.688	13320.81
702.033	13271.77
702.379	13255.72
702.724	13232.45
703.069	13264.54
703.415	13057.09
703.76	13088.27
704.105	13064.32
704.45	12946.81
704.795	12906.13
705.14	12858
705.485	12816.64
705.83	12794.95
706.175	12801.5
706.52	12691.22
706.865	12674.27
707.209	12690.77
707.554	12712.01
707.899	12648.51
708.243	12637.66
708.588	12628.85
708.932	12391.11
709.277	12382.3
709.621	12428.63
709.966	12307.05
710.31	12400.83
710.654	12251.46
710.998	12266.6
711.342	12192.25
711.687	12238.8
712.031	12158.8
712.375	12137.56
712.719	12221.4
713.063	12072.03
713.407	12178.69
713.75	12069.77
714.094	12019.83
714.438	11934.63
714.782	11943.67
715.125	11920.62
715.469	11889.89
715.812	11873.39
716.156	11833.84
716.499	11812.37
716.843	11821.19
717.186	11782.32
717.53	11813.05
717.873	11864.58
718.216	11760.17
718.559	11808.76
718.902	11656.44
719.246	11600.18
719.589	11645.6
719.932	11600.18
720.275	11645.6
720.617	11628.65
720.96	11587.52
721.303	11545.26
721.646	11586.39
721.989	11547.75
722.331	11517.01
722.674	11462.55
723.016	11598.82
723.359	11575.54
723.701	11509.78
724.044	11432.27
724.386	11430.01
724.729	11394.98
725.071	11440.86
725.413	11464.13
725.755	11383.23
726.097	11402.44
726.439	11281.31
726.782	11293.29
727.124	11390.92
727.465	11275.89
727.807	11308.88
728.149	11240.18
728.491	11222.33
728.833	11250.81
729.175	11320.18
729.516	11225.5
729.858	11262.33
730.199	11264.36
730.541	11239.51
730.882	11267.75
731.224	11226.63
731.565	11198.6
731.906	11211.94
732.248	11276.12
732.589	11204.25
732.93	11210.35
733.271	11157.7
733.612	11181.66
733.953	11236.57
734.294	11183.91
734.635	11173.29
734.976	11123.35
735.317	11111.83
735.658	11201.32
735.999	11248.32
736.339	11101.88
736.68	11264.36
737.021	11220.98
737.361	11163.35
737.702	11181.43
738.042	11232.73
738.383	11207.42
738.723	11249.22
739.063	11143.46
739.404	11232.05
739.744	11298.04
740.084	11236.12
740.424	11283.57
740.764	11228.66
741.104	11277.02
741.444	11263.01
741.784	11260.75
742.124	11307.98
742.464	11269.56
742.804	11231.6
743.143	11305.95
743.483	11387.98
743.823	11319.5
744.162	11355.89
744.502	11448.99
744.841	11390.01
745.181	11522.21
745.52	11472.27
745.86	11500.06
746.199	11544.58
746.538	11648.31
746.877	11682.21
747.216	11757.91
747.556	11806.27
747.895	11828.87
748.234	11788.42
748.573	11812.82
748.911	11916.78
749.25	11976.21
749.589	12010.79
749.928	12154.51
750.267	12273.38
750.605	12261.63
750.944	12429.98
751.283	12444.67
751.621	12515.63
751.96	12511.34
752.298	12643.76
752.636	12753.59
752.975	12832.91
753.313	12838.33
753.651	13039.01
753.989	13147.93
754.327	13229.51
754.666	13337.08
755.004	13547.47
755.342	13683.96
755.679	13726.45
756.017	13808.25
