Data from hue_34_FLMS001491_00030.txt Node
Date: Tue Feb 07 17:25:25 GMT 2017
User: dcchb
Spectrometer: FLMS00149
Trigger mode: 0
Integration Time (sec): 2.000000E-2
Scans to average: 10
Electric dark correction enabled: true
Nonlinearity correction enabled: false
Boxcar width: 0
XAxis mode: Wavelengths
Number of Pixels in Spectrum: 2048
>>>>>Begin Spectral Data<<<<<
341.393	-13.12
341.776	-13.12
342.16	-13.12
342.543	-45.21
342.927	-57.87
343.31	-66
343.693	-77.98
344.077	-74.81
344.46	-61.93
344.843	-59.22
345.226	-34.82
345.61	-26.68
345.993	-5.89
346.376	4.96
346.759	4.73
347.142	48.57
347.525	24.62
347.908	41.79
348.291	74.33
348.674	93.77
349.057	114.56
349.44	133.09
349.823	146.42
350.206	174.9
350.588	189.13
350.971	195.69
351.354	224.39
351.737	251.73
352.119	246.08
352.502	284.5
352.884	291.05
353.267	262.8
353.65	330.6
354.032	313.2
354.414	302.35
354.797	299.19
355.179	327.89
355.562	335.12
355.944	314.78
356.326	326.3
356.709	338.51
357.091	345.29
357.473	364.27
357.855	359.75
358.238	352.74
358.62	355.91
359.002	342.58
359.384	357.04
359.766	350.94
360.148	326.53
360.53	355.91
360.912	344.38
361.294	337.15
361.676	344.84
362.057	335.8
362.439	335.34
362.821	332.41
363.203	348.68
363.584	329.69
363.966	325.18
364.348	333.76
364.729	340.54
365.111	331.5
365.493	314.78
365.874	334.44
366.256	318.62
366.637	307.1
367.019	310.26
367.4	332.18
367.781	331.95
368.163	328.11
368.544	297.61
368.925	330.15
369.306	308
369.688	305.74
370.069	317.49
370.45	324.5
370.831	310.03
371.212	306.64
371.593	315.23
371.974	319.3
372.355	327.66
372.736	302.8
373.117	333.99
373.498	335.34
373.879	343.03
374.26	319.75
374.641	333.31
375.021	312.29
375.402	312.52
375.783	332.18
376.163	348
376.544	330.15
376.925	332.86
377.305	326.3
377.686	334.67
378.066	319.53
378.447	319.98
378.827	330.15
379.208	347.32
379.588	341.22
379.968	340.99
380.349	335.57
380.729	322.01
381.109	367.66
381.489	338.73
381.87	317.72
382.25	350.26
382.63	352.29
383.01	337.83
383.39	363.37
383.77	348
384.15	351.39
384.53	333.99
384.91	352.52
385.29	349.58
385.67	349.81
386.049	361.56
386.429	349.58
386.809	358.85
387.189	352.52
387.568	369.02
387.948	349.36
388.328	354.78
388.707	354.78
389.087	352.29
389.466	373.76
389.846	365.17
390.225	350.94
390.605	372.63
390.984	382.35
391.363	369.92
391.743	365.63
392.122	375.8
392.501	382.35
392.881	372.41
393.26	392.74
393.639	382.35
394.018	372.41
394.397	374.67
394.776	399.52
395.155	375.12
395.534	387.77
395.913	377.38
396.292	381.44
396.671	387.32
397.05	393.87
397.429	398.85
397.808	395.91
398.186	387.77
398.565	380.99
398.944	381.22
399.323	390.94
399.701	366.98
400.08	393.42
400.458	381.67
400.837	388
401.215	407.66
401.594	415.57
401.972	385.06
402.351	418.05
402.729	395
403.107	390.03
403.486	406.75
403.864	404.5
404.242	407.66
404.62	419.41
404.999	432.52
405.377	410.6
405.755	426.87
406.133	410.37
406.511	414.21
406.889	425.51
407.267	422.35
407.645	437.04
408.023	433.87
408.401	423.93
408.779	432.74
409.156	428.68
409.534	447.21
409.912	432.06
410.29	466.64
410.667	448.34
411.045	449.47
411.422	456.47
411.8	451.5
412.178	489.92
412.555	466.87
412.933	469.13
413.31	460.09
413.687	488.33
414.065	472.06
414.442	489.01
414.819	459.18
415.197	477.26
415.574	470.26
415.951	447.21
416.328	484.72
416.705	477.94
417.082	503.7
417.46	491.5
417.837	509.58
418.214	494.21
418.591	508.9
418.967	488.79
419.344	509.58
419.721	533.08
420.098	503.02
420.475	496.02
420.852	521.55
421.228	523.36
421.605	529.24
421.982	528.56
422.358	517.26
422.735	550.93
423.111	524.04
423.488	543.02
423.864	533.53
424.241	535.79
424.617	557.94
424.994	551.84
425.37	520.65
425.746	557.26
426.123	536.02
426.499	554.55
426.875	556.58
427.251	588.9
427.627	584.38
428.003	585.96
428.379	585.96
428.756	590.7
429.132	609.91
429.507	590.7
429.883	594.55
430.259	595.45
430.635	623.02
431.011	603.36
431.387	631.83
431.763	607.43
432.138	630.25
432.514	607.88
432.89	626.86
433.265	645.62
433.641	663.7
434.016	682.23
434.392	681.1
434.767	678.84
435.143	664.15
435.518	676.58
435.894	703.24
436.269	683.36
436.644	684.49
437.02	682.45
437.395	678.39
437.77	695.79
438.145	706.63
438.52	706.86
438.895	715.22
439.271	717.93
439.646	746.86
440.021	735.56
440.395	756.35
440.77	735.79
441.145	724.49
441.52	759.29
441.895	741.44
442.27	758.61
442.645	768.55
443.019	767.2
443.394	766.97
443.769	761.55
444.143	774.65
444.518	748.21
444.892	770.81
445.267	767.42
445.641	773.75
446.016	793.19
446.39	796.58
446.764	813.07
447.139	806.74
447.513	781.89
447.887	824.14
448.262	795.45
448.636	811.26
449.01	831.38
449.384	834.54
449.758	830.02
450.132	834.99
450.506	846.74
450.88	827.76
451.254	830.7
451.628	859.4
452.002	888.78
452.376	861.21
452.75	887.87
453.123	877.48
453.497	891.71
453.871	899.62
454.244	890.58
454.618	930.81
454.992	915.22
455.365	936.01
455.739	938.49
456.112	947.53
456.486	933.75
456.859	974.88
457.232	964.03
457.606	1002.67
457.979	1015.33
458.352	1002.9
458.725	1007.87
459.099	1022.33
459.472	1042.9
459.845	1036.34
460.218	1060.75
460.591	1070.92
460.964	1082.9
461.337	1103.69
461.71	1102.1
462.083	1100.97
462.456	1112.72
462.829	1118.37
463.201	1167.19
463.574	1164.48
463.947	1162.89
464.32	1149.56
464.692	1173.74
465.065	1185.72
465.438	1197.02
465.81	1220.97
466.183	1253.51
466.555	1265.49
466.928	1279.73
467.3	1291.03
467.672	1306.84
468.045	1369.89
468.417	1370.8
468.789	1369.89
469.161	1390.23
469.534	1379.38
469.906	1429.55
470.278	1421.42
470.65	1441.76
471.022	1501.42
471.394	1516.1
471.766	1528.76
472.138	1545.93
472.51	1603.11
472.882	1599.72
473.253	1651.24
473.625	1657.34
473.997	1691.01
474.369	1716.1
474.74	1771.01
475.112	1796.1
475.484	1821.41
475.855	1870.45
476.227	1886.26
476.598	1949.54
476.97	1982.08
477.341	2016.2
477.713	2064.11
478.084	2089.87
478.455	2188.4
478.827	2200.61
479.198	2291.45
479.569	2277.67
479.94	2345.01
480.311	2389.3
480.682	2487.83
481.053	2572.12
481.424	2595.17
481.795	2653.93
482.166	2724.43
482.537	2743.19
482.908	2862.06
483.279	2898.67
483.65	2953.13
484.021	3029.51
484.391	3141.82
484.762	3196.06
485.133	3205.78
485.503	3290.97
485.874	3410.29
486.244	3474.47
486.615	3589.95
486.985	3656.84
487.356	3707.46
487.726	3775.03
488.097	3869.94
488.467	3926.89
488.837	4069.03
489.207	4152.87
489.578	4246.88
489.948	4290.27
490.318	4374.56
490.688	4471.96
491.058	4528
491.428	4681.22
491.798	4740.88
492.168	4865.62
492.538	4912.85
492.908	5006.63
493.278	5120.76
493.648	5143.81
494.017	5240.53
494.387	5326.17
494.757	5430.58
495.126	5533.63
495.496	5608.65
495.866	5658.37
496.235	5743.34
496.605	5864.92
496.974	5869.89
497.344	5971.81
497.713	6036.89
498.082	6079.15
498.452	6189.88
498.821	6260.61
499.19	6326.15
499.559	6408.63
499.928	6479.82
500.298	6515.97
500.667	6586.25
501.036	6635.29
501.405	6708.28
501.774	6776.76
502.143	6823.99
502.512	6935.17
502.88	6965.9
503.249	7015.62
503.618	7157.31
503.987	7193.02
504.356	7212.45
504.724	7298.78
505.093	7285.22
505.462	7294.48
505.83	7470.3
506.199	7550.52
506.567	7644.3
506.936	7670.74
507.304	7731.99
507.672	7779.67
508.041	7808.59
508.409	7915.26
508.777	7954.13
509.145	7996.61
509.514	8100.34
509.882	8178.08
510.25	8159.09
510.618	8222.14
510.986	8218.3
511.354	8312.99
511.722	8376.49
512.09	8486.32
512.458	8471.85
512.826	8519.54
513.193	8626.2
513.561	8618.74
513.929	8703.26
514.297	8764.05
514.664	8753.2
515.032	8875.01
515.4	8894.89
515.767	9019.64
516.135	9049.69
516.502	8934.67
516.869	9070.48
517.237	9172.17
517.604	9146.19
517.972	9213.08
518.339	9275
518.706	9275.9
519.073	9362
519.44	9380.3
519.808	9518.15
520.175	9437.93
520.542	9635.21
520.909	9638.83
521.276	9584.59
521.643	9728.54
522.009	9802.44
522.376	9872.27
522.743	9853.96
523.11	10045.37
523.477	10085.82
523.843	10107.52
524.21	10212.82
524.577	10253.73
524.943	10369.2
525.31	10362.2
525.676	10516.77
526.043	10434.29
526.409	10536.43
526.776	10556.54
527.142	10691.91
527.508	10656.43
527.874	10787.05
528.241	10850.32
528.607	10852.58
528.973	10951.11
529.339	10930.09
529.705	11039.92
530.071	11136.87
530.437	11256.87
530.803	11266.81
531.169	11357.2
531.535	11326.92
531.901	11346.13
532.267	11492.79
532.632	11491.44
532.998	11530.08
533.364	11618.44
533.73	11666.12
534.095	11800.35
534.461	11804.2
534.826	11878.09
535.192	11866.79
535.557	11980.46
535.923	11990.18
536.288	12021.59
536.653	12042.61
537.019	12087.35
537.384	12185.65
537.749	12212.32
538.114	12238.31
538.479	12252.77
538.845	12294.35
539.21	12351.07
539.575	12391.07
539.94	12477.17
540.305	12580.9
540.67	12594.46
541.034	12572.31
541.399	12634.23
541.764	12669.26
542.129	12690.73
542.494	12757.62
542.858	12857.05
543.223	12892.3
543.587	12969.59
543.952	12962.36
544.316	13097.27
544.681	13042.58
545.045	13187.44
545.41	13192.41
545.774	13189.02
546.138	13250.26
546.503	13325.51
546.867	13319.64
547.231	13428.11
547.595	13469.01
547.959	13573.19
548.324	13593.98
548.688	13497.03
549.052	13584.94
549.416	13641.21
549.779	13764.82
550.143	13658.84
550.507	13852.73
550.871	13894.54
551.235	13900.64
551.599	13935.89
551.962	13974.31
552.326	14036.9
552.689	14129.11
553.053	14088.65
553.417	14157.13
553.78	14312.38
554.143	14278.48
554.507	14384.47
554.87	14353.96
555.234	14530.9
555.597	14475.76
555.96	14472.37
556.323	14532.49
556.686	14548.3
557.05	14635.53
557.413	14595.99
557.776	14694.51
558.139	14831.46
558.502	14870.1
558.865	14948.75
559.228	15081.62
559.59	15032.81
559.953	15118.01
560.316	15195.29
560.679	15155.52
561.041	15281.84
561.404	15414.27
561.767	15430.77
562.129	15395.74
562.492	15492.91
562.854	15492.91
563.217	15532.46
563.579	15581.05
563.941	15688.61
564.304	15727.71
564.666	15880.47
565.028	15906.01
565.39	15850.19
565.753	16011.54
566.115	16011.99
566.477	16131.31
566.839	16183.74
567.201	16355.04
567.563	16271.65
567.925	16351.87
568.287	16344.19
568.648	16450.85
569.01	16515.03
569.372	16595.93
569.734	16601.58
570.095	16722.71
570.457	16748.47
570.819	16840.45
571.18	16812.88
571.542	16942.82
571.903	16971.74
572.265	17131.29
572.626	17156.82
572.987	17388
573.349	17477.04
573.71	17424.16
574.071	17594.78
574.432	17567.43
574.794	17824.15
575.155	17755.9
575.516	17770.14
575.877	17933.98
576.238	18014.88
576.599	18229.34
576.96	18254.42
577.32	18336.68
577.681	18378.94
578.042	18621.64
578.403	18772.6
578.763	18768.08
579.124	18946.61
579.485	19111.8
579.845	19317.22
580.206	19403.54
580.566	19429.76
580.927	19655.97
581.287	19829.52
581.648	19885.34
582.008	20148.83
582.368	20306.8
582.728	20501.14
583.089	20661.36
583.449	20782.04
583.809	21023.61
584.169	21232.42
584.529	21276.71
584.889	21664.95
585.249	21744.95
585.609	21976.81
585.969	22365.27
586.329	22514.87
586.688	22659.28
587.048	22848.65
587.408	23050.91
587.768	23297.45
588.127	23536.09
588.487	23731.11
588.846	24083.19
589.206	24144.21
589.565	24325.67
589.925	24714.14
590.284	24773.12
590.643	25149.38
591.003	25480.9
591.362	25714.79
591.721	25969.92
592.08	26139.64
592.44	26442.91
592.799	26727.87
593.158	26933.97
593.517	27230
593.876	27298.48
594.235	27666.83
594.593	27845.58
594.952	28076.31
595.311	28264.1
595.67	28587.71
596.029	29014.82
596.387	29209.16
596.746	29450.74
597.104	29560.56
597.463	29940.22
597.822	30165.52
598.18	30231.73
598.538	30432.41
598.897	30805.28
599.255	30797.14
599.613	31565.03
599.972	31469.67
600.33	31819.71
600.688	31869.88
601.046	32197.78
601.404	32488.85
601.762	32616.76
602.12	32847.26
602.478	33070.3
602.836	33279.56
603.194	33237.3
603.552	33392.55
603.91	33476.39
604.268	33854.46
604.625	33952.31
604.983	34383.04
605.341	34430.04
605.698	34734.21
606.056	34876.36
606.413	35006.98
606.771	35287.42
607.128	35458.49
607.485	35428.21
607.843	35556.11
608.2	36049.43
608.557	36210.79
608.914	36223.67
609.272	36514.05
609.629	36632.02
609.986	36889.86
610.343	36837.66
610.7	37261.15
611.057	37366.69
611.414	37440.81
611.771	37667.92
612.127	37830.63
612.484	37877.18
612.841	38203.73
613.198	38278.53
613.554	38230.85
613.911	38422.25
614.267	38493.66
614.624	38737.05
614.98	38990.15
615.337	39066.98
615.693	39051.84
616.05	39083.93
616.406	39457.25
616.762	39366.18
617.118	39486.41
617.475	39589.45
617.831	39672.16
618.187	39922.55
618.543	40055.43
618.899	40210
619.255	40208.87
619.611	40133.17
619.967	40485.02
620.323	40676.2
620.678	40488.64
621.034	40514.17
621.39	40568.64
621.746	40551.91
622.101	41182.18
622.457	40790.33
622.812	40980.38
623.168	41015.18
623.523	41018.79
623.879	41346.02
624.234	41059.47
624.589	41391.67
624.945	41365.9
625.3	41492.91
625.655	41470.53
626.01	41544.2
626.365	41495.84
626.72	41440.25
627.075	41644.31
627.43	41488.16
627.785	41768.15
628.14	41672.56
628.495	41865.33
628.85	41880.24
629.205	41611.1
629.559	42020.12
629.914	41891.31
630.269	41884.76
630.623	41835.27
630.978	41842.73
631.332	42045.66
631.687	42038.65
632.041	41857.87
632.396	42044.53
632.75	41860.13
633.104	41978.54
633.459	41814.71
633.813	41763.18
634.167	41882.5
634.521	41840.24
634.875	41947.13
635.229	41813.12
635.583	41669.62
635.937	41889.73
636.291	41750.98
636.645	41715.05
636.999	41703.3
637.352	41872.56
637.706	41759.11
638.06	41835.5
638.413	41809.51
638.767	41588.72
639.121	41859.68
639.474	41511.66
639.828	41488.39
640.181	41765.89
640.534	41666.69
640.888	41570.42
641.241	41308.05
641.594	41469.86
641.947	41613.58
642.301	41426.02
642.654	41408.61
643.007	41425.11
643.36	41424.66
643.713	41502.62
644.066	41469.86
644.419	41307.15
644.771	41030.55
645.124	40703.1
645.477	40606.15
645.83	40414.52
646.182	40423.1
646.535	40161.19
646.888	40269.89
647.24	40067.18
647.593	40302.2
647.945	40230.11
648.298	40074.86
648.65	40092.72
649.002	39960.52
649.355	40109.89
649.707	40031.7
650.059	40388.98
650.411	40623.78
650.763	40661.06
651.115	41122.07
651.467	41000.49
651.819	40844.56
652.171	40926.37
652.523	40781.06
652.875	40735.86
653.227	40671.01
653.578	41089.07
653.93	40847.5
654.282	40743.1
654.633	40757.33
654.985	40746.71
655.337	40806.6
655.688	40698.58
656.039	40818.8
656.391	40553.27
656.742	40695.64
657.094	40667.17
657.445	40887.5
657.796	40706.71
658.147	40557.56
658.498	40579.48
658.849	40633.49
659.2	40603.44
659.551	40450.45
659.902	40652.02
660.253	40499.49
660.604	40661.74
660.955	40503.33
661.306	40675.3
661.656	40286.38
662.007	40434.4
662.358	40528.19
662.708	40432.82
663.059	40386.95
663.409	40156.22
663.76	40534.29
664.11	40536.55
664.461	40550.11
664.811	40504.01
665.161	40432.14
665.511	40484.57
665.862	40449.32
666.212	40593.95
666.562	40529.09
666.912	40395.53
667.262	40291.13
667.612	40315.31
667.962	40384.46
668.312	40314.18
668.662	40499.71
669.011	40492.93
669.361	40309.66
669.711	40281.64
670.06	40267.63
670.41	40263.79
670.76	40201.87
671.109	40311.69
671.459	40113.96
671.808	40174.3
672.157	40207.52
672.507	39986.73
672.856	39997.58
673.205	40054.53
673.554	40214.07
673.904	40172.94
674.253	40196.22
674.602	40129.55
674.951	39521.21
675.3	39382.91
675.649	39976.56
675.998	39887.75
676.346	39984.92
676.695	40166.16
677.044	39725.5
677.393	39921.87
677.741	40087.75
678.09	39813.4
678.438	39782.22
678.787	39790.35
679.135	39793.06
679.484	39599.4
679.832	39841.88
680.181	39559.4
680.529	39628.32
680.877	39517.82
681.225	39531.6
681.573	39638.27
681.922	39438.72
682.27	39383.81
682.618	39354.43
682.966	39187.43
683.314	39295.45
683.661	39207.54
684.009	39075.57
684.357	38928.45
684.705	38849.59
685.053	39054.55
685.4	38960.54
685.748	38754
686.095	38706.76
686.443	38568.46
686.79	38518.3
687.138	38623.83
687.485	38502.48
687.832	38448.24
688.18	38585.64
688.527	38196.04
688.874	38276.72
689.221	38220.45
689.568	38238.53
689.915	37956.05
690.262	37931.19
690.609	37767.58
690.956	37674.7
691.303	37513.12
691.65	37445.1
691.997	37514.03
692.344	37213.47
692.69	37243.07
693.037	37226.13
693.383	36967.38
693.73	37275.62
694.077	36923.08
694.423	36983.19
694.769	36844.44
695.116	36847.38
695.462	36808.06
695.808	36533.49
696.155	36664.33
696.501	36532.58
696.847	36315.42
697.193	36194.29
697.539	36354.06
697.885	36100.73
698.231	36041.98
698.577	35895.77
698.923	35853.51
699.269	35791.81
699.614	35550.01
699.96	35562.44
700.306	35450.81
700.651	35373.52
700.997	35241.77
701.342	35102.34
701.688	35214.65
702.033	35062.11
702.379	34964.04
702.724	34754.1
703.069	34988.22
703.415	34427.1
703.76	34621
704.105	34634.33
704.45	34561.56
704.795	34348.01
705.14	34179.88
705.485	34272.08
705.83	34070.95
706.175	34076.83
706.52	33956.16
706.865	33917.06
707.209	33888.36
707.554	33690.85
707.899	33846.1
708.243	33630.06
708.588	33546.9
708.932	33367.7
709.277	33418.09
709.621	33424.42
709.966	33129.06
710.31	33232.56
710.654	32882.96
710.998	33040.02
711.342	32923.19
711.687	32714.61
712.031	32852.68
712.375	32642.29
712.719	32798.45
713.063	32506.02
713.407	32671.67
713.75	32507.61
714.094	32508.06
714.438	32374.95
714.782	32370.21
715.125	32255.41
715.469	32288.4
715.812	31954.63
716.156	32064.45
716.499	31886.83
716.843	32047.5
717.186	31794.4
717.53	31937.23
717.873	31934.29
718.216	31793.05
718.559	31744.69
718.902	31565.03
719.246	31606.61
719.589	31411.36
719.932	31415.88
720.275	31360.29
720.617	31415.66
720.96	31224.48
721.303	31192.61
721.646	31319.16
721.989	31026.74
722.331	31105.61
722.674	31107.87
723.016	31120.75
723.359	31013.63
723.701	31053.86
724.044	30862.23
724.386	30683.25
724.729	30823.81
725.071	30611.38
725.413	30580.65
725.755	30703.36
726.097	30548.34
726.439	30510.82
726.782	30436.02
727.124	30527.32
727.465	30283.48
727.807	30326.87
728.149	30255.69
728.491	30271.05
728.833	30243.26
729.175	30250.26
729.516	30010.27
729.858	30061.79
730.199	30033.32
730.541	29962.59
730.882	29934.79
731.224	29834.46
731.565	29864.51
731.906	29847.79
732.248	29757.4
732.589	29624.07
732.93	29602.37
733.271	29616.61
733.612	29555.14
733.953	29568.7
734.294	29424.07
734.635	29316.96
734.976	29405.77
735.317	29269.05
735.658	29279.67
735.999	29273.57
736.339	29164.87
736.68	29227.24
737.021	29186.11
737.361	29046.23
737.702	29238.99
738.042	29048.94
738.383	28974.59
738.723	29061.37
739.063	28961.94
739.404	29039.45
739.744	28995.61
740.084	28790.64
740.424	28797.42
740.764	28717.2
741.104	28912.9
741.444	28644.43
741.784	28606.69
742.124	28673.13
742.464	28577.99
742.804	28419.58
743.143	28566.69
743.483	28466.36
743.823	28397.66
744.162	28180.04
744.502	28319.47
744.841	28116.99
745.181	28364.44
745.52	28240.83
745.86	28308.17
746.199	28073.37
746.538	28048.29
746.877	28139.13
747.216	28100.26
747.556	27966.26
747.895	27999.93
748.234	27857.78
748.573	27848.07
748.911	27828.18
749.25	27719.71
749.589	27639.71
749.928	27667.51
750.267	27673.83
750.605	27650.56
750.944	27586.15
751.283	27504.12
751.621	27503.67
751.96	27374.63
752.298	27369.66
752.636	27362.88
752.975	27229.55
753.313	27086.28
753.651	27189.78
753.989	27067.3
754.327	27031.59
754.666	26975.32
755.004	26954.08
755.342	27068.65
755.679	26943.68
756.017	26759.73
756.355	26775.78
756.693	26733.97
757.031	26646.52
757.368	26641.77
757.706	26563.13
758.044	26395.22
