Data from hue_200_FLMS001491_00040.txt Node
Date: Tue Feb 07 16:43:12 GMT 2017
User: dcchb
Spectrometer: FLMS00149
Trigger mode: 0
Integration Time (sec): 2.000000E-2
Scans to average: 10
Electric dark correction enabled: true
Nonlinearity correction enabled: false
Boxcar width: 0
XAxis mode: Wavelengths
Number of Pixels in Spectrum: 2048
>>>>>Begin Spectral Data<<<<<
341.393	-32.2
341.776	-32.2
342.16	-32.2
342.543	-59.32
342.927	-41.69
343.31	-76.5
343.693	-65.42
344.077	-65.42
344.46	-62.94
344.843	-54.57
345.226	-41.69
345.61	-47.34
345.993	-19.1
346.376	4.41
346.759	-4.63
347.142	25.88
347.525	54.12
347.908	60.68
348.291	85.76
348.674	99.55
349.057	107.23
349.44	114.46
349.823	144.06
350.206	159.66
350.588	188.81
350.971	222.71
351.354	235.81
351.737	239.88
352.119	264.51
352.502	252.31
352.884	265.19
353.267	289.6
353.65	311.97
354.032	305.64
354.414	308.81
354.797	307.68
355.179	318.3
355.562	325.53
355.944	323.49
356.326	339.09
356.709	328.24
357.091	339.54
357.473	344.74
357.855	354
358.238	338.64
358.62	326.21
359.002	356.26
359.384	334.79
359.766	326.88
360.148	339.77
360.53	354
360.912	325.53
361.294	342.93
361.676	340.89
362.057	320.33
362.439	311.07
362.821	335.02
363.203	347.67
363.584	322.14
363.966	339.77
364.348	332.08
364.729	334.34
365.111	345.19
365.493	331.86
365.874	315.13
366.256	315.36
366.637	315.36
367.019	304.96
367.4	322.59
367.781	323.27
368.163	332.76
368.544	317.84
368.925	304.29
369.306	318.07
369.688	299.99
370.069	340.22
370.45	317.39
370.831	319.2
371.212	326.21
371.593	309.26
371.974	329.14
372.355	315.58
372.736	318.75
373.117	334.34
373.498	319.88
373.879	330.5
374.26	302.03
374.641	340.67
375.021	342.25
375.402	299.77
375.783	333.89
376.163	344.51
376.544	326.88
376.925	317.39
377.305	320.78
377.686	324.62
378.066	329.6
378.447	328.69
378.827	337.73
379.208	316.04
379.588	346.09
379.968	327.11
380.349	343.38
380.729	328.24
381.109	334.79
381.489	322.36
381.87	350.84
382.25	325.75
382.63	338.64
383.01	342.02
383.39	351.97
383.77	354.68
384.15	337.05
384.53	355.58
384.91	357.39
385.29	360.78
385.67	349.93
386.049	347.9
386.429	353.32
386.809	353.55
387.189	390.39
387.568	366.43
387.948	359.88
388.328	363.04
388.707	383.83
389.087	375.7
389.466	372.31
389.846	361.69
390.225	381.8
390.605	358.3
390.984	360.56
391.363	378.41
391.743	384.96
392.122	382.93
392.501	376.37
392.881	389.03
393.26	399.42
393.639	393.77
394.018	389.26
394.397	410.27
394.776	408.24
395.155	392.19
395.534	396.26
395.913	394
396.292	417.5
396.671	404.62
397.05	391.97
397.429	399.42
397.808	406.43
398.186	429.71
398.565	434
398.944	424.28
399.323	458.41
399.701	415.47
400.08	420.21
400.458	429.93
400.837	452.08
401.215	441.01
401.594	452.53
401.972	432.19
402.351	438.07
402.729	469.93
403.107	458.63
403.486	460.67
403.864	468.58
404.242	469.71
404.62	483.04
404.999	475.13
405.377	477.84
405.755	475.35
406.133	488.01
406.511	499.08
406.889	505.86
407.267	499.08
407.645	497.28
408.023	509.25
408.401	522.81
408.779	518.74
409.156	563.94
409.534	534.11
409.912	567.1
410.29	572.53
410.667	562.36
411.045	581.34
411.422	613.43
411.8	599.19
412.178	607.33
412.555	623.83
412.933	637.38
413.31	621.57
413.687	680.1
414.065	671.96
414.442	653.66
414.819	676.03
415.197	688.91
415.574	682.13
415.951	701.79
416.328	727.78
416.705	722.35
417.082	745.4
417.46	760.54
417.837	754.67
418.214	772.75
418.591	790.83
418.967	791.96
419.344	807.78
419.721	795.12
420.098	834.89
420.475	830.83
420.852	810.71
421.228	868.79
421.605	892.29
421.982	887.77
422.358	919.41
422.735	918.28
423.111	939.07
423.488	962.8
423.864	980.65
424.241	1028.56
424.617	1015.45
424.994	1027.2
425.37	1051.84
425.746	1053.19
426.123	1063.59
426.499	1095.23
426.875	1094.55
427.251	1102.91
427.627	1165.73
428.003	1189.23
428.379	1163.25
428.756	1175.45
429.132	1212.28
429.507	1245.05
429.883	1263.58
430.259	1256.13
430.635	1269.91
431.011	1253.41
431.387	1300.42
431.763	1341.77
432.138	1351.72
432.514	1358.04
432.89	1393.52
433.265	1414.99
433.641	1444.59
434.016	1476.68
434.392	1478.94
434.767	1518.04
435.143	1561.65
435.518	1554.65
435.894	1599.39
436.269	1614.99
436.644	1646.62
437.02	1681.88
437.395	1692.05
437.77	1724.59
438.145	1774.76
438.52	1812.27
438.895	1812.72
439.271	1855.88
439.646	1905.83
440.021	1934.3
440.395	1907.86
440.77	1908.31
441.145	1970.68
441.52	2018.82
441.895	2022.66
442.27	2054.52
442.645	2054.3
443.019	2087.74
443.394	2159.83
443.769	2138.36
444.143	2137.23
444.518	2233.5
444.892	2242.31
445.267	2222.43
445.641	2276.66
446.016	2285.25
446.39	2272.6
446.764	2314.85
447.139	2290.45
447.513	2339.94
447.887	2343.78
448.262	2357.79
448.636	2397.56
449.01	2425.36
449.384	2431.69
449.758	2472.82
450.132	2501.97
450.506	2523.44
450.88	2522.53
451.254	2564.79
451.628	2542.19
452.002	2586.03
452.376	2631.46
452.75	2658.35
453.123	2634.39
453.497	2710.55
453.871	2745.8
454.244	2803.88
454.618	2782.64
454.992	2872.35
455.365	2849.76
455.739	2891.11
456.112	2973.37
456.486	2962.07
456.859	3021.95
457.232	3034.61
457.606	3055.4
457.979	3108.28
458.352	3164.32
458.725	3194.83
459.099	3232.34
459.472	3256.3
459.845	3305.79
460.218	3317.09
460.591	3364.09
460.964	3376.52
461.337	3472.79
461.71	3507.59
462.083	3535.84
462.456	3591.21
462.829	3562.05
463.201	3645.89
463.574	3647.47
463.947	3711.43
464.32	3811.54
464.692	3844.08
465.065	3867.58
465.438	3906
465.81	3988.71
466.183	4030.06
466.555	4120.46
466.928	4077.75
467.3	4109.84
467.672	4172.66
468.045	4249.04
468.417	4305.54
468.789	4322.26
469.161	4376.04
469.534	4423.5
469.906	4562.7
470.278	4544.63
470.65	4590.5
471.022	4713.66
471.394	4778.74
471.766	4839.31
472.138	4846.09
472.51	4938.74
472.882	5086.31
473.253	5091.96
473.625	5151.39
473.997	5244.95
474.369	5293.08
474.74	5341.89
475.112	5437.94
475.484	5532.17
475.855	5605.39
476.227	5645.39
476.598	5845.16
476.97	5837.93
477.341	5932.84
477.713	6034.53
478.084	6053.97
478.455	6236.11
478.827	6281.98
479.198	6453.05
479.569	6472.03
479.94	6682.88
480.311	6681.75
480.682	6843.1
481.053	7034.05
481.424	7051.9
481.795	7123.54
482.166	7216.87
482.537	7324.89
482.908	7404.21
483.279	7497.99
483.65	7647.6
484.021	7800.36
484.391	7893.92
484.762	7932.56
485.133	7955.16
485.503	8095.04
485.874	8180.01
486.244	8335.94
486.615	8443.96
486.985	8581.13
487.356	8683.95
487.726	8729.15
488.097	8885.98
488.467	8918.07
488.837	9139.53
489.207	9169.82
489.578	9287.33
489.948	9395.57
490.318	9498.17
490.688	9493.87
491.058	9664.72
491.428	9776.35
491.798	9807.09
492.168	9997.14
492.538	10095.89
492.908	10118.72
493.278	10238.04
493.648	10231.48
494.017	10357.81
494.387	10468.09
494.757	10483.23
495.126	10640.74
495.496	10541.08
495.866	10725.48
496.235	10818.81
496.605	10960.5
496.974	10916.66
497.344	10989.43
497.713	11097.45
498.082	11089.99
498.452	11180.84
498.821	11206.82
499.19	11222.87
499.559	11349.87
499.928	11392.13
500.298	11417.21
500.667	11580.15
501.036	11480.49
501.405	11528.17
501.774	11498.79
502.143	11628.06
502.512	11654.27
502.88	11703.08
503.249	11712.57
503.618	11783.76
503.987	11802.06
504.356	11876.64
504.724	11896.07
505.093	11897.43
505.462	11958.22
505.83	12083.64
506.199	12067.14
506.567	12252.9
506.936	12166.8
507.304	12217.42
507.672	12240.92
508.041	12182.62
508.409	12360.24
508.777	12352.78
509.145	12429.16
509.514	12427.36
509.882	12451.54
510.25	12508.71
510.618	12505.32
510.986	12558.65
511.354	12609.27
511.722	12670.97
512.09	12679.33
512.458	12680.68
512.826	12730.63
513.193	12772.43
513.561	12710.74
513.929	12833.45
514.297	12851.3
514.664	12872.32
515.032	12874.12
515.4	12948.02
515.767	12948.02
516.135	12948.7
516.502	12821.7
516.869	13067.79
517.237	13119.32
517.604	13034.35
517.972	13050.17
518.339	13161.12
518.706	13061.92
519.073	13106.89
519.44	13080
519.808	13175.81
520.175	13200.44
520.542	13215.81
520.909	13244.28
521.276	13218.52
521.643	13172.2
522.009	13239.09
522.376	13308.69
522.743	13258.97
523.11	13393.43
523.477	13431.85
523.843	13428.91
524.21	13510.94
524.577	13547.78
524.943	13469.36
525.31	13589.36
525.676	13588
526.043	13645.63
526.409	13568.12
526.776	13661.45
527.142	13575.35
527.508	13613.31
527.874	13610.83
528.241	13709.81
528.607	13633.65
528.973	13635.01
529.339	13605.86
529.705	13629.13
530.071	13702.35
530.437	13616.93
530.803	13662.35
531.169	13718.17
531.535	13618.29
531.901	13557.04
532.267	13544.84
532.632	13637.27
532.998	13534.22
533.364	13605.63
533.73	13424.17
534.095	13593.65
534.461	13628.46
534.826	13408.12
535.192	13471.4
535.557	13456.26
535.923	13349.59
536.288	13416.71
536.653	13383.94
537.019	13318.18
537.384	13239.76
537.749	13295.81
538.114	13270.05
538.479	13221.46
538.845	13161.8
539.21	13152.54
539.575	13099.66
539.94	13043.61
540.305	13117.51
540.67	12935.59
541.034	12945.31
541.399	12967.46
541.764	12914.58
542.129	12864.41
542.494	12823.28
542.858	12869.83
543.223	12738.76
543.587	12763.85
543.952	12665.99
544.316	12672.55
544.681	12538.77
545.045	12505.55
545.41	12559.33
545.774	12525.66
546.138	12473.46
546.503	12490.63
546.867	12355.95
547.231	12434.81
547.595	12363.63
547.959	12331.99
548.324	12237.08
548.688	12179.91
549.052	12156.18
549.416	12150.98
549.779	12079.34
550.143	12044.77
550.507	12012.68
550.871	12047.93
551.235	11912.79
551.599	11918.9
551.962	11884.77
552.326	11906.69
552.689	11818.79
553.053	11703.08
553.417	11707.83
553.78	11781.72
554.143	11692.23
554.507	11720.71
554.87	11634.16
555.234	11667.6
555.597	11631.67
555.96	11619.47
556.323	11608.85
556.686	11479.13
557.05	11591.9
557.413	11545.57
557.776	11542.86
558.139	11569.07
558.502	11487.95
558.865	11419.47
559.228	11486.59
559.59	11433.03
559.953	11441.85
560.316	11452.02
560.679	11427.16
561.041	11494.27
561.404	11439.13
561.767	11487.04
562.129	11349.65
562.492	11433.48
562.854	11416.76
563.217	11389.64
563.579	11307.16
563.941	11469.64
564.304	11445.46
564.666	11412.69
565.028	11425.12
565.39	11402.98
565.753	11416.99
566.115	11509.41
566.477	11408.17
566.839	11470.77
567.201	11416.31
567.563	11505.35
567.925	11545.57
568.287	11471.9
568.648	11469.42
569.01	11510.54
569.372	11552.35
569.734	11533.37
570.095	11569.75
570.457	11598
570.819	11609.75
571.18	11475.07
571.542	11630.99
571.903	11600.94
572.265	11554.16
572.626	11561.84
572.987	11605.23
573.349	11563.42
573.71	11621.05
574.071	11576.31
574.432	11638.68
574.794	11708.96
575.155	11658.79
575.516	11575.63
575.877	11668.96
576.238	11629.41
576.599	11716.87
576.96	11672.57
577.32	11650.2
577.681	11741.73
578.042	11718.9
578.403	11722.52
578.763	11745.11
579.124	11741.73
579.485	11710.31
579.845	11737.66
580.206	11755.06
580.566	11736.08
580.927	11776.98
581.287	11866.02
581.648	11720.71
582.008	11738.79
582.368	11676.64
582.728	11758.45
583.089	11713.25
583.449	11678.9
583.809	11732.69
584.169	11727.94
584.529	11640.94
584.889	11694.49
585.249	11623.54
585.609	11675.06
585.969	11664.89
586.329	11647.49
586.688	11662.18
587.048	11691.56
587.408	11720.26
587.768	11630.54
588.127	11615.17
588.487	11602.75
588.846	11678.68
589.206	11582.63
589.565	11593.71
589.925	11632.35
590.284	11588.73
590.643	11665.79
591.003	11611.11
591.362	11653.82
591.721	11546.7
592.08	11598.45
592.44	11543.54
592.799	11598.45
593.158	11530.43
593.517	11568.62
593.876	11579.47
594.235	11552.58
594.593	11475.97
594.952	11573.37
595.311	11489.3
595.67	11541.73
596.029	11593.71
596.387	11541.73
596.746	11555.06
597.104	11474.39
597.463	11519.58
597.822	11525.23
598.18	11463.77
598.538	11447.5
598.897	11525.01
599.255	11478.46
599.613	11574.5
599.972	11561.16
600.33	11582.86
600.688	11481.84
601.046	11473.26
601.404	11532.01
601.762	11550.77
602.12	11640.26
602.478	11539.92
602.836	11509.41
603.194	11513.71
603.552	11534.72
603.91	11501.51
604.268	11558
604.625	11487.27
604.983	11549.87
605.341	11486.59
605.698	11497.89
606.056	11553.26
606.413	11490.43
606.771	11546.02
607.128	11499.02
607.485	11550.77
607.843	11510.54
608.2	11477.55
608.557	11501.96
608.914	11558.23
609.272	11574.5
609.629	11588.06
609.986	11611.11
610.343	11551.45
610.7	11597.55
611.057	11634.84
611.414	11670.31
611.771	11638.68
612.127	11651.11
612.484	11643.42
612.841	11714.38
613.198	11607.72
613.554	11645
613.911	11696.98
614.267	11665.79
614.624	11696.08
614.98	11633.03
615.337	11740.82
615.693	11714.61
616.05	11701.95
616.406	11834.6
616.762	11690.65
617.118	11725.45
617.475	11750.76
617.831	11724.78
618.187	11721.16
618.543	11771.78
618.899	11768.84
619.255	11824.66
619.611	11731.1
619.967	11888.39
620.323	11853.81
620.678	11852
621.034	11793.48
621.39	11779.69
621.746	11812.23
622.101	11894.94
622.457	11769.97
622.812	11799.58
623.168	11770.88
623.523	11835.06
623.879	11851.1
624.234	11786.47
624.589	11800.71
624.945	11769.07
625.3	11824.43
625.655	11769.75
626.01	11795.06
626.365	11783.76
626.72	11796.41
627.075	11762.74
627.43	11756.41
627.785	11670.31
628.14	11733.14
628.495	11782.4
628.85	11718.45
629.205	11712.12
629.559	11732.46
629.914	11655.4
630.269	11708.73
630.623	11677.77
630.978	11680.26
631.332	11666.47
631.687	11661.95
632.041	11624.21
632.396	11592.35
632.75	11558.68
633.104	11665.12
633.459	11588.51
633.813	11535.63
634.167	11556.19
634.521	11537.66
634.875	11574.5
635.229	11471.9
635.583	11453.15
635.937	11483.2
636.291	11398.23
636.645	11459.7
636.999	11384.22
637.352	11396.88
637.706	11448.4
638.06	11383.77
638.413	11379.02
638.767	11360.04
639.121	11410.89
639.474	11273.71
639.828	11252.47
640.181	11337.44
640.534	11256.77
640.888	11241.85
641.241	11226.48
641.594	11307.16
641.947	11213.6
642.301	11204.34
642.654	11266.03
643.007	11257.67
643.36	11263.77
643.713	11158.46
644.066	11271.91
644.419	11139.71
644.771	11101.06
645.124	11028.3
645.477	10969.99
645.83	10929.32
646.182	10915.98
646.535	10906.04
646.888	10883.67
647.24	10810
647.593	10790.11
647.945	10836.89
648.298	10699.94
648.65	10758.7
649.002	10680.06
649.355	10793.95
649.707	10803.44
650.059	10860.62
650.411	11005.7
650.763	11006.83
651.115	11073.72
651.467	11091.12
651.819	11069.2
652.171	11014.51
652.523	11054.06
652.875	11039.6
653.227	10975.64
653.578	11019.26
653.93	10944.46
654.282	10964.34
654.633	11008.86
654.985	11004.57
655.337	10945.81
655.688	11039.82
656.039	11092.25
656.391	10925.93
656.742	10978.13
657.094	11038.69
657.445	11023.78
657.796	10997.34
658.147	10985.13
658.498	10999.37
658.849	10984.23
659.2	11066.71
659.551	10976.77
659.902	11006.15
660.253	11124.11
660.604	10982.42
660.955	10924.35
661.306	11011.12
661.656	11050.22
662.007	11005.25
662.358	11038.69
662.708	11063.1
663.059	11059.48
663.409	10962.08
663.76	11048.18
664.11	11067.62
664.461	11061.07
664.811	11054.74
665.161	11073.72
665.511	11061.07
665.862	11078.69
666.212	11114.17
666.562	11087.51
666.912	11056.55
667.262	11115.07
667.612	11033.5
667.962	11062.65
668.312	11094.51
668.662	11112.82
669.011	11062.2
669.361	11026.49
669.711	11091.12
670.06	11017.45
670.41	11007.73
670.76	11022.42
671.109	11036.21
671.459	11028.75
671.808	10928.41
672.157	10974.06
672.507	10934.51
672.856	10973.84
673.205	10987.17
673.554	10936.1
673.904	10918.7
674.253	10909.2
674.602	10955.53
674.951	10755.76
675.3	10784.01
675.649	10914.63
675.998	10875.31
676.346	10862.65
676.695	10867.85
677.044	10745.14
677.393	10865.14
677.741	10806.38
678.09	10831.47
678.438	10764.8
678.787	10792.15
679.135	10819.26
679.484	10707.4
679.832	10788.98
680.181	10673.28
680.529	10686.39
680.877	10655.43
681.225	10704.46
681.573	10696.1
681.922	10660.62
682.27	10567.29
682.618	10630.79
682.966	10536.11
683.314	10609.55
683.661	10531.81
684.009	10518.03
684.357	10472.15
684.705	10504.47
685.053	10460.4
685.4	10466.96
685.748	10373.4
686.095	10418.14
686.443	10368.2
686.79	10304.7
687.138	10374.3
687.485	10341.31
687.832	10272.61
688.18	10257.47
688.527	10170.69
688.874	10197.58
689.221	10189.22
689.568	10163.46
689.915	10130.92
690.262	10092.05
690.609	10074.88
690.956	10023.8
691.303	9955.33
691.65	9976.57
691.997	9913.3
692.344	9869.23
692.69	9859.29
693.037	9853.41
693.383	9715.79
693.73	9805.05
694.077	9744.04
694.423	9700.87
694.769	9723.47
695.116	9617.04
695.462	9583.82
695.808	9576.36
696.155	9504.95
696.501	9462.69
696.847	9462.24
697.193	9368.23
697.539	9408.68
697.885	9345.18
698.231	9316.25
698.577	9315.35
698.923	9312.86
699.269	9208.91
699.614	9156.03
699.96	9158.74
700.306	9204.84
700.651	9088.24
700.997	9099.53
701.342	9050.04
701.688	9045.52
702.033	9023.38
702.379	9004.62
702.724	8951.52
703.069	8907.22
703.415	8820.22
703.76	8905.42
704.105	8854.34
704.45	8795.36
704.795	8809.37
705.14	8705.42
705.485	8730.5
705.83	8612.09
706.175	8636.27
706.52	8547.23
706.865	8560.34
707.209	8557.63
707.554	8565.54
707.899	8559.66
708.243	8497.29
708.588	8458.87
708.932	8436.95
709.277	8400.34
709.621	8420.68
709.966	8361.93
710.31	8425.43
710.654	8229.73
710.998	8280.35
711.342	8293.45
711.687	8233.34
712.031	8257.75
712.375	8220.01
712.719	8221.37
713.063	8170.75
713.407	8212.78
713.75	8175.94
714.094	8116.96
714.438	8108.83
714.782	8087.81
715.125	8087.13
715.469	8089.39
715.812	7996.74
716.156	7996.06
716.499	8019.34
716.843	8028.83
717.186	7923.97
717.53	7973.46
717.873	8031.09
718.216	7975.5
718.559	7916.29
718.902	7891.2
719.246	7900.7
719.589	7848.72
719.932	7839
720.275	7857.99
720.617	7817.76
720.96	7844.2
721.303	7802.85
721.646	7790.87
721.989	7769.63
722.331	7837.87
722.674	7845.56
723.016	7781.38
723.359	7750.42
723.701	7835.39
724.044	7715.84
724.386	7720.81
724.729	7702.51
725.071	7776.18
725.413	7702.28
725.755	7739.8
726.097	7695.28
726.439	7665.9
726.782	7747.25
727.124	7682.62
727.465	7744.99
727.807	7660.93
728.149	7687.14
728.491	7678.56
728.833	7647.6
729.175	7625.22
729.516	7675.62
729.858	7665.9
730.199	7718.1
730.541	7614.15
730.882	7628.84
731.224	7687.14
731.565	7612.79
731.906	7640.14
732.248	7669.74
732.589	7623.87
732.93	7641.72
733.271	7595.85
733.612	7627.26
733.953	7642.4
734.294	7604.88
734.635	7622.74
734.976	7646.69
735.317	7585.68
735.658	7607.37
735.999	7638.1
736.339	7601.27
736.68	7705
737.021	7715.16
737.361	7558.33
737.702	7667.26
738.042	7688.27
738.383	7639.46
738.723	7763.07
739.063	7698.22
739.404	7698.22
739.744	7709.29
740.084	7614.83
740.424	7669.52
740.764	7664.54
741.104	7729.18
741.444	7736.41
741.784	7691.44
742.124	7761.94
742.464	7777.99
742.804	7744.09
743.143	7850.98
743.483	7855.05
743.823	7865.22
744.162	7873.58
744.502	7882.84
744.841	7872.67
745.181	7938.89
745.52	7958.32
745.86	8017.98
746.199	8050.3
746.538	8062.95
746.877	8151.54
747.216	8211.65
747.556	8216.39
747.895	8287.8
748.234	8316.05
748.573	8349.95
748.911	8425.43
749.25	8445.54
749.589	8443.28
749.928	8593.11
750.267	8587.91
750.605	8709.71
750.944	8816.6
751.283	8875.13
751.621	8953.32
751.96	9021.8
752.298	9121.23
752.636	9267.21
752.975	9275.12
753.313	9380.66
753.651	9498.62
753.989	9622.46
754.327	9667.2
754.666	9800.76
755.004	9984.48
755.342	10155.33
755.679	10209.34
756.017	10326.17
756.355	10482.55
756.693	10627.63
757.031	10818.36
757.368	10910.33
757.706	11090.67
758.044	11227.39
