Data from hue_60_FLMS001491_42.txt Node
Date: Mon Feb 06 15:17:26 GMT 2017
User: dcchb
Spectrometer: FLMS00149
Trigger mode: 0
Integration Time (sec): 2.000000E-2
Scans to average: 10
Electric dark correction enabled: true
Nonlinearity correction enabled: false
Boxcar width: 0
XAxis mode: Wavelengths
Number of Pixels in Spectrum: 2048
>>>>>Begin Spectral Data<<<<<
341.393	-26.19
341.776	-26.19
342.16	-26.19
342.543	-79.97
342.927	-74.77
343.31	-53.3
343.693	-80.87
344.077	-71.61
344.46	-61.67
344.843	-53.3
345.226	-34.77
345.61	-44.72
345.993	-25.73
346.376	11.33
346.759	-4.04
347.142	10.42
347.525	34.38
347.908	72.34
348.291	86.58
348.674	93.36
349.057	121.61
349.44	104.66
349.823	155.05
350.206	169.29
350.588	190.53
350.971	201.6
351.354	220.81
351.737	259.68
352.119	253.13
352.502	247.25
352.884	278.21
353.267	291.09
353.65	280.92
354.032	296.29
354.414	301.04
354.797	305.1
355.179	315.95
355.562	328.16
355.944	339.45
356.326	345.78
356.709	355.5
357.091	340.13
357.473	343.52
357.855	329.96
358.238	331.09
358.62	345.1
359.002	339.45
359.384	373.8
359.766	322.73
360.148	348.04
360.53	338.55
360.912	360.47
361.294	324.09
361.676	336.29
362.057	306.69
362.439	321.38
362.821	333.13
363.203	326.12
363.584	313.92
363.966	321.83
364.348	333.58
364.729	306.46
365.111	316.18
365.493	314.37
365.874	308.72
366.256	325.67
366.637	318.21
367.019	333.8
367.4	296.97
367.781	311.66
368.163	312.11
368.544	318.66
368.925	334.03
369.306	329.74
369.688	302.39
370.069	327.7
370.45	295.61
370.831	315.95
371.212	301.94
371.593	336.74
371.974	300.36
372.355	307.36
372.736	330.64
373.117	342.39
373.498	300.36
373.879	336.97
374.26	321.83
374.641	316.4
375.021	323.86
375.402	300.81
375.783	321.15
376.163	310.75
376.544	318.21
376.925	335.84
377.305	313.47
377.686	330.42
378.066	302.39
378.447	320.92
378.827	333.35
379.208	322.28
379.588	340.36
379.968	346.69
380.349	351.88
380.729	334.48
381.109	322.51
381.489	314.6
381.87	346.91
382.25	316.4
382.63	316.63
383.01	331.54
383.39	345.33
383.77	335.16
384.15	322.05
384.53	343.07
384.91	332.45
385.29	322.05
385.67	336.74
386.049	353.92
386.429	345.33
386.809	341.94
387.189	353.69
387.568	343.52
387.948	355.73
388.328	345.56
388.707	347.36
389.087	355.73
389.466	355.5
389.846	336.06
390.225	347.36
390.605	357.76
390.984	355.95
391.363	367.48
391.743	371.54
392.122	362.96
392.501	364.31
392.881	375.16
393.26	356.18
393.639	364.76
394.018	369.28
394.397	361.83
394.776	364.54
395.155	358.21
395.534	348.27
395.913	354.82
396.292	358.21
396.671	375.61
397.05	397.53
397.429	363.41
397.808	376.06
398.186	382.84
398.565	383.07
398.944	367.48
399.323	355.27
399.701	365.44
400.08	367.25
400.458	380.36
400.837	369.28
401.215	383.75
401.594	377.87
401.972	394.14
402.351	372.45
402.729	392.11
403.107	386.23
403.486	411.09
403.864	396.85
404.242	390.75
404.62	385.55
404.999	418.32
405.377	388.94
405.755	379.91
406.133	385.1
406.511	402.05
406.889	397.53
407.267	414.48
407.645	398.21
408.023	418.1
408.401	407.48
408.779	418.32
409.156	423.29
409.534	421.03
409.912	428.72
410.29	417.64
410.667	425.78
411.045	447.25
411.422	434.14
411.8	425.55
412.178	435.05
412.555	443.86
412.933	433.24
413.31	454.03
413.687	438.43
414.065	459.45
414.442	450.41
414.819	454.71
415.197	455.16
415.574	471.43
415.951	460.36
416.328	477.53
416.705	455.38
417.082	449.96
417.46	469.85
417.837	484.08
418.214	492.22
418.591	478.89
418.967	465.78
419.344	472.33
419.721	487.02
420.098	476.17
420.475	475.5
420.852	507.36
421.228	500.81
421.605	493.12
421.982	512.56
422.358	499.9
422.735	500.81
423.111	502.61
423.488	507.36
423.864	534.93
424.241	517.75
424.617	524.53
424.994	520.01
425.37	530.18
425.746	541.48
426.123	517.3
426.499	526.34
426.875	536.06
427.251	519.11
427.627	532.44
428.003	538.77
428.379	552.33
428.756	529.28
429.132	541.93
429.507	539.9
429.883	555.49
430.259	562.5
430.635	562.73
431.011	570.41
431.387	566.79
431.763	575.61
432.138	567.02
432.514	565.66
432.89	588.49
433.265	598.88
433.641	583.29
434.016	611.31
434.392	611.09
434.767	637.98
435.143	635.49
435.518	628.26
435.894	633.91
436.269	624.19
436.644	632.55
437.02	633.23
437.395	649.05
437.77	666
438.145	646.34
438.52	653.8
438.895	684.08
439.271	665.77
439.646	653.8
440.021	667.81
440.395	671.87
440.77	679.56
441.145	675.04
441.52	690.41
441.895	702.83
442.27	695.38
442.645	689.28
443.019	690.18
443.394	697.19
443.769	692.89
444.143	695.6
444.518	732.66
444.892	719.33
445.267	698.54
445.641	713.23
446.016	698.77
446.39	732.66
446.764	739.67
447.139	716.39
447.513	740.8
447.887	720.91
448.262	738.99
448.636	756.84
449.01	738.54
449.384	768.37
449.758	757.52
450.132	762.72
450.506	756.17
450.88	785.32
451.254	762.49
451.628	772.89
452.002	804.07
452.376	797.75
452.75	795.26
453.123	785.77
453.497	826.9
453.871	819.89
454.244	820.12
454.618	831.87
454.992	832.32
455.365	838.42
455.739	853.79
456.112	859.89
456.486	869.61
456.859	875.26
457.232	886.78
457.606	884.07
457.979	901.47
458.352	919.55
458.725	924.75
459.099	920
459.472	944.41
459.845	949.61
460.218	946.22
460.591	951.42
460.964	957.52
461.337	1006.78
461.71	995.48
462.083	1010.4
462.456	1032.77
462.829	993.45
463.201	1034.8
463.574	1031.64
463.947	1093.11
464.32	1091.07
464.692	1092.88
465.065	1082.26
465.438	1114.8
465.81	1164.74
466.183	1155.25
466.555	1147.79
466.928	1190.96
467.3	1196.83
467.672	1242.93
468.045	1223.95
468.417	1248.36
468.789	1285.64
469.161	1264.4
469.534	1305.3
469.906	1329.94
470.278	1370.84
470.65	1350.28
471.022	1407.22
471.394	1452.19
471.766	1460.55
472.138	1484.96
472.51	1511.63
472.882	1552.76
473.253	1568.8
473.625	1629.14
473.997	1671.4
474.369	1681.57
474.74	1721.56
475.112	1759.08
475.484	1786.65
475.855	1842.92
476.227	1897.38
476.598	1942.58
476.97	1997.04
477.341	2048.11
477.713	2049.69
478.084	2116.58
478.455	2212.17
478.827	2236.58
479.198	2371.04
479.569	2401.32
479.94	2466.86
480.311	2517.93
480.682	2598.15
481.053	2740.75
481.424	2765.38
481.795	2828.88
482.166	2942.1
482.537	3018.48
482.908	3111.58
483.279	3159.72
483.65	3260.28
484.021	3366.95
484.391	3448.53
484.762	3548.86
485.133	3604
485.503	3760.16
485.874	3917.21
486.244	4033.14
486.615	4085.34
486.985	4259.13
487.356	4356.98
487.726	4467.93
488.097	4619.34
488.467	4697.31
488.837	4876.51
489.207	4999.67
489.578	5128.25
489.948	5272.43
490.318	5437.85
490.688	5470.62
491.058	5617.28
491.428	5814.79
491.798	5950.15
492.168	6147.21
492.538	6186.53
492.908	6378.39
493.278	6518.5
493.648	6666.29
494.017	6813.41
494.387	6931.15
494.757	7078.94
495.126	7282.77
495.496	7361.42
495.866	7532.71
496.235	7700.62
496.605	7829.88
496.974	7986.26
497.344	8156.88
497.713	8246.37
498.082	8440.94
498.452	8604.77
498.821	8682.96
499.19	8777.2
499.559	9036.63
499.928	9180.35
500.298	9362.27
500.667	9514.58
501.036	9527.24
501.405	9717.06
501.774	9783.05
502.143	9956.15
502.512	10102.81
502.88	10308.01
503.249	10392.75
503.618	10464.84
503.987	10611.27
504.356	10754.32
504.724	10937.82
505.093	11024.6
505.462	11066.18
505.83	11285.83
506.199	11431.59
506.567	11654.86
506.936	11676.56
507.304	11868.64
507.672	11970.11
508.041	12131.46
508.409	12287.39
508.777	12411.68
509.145	12504.78
509.514	12622.52
509.882	12707.49
510.25	12857.09
510.618	13001.04
510.986	13120.81
511.354	13303.63
511.722	13456.85
512.09	13538.66
512.458	13626.79
512.826	13814.13
513.193	13924.86
513.561	14018.19
513.929	14170.5
514.297	14331.18
514.664	14486.2
515.032	14503.83
515.4	14697.49
515.767	14763.71
516.135	14949.47
516.502	14929.58
516.869	15284.15
517.237	15356.01
517.604	15287.08
517.972	15569.56
518.339	15673.06
518.706	15758.94
519.073	15895.43
519.44	16033.5
519.808	16201.86
520.175	16263.78
520.542	16434.85
520.909	16618.57
521.276	16668.29
521.643	16893.14
522.009	16951.67
522.376	17045.46
522.743	17152.8
523.11	17484.99
523.477	17601.15
523.843	17680.92
524.21	17887.47
524.577	18033.68
524.943	18144.41
525.31	18267.34
525.676	18493.1
526.043	18530.39
526.409	18629.82
526.776	18851.06
527.142	18889.93
527.508	19088.57
527.874	19282.69
528.241	19383.93
528.607	19403.81
528.973	19643.35
529.339	19697.14
529.705	19836.79
530.071	19957.02
530.437	20061.2
530.803	20223
531.169	20378.25
531.535	20334.63
531.901	20458.02
532.267	20539.38
532.632	20740.27
532.998	20876.09
533.364	21010.78
533.73	21013.94
534.095	21156.53
534.461	21291.22
534.826	21310.65
535.192	21434.27
535.557	21629.29
535.923	21635.17
536.288	21691.66
536.653	21822.96
537.019	21780.7
537.384	21921.71
537.749	22018.88
538.114	22077.19
538.479	22177.3
538.845	22327.35
539.21	22229.5
539.575	22374.58
539.94	22389.95
540.305	22643.73
540.67	22607.57
541.034	22638.08
541.399	22769.15
541.764	22824.96
542.129	22956.49
542.494	22980.44
542.858	23133.66
543.223	23130.04
543.587	23307.89
543.952	23267.67
544.316	23308.57
544.681	23499.75
545.045	23396.02
545.41	23632.85
545.774	23638.5
546.138	23710.59
546.503	23788.1
546.867	23777.26
547.231	24010.7
547.595	24014.99
547.959	24236.91
548.324	24168.66
548.688	24210.69
549.052	24297.24
549.416	24424.47
549.779	24431.93
550.143	24487.75
550.507	24587.63
550.871	24736.55
551.235	24677.35
551.599	24925.25
551.962	25134.96
552.326	25053.38
552.689	25295.41
553.053	25265.8
553.417	25197.78
553.78	25595.74
554.143	25475.52
554.507	25536.31
554.87	25671.67
555.234	25879.12
555.597	25777.43
555.96	25946.46
556.323	26029.4
556.686	26148.49
557.05	26252.22
557.413	26341.93
557.776	26380.13
558.139	26542.83
558.502	26656.05
558.865	26786.22
559.228	26992.09
559.59	27023.05
559.953	27034.12
560.316	27418.06
560.679	27264.4
561.041	27539.42
561.404	27650.15
561.767	27776.7
562.129	27679.3
562.492	28068.44
562.854	28075.22
563.217	28059.86
563.579	28284.71
563.941	28444.48
564.304	28561.31
564.666	28812.83
565.028	28706.84
565.39	28804.92
565.753	29074.74
566.115	29092.6
566.477	29206.94
566.839	29355.41
567.201	29506.6
567.563	29408.07
567.925	29680.83
568.287	29743.65
568.648	29904.78
569.01	30015.96
569.372	30252.57
569.734	30061.38
570.095	30343.86
570.457	30503.86
570.819	30448.27
571.18	30497.76
571.542	30678.77
571.903	30771.2
572.265	30794.02
572.626	30995.15
572.987	31077.86
573.349	31148.59
573.71	31245.08
574.071	31413.21
574.432	31434.91
574.794	31630.38
575.155	31656.15
575.516	31591.97
575.877	31652.53
576.238	31816.37
576.599	31899.3
576.96	31951.96
577.32	31966.19
577.681	32190.14
578.042	32178.39
578.403	32226.53
578.763	32258.16
579.124	32355.11
579.485	32488.67
579.845	32515.11
580.206	32518.72
580.566	32374.32
580.927	32594.2
581.287	32641.66
581.648	32609.34
582.008	32790.13
582.368	32620.87
582.728	32874.87
583.089	32728.43
583.449	32660.19
583.809	32875.55
584.169	32925.04
584.529	32739.05
584.889	33081.42
585.249	32866.73
585.609	32851.82
585.969	33028.31
586.329	32877.81
586.688	33028.99
587.048	32986.73
587.408	32881.42
587.768	32927.75
588.127	33003.45
588.487	33049.55
588.846	33077.58
589.206	32946.05
589.565	33042.32
589.925	33208.87
590.284	33115.54
590.643	33194.86
591.003	33301.07
591.362	33327.06
591.721	33241.41
592.08	33250.23
592.44	33289.32
592.799	33295.65
593.158	33351.02
593.517	33318.7
593.876	33361.64
594.235	33410.9
594.593	33545.81
594.952	33503.33
595.311	33367.74
595.67	33505.14
596.029	33675.98
596.387	33644.34
596.746	33651.35
597.104	33611.8
597.463	33590.56
597.822	33828.07
598.18	33695.87
598.538	33512.59
598.897	33911.45
599.255	33592.37
599.613	34160.94
599.972	33927.5
600.33	34094.72
600.688	33826.94
601.046	34139.7
601.404	34235.06
601.762	34064.67
602.12	34365.9
602.478	34238
602.836	34234.38
603.194	34101.96
603.552	34233.7
603.91	34058.34
604.268	34348.5
604.625	34242.97
604.983	34523.41
605.341	34350.31
605.698	34451.1
606.056	34516.18
606.413	34629.4
606.771	34680.47
607.128	34729.51
607.485	34553.47
607.843	34682.28
608.2	34826.91
608.557	34943.29
608.914	34846.8
609.272	35032.55
609.629	35132.21
609.986	35139.22
610.343	35141.03
610.7	35467.34
611.057	35400.23
611.414	35334.01
611.771	35461.92
612.127	35507.12
612.484	35571.75
612.841	35556.61
613.198	35465.31
613.554	35700.56
613.911	35806.09
614.267	35732.2
614.624	35783.27
614.98	35932.19
615.337	35967.9
615.693	35991.85
616.05	35971.29
616.406	36143.03
616.762	35985.07
617.118	36038.85
617.475	36011.74
617.831	36217.38
618.187	36184.39
618.543	36244.72
618.899	36571.5
619.255	36425.74
619.611	36455.57
619.967	36599.07
620.323	36571.27
620.678	36596.35
621.034	36431.39
621.39	36528.79
621.746	36484.04
622.101	37092.16
622.457	36607.88
622.812	36796.35
623.168	36929.9
623.523	36818.27
623.879	37072.73
624.234	36848.55
624.589	36760.64
624.945	36995.89
625.3	37030.24
625.655	37017.81
626.01	36992.5
626.365	37003.12
626.72	37037.47
627.075	36943.24
627.43	37117.47
627.785	36899.85
628.14	37070.24
628.495	36992.73
628.85	37183.68
629.205	36820.76
629.559	37178.49
629.914	36969.45
630.269	37100.07
630.623	37041.77
630.978	36931.03
631.332	37060.52
631.687	37041.99
632.041	36866.86
632.396	36984.14
632.75	36893.52
633.104	37016.91
633.459	36954.08
633.813	36799.74
634.167	36753.41
634.521	36803.35
634.875	36926.51
635.229	36817.14
635.583	36731.94
635.937	36744.82
636.291	36550.93
636.645	36651.72
636.999	36667.54
637.352	36738.5
637.706	36508.45
638.06	36625.96
638.413	36472.52
638.767	36536.92
639.121	36539.86
639.474	36301.67
639.828	36522.01
640.181	36451.05
640.534	36530.82
640.888	36354.33
641.241	36128.12
641.594	36212.64
641.947	36343.03
642.301	36236.59
642.654	36298.06
643.007	36287.44
643.36	36193.43
643.713	36131.51
644.066	36216.48
644.419	36110.94
644.771	35858.52
645.124	35571.07
645.477	35406.55
645.83	35195.04
646.182	35311.42
646.535	35225.77
646.888	35135.15
647.24	34941.03
647.593	35074.81
647.945	34967.92
648.298	34883.18
648.65	34763.86
649.002	34650.64
649.355	34882.27
649.707	34780.13
650.059	34974.02
650.411	35138.54
650.763	35318.42
651.115	35763.38
651.467	35673.44
651.819	35606.78
652.171	35617.4
652.523	35506.44
652.875	35418.76
653.227	35355.26
653.578	35574.23
653.93	35302.83
654.282	35345.09
654.633	35285.65
654.985	35342.15
655.337	35376.73
655.688	35290.85
656.039	35480.68
656.391	35065.32
656.742	35157.52
657.094	35186.45
657.445	35243.4
657.796	35218.76
658.147	35088.37
658.498	35120.46
658.849	35145.54
659.2	35202.49
659.551	35083.4
659.902	35153
660.253	35146.9
660.604	35204.53
660.955	35153.45
661.306	35103.74
661.656	35042.95
662.007	35076.39
662.358	34986.9
662.708	35146.67
663.059	34999.79
663.409	34742.39
663.76	35117.07
664.11	34989.39
664.461	35088.82
664.811	35063.97
665.161	35130.86
665.511	34934.48
665.862	34939.67
666.212	35067.58
666.562	35115.04
666.912	34919.56
667.262	34870.52
667.612	34941.26
667.962	34932.44
668.312	34874.59
668.662	34983.06
669.011	34939.45
669.361	34640.25
669.711	34880.24
670.06	34819.23
670.41	34712.11
670.76	34756.85
671.109	34783.75
671.459	34807.02
671.808	34795.5
672.157	34805.21
672.507	34567.48
672.856	34521.15
673.205	34555.73
673.554	34658.1
673.904	34560.93
674.253	34752.33
674.602	34666.46
674.951	34214.27
675.3	33880.95
675.649	34587.82
675.998	34522.96
676.346	34489.29
676.695	34676.4
677.044	34382.63
677.393	34431.89
677.741	34512.57
678.09	34384.66
678.438	34263.08
678.787	34410.65
679.135	34299.69
679.484	34152.12
679.832	34381.27
680.181	34168.62
680.529	34208.85
680.877	34071
681.225	34090.66
681.573	34284.78
681.922	33885.24
682.27	33826.71
682.618	33877.56
682.966	33734.73
683.314	33769.08
683.661	33778.12
684.009	33624
684.357	33579.26
684.705	33533.38
685.053	33507.4
685.4	33608.41
685.748	33403.67
686.095	33293.39
686.443	33259.49
686.79	33172.49
687.138	33284.35
687.485	33171.13
687.832	33161.64
688.18	33092.72
688.527	32954.87
688.874	32902.89
689.221	32838.94
689.568	32920.29
689.915	32823.57
690.262	32761.65
690.609	32607.08
690.956	32468.55
691.303	32540.64
691.65	32309.69
691.997	32354.43
692.344	32064.5
692.69	32292.51
693.037	32149.92
693.383	31853.65
693.73	32040.09
694.077	31839.64
694.423	31792.86
694.769	31753.32
695.116	31645.98
695.462	31689.59
695.808	31558.52
696.155	31641
696.501	31417.73
696.847	31322.37
697.193	31119.89
697.539	31201.69
697.885	30976.84
698.231	30915.83
698.577	30793.12
698.923	30735.49
699.269	30735.94
699.614	30517.42
699.96	30559.9
700.306	30472.9
700.651	30299.57
700.997	30215.05
701.342	30283.75
701.688	30125.56
702.033	30117.43
702.379	30149.07
702.724	29994.95
703.069	30005.34
703.415	29680.15
703.76	29629.08
704.105	29735.07
704.45	29643.32
704.795	29401.74
705.14	29501.63
705.485	29448.97
705.83	29265.93
706.175	29377.33
706.52	29124.69
706.865	29070.45
707.209	29028.42
707.554	28969.44
707.899	29025.25
708.243	28794.3
708.588	28699.84
708.932	28617.81
709.277	28604.47
709.621	28693.06
709.966	28418.72
710.31	28573.29
710.654	28141.21
710.998	28219.63
711.342	28308.21
711.687	28129.01
712.031	28112.06
712.375	28042.23
712.719	28043.36
713.063	27987.09
713.407	28070.02
713.75	27858.28
714.094	27884.72
714.438	27767.66
714.782	27758.85
715.125	27646.53
715.469	27780.09
715.812	27596.59
716.156	27427.78
716.499	27473.88
716.843	27518.85
717.186	27261.68
717.53	27416.93
717.873	27470.94
718.216	27332.64
718.559	27182.36
718.902	26943.73
719.246	27108.92
719.589	26982.82
719.932	26910.28
720.275	26875.93
720.617	26864.63
720.96	26727.69
721.303	26772.88
721.646	26837.51
721.989	26605.43
722.331	26752.77
722.674	26538.09
723.016	26621.93
723.359	26484.76
723.701	26684.98
724.044	26315.04
724.386	26247.93
724.729	26364.76
725.071	26297.19
725.413	26292.67
725.755	26188.27
726.097	26126.8
726.439	26050.64
726.782	26002.06
727.124	26097.65
727.465	25932.91
727.807	25924.54
728.149	25877.99
728.491	25915.73
728.833	25847.03
729.175	25726.81
729.516	25694.04
729.858	25664.21
730.199	25722.06
730.541	25636.19
730.882	25728.62
731.224	25714.15
731.565	25515.74
731.906	25560.94
732.248	25569.75
732.589	25329.31
732.93	25298.8
733.271	25336.09
733.612	25194.39
733.953	25241.62
734.294	25139.25
734.635	25154.4
734.976	25266.03
735.317	24956.43
735.658	25058.8
735.999	25027.17
736.339	24993.95
736.68	24984
737.021	24985.81
737.361	24943.33
737.702	24934.74
738.042	24828.75
738.383	24859.26
738.723	24918.02
739.063	24693.39
739.404	24758.25
739.744	24635.54
740.084	24637.8
740.424	24603.68
740.764	24509.67
741.104	24590.79
741.444	24500.85
741.784	24398.71
742.124	24485.49
742.464	24387.18
742.804	24264.93
743.143	24160.97
743.483	24293.85
743.823	24148.09
744.162	24199.84
744.502	24133.4
744.841	24129.11
745.181	24050.02
745.52	24099.06
745.86	24034.2
746.199	24072.62
746.538	23963.92
746.877	24055.67
747.216	23885.05
747.556	23797.37
747.895	23930.25
748.234	23707.65
748.573	23807.31
748.911	23646.19
749.25	23760.08
749.589	23580.88
749.928	23713.98
750.267	23565.96
750.605	23495.91
750.944	23485.29
751.283	23494.33
751.621	23393.76
751.96	23263.15
752.298	23288
752.636	23361.45
752.975	23211.17
753.313	23124.39
753.651	23281.68
753.989	23170.49
754.327	23008.46
754.666	22943.61
755.004	22911.29
755.342	22971.85
755.679	22912.65
756.017	22685.99
756.355	22778.86
756.693	22727.11
