Data from hue_190_FLMS001491_00086.txt Node
Date: Tue Feb 07 16:45:54 GMT 2017
User: dcchb
Spectrometer: FLMS00149
Trigger mode: 0
Integration Time (sec): 2.000000E-2
Scans to average: 10
Electric dark correction enabled: true
Nonlinearity correction enabled: false
Boxcar width: 0
XAxis mode: Wavelengths
Number of Pixels in Spectrum: 2048
>>>>>Begin Spectral Data<<<<<
341.393	-37.39
341.776	-37.39
342.16	-37.39
342.543	-68.35
342.927	-69.7
343.31	-67.67
343.693	-97.72
344.077	-65.63
344.46	-40.55
344.843	-51.17
345.226	-34.67
345.61	-20.44
345.993	-34.22
346.376	-18.86
346.759	8.94
347.142	27.02
347.525	37.19
347.908	57.98
348.291	64.08
348.674	96.17
349.057	139.56
349.44	128.71
349.823	143.4
350.206	165.55
350.588	195.38
350.971	199.67
351.354	224.08
351.737	231.08
352.119	266.33
352.502	256.84
352.884	277.63
353.267	289.84
353.65	279.67
354.032	291.87
354.414	293.23
354.797	307.01
355.179	333.68
355.562	337.97
355.944	312.89
356.326	339.33
356.709	336.84
357.091	346.11
357.473	335.26
357.855	342.72
358.238	331.64
358.62	332.1
359.002	318.08
359.384	321.25
359.766	320.34
360.148	336.84
360.53	335.71
360.912	336.16
361.294	326.9
361.676	317.41
362.057	314.47
362.439	315.37
362.821	318.08
363.203	336.16
363.584	338.88
363.966	315.15
364.348	320.57
364.729	318.08
365.111	293.68
365.493	323.51
365.874	324.64
366.256	293.45
366.637	316.95
367.019	295.26
367.4	311.76
367.781	316.95
368.163	326.45
368.544	304.07
368.925	325.54
369.306	304.3
369.688	316.05
370.069	294.58
370.45	308.37
370.831	308.14
371.212	317.63
371.593	311.08
371.974	311.98
372.355	314.47
372.736	323.96
373.117	290.29
373.498	303.17
373.879	324.86
374.26	325.77
374.641	320.8
375.021	301.36
375.402	323.73
375.783	345.2
376.163	295.71
376.544	337.75
376.925	335.03
377.305	331.87
377.686	320.57
378.066	323.06
378.447	311.31
378.827	318.76
379.208	329.84
379.588	312.89
379.968	313.34
380.349	328.03
380.729	330.06
381.109	337.07
381.489	322.38
381.87	335.49
382.25	353.56
382.63	337.52
383.01	345.43
383.39	344.07
383.77	328.93
384.15	352.66
384.53	355.6
384.91	373.9
385.29	356.05
385.67	335.03
386.049	344.52
386.429	345.65
386.809	337.07
387.189	344.07
387.568	345.43
387.948	356.05
388.328	358.99
388.707	361.7
389.087	375.71
389.466	369.16
389.846	380.46
390.225	380.68
390.605	342.04
390.984	363.73
391.363	390.17
391.743	349.04
392.122	363.06
392.501	359.89
392.881	376.39
393.26	370.51
393.639	378.2
394.018	371.42
394.397	373.45
394.776	374.35
395.155	396.27
395.534	378.42
395.913	394.02
396.292	393.79
396.671	385.2
397.05	419.55
397.429	388.59
397.808	395.82
398.186	379.55
398.565	377.52
398.944	414.58
399.323	391.53
399.701	408.25
400.08	415.71
400.458	406.67
400.837	391.98
401.215	413.9
401.594	408.93
401.972	415.26
402.351	436.27
402.729	430.62
403.107	411.64
403.486	432.66
403.864	431.3
404.242	434.24
404.62	442.83
404.999	436.73
405.377	457.74
405.755	415.71
406.133	454.13
406.511	468.59
406.889	488.93
407.267	460.45
407.645	486.22
408.023	471.98
408.401	492.54
408.779	483.05
409.156	507.68
409.534	503.62
409.912	513.11
410.29	521.02
410.667	516.95
411.045	535.71
411.422	539.32
411.8	560.11
412.178	554.46
412.555	548.81
412.933	561.24
413.31	561.02
413.687	602.6
414.065	586.78
414.442	582.94
414.819	620.68
415.197	620.68
415.574	642.82
415.951	607.12
416.328	628.59
416.705	618.87
417.082	649.15
417.46	661.35
417.837	664.29
418.214	676.49
418.591	659.32
418.967	677.4
419.344	685.76
419.721	685.98
420.098	722.59
420.475	728.02
420.852	727.79
421.228	750.62
421.605	740.22
421.982	770.73
422.358	779.99
422.735	793.1
423.111	813.67
423.488	834.91
423.864	833.33
424.241	835.36
424.617	870.84
424.994	858.86
425.37	867.9
425.746	903.38
426.123	913.32
426.499	894.79
426.875	909.71
427.251	956.49
427.627	960.33
428.003	957.39
428.379	965.07
428.756	987.9
429.132	982.47
429.507	1022.93
429.883	1033.32
430.259	1012.98
430.635	1052.3
431.011	1039.65
431.387	1061.34
431.763	1089.59
432.138	1102.92
432.514	1130.49
432.89	1126.2
433.265	1158.74
433.641	1172.53
434.016	1198.29
434.392	1193.09
434.767	1247.33
435.143	1298.17
435.518	1271.28
435.894	1299.08
436.269	1304.73
436.644	1319.87
437.02	1350.6
437.395	1330.04
437.77	1387.21
438.145	1446.19
438.52	1455.23
438.895	1492.52
439.271	1494.33
439.646	1527.32
440.021	1508.56
440.395	1571.61
440.77	1585.62
441.145	1582.91
441.52	1643.7
441.895	1614.55
442.27	1666.75
442.645	1667.43
443.019	1686.64
443.394	1681.89
443.769	1684.6
444.143	1716.01
444.518	1752.62
444.892	1741.78
445.267	1772.28
445.641	1798.05
446.016	1833.3
446.39	1800.53
446.764	1834.66
447.139	1832.85
447.513	1866.07
447.887	1896.8
448.262	1898.16
448.636	1897.48
449.01	1924.14
449.384	1953.75
449.758	1999.4
450.132	2013.18
450.506	1958.72
450.88	1992.62
451.254	1994.88
451.628	2060.41
452.002	2089.11
452.376	2121.2
452.75	2147.19
453.123	2128.66
453.497	2144.03
453.871	2178.37
454.244	2207.75
454.618	2257.47
454.992	2297.47
455.365	2261.31
455.739	2353.06
456.112	2338.82
456.486	2398.03
456.859	2371.82
457.232	2478.03
457.606	2421.31
457.979	2493.85
458.352	2520.29
458.725	2568.65
459.099	2544.24
459.472	2661.53
459.845	2664.01
460.218	2689.55
460.591	2673.28
460.964	2707.4
461.337	2784.01
461.71	2823.33
462.083	2875.53
462.456	2885.02
462.829	2877.34
463.201	2973.83
463.574	3002.31
463.947	2986.94
464.32	3037.56
464.692	3112.14
465.065	3130.67
465.438	3143.1
465.81	3196.65
466.183	3241.62
466.555	3320.04
466.928	3314.39
467.3	3355.75
467.672	3396.87
468.045	3525.91
468.417	3515.29
468.789	3522.75
469.161	3591.9
469.534	3675.06
469.906	3822.85
470.278	3713.02
470.65	3822.17
471.022	3892.68
471.394	3992.56
471.766	3998.89
472.138	4055.39
472.51	4103.97
472.882	4237.76
473.253	4235.95
473.625	4266.91
473.997	4397.3
474.369	4465.32
474.74	4508.26
475.112	4633.9
475.484	4607.69
475.855	4740.34
476.227	4781.47
476.598	4869.6
476.97	4956.15
477.341	5044.97
477.713	5126.09
478.084	5217.17
478.455	5318.41
478.827	5420.32
479.198	5583.48
479.569	5585.74
479.94	5725.63
480.311	5748.22
480.682	5890.37
481.053	6053.98
481.424	6111.83
481.795	6160.19
482.166	6317.7
482.537	6405.61
482.908	6508.43
483.279	6556.56
483.65	6669.33
484.021	6873.39
484.391	6926.72
484.762	6980.96
485.133	7019.83
485.503	7162.42
485.874	7326.71
486.244	7342.08
486.615	7545.24
486.985	7562.87
487.356	7718.57
487.726	7799.02
488.097	8032.68
488.467	7886.25
488.837	8116.52
489.207	8261.83
489.578	8320.13
489.948	8413.92
490.318	8563.29
490.688	8603.74
491.058	8739.11
491.428	8816.39
491.798	8906.33
492.168	9047.8
492.538	9072.43
492.908	9187.91
493.278	9278.53
493.648	9300.45
494.017	9457.05
494.387	9532.08
494.757	9527.56
495.126	9640.33
495.496	9630.61
495.866	9756.03
496.235	9830.15
496.605	9955.57
496.974	9951.28
497.344	10041.45
497.713	10136.36
498.082	10106.98
498.452	10274.21
498.821	10236.92
499.19	10267.65
499.559	10345.62
499.928	10338.61
500.298	10446.41
500.667	10573.63
501.036	10486.63
501.405	10520.75
501.774	10585.39
502.143	10672.16
502.512	10684.14
502.88	10784.25
503.249	10793.29
503.618	10868.99
503.987	10781.54
504.356	10861.31
504.724	10922.78
505.093	10931.82
505.462	11002.55
505.83	11087.29
506.199	11048.2
506.567	11118.93
506.936	11216.33
507.304	11231.24
507.672	11293.39
508.041	11298.36
508.409	11384.46
508.777	11497
509.145	11481.63
509.514	11347.85
509.882	11441.63
510.25	11459.03
510.618	11539.03
510.986	11522.08
511.354	11522.99
511.722	11566.38
512.09	11720.04
512.458	11604.57
512.826	11650.89
513.193	11722.53
513.561	11754.62
513.929	11739.03
514.297	11764.11
514.664	11831
515.032	11819.25
515.4	11855.18
515.767	11935.63
516.135	11825.13
516.502	11694.28
516.869	11920.04
517.237	11925.92
517.604	11801.4
517.972	11955.74
518.339	11885.01
518.706	11967.27
519.073	11891.79
519.44	12008.62
519.808	12038.91
520.175	11990.77
520.542	12143.31
520.909	12134.05
521.276	11994.16
521.643	12048.62
522.009	12116.87
522.376	12071.67
522.743	12117.77
523.11	12155.97
523.477	12229.18
523.843	12198.45
524.21	12286.36
524.577	12244.78
524.943	12377.43
525.31	12240.71
525.676	12355.06
526.043	12291.78
526.409	12366.13
526.776	12462.62
527.142	12344.44
527.508	12314.61
527.874	12376.98
528.241	12325.23
528.607	12294.49
528.973	12347.15
529.339	12251.78
529.705	12298.79
530.071	12326.13
530.437	12336.3
530.803	12249.75
531.169	12309.18
531.535	12236.42
531.901	12254.95
532.267	12242.74
532.632	12184.44
532.998	12133.59
533.364	12147.6
533.73	12103.31
534.095	12132.01
534.461	12012.24
534.826	12079.36
535.192	12066.48
535.557	11984.44
535.923	11914.62
536.288	11937.67
536.653	11925.01
537.019	11696.09
537.384	11767.28
537.749	11722.53
538.114	11778.12
538.479	11660.39
538.845	11648.41
539.21	11588.75
539.575	11540.61
539.94	11434.18
540.305	11485.02
540.67	11466.49
541.034	11343.78
541.399	11369.09
541.764	11303.11
542.129	11310.34
542.494	11195.99
542.858	11210.23
543.223	11104.92
543.587	11096.11
543.952	11031.02
544.316	11032.15
544.681	10935.66
545.045	10876
545.41	10867.19
545.774	10839.62
546.138	10768.88
546.503	10767.53
546.867	10677.81
547.231	10750.13
547.595	10584.26
547.959	10615.89
548.324	10584.93
548.688	10493.41
549.052	10446.41
549.416	10416.8
549.779	10369.8
550.143	10283.25
550.507	10335.67
550.871	10248.67
551.235	10159.18
551.599	10267.88
551.962	10123.02
552.326	10093.87
552.689	10135.45
553.053	10019.75
553.417	9999.86
553.78	10053.87
554.143	10001.22
554.507	9911.5
554.87	9881.9
555.234	9957.15
555.597	9792.64
555.96	9753.09
556.323	9806.2
556.686	9683.49
557.05	9731.85
557.413	9710.61
557.776	9669.7
558.139	9720.1
558.502	9625.86
558.865	9600.33
559.228	9604.62
559.59	9568.24
559.953	9575.92
560.316	9709.02
560.679	9603.94
561.041	9546.77
561.404	9622.02
561.767	9638.97
562.129	9481.46
562.492	9547.67
562.854	9506.54
563.217	9504.28
563.579	9506.32
563.941	9547.9
564.304	9530.72
564.666	9537.28
565.028	9490.5
565.39	9524.62
565.753	9602.36
566.115	9519.88
566.477	9519.65
566.839	9514.68
567.201	9519.65
567.563	9510.61
567.925	9509.93
568.287	9564.62
568.648	9509.48
569.01	9538.18
569.372	9587.9
569.734	9497.05
570.095	9534.57
570.457	9594.23
570.819	9591.29
571.18	9534.57
571.542	9558.52
571.903	9610.04
572.265	9488.47
572.626	9527.33
572.987	9525.3
573.349	9586.99
573.71	9558.29
574.071	9575.92
574.432	9575.92
574.794	9599.42
575.155	9577.5
575.516	9505.87
575.877	9592.87
576.238	9643.94
576.599	9600.1
576.96	9497.96
577.32	9533.21
577.681	9585.19
578.042	9636.94
578.403	9631.06
578.763	9604.62
579.124	9555.13
579.485	9567.33
579.845	9619.54
580.206	9551.97
580.566	9578.63
580.927	9582.47
581.287	9588.12
581.648	9502.02
582.008	9629.7
582.368	9537.28
582.728	9535.7
583.089	9548.12
583.449	9515.36
583.809	9508.35
584.169	9502.25
584.529	9460.9
584.889	9585.41
585.249	9469.71
585.609	9498.18
585.969	9455.92
586.329	9388.13
586.688	9491.85
587.048	9513.1
587.408	9397.39
587.768	9414.12
588.127	9369.37
588.487	9419.54
588.846	9466.54
589.206	9415.92
589.565	9376.83
589.925	9366.43
590.284	9286.89
590.643	9326.66
591.003	9345.19
591.362	9373.67
591.721	9406.21
592.08	9348.36
592.44	9389.94
592.799	9366.43
593.158	9357.17
593.517	9338.41
593.876	9312.2
594.235	9264.74
594.593	9268.13
594.952	9318.07
595.311	9334.8
595.67	9243.73
596.029	9359.43
596.387	9309.26
596.746	9288.02
597.104	9260
597.463	9219.55
597.822	9301.8
598.18	9247.57
598.538	9252.77
598.897	9298.87
599.255	9189.49
599.613	9317.85
599.972	9260.9
600.33	9249.15
600.688	9195.82
601.046	9228.59
601.404	9287.57
601.762	9180.45
602.12	9220.9
602.478	9247.12
602.836	9211.18
603.194	9165.08
603.552	9182.71
603.91	9151.3
604.268	9170.28
604.625	9204.86
604.983	9234.23
605.341	9224.52
605.698	9290.05
606.056	9207.34
606.413	9213.22
606.771	9275.14
607.128	9287.79
607.485	9227.46
607.843	9251.86
608.2	9215.25
608.557	9305.65
608.914	9236.72
609.272	9244.63
609.629	9253.22
609.986	9280.79
610.343	9238.53
610.7	9345.42
611.057	9331.18
611.414	9288.7
611.771	9360.56
612.127	9302.26
612.484	9322.37
612.841	9370.95
613.198	9330.96
613.554	9297.28
613.911	9333.44
614.267	9329.6
614.624	9337.73
614.98	9329.6
615.337	9386.77
615.693	9339.32
616.05	9408.92
616.406	9479.65
616.762	9361.46
617.118	9456.6
617.475	9387
617.831	9451.4
618.187	9408.92
618.543	9379.77
618.899	9467.22
619.255	9454.79
619.611	9464.06
619.967	9452.53
620.323	9397.17
620.678	9434.91
621.034	9481.23
621.39	9450.95
621.746	9374.34
622.101	9449.82
622.457	9477.17
622.812	9444.62
623.168	9434.23
623.523	9433.33
623.879	9453.21
624.234	9405.76
624.589	9482.82
624.945	9460.44
625.3	9489.14
625.655	9476.49
626.01	9424.29
626.365	9439.43
626.72	9372.54
627.075	9476.26
627.43	9440.56
627.785	9371.86
628.14	9431.07
628.495	9391.74
628.85	9450.95
629.205	9355.36
629.559	9410.5
629.914	9356.49
630.269	9346.77
630.623	9331.63
630.978	9309.49
631.332	9318.3
631.687	9358.53
632.041	9306.55
632.396	9361.46
632.75	9248.7
633.104	9274.23
633.459	9220.22
633.813	9212.09
634.167	9273.56
634.521	9260.9
634.875	9227.46
635.229	9222.71
635.583	9234.46
635.937	9193.56
636.291	9184.97
636.645	9119.44
636.999	9127.8
637.352	9150.39
637.706	9097.74
638.06	9143.39
638.413	9154.91
638.767	9064.3
639.121	9123.5
639.474	9049.61
639.828	9071.3
640.181	9017.07
640.534	9023.17
640.888	9056.84
641.241	9011.19
641.594	9087.35
641.947	9041.47
642.301	9010.96
642.654	9090.06
643.007	8998.99
643.36	8981.36
643.713	8981.59
644.066	9063.62
644.419	8910.85
644.771	8900.01
645.124	8854.36
645.477	8779.11
645.83	8809.61
646.182	8754.25
646.535	8704.53
646.888	8724.87
647.24	8626.34
647.593	8697.07
647.945	8669.05
648.298	8628.83
648.65	8613.69
649.002	8597.42
649.355	8688.71
649.707	8661.14
650.059	8714.7
650.411	8877.63
650.763	8869.95
651.115	8895.03
651.467	8827.92
651.819	8843.28
652.171	8928.25
652.523	8855.26
652.875	8794.02
653.227	8838.09
653.578	8901.14
653.93	8851.19
654.282	8778.65
654.633	8758.09
654.985	8815.26
655.337	8801.48
655.688	8822.27
656.039	8869.72
656.391	8808.26
656.742	8810.52
657.094	8810.97
657.445	8781.82
657.796	8840.8
658.147	8855.49
658.498	8807.58
658.849	8810.29
659.2	8852.78
659.551	8837.41
659.902	8940.23
660.253	8814.58
660.604	8856.84
660.955	8870.63
661.306	8904.07
661.656	8834.02
662.007	8920.34
662.358	8823.62
662.708	8886
663.059	8848.93
663.409	8818.88
663.76	8913.57
664.11	8878.99
664.461	8869.95
664.811	8864.53
665.161	8866.11
665.511	8894.36
665.862	8860.23
666.212	8864.07
666.562	8895.94
666.912	8907.46
667.262	8960.8
667.612	8909.05
667.962	8881.02
668.312	8900.68
668.662	8925.99
669.011	8921.93
669.361	8906.33
669.711	8808.94
670.06	8828.82
670.41	8860.01
670.76	8822.95
671.109	8843.51
671.459	8880.8
671.808	8801.93
672.157	8819.33
672.507	8782.5
672.856	8820.91
673.205	8850.06
673.554	8848.48
673.904	8810.97
674.253	8792.44
674.602	8814.13
674.951	8690.52
675.3	8650.3
675.649	8734.59
675.998	8735.26
676.346	8791.08
676.695	8776.62
677.044	8772.55
677.393	8762.38
677.741	8704.53
678.09	8723.74
678.438	8635.38
678.787	8700.24
679.135	8722.61
679.484	8619.79
679.832	8640.58
680.181	8641.03
680.529	8595.61
680.877	8597.87
681.225	8594.25
681.573	8639
681.922	8573.69
682.27	8591.99
682.618	8514.93
682.966	8490.07
683.314	8512.9
683.661	8454.59
684.009	8479.68
684.357	8421.15
684.705	8382.96
685.053	8415.05
685.4	8374.82
685.748	8359.23
686.095	8364.65
686.443	8289.4
686.79	8253.7
687.138	8248.27
687.485	8242.17
687.832	8257.76
688.18	8311.1
688.527	8242.85
688.874	8188.61
689.221	8134.15
689.568	8176.86
689.915	8153.13
690.262	8209.4
690.609	8103.42
690.956	8079.01
691.303	8071.55
691.65	8011.67
691.997	7914.04
692.344	7909.75
692.69	7892.8
693.037	7962.18
693.383	7830.2
693.73	7905.68
694.077	7841.28
694.423	7820.26
694.769	7818
695.116	7815.74
695.462	7718.34
695.808	7677.21
696.155	7717.66
696.501	7647.38
696.847	7713.6
697.193	7567.84
697.539	7643.99
697.885	7548.63
698.231	7556.76
698.577	7530.32
698.923	7553.37
699.269	7506.37
699.614	7391.12
699.96	7318.8
700.306	7366.26
700.651	7311.35
700.997	7308.86
701.342	7277.9
701.688	7264.79
702.033	7207.62
702.379	7241.07
702.724	7201.52
703.069	7192.03
703.415	7098.47
703.76	7114.06
704.105	7119.49
704.45	7080.39
704.795	7062.77
705.14	7009.43
705.485	7005.14
705.83	6967.85
706.175	6951.58
706.52	6954.75
706.865	6908.65
707.209	6892.6
707.554	6889.44
707.899	6893.96
708.243	6838.14
708.588	6775.54
708.932	6797.46
709.277	6797.24
709.621	6824.81
709.966	6738.26
710.31	6751.59
710.654	6671.82
710.998	6709.33
711.342	6648.77
711.687	6671.82
712.031	6597.47
712.375	6622.1
712.719	6627.07
713.063	6641.99
713.407	6639.5
713.75	6583.91
714.094	6576.9
714.438	6531.48
714.782	6505.04
715.125	6568.32
715.469	6500.52
715.812	6519.05
716.156	6489
716.499	6436.34
716.843	6509.11
717.186	6413.97
717.53	6472.27
717.873	6444.25
718.216	6412.39
718.559	6440.18
718.902	6341.88
719.246	6417.13
719.589	6340.98
719.932	6324.03
720.275	6380.98
720.617	6318.83
720.96	6338.27
721.303	6388.43
721.646	6329
721.989	6347.53
722.331	6309.79
722.674	6326.74
723.016	6334.2
723.359	6296.01
723.701	6277.7
724.044	6309.11
724.386	6311.83
724.729	6268.89
725.071	6315.22
725.413	6298.04
725.755	6280.41
726.097	6257.14
726.439	6217.59
726.782	6246.06
727.124	6279.06
727.465	6200.42
727.807	6201.55
728.149	6181.21
728.491	6200.42
728.833	6214.88
729.175	6249.23
729.516	6212.17
729.858	6153.19
730.199	6192.96
730.541	6224.82
730.882	6257.82
731.224	6256.91
731.565	6168.78
731.906	6194.31
732.248	6228.44
732.589	6160.19
732.93	6200.42
733.271	6192.73
733.612	6233.41
733.953	6215.56
734.294	6227.76
734.635	6174.65
734.976	6194.77
735.317	6182.79
735.658	6224.82
735.999	6203.35
736.339	6233.41
736.68	6229.34
737.021	6244.03
737.361	6205.84
737.702	6263.69
738.042	6226.4
738.383	6166.07
738.723	6244.71
739.063	6222.34
739.404	6247.42
739.744	6267.98
740.084	6240.42
740.424	6306.63
740.764	6271.15
741.104	6322.67
741.444	6274.99
741.784	6314.31
742.124	6342.56
742.464	6340.3
742.804	6355.44
743.143	6366.51
743.483	6368.77
743.823	6364.71
744.162	6385.95
744.502	6498.94
744.841	6445.16
745.181	6559.95
745.52	6544.59
745.86	6553.63
746.199	6552.72
746.538	6614.19
746.877	6622.78
747.216	6672.27
747.556	6728.99
747.895	6771.93
748.234	6783.23
748.573	6903.45
748.911	6918.36
749.25	6913.62
749.589	6989.32
749.928	7066.83
750.267	7189.09
750.605	7197.23
750.944	7240.16
751.283	7318.13
751.621	7359.93
751.96	7457.56
752.298	7545.69
752.636	7620.27
752.975	7745.46
753.313	7838.57
753.651	7975.06
753.989	8022.52
754.327	8095.73
754.666	8194.94
755.004	8362.85
755.342	8499.79
755.679	8652.78
756.017	8633.12
756.355	8855.94
756.693	8920.8
757.031	9150.17
757.368	9240.79
757.706	9374.57
758.044	9506.77
758.381	9690.95
758.719	9790.38
759.056	10005.29
759.394	10152.63
759.731	10190.37
760.068	10397.14
760.405	10544.93
760.743	10784.02
761.08	10906.96
761.417	11013.17
761.754	11246.84
762.091	11407.51
762.428	11541.07
762.765	11676.2
763.102	11897.22
763.438	12090.66
763.775	12221.27
764.112	12465.79
764.449	12602.28
764.785	12732.67
765.122	12889.73
765.458	13017.64
765.795	13251.76
