Data from hue_120_FLMS001491_00007.txt Node
Date: Tue Feb 07 16:58:51 GMT 2017
User: dcchb
Spectrometer: FLMS00149
Trigger mode: 0
Integration Time (sec): 2.000000E-2
Scans to average: 10
Electric dark correction enabled: true
Nonlinearity correction enabled: false
Boxcar width: 0
XAxis mode: Wavelengths
Number of Pixels in Spectrum: 2048
>>>>>Begin Spectral Data<<<<<
341.393	-9.8
341.776	-9.8
342.16	-9.8
342.543	-61.55
342.927	-84.6
343.31	-78.05
343.693	-76.92
344.077	-76.47
344.46	-65.85
344.843	-30.37
345.226	-51.16
345.61	-24.26
345.993	-22.01
346.376	7.6
346.759	5.79
347.142	25.45
347.525	20.25
347.908	60.48
348.291	87.37
348.674	108.16
349.057	109.97
349.44	132.79
349.823	148.16
350.206	186.8
350.588	205.33
350.971	222.96
351.354	248.95
351.737	239.46
352.119	254.82
352.502	270.19
352.884	263.41
353.267	290.53
353.65	323.07
354.032	306.35
354.414	303.41
354.797	310.42
355.179	330.53
355.562	340.7
355.944	338.44
356.326	346.57
356.709	359.68
357.091	354.03
357.473	341.38
357.855	352.22
358.238	324.65
358.62	341.6
359.002	322.84
359.384	353.13
359.766	353.13
360.148	332.79
360.53	358.1
360.912	333.01
361.294	329.4
361.676	324.88
362.057	342.96
362.439	352
362.821	340.02
363.203	335.73
363.584	333.24
363.966	347.25
364.348	336.18
364.729	348.61
365.111	344.76
365.493	331.88
365.874	328.27
366.256	329.17
366.637	309.51
367.019	332.79
367.4	321.71
367.781	306.8
368.163	315.61
368.544	334.37
368.925	304.09
369.306	306.57
369.688	336.86
370.069	343.64
370.45	314.03
370.831	323.97
371.212	327.36
371.593	322.62
371.974	342.28
372.355	305.44
372.736	327.59
373.117	328.49
373.498	305.67
373.879	332.79
374.26	332.56
374.641	328.72
375.021	326.01
375.402	342.51
375.783	308.83
376.163	314.48
376.544	349.74
376.925	342.05
377.305	342.51
377.686	325.33
378.066	326.91
378.447	346.8
378.827	349.06
379.208	331.88
379.588	361.04
379.968	344.76
380.349	354.48
380.729	324.2
381.109	353.8
381.489	363.52
381.87	357.65
382.25	338.21
382.63	359.23
383.01	341.6
383.39	370.98
383.77	374.14
384.15	365.56
384.53	363.52
384.91	351.54
385.29	344.54
385.67	341.15
386.049	390.87
386.429	367.59
386.809	348.61
387.189	354.48
387.568	371.43
387.948	388.38
388.328	374.82
388.707	353.35
389.087	385.22
389.466	371.43
389.846	385.89
390.225	386.35
390.605	373.01
390.984	377.08
391.363	376.63
391.743	392
392.122	384.99
392.501	375.5
392.881	387.93
393.26	373.69
393.639	405.1
394.018	372.56
394.397	394.93
394.776	381.37
395.155	403.29
395.534	404.2
395.913	397.87
396.292	422.95
396.671	424.76
397.05	420.24
397.429	400.36
397.808	388.38
398.186	409.4
398.565	410.53
398.944	407.81
399.323	400.58
399.701	414.59
400.08	408.49
400.458	438.1
400.837	420.02
401.215	417.98
401.594	404.42
401.972	432.22
402.351	404.88
402.729	410.3
403.107	450.3
403.486	428.83
403.864	415.5
404.242	445.33
404.62	440.36
404.999	439.45
405.377	469.28
405.755	442.84
406.133	420.47
406.511	463.18
406.889	450.75
407.267	462.73
407.645	453.46
408.023	456.4
408.401	460.69
408.779	448.72
409.156	464.54
409.534	474.48
409.912	464.31
410.29	479
410.667	488.04
411.045	474.93
411.422	505.21
411.8	477.64
412.178	489.17
412.555	493.91
412.933	496.4
413.31	500.24
413.687	483.97
414.065	504.53
414.442	511.99
414.819	525.33
415.197	507.7
415.574	502.73
415.951	528.04
416.328	515.83
416.705	531.65
417.082	539.34
417.46	554.93
417.837	553.8
418.214	555.15
418.591	542.27
418.967	547.7
419.344	566.45
419.721	552.67
420.098	543.63
420.475	569.17
420.852	570.75
421.228	568.26
421.605	563.74
421.982	586.11
422.358	587.47
422.735	569.84
423.111	583.18
423.488	573.46
423.864	604.87
424.241	600.58
424.617	599.67
424.994	594.25
425.37	590.18
425.746	610.75
426.123	629.96
426.499	655.27
426.875	620.46
427.251	614.36
427.627	656.62
428.003	630.41
428.379	647.58
428.756	645.32
429.132	643.51
429.507	646.9
429.883	637.19
430.259	688.26
430.635	697.52
431.011	697.98
431.387	683.06
431.763	703.63
432.138	704.3
432.514	716.05
432.89	709.5
433.265	722.38
433.641	735.26
434.016	738.2
434.392	761.48
434.767	763.29
435.143	729.16
435.518	770.74
435.894	762.83
436.269	771.42
436.644	757.64
437.02	770.06
437.395	788.14
437.77	807.8
438.145	793.57
438.52	822.49
438.895	815.71
439.271	826.79
439.646	820.01
440.021	835.37
440.395	828.82
440.77	842.83
441.145	837.86
441.52	886.67
441.895	859.78
442.27	875.15
442.645	861.14
443.019	879.44
443.394	870.85
443.769	873.79
444.143	888.93
444.518	868.37
444.892	890.29
445.267	914.69
445.641	921.02
446.016	916.5
446.39	911.08
446.764	930.06
447.139	918.54
447.513	940.68
447.887	942.04
448.262	937.52
448.636	976.84
449.01	957.4
449.384	972.77
449.758	983.39
450.132	989.04
450.506	990.4
450.88	1007.12
451.254	992.21
451.628	1008.48
452.002	1039.44
452.376	1011.87
452.75	1034.24
453.123	1017.97
453.497	1088.25
453.871	1055.03
454.244	1079.21
454.618	1098.64
454.992	1132.99
455.365	1122.37
455.739	1140.9
456.112	1135.03
456.486	1161.01
456.859	1166.89
457.232	1193.1
457.606	1177.74
457.979	1181.13
458.352	1237.4
458.725	1241.46
459.099	1214.57
459.472	1279.43
459.845	1247.79
460.218	1283.72
460.591	1295.47
460.964	1320.56
461.337	1338.86
461.71	1351.29
462.083	1396.94
462.456	1399.88
462.829	1405.98
463.201	1413.44
463.574	1417.96
463.947	1449.59
464.32	1502.47
464.692	1470.84
465.065	1492.98
465.438	1511.06
465.81	1530.27
466.183	1558.52
466.555	1614.34
466.928	1589.48
467.3	1635.58
467.672	1642.36
468.045	1690.27
468.417	1715.58
468.789	1704.96
469.161	1735.91
469.534	1808.23
469.906	1836.93
470.278	1903.59
470.65	1875.12
471.022	1965.97
471.394	1961.22
471.766	2013.87
472.138	2015.46
472.51	2078.96
472.882	2118.28
473.253	2211.83
473.625	2193.76
473.997	2241.44
474.369	2277.82
474.74	2330.93
475.112	2418.83
475.484	2464.26
475.855	2497.02
476.227	2543.58
476.598	2667.87
476.97	2710.13
477.341	2760.52
477.713	2863.57
478.084	2881.2
478.455	2995.54
478.827	3071.47
479.198	3172.49
479.569	3176.55
479.94	3332.26
480.311	3381.3
480.682	3507.85
481.053	3618.35
481.424	3731.12
481.795	3811.34
482.166	3892.02
482.537	4029.64
482.908	4113.93
483.279	4235.51
483.65	4329.07
484.021	4453.81
484.391	4586.46
484.762	4627.82
485.133	4793.24
485.503	4872.1
485.874	5063.74
486.244	5157.97
486.615	5305.09
486.985	5453.33
487.356	5610.84
487.726	5734.23
488.097	5898.07
488.467	6008.34
488.837	6190.03
489.207	6313.87
489.578	6480.65
489.948	6648.55
490.318	6780.98
490.688	6846.97
491.058	7036.79
491.428	7205.15
491.798	7368.08
492.168	7622.77
492.538	7680.84
492.908	7861.4
493.278	8019.59
493.648	8116.31
494.017	8283.77
494.387	8420.48
494.757	8548.39
495.126	8693.92
495.496	8785.67
495.866	8889.85
496.235	9144.99
496.605	9296.17
496.974	9400.57
497.344	9536.39
497.713	9656.16
498.082	9784.29
498.452	9917.62
498.821	10041.01
499.19	10100.44
499.559	10331.62
499.928	10383.37
500.298	10516.02
500.667	10656.58
501.036	10736.13
501.405	10895.45
501.774	10924.6
502.143	11127.08
502.512	11163.01
502.88	11224.03
503.249	11376.57
503.618	11457.69
503.987	11559.61
504.356	11610.46
504.724	11786.05
505.093	11776.33
505.462	11922.77
505.83	12056.32
506.199	12114.4
506.567	12341.06
506.936	12265.58
507.304	12525.46
507.672	12532.02
508.041	12648.4
508.409	12765.91
508.777	12762.52
509.145	12887.94
509.514	12907.82
509.882	13100.59
510.25	13113.24
510.618	13245.22
510.986	13193.01
511.354	13337.42
511.722	13372.22
512.09	13577.64
512.458	13472.33
512.826	13598.88
513.193	13593.46
513.561	13678.2
513.929	13791.64
514.297	13823.28
514.664	13856.5
515.032	13967.46
515.4	13937.85
515.767	14048.59
516.135	14071.86
516.502	14085.42
516.869	14263.5
517.237	14243.61
517.604	14161.8
517.972	14291.52
518.339	14316.6
518.706	14355.47
519.073	14374.45
519.44	14469.59
519.808	14591.62
520.175	14505.3
520.542	14645.63
520.909	14621.68
521.276	14680.66
521.643	14773.99
522.009	14825.06
522.376	14832.29
522.743	14842.69
523.11	14967.21
523.477	15014.89
523.843	15042.68
524.21	15143.02
524.577	15116.58
524.943	15088.11
525.31	15245.62
525.676	15276.35
526.043	15299.4
526.409	15337.14
526.776	15392.28
527.142	15347.99
527.508	15450.13
527.874	15426.18
528.241	15423.01
528.607	15442.45
528.973	15462.79
529.339	15472.95
529.705	15505.95
530.071	15586.4
530.437	15569.45
530.803	15568.77
531.169	15533.74
531.535	15471.15
531.901	15571.26
532.267	15565.16
532.632	15528.09
532.998	15530.58
533.364	15500.98
533.73	15557.25
534.095	15562.67
534.461	15482.22
534.826	15488.1
535.192	15535.55
535.557	15599.05
535.923	15414.2
536.288	15414.2
536.653	15478.38
537.019	15339.62
537.384	15319.96
537.749	15377.82
538.114	15232.28
538.479	15220.08
538.845	15325.16
539.21	15153.19
539.575	15206.07
539.94	15227.31
540.305	15225.5
540.67	15065.73
541.034	15140.31
541.399	15139.4
541.764	15068.67
542.129	15036.36
542.494	14998.62
542.858	14997.04
543.223	14867.77
543.587	14910.03
543.952	14808.79
544.316	14747.78
544.681	14725.4
545.045	14726.76
545.41	14766.31
545.774	14725.18
546.138	14599.53
546.503	14592.07
546.867	14548.91
547.231	14569.93
547.595	14489.03
547.959	14542.13
548.324	14452.87
548.688	14409.25
549.052	14328.8
549.416	14340.56
549.779	14227.11
550.143	14196.15
550.507	14222.59
550.871	14161.58
551.235	14135.14
551.599	14150.5
551.962	14139.43
552.326	14062.6
552.689	14089.26
553.053	13966.78
553.417	13977.85
553.78	14047.68
554.143	13963.16
554.507	13926.1
554.87	13910.06
555.234	14034.57
555.597	13821.92
555.96	13818.31
556.323	13935.82
556.686	13882.71
557.05	13813.34
557.413	13827.12
557.776	13844.52
558.139	13878.65
558.502	13878.42
558.865	13708.03
559.228	13854.01
559.59	13738.99
559.953	13726.56
560.316	13743.51
560.679	13770.17
561.041	13777.63
561.404	13770.17
561.767	13866.22
562.129	13859.89
562.492	13867.8
562.854	13852.88
563.217	13802.04
563.579	13790.51
563.941	13848.59
564.304	13912.54
564.666	13909.38
565.028	13909.15
565.39	13927.46
565.753	13964.07
566.115	13957.29
566.477	13935.59
566.839	13949.38
567.201	13972.2
567.563	13974.46
567.925	14018.53
568.287	14049.49
568.648	14001.36
569.01	14018.53
569.372	14124.74
569.734	13968.14
570.095	14008.13
570.457	14154.57
570.819	14069.38
571.18	14040.22
571.542	14184.85
571.903	14088.36
572.265	14134.01
572.626	14167.68
572.987	14180.33
573.349	14193.89
573.71	14217.85
574.071	14217.62
574.432	14250.84
574.794	14224.4
575.155	14239.99
575.516	14249.03
575.877	14283.83
576.238	14222.82
576.599	14303.95
576.96	14244.96
577.32	14268.69
577.681	14264.62
578.042	14291.52
578.403	14311.86
578.763	14268.47
579.124	14337.17
579.485	14321.8
579.845	14424.85
580.206	14350.5
580.566	14317.28
580.927	14331.97
581.287	14355.47
581.648	14251.74
582.008	14401.57
582.368	14235.02
582.728	14276.83
583.089	14337.84
583.449	14306.88
583.809	14294.91
584.169	14221.91
584.529	14273.66
584.889	14290.61
585.249	14266.88
585.609	14121.13
585.969	14232.76
586.329	14239.31
586.688	14273.21
587.048	14211.97
587.408	14237.28
587.768	14145.53
588.127	14123.61
588.487	14203.84
588.846	14227.11
589.206	14121.13
589.565	14066.89
589.925	14138.3
590.284	14008.81
590.643	14154.35
591.003	14206.1
591.362	14130.62
591.721	14098.53
592.08	14062.14
592.44	14135.36
592.799	14145.31
593.158	14086.55
593.517	14087.91
593.876	14064.63
594.235	14052.88
594.593	14036.83
594.952	14099.88
595.311	14001.58
595.67	14090.17
596.029	14072.99
596.387	14051.98
596.746	14097.4
597.104	13976.72
597.463	13919.1
597.822	14045.87
598.18	13968.14
598.538	14016.95
598.897	14079.55
599.255	13969.94
599.613	14043.61
599.972	13991.64
600.33	13996.16
600.688	13937.85
601.046	14005.87
601.404	14058.75
601.762	14042.71
602.12	14007
602.478	14006.78
602.836	14017.63
603.194	14008.81
603.552	14077.29
603.91	13943.73
604.268	14016.95
604.625	13996.84
604.983	14008.13
605.341	13955.25
605.698	14017.63
606.056	13994.58
606.413	14022.82
606.771	14049.94
607.128	14108.92
607.485	13935.37
607.843	13983.95
608.2	14066.89
608.557	14129.71
608.914	14105.08
609.272	14048.13
609.629	14165.42
609.986	14171.07
610.343	14062.82
610.7	14167.9
611.057	14154.57
611.414	14050.17
611.771	14136.27
612.127	14144.18
612.484	14105.76
612.841	14172.88
613.198	14221.69
613.554	14186.66
613.911	14333.55
614.267	14228.02
614.624	14166.1
614.98	14241.8
615.337	14305.3
615.693	14329.48
616.05	14217.85
616.406	14314.12
616.762	14318.18
617.118	14292.65
617.475	14272.99
617.831	14266.21
618.187	14319.76
618.543	14315.7
618.899	14498.29
619.255	14447.9
619.611	14356.6
619.967	14447.44
620.323	14437.5
620.678	14456.03
621.034	14327.45
621.39	14301.46
621.746	14436.37
622.101	14471.4
622.457	14407.9
622.812	14395.92
623.168	14477.73
623.523	14449.93
623.879	14420.78
624.234	14359.54
624.589	14362.48
624.945	14411.51
625.3	14385.98
625.655	14391.4
626.01	14339.88
626.365	14421
626.72	14369.93
627.075	14412.42
627.43	14365.41
627.785	14434.56
628.14	14432.53
628.495	14411.74
628.85	14399.31
629.205	14315.92
629.559	14439.54
629.914	14384.4
630.269	14364.51
630.623	14334.23
630.978	14255.36
631.332	14406.77
631.687	14291.97
632.041	14314.34
632.396	14371.29
632.75	14245.19
633.104	14360.89
633.459	14178.53
633.813	14197.28
634.167	14172.88
634.521	14181.01
634.875	14184.18
635.229	14160.45
635.583	14110.28
635.937	14157.06
636.291	14100.56
636.645	14036.16
636.999	14044.29
637.352	14088.81
637.706	13948.48
638.06	14052.2
638.413	13984.63
638.767	13950.51
639.121	14030.96
639.474	13967.68
639.828	13928.81
640.181	13870.96
640.534	13909.83
640.888	13830.51
641.241	13829.83
641.594	13886.56
641.947	13878.87
642.301	13849.27
642.654	13791.19
643.007	13899.89
643.36	13812.21
643.713	13810.17
644.066	13828.03
644.419	13809.27
644.771	13710.97
645.124	13537.19
645.477	13543.06
645.83	13431.2
646.182	13385.55
646.535	13402.73
646.888	13433.69
647.24	13273.92
647.593	13419.22
647.945	13364.99
648.298	13298.55
648.65	13328.15
649.002	13250.19
649.355	13348.94
649.707	13306.68
650.059	13342.84
650.411	13493.35
650.763	13602.95
651.115	13636.62
651.467	13651.53
651.819	13539.9
652.171	13623.29
652.523	13626
652.875	13581.25
653.227	13548.49
653.578	13614.02
653.93	13664.41
654.282	13613.34
654.633	13551.42
654.985	13543.51
655.337	13599.78
655.688	13664.64
656.039	13697.86
656.391	13561.82
656.742	13607.24
657.094	13626.45
657.445	13700.57
657.796	13556.17
658.147	13679.33
658.498	13547.81
658.849	13640.23
659.2	13699.89
659.551	13693.34
659.902	13633.68
660.253	13569.95
660.604	13626.45
660.955	13644.08
661.306	13728.59
661.656	13689.05
662.007	13690.63
662.358	13679.33
662.708	13690.63
663.059	13667.8
663.409	13584.42
663.76	13649.05
664.11	13671.87
664.461	13614.92
664.811	13726.56
665.161	13668.26
665.511	13595.94
665.862	13646.56
666.212	13683.17
666.562	13724.3
666.912	13651.31
667.262	13689.05
667.612	13695.6
667.962	13743.96
668.312	13642.95
668.662	13788.93
669.011	13698.09
669.361	13688.82
669.711	13671.87
670.06	13539.45
670.41	13643.62
670.76	13536.51
671.109	13609.95
671.459	13593.68
671.808	13597.3
672.157	13709.61
672.507	13555.49
672.856	13513.68
673.205	13588.71
673.554	13569.28
673.904	13519.11
674.253	13635.26
674.602	13549.16
674.951	13411.54
675.3	13301.03
675.649	13551.2
675.998	13425.55
676.346	13434.82
676.695	13605.66
677.044	13340.36
677.393	13424.65
677.741	13467.58
678.09	13366.8
678.438	13386.46
678.787	13454.02
679.135	13409.05
679.484	13326.34
679.832	13375.16
680.181	13237.31
680.529	13425.1
680.877	13301.49
681.225	13220.58
681.573	13354.14
681.922	13134.94
682.27	13208.38
682.618	13183.75
682.966	13160.47
683.314	13166.8
683.661	13097.42
684.009	12989.86
684.357	13027.14
684.705	13040.25
685.053	13030.76
685.4	12996.86
685.748	12976.98
686.095	12894.72
686.443	12839.35
686.79	12760.94
687.138	12804.55
687.485	12784.44
687.832	12704.21
688.18	12815.62
688.527	12646.36
688.874	12689.3
689.221	12630.54
689.568	12543.09
689.915	12607.95
690.262	12583.54
690.609	12509.64
690.956	12442.53
691.303	12358.01
691.65	12348.74
691.997	12342.19
692.344	12266.03
692.69	12228.07
693.037	12293.83
693.383	12104.91
693.73	12220.61
694.077	12053.16
694.423	12066.94
694.769	11990.33
695.116	12016.1
695.462	11927.06
695.808	11904.01
696.155	11923.44
696.501	11808.87
696.847	11835.31
697.193	11683.45
697.539	11784.46
697.885	11661.08
698.231	11570.68
698.577	11647.52
698.923	11596.9
699.269	11519.16
699.614	11507.86
699.96	11418.15
700.306	11422.89
700.651	11420.63
700.997	11364.81
701.342	11328.66
701.688	11286.62
702.033	11304.93
702.379	11270.35
702.724	11130.47
703.069	11185.38
703.415	10991.72
703.76	11072.62
704.105	10939.06
704.45	10973.64
704.795	10983.13
705.14	10915.79
705.485	10812.06
705.83	10782.68
706.175	10829.46
706.52	10778.39
706.865	10699.29
707.209	10728.67
707.554	10702.68
707.899	10724.61
708.243	10640.99
708.588	10588.56
708.932	10491.16
709.277	10509.24
709.621	10472.63
709.966	10473.31
710.31	10484.39
710.654	10416.59
710.998	10393.09
711.342	10368
711.687	10321
712.031	10280.32
712.375	10252.3
712.719	10232.19
713.063	10285.07
713.407	10238.97
713.75	10200.78
714.094	10175.24
714.438	10178.86
714.782	10217.95
715.125	10124.17
715.469	10149.7
715.812	10057.5
716.156	10110.16
716.499	10109.25
716.843	10016.6
717.186	9974.12
717.53	10083.94
717.873	9980.22
718.216	10054.79
718.559	9973.66
718.902	9898.64
719.246	9897.73
719.589	9949.71
719.932	9843.72
720.275	9787.45
720.617	9837.17
720.96	9756.27
721.303	9892.76
721.646	9844.63
721.989	9768.7
722.331	9810.73
722.674	9779.09
723.016	9743.16
723.359	9718.98
723.701	9815.25
724.044	9661.81
724.386	9645.99
724.729	9760.56
725.071	9723.95
725.413	9664.52
725.755	9681.24
726.097	9650.73
726.439	9601.7
726.782	9551.08
727.124	9677.85
727.465	9676.27
727.807	9536.39
728.149	9638.98
728.491	9537.07
728.833	9574.35
729.175	9568.25
729.516	9540.23
729.858	9522.6
730.199	9617.74
730.541	9620.23
730.882	9550.85
731.224	9587.01
731.565	9573.45
731.906	9566.9
732.248	9578.87
732.589	9543.85
732.93	9505.65
733.271	9567.35
733.612	9553.56
733.953	9677.4
734.294	9531.87
734.635	9564.86
734.976	9536.84
735.317	9565.54
735.658	9485.77
735.999	9501.13
736.339	9544.52
736.68	9544.75
737.021	9524.18
737.361	9490.06
737.702	9612.54
738.042	9590.62
738.383	9576.84
738.723	9600.57
739.063	9531.64
739.404	9655.48
739.744	9684.63
740.084	9597.18
740.424	9622.04
740.764	9611.64
741.104	9705.65
741.444	9682.37
741.784	9718.76
742.124	9692.77
742.464	9685.54
742.804	9703.39
743.143	9767.79
743.483	9756.49
743.823	9734.12
744.162	9805.08
744.502	9861.35
744.841	9844.4
745.181	9982.48
745.52	9964.4
745.86	9996.04
746.199	10015.25
746.538	10031.97
746.877	10131.17
747.216	10114.9
747.556	10242.36
747.895	10257.72
748.234	10302.24
748.573	10330.94
748.911	10457.27
749.25	10386.53
749.589	10506.53
749.928	10544.72
750.267	10614.78
750.605	10723.7
750.944	10815.45
751.283	10893.64
751.621	10911.94
751.96	11013.41
752.298	11139.06
752.636	11278.49
752.975	11302.22
753.313	11395.1
753.651	11593.06
753.989	11638.71
754.327	11778.59
754.666	11903.11
755.004	11992.14
755.342	12195.3
755.679	12325.24
756.017	12551
756.355	12700.37
756.693	12749.18
757.031	12950.76
757.368	13011.32
757.706	13239.79
