Data from hue_20_FLMS001491_79.txt Node
Date: Mon Feb 06 15:34:38 GMT 2017
User: dcchb
Spectrometer: FLMS00149
Trigger mode: 0
Integration Time (sec): 2.000000E-2
Scans to average: 10
Electric dark correction enabled: true
Nonlinearity correction enabled: false
Boxcar width: 0
XAxis mode: Wavelengths
Number of Pixels in Spectrum: 2048
>>>>>Begin Spectral Data<<<<<
341.393	-8.46
341.776	-8.46
342.16	-8.46
342.543	-63.15
342.927	-77.16
343.31	-78.51
343.693	-65.18
344.077	-60.44
344.46	-58.18
344.843	-68.12
345.226	-34
345.61	-31.96
345.993	-32.64
346.376	-14.34
346.759	10.97
347.142	24.76
347.525	56.62
347.908	66.11
348.291	77.41
348.674	96.4
349.057	111.08
349.44	139.56
349.823	154.02
350.206	166.45
350.588	206.68
350.971	201.48
351.354	231.76
351.737	229.5
352.119	253.23
352.502	263.85
352.884	282.83
353.267	279.89
353.65	274.47
354.032	299.1
354.414	309.72
354.797	310.18
355.179	337.97
355.562	328.03
355.944	308.59
356.326	334.81
356.709	336.84
357.091	339.33
357.473	340.46
357.855	344.52
358.238	338.65
358.62	347.24
359.002	348.14
359.384	349.27
359.766	330.97
360.148	315.6
360.53	325.99
360.912	340.68
361.294	325.77
361.676	344.3
362.057	325.09
362.439	323.96
362.821	332.1
363.203	333.45
363.584	332.1
363.966	307.46
364.348	335.94
364.729	336.62
365.111	314.7
365.493	330.74
365.874	297.97
366.256	323.51
366.637	304.3
367.019	311.31
367.4	319.89
367.781	310.18
368.163	348.82
368.544	289.16
368.925	334.58
369.306	325.09
369.688	317.86
370.069	314.7
370.45	315.15
370.831	315.83
371.212	333.9
371.593	309.72
371.974	321.7
372.355	308.37
372.736	322.83
373.117	314.47
373.498	320.8
373.879	325.99
374.26	310.18
374.641	320.57
375.021	339.1
375.402	305.66
375.783	324.41
376.163	322.6
376.544	314.47
376.925	322.15
377.305	314.92
377.686	325.99
378.066	317.41
378.447	344.75
378.827	345.65
379.208	317.86
379.588	345.43
379.968	317.18
380.349	328.93
380.729	340.46
381.109	344.75
381.489	339.78
381.87	346.78
382.25	341.59
382.63	349.04
383.01	354.47
383.39	346.11
383.77	358.31
384.15	349.95
384.53	368.93
384.91	356.28
385.29	351.53
385.67	353.34
386.049	370.74
386.429	345.43
386.809	346.11
387.189	331.87
387.568	363.73
387.948	362.6
388.328	372.32
388.707	368.03
389.087	383.17
389.466	366.9
389.846	402.15
390.225	369.61
390.605	354.69
390.984	379.78
391.363	390.4
391.743	378.2
392.122	390.63
392.501	352.43
392.881	411.87
393.26	377.07
393.639	357.63
394.018	389.27
394.397	394.47
394.776	388.37
395.155	403.05
395.534	380.46
395.913	393.79
396.292	390.17
396.671	386.56
397.05	378.87
397.429	401.02
397.808	400.34
398.186	412.77
398.565	398.08
398.944	399.44
399.323	400.57
399.701	404.86
400.08	422.49
400.458	424.3
400.837	410.29
401.215	408.25
401.594	422.04
401.972	426.33
402.351	433.79
402.729	424.97
403.107	408.48
403.486	427.23
403.864	406.67
404.242	433.34
404.62	434.01
404.999	447.57
405.377	404.86
405.755	437.4
406.133	440.34
406.511	450.96
406.889	456.16
407.267	448.7
407.645	443.28
408.023	454.58
408.401	447.8
408.779	480.57
409.156	456.39
409.534	455.26
409.912	450.51
410.29	473.79
410.667	484.18
411.045	500
411.422	481.92
411.8	488.25
412.178	488.25
412.555	467.69
412.933	498.42
413.31	502.26
413.687	498.42
414.065	501.81
414.442	515.14
414.819	501.13
415.197	524.86
415.574	523.5
415.951	514.24
416.328	518.98
416.705	521.47
417.082	513.56
417.46	561.24
417.837	537.06
418.214	539.77
418.591	526.21
418.967	536.84
419.344	542.03
419.721	559.43
420.098	548.59
420.475	562.15
420.852	552.88
421.228	552.43
421.605	549.49
421.982	553.11
422.358	565.08
422.735	565.54
423.111	568.02
423.488	588.36
423.864	593.11
424.241	589.26
424.617	578.42
424.994	583.16
425.37	588.59
425.746	596.72
426.123	587.68
426.499	589.72
426.875	600.79
427.251	608.92
427.627	624.07
428.003	635.14
428.379	641.69
428.756	648.25
429.132	653.67
429.507	664.97
429.883	659.77
430.259	659.09
430.635	663.39
431.011	652.31
431.387	698.19
431.763	668.58
432.138	671.52
432.514	690.5
432.89	678.3
433.265	695.02
433.641	708.81
434.016	697.51
434.392	709.94
434.767	712.88
435.143	729.83
435.518	733.89
435.894	729.37
436.269	743.84
436.644	754.46
437.02	753.1
437.395	755.14
437.77	768.92
438.145	766.21
438.52	779.54
438.895	779.77
439.271	787.45
439.646	791.97
440.021	801.46
440.395	786.55
440.77	787.68
441.145	806.43
441.52	842.36
441.895	813.67
442.27	815.47
442.645	831.07
443.019	831.97
443.394	841.69
443.769	860.44
444.143	852.53
444.518	876.26
444.892	843.95
445.267	850.27
445.641	856.83
446.016	886.21
446.39	869.93
446.764	878.97
447.139	892.98
447.513	875.36
447.887	907.22
448.262	894.79
448.636	889.37
449.01	901.35
449.384	910.61
449.758	937.96
450.132	937.5
450.506	934.57
450.88	941.35
451.254	918.07
451.628	943.15
452.002	983.38
452.376	956.94
452.75	985.86
453.123	975.92
453.497	996.49
453.871	1000.55
454.244	1010.27
454.618	1026.54
454.992	1036.26
455.365	1029.93
455.739	1027.67
456.112	1077.61
456.486	1076.03
456.859	1081.45
457.232	1114.45
457.606	1093.66
457.979	1093.88
458.352	1085.97
458.725	1100.89
459.099	1157.16
459.472	1179.08
459.845	1167.78
460.218	1172.75
460.591	1191.28
460.964	1164.84
461.337	1211.39
461.71	1226.76
462.083	1247.1
462.456	1234.22
462.829	1258.85
463.201	1264.5
463.574	1255.69
463.947	1295.46
464.32	1324.39
464.692	1348.57
465.065	1337.27
465.438	1379.98
465.81	1346.31
466.183	1405.74
466.555	1413.2
466.928	1390.15
467.3	1428.11
467.672	1449.35
468.045	1456.59
468.417	1475.34
468.789	1481.9
469.161	1506.53
469.534	1534.1
469.906	1555.34
470.278	1563.7
470.65	1594.21
471.022	1589.92
471.394	1642.12
471.766	1630.82
472.138	1696.58
472.51	1679.18
472.882	1733.41
473.253	1763.24
473.625	1786.52
473.997	1816.35
474.369	1826.52
474.74	1839.17
475.112	1889.12
475.484	1919.62
475.855	1942
476.227	1985.84
476.598	2010.02
476.97	2043.69
477.341	2071.49
477.713	2083.46
478.084	2125.27
478.455	2170.47
478.827	2208.66
479.198	2244.14
479.569	2255.89
479.94	2335.66
480.311	2385.83
480.682	2422.44
481.053	2495.65
481.424	2541.08
481.795	2544.69
482.166	2594.86
482.537	2632.6
482.908	2667.63
483.279	2737.46
483.65	2777.23
484.021	2843.89
484.391	2886.15
484.762	2937.23
485.133	2917.34
485.503	2986.26
485.874	3044.57
486.244	3089.31
486.615	3159.59
486.985	3169.99
487.356	3272.58
487.726	3341.28
488.097	3341.73
488.467	3373.15
488.837	3449.53
489.207	3491.79
489.578	3562.07
489.948	3640.71
490.318	3650.2
490.688	3678.22
491.058	3735.85
491.428	3791.21
491.798	3805.9
492.168	3889.06
492.538	3908.95
492.908	3995.73
493.278	4029.85
493.648	4051.55
494.017	4126.57
494.387	4113.92
494.757	4183.52
495.126	4235.95
495.496	4293.8
495.866	4317.08
496.235	4335.15
496.605	4371.54
496.974	4425.77
497.344	4484.3
497.713	4515.04
498.082	4537.63
498.452	4584.41
498.821	4604.07
499.19	4596.16
499.559	4694.47
499.928	4710.06
500.298	4716.16
500.667	4794.13
501.036	4776.72
501.405	4852.88
501.774	4845.65
502.143	4926.1
502.512	4920
502.88	4981.01
503.249	4958.41
503.618	4990.5
503.987	5016.49
504.356	5072.99
504.724	5127.9
505.093	5124.51
505.462	5113.44
505.83	5160.22
506.199	5232.53
506.567	5250.61
506.936	5244.51
507.304	5345.07
507.672	5359.53
508.041	5308.01
508.409	5416.93
508.777	5433.2
509.145	5464.39
509.514	5462.13
509.882	5513.43
510.25	5483.37
510.618	5576.03
510.986	5616.25
511.354	5610.83
511.722	5692.41
512.09	5711.62
512.458	5659.64
512.826	5704.61
513.193	5752.07
513.561	5783.48
513.929	5819.18
514.297	5876.36
514.664	5886.53
515.032	5906.41
515.4	5949.12
515.767	5950.48
516.135	6001.33
516.502	6006.52
516.869	6060.31
517.237	6061.66
517.604	6080.65
517.972	6082.68
518.339	6181.43
518.706	6168.33
519.073	6164.03
519.44	6215.78
519.808	6316.35
520.175	6317.48
520.542	6347.76
520.909	6374.42
521.276	6348.89
521.643	6449.45
522.009	6456.91
522.376	6486.96
522.743	6524.93
523.11	6572.84
523.477	6625.26
523.843	6672.95
524.21	6687.63
524.577	6706.17
524.943	6770.8
525.31	6756.56
525.676	6906.84
526.043	6945.48
526.409	6930.34
526.776	7006.72
527.142	6989.55
527.508	7111.58
527.874	7103.67
528.241	7098.25
528.607	7135.98
528.973	7170.56
529.339	7235.19
529.705	7268.41
530.071	7339.14
530.437	7355.41
530.803	7349.31
531.169	7474.28
531.535	7413.94
531.901	7466.15
532.267	7493.94
532.632	7561.28
532.998	7505.92
533.364	7599.93
533.73	7639.02
534.095	7714.73
534.461	7749.98
534.826	7814.84
535.192	7805.57
535.557	7874.5
535.923	7842.63
536.288	7947.94
536.653	7897.55
537.019	7940.03
537.384	7963.08
537.749	8024.55
538.114	8055.28
538.479	8137.99
538.845	8109.07
539.21	8132.12
539.575	8135.96
539.94	8242.62
540.305	8226.8
540.67	8268.61
541.034	8205.34
541.399	8380.47
541.764	8310.19
542.129	8421.37
542.494	8459.79
542.858	8430.41
543.223	8467.02
543.587	8502.5
543.952	8536.85
544.316	8573.24
544.681	8538.89
545.045	8630.41
545.41	8707.24
545.774	8765.32
546.138	8742.72
546.503	8755.38
546.867	8788.37
547.231	8842.61
547.595	8848.71
547.959	8935.94
548.324	8880.8
548.688	8966.67
549.052	8973.45
549.416	9024.3
549.779	9014.81
550.143	9109.72
550.507	9146.1
550.871	9164.41
551.235	9115.59
551.599	9248.25
551.962	9262.26
552.326	9323.05
552.689	9302.48
553.053	9297.28
553.417	9370.28
553.78	9450.5
554.143	9447.56
554.507	9443.95
554.87	9491.63
555.234	9667.44
555.597	9543.83
555.96	9612.98
556.323	9628.8
556.686	9575.24
557.05	9654.34
557.413	9718.29
557.776	9826.76
558.139	9745.41
558.502	9873.31
558.865	9825.18
559.228	9907.89
559.59	9936.36
559.953	9963.71
560.316	10116.7
560.679	10085.51
561.041	10123.7
561.404	10114.21
561.767	10182.91
562.129	10181.1
562.492	10250.03
562.854	10254.55
563.217	10345.17
563.579	10364.37
563.941	10431.49
564.304	10456.8
564.666	10503.81
565.028	10464.03
565.39	10587.19
565.753	10638.04
566.115	10665.61
566.477	10658.15
566.839	10706.74
567.201	10796.68
567.563	10808.88
567.925	10848.2
568.287	10932.95
568.648	10905.83
569.01	11084.81
569.372	11054.75
569.734	11032.15
570.095	11152.6
570.457	11114.86
570.819	11137.01
571.18	11202.32
571.542	11279.15
571.903	11330
572.265	11341.07
572.626	11453.39
572.987	11447.74
573.349	11450.67
573.71	11603.21
574.071	11666.49
574.432	11731.57
574.794	11808.86
575.155	11882.98
575.516	11848.4
575.877	11949.42
576.238	12020.15
576.599	12021.96
576.96	12183.31
577.32	12151.22
577.681	12332.01
578.042	12360.71
578.403	12472.79
578.763	12528.84
579.124	12583.53
579.485	12827.36
579.845	12910.3
580.206	13006.11
580.566	13028.03
580.927	13140.57
581.287	13370.62
581.648	13495.37
582.008	13651.07
582.368	13720.9
582.728	13835.92
583.089	14014
583.449	14173.31
583.809	14305.97
584.169	14487.88
584.529	14703.24
584.889	14857.14
585.249	15002.9
585.609	15132.61
585.969	15431.59
586.329	15578.93
586.688	15777.34
587.048	16032.02
587.408	16357.66
587.768	16418.9
588.127	16826.13
588.487	16914.26
588.846	17295.49
589.206	17527.8
589.565	17735.48
589.925	18119.88
590.284	18327.1
590.643	18606.19
591.003	18939.06
591.362	19308.32
591.721	19429.45
592.08	19726.16
592.44	20111.24
592.799	20505.35
593.158	20686.14
593.517	21037.09
593.876	21400.02
594.235	21691.31
594.593	21976.95
594.952	22421.23
595.311	22637.05
595.67	22899.86
596.029	23441.09
596.387	23620.75
596.746	24163.56
597.104	24327.62
597.463	24747.27
597.822	25084.44
598.18	25381.61
598.538	25664.99
598.897	26195.6
599.255	26217.97
599.613	26866.77
599.972	27165.51
600.33	27589.01
600.688	27746.74
601.046	28119.84
601.404	28497.46
601.762	28698.58
602.12	29296.31
602.478	29465.57
602.836	29891.32
603.194	30080.69
603.552	30566.33
603.91	30807.9
604.268	31149.59
604.625	31369.02
604.983	31818.5
605.341	31944.15
605.698	32431.36
606.056	32644.92
606.413	32988.64
606.771	33361.96
607.128	33609.64
607.485	33698.45
607.843	34147.25
608.2	34397.41
608.557	34752.89
608.914	34932.09
609.272	35297.05
609.629	35612.98
609.986	35877.83
610.343	35956.92
610.7	36587.87
611.057	36588.09
611.414	36912.6
611.771	36947.18
612.127	37424.91
612.484	37652.24
612.841	37914.84
613.198	38162.06
613.554	38213.36
613.911	38626.91
614.267	38746
614.624	38967.92
614.98	39166.1
615.337	39533.1
615.693	39644.73
616.05	39696.94
616.406	40159.3
616.762	40261.67
617.118	40299.63
617.475	40566.52
617.831	40756.12
618.187	40924.47
618.543	41106.62
618.899	41473.39
619.255	41504.57
619.611	41679.71
619.967	41920.83
620.323	42042.41
620.678	42066.59
621.034	42002.86
621.39	42184.78
621.746	42234.95
622.101	42810.07
622.457	42667.03
622.812	42738.21
623.168	43079.67
623.523	43144.76
623.879	43293.45
624.234	43053.01
624.589	43419.32
624.945	43518.08
625.3	43514.69
625.655	43657.51
626.01	43760.33
626.365	43855.47
626.72	43892.98
627.075	43862.48
627.43	44062.92
627.785	43891.18
628.14	44258.17
628.495	44385.17
628.85	44356.47
629.205	44193.09
629.559	44416.13
629.914	44407.77
630.269	44424.5
630.623	44489.35
630.978	44483.03
631.332	44703.81
631.687	44775.45
632.041	44498.17
632.396	44883.01
632.75	44706.07
633.104	44848.21
633.459	44599.41
633.813	44757.14
634.167	44773.41
634.521	44672.17
634.875	44836.24
635.229	44782.9
635.583	44736.8
635.937	44853.19
636.291	44627.43
636.645	44782.23
636.999	44839.4
637.352	44667.88
637.706	44568.45
638.06	44863.81
638.413	44865.61
638.767	44907.87
639.121	44778.38
639.474	44614.32
639.828	44589.69
640.181	44762.34
640.534	44739.29
640.888	44782.68
641.241	44527.32
641.594	44597.6
641.947	44646.18
642.301	44649.57
642.654	44601.67
643.007	44553.76
643.36	44689.8
643.713	44628.11
644.066	44709.69
644.419	44531.84
644.771	44157.61
645.124	43953.32
645.477	43824.74
645.83	43559.43
646.182	43589.04
646.535	43351.08
646.888	43460.45
647.24	43228.59
647.593	43512.43
647.945	43354.92
648.298	43180.91
648.65	43003.97
649.002	43137.3
649.355	43299.33
649.707	43177.97
650.059	43450.28
650.411	43900.67
650.763	43867.45
651.115	44313.76
651.467	44186.08
651.819	44211.62
652.171	44022.47
652.523	44133.88
652.875	44064.96
653.227	43983.15
653.578	44223.15
653.93	44084.17
654.282	43855.47
654.633	43925.07
654.985	43969.14
655.337	43908.8
655.688	44083.04
656.039	44032.87
656.391	43652.54
656.742	43815.02
657.094	43857.73
657.445	43940.89
657.796	43836.26
658.147	43757.62
658.498	43716.94
658.849	43811.86
659.2	43647.79
659.551	43561.47
659.902	43843.49
660.253	43783.38
660.604	43821.8
660.955	43561.69
661.306	43763.95
661.656	43634.23
662.007	43655.02
662.358	43696.15
662.708	43688.92
663.059	43634.91
663.409	43349.5
663.76	43765.53
664.11	43596.49
664.461	43649.37
664.811	43560.11
665.161	43551.75
665.511	43562.15
665.862	43535.25
666.212	43641.47
666.562	43751.97
666.912	43637.62
667.262	43583.39
667.612	43478.98
667.962	43685.08
668.312	43533.67
668.662	43793.78
669.011	43540.9
669.361	43508.36
669.711	43377.07
670.06	43509.72
670.41	43360.57
670.76	43479.21
671.109	43481.7
671.459	43461.58
671.808	43332.55
672.157	43456.61
672.507	43179.56
672.856	43244.87
673.205	43204.19
673.554	43444.18
673.904	43135.72
674.253	43384.07
674.602	43146.11
674.951	42734.82
675.3	42384.78
675.649	43200.57
675.998	43088.49
676.346	43125.77
676.695	43182.04
677.044	42900.92
677.393	43129.61
677.741	43212.78
678.09	43102.95
678.438	42902.28
678.787	43037.41
679.135	42993.8
679.484	42711.77
679.832	42793.58
680.181	42674.03
680.529	42787.02
680.877	42666.58
681.225	42576.63
681.573	42902.95
681.922	42728.27
682.27	42573.47
682.618	42519.01
682.966	42151.56
683.314	42445.11
683.661	42360.14
684.009	42067.27
684.357	42091.45
684.705	42040.38
685.053	41952.92
685.4	41928.29
685.748	41692.36
686.095	41862.76
686.443	41615.53
686.79	41618.02
687.138	41718.8
687.485	41556.1
687.832	41599.03
688.18	41443.11
688.527	41311.36
688.874	41256.9
689.221	41250.57
689.568	41147.52
689.915	40942.1
690.262	41058.03
690.609	41027.97
690.956	40724.25
691.303	40882.67
691.65	40625.5
691.997	40603.81
692.344	40438.39
692.69	40483.81
693.037	40181.44
693.383	40056.25
693.73	40167.21
694.077	39933.31
694.423	39938.96
694.769	39702.59
695.116	39694.9
695.462	39685.64
695.808	39509.82
696.155	39522.7
696.501	39298.3
696.847	39432.54
697.193	39115.03
697.539	39177.85
697.885	38991.87
698.231	38789.16
698.577	38967.92
698.923	38844.53
699.269	38661.71
699.614	38401.38
699.96	38242.06
700.306	38314.6
700.651	38154.15
700.997	37981.5
701.342	38012.23
701.688	37973.59
702.033	37849.08
702.379	37820.83
702.724	37659.25
703.069	37822.86
703.415	37297.23
703.76	37504.9
704.105	37387.39
704.45	37289.77
704.795	37084.58
705.14	37166.16
705.485	37012.26
705.83	36877.12
706.175	36940.17
706.52	36682.33
706.865	36710.35
707.209	36672.61
707.554	36526.4
707.899	36649.33
708.243	36402.56
708.588	36300.64
708.932	36121.89
709.277	36094.09
709.621	36114.21
709.966	35897.04
710.31	36111.72
710.654	35669.47
710.998	35724.84
711.342	35722.13
711.687	35466.31
712.031	35408.46
712.375	35314.68
712.719	35489.36
713.063	35219.77
713.407	35478.29
713.75	35325.07
714.094	35234.23
714.438	35006.44
714.782	35020.45
715.125	34814.35
715.469	34974.8
715.812	34739.1
716.156	34608.03
716.499	34681.93
716.843	34547.92
717.186	34426.34
717.53	34500.01
717.873	34448.71
718.216	34331.65
718.559	34229.51
718.902	34151.32
719.246	34255.05
719.589	34116.97
719.932	33966.24
720.275	33929.4
720.617	33829.75
720.96	33893.7
721.303	33836.07
721.646	33738.68
721.989	33623.42
722.331	33723.76
722.674	33537.55
723.016	33634.27
723.359	33538.23
723.701	33601.5
724.044	33317.9
724.386	33168.29
724.729	33229.76
725.071	33127.84
725.413	33257.11
725.755	33234.06
726.097	33025.25
726.439	32823.9
726.782	32783.45
727.124	33004.23
727.465	32846.72
727.807	32750
728.149	32654.64
728.491	32585.94
728.833	32647.86
729.175	32582.77
729.516	32370.58
729.858	32457.58
730.199	32451.93
730.541	32362.44
730.882	32388.88
731.224	32375.32
731.565	32152.73
731.906	32182.78
732.248	32200.41
732.589	31971.72
732.93	31896.69
733.271	32029.57
733.612	32037.02
733.953	31957.25
734.294	31784.83
734.635	31736.69
734.976	31775.11
735.317	31807.88
735.658	31545.96
735.999	31690.82
736.339	31646.07
736.68	31661.89
737.021	31545.06
737.361	31364.05
737.702	31617.37
738.042	31423.71
738.383	31340.09
738.723	31415.35
739.063	31214.9
739.404	31304.39
739.744	31176.48
740.084	31110.27
740.424	31159.31
740.764	31067.11
741.104	31068.69
741.444	30912.53
741.784	30828.7
742.124	30788.92
742.464	30918.86
742.804	30855.14
743.143	30866.89
743.483	30807.45
743.823	30634.12
744.162	30579.66
744.502	30652.88
744.841	30497.18
745.181	30544.41
745.52	30365.88
745.86	30438.87
746.199	30379.67
746.538	30351.65
746.877	30371.98
747.216	30339.67
747.556	30168.37
747.895	30159.56
748.234	29945.78
748.573	30028.49
748.911	30150.97
749.25	30051.77
749.589	29765.9
749.928	29825.11
750.267	29924.31
750.605	29854.71
750.944	29787.37
751.283	29597.77
751.621	29709.63
751.96	29526.36
752.298	29589.18
752.636	29594.6
752.975	29446.36
753.313	29333.37
753.651	29403.2
753.989	29262.63
754.327	29346.93
754.666	29109.42
755.004	29225.57
755.342	29136.31
755.679	29103.99
756.017	28871.68
756.355	28986.71
756.693	28838.69
757.031	28798.24
757.368	28514.41
757.706	28654.06
758.044	28601.41
758.381	28583.33
758.719	28479.38
759.056	28480.51
759.394	28336.56
