Data from hue_350_FLMS001491_60.txt Node
Date: Mon Feb 06 15:38:14 GMT 2017
User: dcchb
Spectrometer: FLMS00149
Trigger mode: 0
Integration Time (sec): 2.000000E-2
Scans to average: 10
Electric dark correction enabled: true
Nonlinearity correction enabled: false
Boxcar width: 0
XAxis mode: Wavelengths
Number of Pixels in Spectrum: 2048
>>>>>Begin Spectral Data<<<<<
341.393	3.12
341.776	3.12
342.16	3.12
342.543	-67.84
342.927	-69.87
343.31	-79.36
343.693	-50.89
344.077	-77.33
344.46	-57.67
344.843	-33.94
345.226	-51.79
345.61	-49.31
345.993	-16.54
346.376	-14.73
346.759	13.06
347.142	34.76
347.525	42.89
347.908	52.84
348.291	89.67
348.674	74.08
349.057	124.25
349.44	122.89
349.823	145.94
350.206	178.03
350.588	203.12
350.971	218.93
351.354	219.39
351.737	227.75
352.119	242.66
352.502	264.81
352.884	279.95
353.267	270.23
353.65	296.9
354.032	294.64
354.414	325.37
354.797	310.23
355.179	316.11
355.562	325.37
355.944	336.67
356.326	332.38
356.709	358.37
357.091	331.93
357.473	366.73
357.855	329.89
358.238	337.8
358.62	331.93
359.002	331.7
359.384	343.45
359.766	326.28
360.148	320.85
360.53	332.15
360.912	347.97
361.294	314.98
361.676	326.5
362.057	337.35
362.439	347.97
362.821	335.09
363.203	323.56
363.584	328.08
363.966	342.32
364.348	317.69
364.729	311.59
365.111	310.23
365.493	324.92
365.874	310.23
366.256	300.29
366.637	309.78
367.019	318.82
367.4	301.19
367.781	308.65
368.163	308.2
368.544	303.45
368.925	281.76
369.306	327.41
369.688	319.27
370.069	301.87
370.45	296.45
370.831	316.56
371.212	310.23
371.593	306.39
371.974	306.16
372.355	309.78
372.736	312.49
373.117	303.68
373.498	297.12
373.879	320.18
374.26	321.08
374.641	320.63
375.021	292.38
375.402	313.4
375.783	320.63
376.163	319.5
376.544	328.08
376.925	322.44
377.305	314.53
377.686	306.84
378.066	307.52
378.447	341.19
378.827	315.88
379.208	315.2
379.588	325.37
379.968	330.12
380.349	323.79
380.729	315.66
381.109	323.56
381.489	341.19
381.87	334.19
382.25	329.21
382.63	314.98
383.01	339.61
383.39	323.56
383.77	323.79
384.15	315.2
384.53	322.44
384.91	324.47
385.29	321.98
385.67	353.62
386.049	368.99
386.429	325.6
386.809	332.38
387.189	343.68
387.568	336.9
387.948	345.49
388.328	328.08
388.707	350.91
389.087	345.26
389.466	355.65
389.846	333.51
390.225	344.13
390.605	354.3
390.984	359.04
391.363	358.14
391.743	356.56
392.122	380.51
392.501	365.37
392.881	366.5
393.26	364.24
393.639	374.41
394.018	358.59
394.397	360.63
394.776	352.26
395.155	363.11
395.534	372.6
395.913	341.87
396.292	346.84
396.671	372.38
397.05	361.3
397.429	346.16
397.808	372.15
398.186	371.02
398.565	367.86
398.944	383
399.323	382.77
399.701	363.11
400.08	391.59
400.458	391.36
400.837	373.51
401.215	361.76
401.594	351.81
401.972	394.75
402.351	381.42
402.729	370.8
403.107	388.42
403.486	386.61
403.864	423.45
404.242	386.16
404.62	387.07
404.999	380.06
405.377	405.14
405.755	399.04
406.133	396.33
406.511	401.75
406.889	373.96
407.267	420.06
407.645	422.77
408.023	426.16
408.401	412.83
408.779	407.86
409.156	390.23
409.534	419.61
409.912	421.64
410.29	433.17
410.667	443.34
411.045	432.71
411.422	452.6
411.8	442.43
412.178	423.45
412.555	448.08
412.933	446.73
413.31	446.73
413.687	444.01
414.065	452.38
414.442	467.52
414.819	446.95
415.197	440.62
415.574	458.7
415.951	469.55
416.328	475.43
416.705	458.93
417.082	497.35
417.46	480.4
417.837	480.62
418.214	494.41
418.591	482.88
418.967	497.57
419.344	521.07
419.721	492.37
420.098	488.76
420.475	499.38
420.852	512.26
421.228	504.35
421.605	508.42
421.982	520.4
422.358	515.65
422.735	506.84
423.111	526.95
423.488	537.57
423.864	542.77
424.241	552.94
424.617	540.73
424.994	532.37
425.37	538.7
425.746	557.91
426.123	538.02
426.499	555.42
426.875	551.81
427.251	555.42
427.627	577.8
428.003	566.5
428.379	567.63
428.756	586.38
429.132	597.68
429.507	618.7
429.883	596.78
430.259	617.12
430.635	606.72
431.011	616.44
431.387	630
431.763	626.38
432.138	619.15
432.514	605.14
432.89	619.83
433.265	637
433.641	653.95
434.016	645.59
434.392	659.83
434.767	650.56
435.143	662.09
435.518	665.25
435.894	677.91
436.269	690.11
436.644	669.09
437.02	668.19
437.395	679.49
437.77	717
438.145	694.4
438.52	700.28
438.895	716.77
439.271	718.13
439.646	725.36
440.021	715.87
440.395	758.58
440.77	715.19
441.145	732.14
441.52	764.68
441.895	762.2
442.27	752.71
442.645	741.63
443.019	748.86
443.394	768.75
443.769	755.87
444.143	751.58
444.518	788.86
444.892	738.02
445.267	767.4
445.641	789.09
446.016	787.51
446.39	779.37
446.764	795.64
447.139	786.83
447.513	805.81
447.887	785.02
448.262	791.12
448.636	803.55
449.01	813.04
449.384	822.76
449.758	818.47
450.132	799.26
450.506	838.35
450.88	858.92
451.254	846.04
451.628	827.05
452.002	823.44
452.376	873.83
452.75	854.17
453.123	862.76
453.497	878.35
453.871	868.18
454.244	871.35
454.618	871.8
454.992	891.69
455.365	895.3
455.739	901.63
456.112	922.87
456.486	925.58
456.859	887.39
457.232	911.35
457.606	966.49
457.979	932.14
458.352	934.17
458.725	942.76
459.099	974.4
459.472	1001.97
459.845	984.11
460.218	977.56
460.591	993.38
460.964	1000.84
461.337	1036.54
461.71	1026.15
462.083	1028.86
462.456	1044.22
462.829	1032.7
463.201	1046.48
463.574	1069.53
463.947	1056.88
464.32	1090.32
464.692	1111.57
465.065	1112.7
465.438	1119.02
465.81	1133.04
466.183	1152.7
466.555	1149.76
466.928	1163.32
467.3	1161.51
467.672	1182.07
468.045	1208.06
468.417	1240.38
468.789	1207.38
469.161	1234.5
469.534	1243.31
469.906	1265.01
470.278	1286.03
470.65	1282.41
471.022	1287.16
471.394	1342.07
471.766	1322.63
472.138	1373.93
472.51	1370.09
472.882	1404.44
473.253	1395.18
473.625	1441.28
473.997	1453.03
474.369	1470.2
474.74	1457.77
475.112	1508.39
475.484	1526.7
475.855	1540.71
476.227	1538.22
476.598	1615.28
476.97	1582.51
477.341	1641.04
477.713	1684.89
478.084	1656.41
478.455	1695.96
478.827	1725.56
479.198	1793.58
479.569	1797.2
479.94	1852.79
480.311	1845.11
480.682	1884.43
481.053	1928.27
481.424	1935.05
481.795	1986.8
482.166	2014.37
482.537	2045.78
482.908	2076.29
483.279	2082.16
483.65	2108.15
484.021	2162.61
484.391	2198.09
484.762	2204.87
485.133	2253.46
485.503	2282.84
485.874	2366.22
486.244	2345.66
486.615	2386.34
486.985	2414.58
487.356	2480.8
487.726	2477.41
488.097	2517.86
488.467	2551.98
488.837	2573.68
489.207	2622.49
489.578	2671.75
489.948	2714.46
490.318	2715.82
490.688	2751.3
491.058	2725.99
491.428	2811.86
491.798	2825.42
492.168	2883.72
492.538	2917.85
492.908	2936.15
493.278	2990.39
493.648	2988.35
494.017	3022.93
494.387	3022.93
494.757	3103.83
495.126	3138.18
495.496	3139.99
495.866	3197.61
496.235	3163.72
496.605	3245.97
496.974	3241.23
497.344	3251.85
497.713	3304.5
498.082	3314.67
498.452	3332.75
498.821	3314.45
499.19	3377.04
499.559	3412.75
499.928	3408
500.298	3457.27
500.667	3468.79
501.036	3451.84
501.405	3503.82
501.774	3545.85
502.143	3543.59
502.512	3526.87
502.88	3561.45
503.249	3584.27
503.618	3623.14
503.987	3644.16
504.356	3635.57
504.724	3659.52
505.093	3658.17
505.462	3647.55
505.83	3711.95
506.199	3710.59
506.567	3739.75
506.936	3788.11
507.304	3843.7
507.672	3807.54
508.041	3799.86
508.409	3756.7
508.777	3887.99
509.145	3874.88
509.514	3850.03
509.882	3911.72
510.25	3881.21
510.618	3905.62
510.986	3917.14
511.354	4018.16
511.722	3989.68
512.09	4016.8
512.458	4028.78
512.826	4050.47
513.193	4031.26
513.561	4027.42
513.929	4036.24
514.297	4125.27
514.664	4081.88
515.032	4107.87
515.4	4116.91
515.767	4158.72
516.135	4130.24
516.502	4115.1
516.869	4159.62
517.237	4180.41
517.604	4212.73
517.972	4220.86
518.339	4199.85
518.706	4229.68
519.073	4231.48
519.44	4276.23
519.808	4270.35
520.175	4322.1
520.542	4340.18
520.909	4311.26
521.276	4351.26
521.643	4334.98
522.009	4406.62
522.376	4400.97
522.743	4407.53
523.11	4460.41
523.477	4457.24
523.843	4495.43
524.21	4553.51
524.577	4520.74
524.943	4568.2
525.31	4578.59
525.676	4589.89
526.043	4650.68
526.409	4683.9
526.776	4698.59
527.142	4718.03
527.508	4725.94
527.874	4777.01
528.241	4780.85
528.607	4736.1
528.973	4791.24
529.339	4818.81
529.705	4827.4
530.071	4854.75
530.437	4874.18
530.803	4936.33
531.169	4941.97
531.535	4981.52
531.901	4968.87
532.267	4985.36
532.632	5028.07
532.998	5025.14
533.364	5029.88
533.73	5045.93
534.095	5071.01
534.461	5127.73
534.826	5158.69
535.192	5144.91
535.557	5223.55
535.923	5208.86
536.288	5201.85
536.653	5247.73
537.019	5244.11
537.384	5250.67
537.749	5293.15
538.114	5333.15
538.479	5297.45
538.845	5322.98
539.21	5306.71
539.575	5350.78
539.94	5393.94
540.305	5410.21
540.67	5477.55
541.034	5414.96
541.399	5477.78
541.764	5541.51
542.129	5499.02
542.494	5520.26
542.858	5605.23
543.223	5597.55
543.587	5631.67
543.952	5639.36
544.316	5679.58
544.681	5629.19
545.045	5630.32
545.41	5713.03
545.774	5726.36
546.138	5808.84
546.503	5812.69
546.867	5808.84
547.231	5883.19
547.595	5825.57
547.959	5887.49
548.324	5892.01
548.688	5870.09
549.052	5969.52
549.416	5928.84
549.779	5919.8
550.143	5992.79
550.507	6034.83
550.871	6008.16
551.235	6008.16
551.599	6070.76
551.962	6096.52
552.326	6082.06
552.689	6188.27
553.053	6125.67
553.417	6108.05
553.78	6231.43
554.143	6206.12
554.507	6243.41
554.87	6184.65
555.234	6312.11
555.597	6231.21
555.96	6261.71
556.323	6273.24
556.686	6287.7
557.05	6367.7
557.413	6373.12
557.776	6310.53
558.139	6452.67
558.502	6419.68
558.865	6467.13
559.228	6517.53
559.59	6530.86
559.953	6456.74
560.316	6538.09
560.679	6529.28
561.041	6598.65
561.404	6620.35
561.767	6663.74
562.129	6616.05
562.492	6722.94
562.854	6661.48
563.217	6758.2
563.579	6680.23
563.941	6745.54
564.304	6743.96
564.666	6799.55
565.028	6792.1
565.39	6855.6
565.753	6876.61
566.115	6823.51
566.477	6908.48
566.839	6959.77
567.201	6924.97
567.563	6996.16
567.925	7022.37
568.287	7022.6
568.648	7048.81
569.01	7058.53
569.372	7136.27
569.734	7086.32
570.095	7128.36
570.457	7125.87
570.819	7252.87
571.18	7262.59
571.542	7304.17
571.903	7382.14
572.265	7364.74
572.626	7381.68
572.987	7413.77
573.349	7446.32
573.71	7561.79
574.071	7506.2
574.432	7600.44
574.794	7701.22
575.155	7782.8
575.516	7799.3
575.877	7855.57
576.238	7906.87
576.599	7966.75
576.96	7957.04
577.32	8143.02
577.681	8244.03
578.042	8219.85
578.403	8341.21
578.763	8416.91
579.124	8474.09
579.485	8561.09
579.845	8725.38
580.206	8742.1
580.566	8836.79
580.927	8973.96
581.287	9067.29
581.648	9197.91
582.008	9314.97
582.368	9504.11
582.728	9635.41
583.089	9709.31
583.449	9883.77
583.809	10045.8
584.169	10176.87
584.529	10316.52
584.889	10576.85
585.249	10729.17
585.609	10820.92
585.969	11066.33
586.329	11246.22
586.688	11507.9
587.048	11648.01
587.408	11883.04
587.768	12076.93
588.127	12296.81
588.487	12530.93
588.846	12829.68
589.206	13024.7
589.565	13221.53
589.925	13517.79
590.284	13608.19
590.643	14016.54
591.003	14250.43
591.362	14523.64
591.721	14790.76
592.08	15106
592.44	15404.75
592.799	15599.32
593.158	15882.25
593.517	16179.65
593.876	16426.42
594.235	16671.84
594.593	17109.79
594.952	17366.51
595.311	17579.38
595.67	18008.3
596.029	18324.45
596.387	18537.78
596.746	18887.14
597.104	19165.56
597.463	19425.21
597.822	19734.58
598.18	19997.4
598.538	20229.26
598.897	20733.65
599.255	20727.55
599.613	21363.69
599.972	21545.38
600.33	21887.29
600.688	22051.58
601.046	22575.18
601.404	22863.99
601.762	23049.97
602.12	23418.78
602.478	23571.54
602.836	23937.63
603.194	24076.39
603.552	24296.04
603.91	24583.72
604.268	24995.01
604.625	25111.61
604.983	25536.69
605.341	25699.62
605.698	26135.54
606.056	26260.06
606.413	26458.24
606.771	26962.41
607.128	27081.73
607.485	27211.22
607.843	27411.44
608.2	27782.5
608.557	28120.57
608.914	28164.19
609.272	28496.61
609.629	28773.21
609.986	29088.91
610.343	29238.06
610.7	29473.76
611.057	29709.68
611.414	29852.05
611.771	30057.02
612.127	30264.92
612.484	30520.29
612.841	30787.4
613.198	30881.63
613.554	30949.65
613.911	31332.02
614.267	31441.39
614.624	31516.42
614.98	31800.03
615.337	32057.65
615.693	32164.08
616.05	32310.52
616.406	32600.91
616.762	32614.24
617.118	32828.25
617.475	33021.69
617.831	33236.82
618.187	33361.34
618.543	33509.81
618.899	33938.5
619.255	33853.08
619.611	33967.88
619.967	34164.03
620.323	34335.33
620.678	34223.92
621.034	34293.75
621.39	34388.88
621.746	34464.81
622.101	34992.48
622.457	34757.69
622.812	34927.85
623.168	35153.84
623.523	35080.84
623.879	35408.74
624.234	35231.35
624.589	35297.79
624.945	35506.37
625.3	35753.82
625.655	35665.46
626.01	35857.09
626.365	35850.99
626.72	35958.79
627.075	35960.37
627.43	36019.35
627.785	36066.13
628.14	36159.23
628.495	36293.69
628.85	36190.87
629.205	36184.32
629.559	36466.57
629.914	36354.48
630.269	36487.36
630.623	36423.86
630.978	36384.31
631.332	36640.12
631.687	36647.81
632.041	36563.97
632.396	36692.55
632.75	36503.18
633.104	36627.47
633.459	36610.52
633.813	36579.11
634.167	36636.96
634.521	36724.64
634.875	36827.92
635.229	36865.88
635.583	36603.74
635.937	36613.91
636.291	36532.56
636.645	36765.77
636.999	36624.98
637.352	36733.91
637.706	36641.93
638.06	36778.65
638.413	36710.4
638.767	36586.79
639.121	36691.2
639.474	36528.71
639.828	36746.56
640.181	36664.08
640.534	36666.79
640.888	36599.22
641.241	36348.83
641.594	36705.21
641.947	36755.38
642.301	36641.25
642.654	36627.7
643.007	36523.74
643.36	36613.68
643.713	36577.07
644.066	36577.53
644.419	36297.31
644.771	36188.38
645.124	35952.01
645.477	35892.12
645.83	35675.63
646.182	35518.35
646.535	35482.19
646.888	35632.47
647.24	35446.94
647.593	35613.48
647.945	35518.8
648.298	35383.43
648.65	35320.84
649.002	35239.26
649.355	35422.53
649.707	35276.32
650.059	35459.14
650.411	35960.14
650.763	35891.9
651.115	36251.43
651.467	36279
651.819	36208.95
652.171	36064.32
652.523	36129.4
652.875	36043.98
653.227	35956.07
653.578	36123.3
653.93	36030.65
654.282	36048.95
654.633	35831.78
654.985	36006.47
655.337	36054.15
655.688	35987.26
656.039	36101.16
656.391	35851.22
656.742	35921.27
657.094	35956.07
657.445	36033.81
657.796	36008.95
658.147	35868.85
658.498	35855.06
658.849	35874.04
659.2	35821.84
659.551	35809.19
659.902	35908.84
660.253	35916.98
660.604	35866.81
660.955	35842.63
661.306	35842.63
661.656	35772.12
662.007	35864.78
662.358	35694.61
662.708	35792.46
663.059	35696.19
663.409	35539.59
663.76	35820.48
664.11	35750.2
664.461	35871.33
664.811	35644.9
665.161	35675.18
665.511	35760.6
665.862	35768.28
666.212	35648.29
666.562	35741.39
666.912	35721.73
667.262	35606.25
667.612	35716.31
667.962	35739.13
668.312	35585.46
668.662	35856.19
669.011	35786.14
669.361	35632.47
669.711	35630.43
670.06	35582.75
670.41	35463.66
670.76	35505.24
671.109	35682.41
671.459	35535.97
671.808	35637.44
672.157	35445.13
672.507	35367.16
672.856	35381.85
673.205	35500.27
673.554	35388.63
673.904	35439.48
674.253	35515.41
674.602	35357.45
674.951	34969.66
675.3	34819.83
675.649	35237
675.998	35241.29
676.346	35343.66
676.695	35406.26
677.044	35104.35
677.393	35352.7
677.741	35295.07
678.09	35283.55
678.438	35043.33
678.787	35205.36
679.135	35202.42
679.484	35032.71
679.832	35222.76
680.181	34952.71
680.529	35026.83
680.877	34868.42
681.225	34907.97
681.573	35090.56
681.922	34779.16
682.27	34666.84
682.618	34705.49
682.966	34641.53
683.314	34669.78
683.661	34652.38
684.009	34603.57
684.357	34405.38
684.705	34340.52
685.053	34382.1
685.4	34189.57
685.748	34249.9
686.095	34131.49
686.443	34007.2
686.79	34107.54
687.138	34052.85
687.485	34058.27
687.832	33891.95
688.18	33902.57
688.527	33823.93
688.874	33875.9
689.221	33739.41
689.568	33643.37
689.915	33565.63
690.262	33503.94
690.609	33345.07
690.956	33264.17
691.303	33215.81
691.65	33237.28
691.997	33260.78
692.344	32921.8
692.69	32919.54
693.037	32926.55
693.383	32757.97
693.73	32797.74
694.077	32607.91
694.423	32610.4
694.769	32515.49
695.116	32506.9
695.462	32337.41
695.808	32235.49
696.155	32236.4
696.501	32054.26
696.847	32091.54
697.193	31879.8
697.539	31978.33
697.885	31773.81
698.231	31568.17
698.577	31668.5
698.923	31570.65
699.269	31342.86
699.614	31263.32
699.96	31264.22
700.306	31358
700.651	31261.06
700.997	30997.11
701.342	31046.82
701.688	30990.1
702.033	30902.2
702.379	30810.45
702.724	30699.72
703.069	30716.21
703.415	30436.22
703.76	30438.03
704.105	30566.84
704.45	30395.54
704.795	30293.17
705.14	30169.33
705.485	30126.85
705.83	29974.31
706.175	30030.35
706.52	30051.6
706.865	29836.46
707.209	29767.76
707.554	29709.23
707.899	29879.85
708.243	29639.63
708.588	29517.15
708.932	29379.07
709.277	29449.13
709.621	29405.51
709.966	29262.69
710.31	29163.48
710.654	29076.71
710.998	29148.8
711.342	29135.24
711.687	28982.7
712.031	28795.36
712.375	28731.41
712.719	28831.29
713.063	28639.66
713.407	28724.17
713.75	28650.5
714.094	28681.69
714.438	28509.72
714.782	28522.37
715.125	28313.79
715.469	28375.48
715.812	28243.28
716.156	28136.84
716.499	28181.14
716.843	28088.26
717.186	28065.43
717.53	28174.58
717.873	28154.02
718.216	28030.86
718.559	28030.63
718.902	27657.54
719.246	27735.05
719.589	27568.72
719.932	27632.68
720.275	27616.63
720.617	27662.51
720.96	27523.98
721.303	27467.03
721.646	27540.7
721.989	27374.15
722.331	27443.3
722.674	27306.58
723.016	27356.75
723.359	27306.81
723.701	27258.9
724.044	27127.61
724.386	26959.47
724.729	27159.24
725.071	26946.14
725.413	26964.67
725.755	26966.48
726.097	26890.1
726.439	26645.58
726.782	26680.84
727.124	26863.66
727.465	26632.7
727.807	26642.19
728.149	26615.75
728.491	26557.9
728.833	26607.85
729.175	26434.06
729.516	26384.8
729.858	26399.26
730.199	26438.36
730.541	26290.79
730.882	26341.64
731.224	26387.06
731.565	26178.48
731.906	26124.92
732.248	26148.42
732.589	26049.44
732.93	25941.42
733.271	26035.43
733.612	25952.95
733.953	26073.17
734.294	25684.48
734.635	25857.81
734.976	25859.16
735.317	25766.51
735.658	25694.2
735.999	25697.81
736.339	25699.85
736.68	25686.29
737.021	25701.65
737.361	25545.95
737.702	25592.05
738.042	25490.59
738.383	25450.59
738.723	25457.82
739.063	25384.15
739.404	25431.61
739.744	25379.4
740.084	25289.69
740.424	25428.67
740.764	25260.54
741.104	25413.53
741.444	25077.72
741.784	25108.9
742.124	25060.54
742.464	25048.79
742.804	25027.1
743.143	24900.77
743.483	25052.63
743.823	24879.76
744.162	24837.72
744.502	24933.54
744.841	24749.14
745.181	24840.43
745.52	24727.67
745.86	24810.83
746.199	24752.08
746.538	24636.15
746.877	24618.29
747.216	24651.06
747.556	24664.39
747.895	24550.72
748.234	24460.11
748.573	24443.38
748.911	24501.46
749.25	24374.46
749.589	24296.95
749.928	24325.87
750.267	24343.05
750.605	24271.41
750.944	24197.29
751.283	24193.9
751.621	24247.91
751.96	24033.22
752.298	24093.11
752.636	23987.8
752.975	23964.98
753.313	23793.68
753.651	23926.11
753.989	23759.33
754.327	23703.52
754.666	23713.68
755.004	23673.01
755.342	23698.77
755.679	23638.21
756.017	23492.9
756.355	23558.43
756.693	23409.96
757.031	23393.92
757.368	23246.8
757.706	23247.26
758.044	23184.43
758.381	23230.53
758.719	23127.26
759.056	23156.64
759.394	23042.29
759.731	22920.71
760.068	22832.8
760.405	22707.38
760.743	22788.96
761.08	22802.52
