Data from hue_40_FLMS001491_2.txt Node
Date: Mon Feb 06 15:07:21 GMT 2017
User: dcchb
Spectrometer: FLMS00149
Trigger mode: 0
Integration Time (sec): 2.000000E-2
Scans to average: 10
Electric dark correction enabled: true
Nonlinearity correction enabled: false
Boxcar width: 0
XAxis mode: Wavelengths
Number of Pixels in Spectrum: 2048
>>>>>Begin Spectral Data<<<<<
341.393	12.57
341.776	12.57
342.16	12.57
342.543	-55.22
342.927	-59.29
343.31	-67.2
343.693	-64.94
344.077	-84.83
344.46	-76.47
344.843	-45.73
345.226	-36.92
345.61	-29.46
345.993	-16.13
346.376	2.18
346.759	20.03
347.142	43.53
347.525	41.95
347.908	65.68
348.291	70.2
348.674	81.95
349.057	96.18
349.44	132.12
349.823	155.39
350.206	150.87
350.588	193.13
350.971	232.23
351.354	233.58
351.737	239.68
352.119	267.25
352.502	275.84
352.884	264.54
353.267	303.86
353.65	311.77
354.032	318.1
354.414	302.51
354.797	326.01
355.179	339.57
355.562	328.95
355.944	339.34
356.326	363.75
356.709	346.57
357.091	341.83
357.473	357.65
357.855	362.84
358.238	350.87
358.62	339.34
359.002	356.06
359.384	353.35
359.766	350.64
360.148	341.6
360.53	349.96
360.912	356.29
361.294	340.7
361.676	355.61
362.057	358.55
362.439	347.7
362.821	335.73
363.203	346.35
363.584	327.36
363.966	329.62
364.348	332.34
364.729	353.58
365.111	330.75
365.493	318.78
365.874	321.94
366.256	341.15
366.637	318.55
367.019	326.01
367.4	343.86
367.781	326.91
368.163	312.68
368.544	341.6
368.925	337.31
369.306	330.08
369.688	325.78
370.069	332.79
370.45	329.4
370.831	333.69
371.212	330.3
371.593	333.92
371.974	338.44
372.355	340.47
372.736	345.67
373.117	331.21
373.498	318.32
373.879	343.41
374.26	319
374.641	341.15
375.021	312.45
375.402	315.39
375.783	330.3
376.163	331.88
376.544	310.64
376.925	332.11
377.305	355.16
377.686	350.87
378.066	362.39
378.447	337.53
378.827	342.28
379.208	358.55
379.588	343.18
379.968	316.74
380.349	347.25
380.729	342.28
381.109	342.96
381.489	328.95
381.87	335.73
382.25	352.45
382.63	352.45
383.01	378.44
383.39	359.45
383.77	337.53
384.15	375.5
384.53	343.41
384.91	359.91
385.29	375.05
385.67	381.6
386.049	353.8
386.429	354.26
386.809	384.54
387.189	344.31
387.568	370.75
387.948	373.46
388.328	368.49
388.707	399
389.087	382.28
389.466	377.31
389.846	372.56
390.225	380.7
390.605	374.59
390.984	376.4
391.363	382.05
391.743	383.41
392.122	382.28
392.501	387.02
392.881	388.38
393.26	393.35
393.639	391.32
394.018	386.12
394.397	401.94
394.776	403.52
395.155	391.09
395.534	390.41
395.913	373.92
396.292	416.85
396.671	390.64
397.05	414.59
397.429	398.77
397.808	398.32
398.186	401.94
398.565	399.68
398.944	377.31
399.323	404.65
399.701	399
400.08	418.21
400.458	406.23
400.837	403.52
401.215	405.78
401.594	404.65
401.972	399.23
402.351	395.84
402.729	408.04
403.107	435.61
403.486	429.73
403.864	407.81
404.242	419.57
404.62	425.21
404.999	441.71
405.377	417.53
405.755	415.72
406.133	434.71
406.511	436.06
406.889	426.57
407.267	438.1
407.645	458.66
408.023	441.26
408.401	448.94
408.779	464.31
409.156	444.65
409.534	450.3
409.912	449.85
410.29	456.63
410.667	463.18
411.045	467.47
411.422	472.45
411.8	463.63
412.178	471.99
412.555	461.6
412.933	466.8
413.31	467.7
413.687	499.56
414.065	494.82
414.442	504.08
414.819	501.6
415.197	495.27
415.574	511.31
415.951	498.89
416.328	512.67
416.705	498.43
417.082	485.1
417.46	484.65
417.837	531.43
418.214	514.25
418.591	541.6
418.967	507.7
419.344	530.52
419.721	543.18
420.098	525.55
420.475	534.14
420.852	537.3
421.228	532.33
421.605	551.99
421.982	553.57
422.358	558.09
422.735	546.57
423.111	552.9
423.488	543.18
423.864	547.25
424.241	546.79
424.617	572.33
424.994	582.27
425.37	578.21
425.746	569.39
426.123	605.55
426.499	589.5
426.875	574.36
427.251	608.49
427.627	592.89
428.003	618.88
428.379	614.81
428.756	609.62
429.132	612.78
429.507	633.12
429.883	605.78
430.259	658.88
430.635	640.8
431.011	645.77
431.387	663.17
431.763	652.55
432.138	650.52
432.514	665.89
432.89	647.36
433.265	671.31
433.641	689.39
434.016	693
434.392	697.98
434.767	702.72
435.143	697.75
435.518	721.93
435.894	704.76
436.269	698.88
436.644	704.98
437.02	735.72
437.395	729.16
437.77	735.49
438.145	729.16
438.52	753.34
438.895	738.88
439.271	726
439.646	763.51
440.021	755.15
440.395	792.89
440.77	746.11
441.145	799.67
441.52	770.06
441.895	798.99
442.27	784.53
442.645	802.61
443.019	820.46
443.394	804.64
443.769	822.49
444.143	807.35
444.518	822.27
444.892	811.87
445.267	799.22
445.641	834.7
446.016	817.29
446.39	848.93
446.764	838.99
447.139	839.44
447.513	866.33
447.887	881.93
448.262	859.1
448.636	842.83
449.01	877.86
449.384	890.97
449.758	890.06
450.132	898.87
450.506	886.9
450.88	889.84
451.254	896.84
451.628	924.86
452.002	931.42
452.376	940.46
452.75	937.29
453.123	957.86
453.497	949.49
453.871	973.67
454.244	983.84
454.618	968.03
454.992	1012.09
455.365	1004.63
455.739	1034.69
456.112	1018.19
456.486	1032.88
456.859	1032.66
457.232	1052.54
457.606	1056.38
457.979	1036.05
458.352	1084.86
458.725	1101.36
459.099	1111.52
459.472	1113.33
459.845	1129.38
460.218	1110.39
460.591	1125.54
460.964	1164.86
461.337	1160.79
461.71	1188.58
462.083	1218.19
462.456	1223.16
462.829	1228.36
463.201	1231.97
463.574	1230.62
463.947	1259.32
464.32	1285.98
464.692	1261.13
465.065	1319.88
465.438	1310.62
465.81	1327.34
466.183	1358.3
466.555	1392.2
466.928	1404.4
467.3	1414.12
467.672	1430.39
468.045	1466.54
468.417	1450.95
468.789	1467
469.161	1495.24
469.534	1537.73
469.906	1547.22
470.278	1585.41
470.65	1613.43
471.022	1625.64
471.394	1620.89
471.766	1687.33
472.138	1736.14
472.51	1757.38
472.882	1763.71
473.253	1815.46
473.625	1859.08
473.997	1876.25
474.369	1896.81
474.74	1919.64
475.112	1975.23
475.484	2021.33
475.855	2071.95
476.227	2065.62
476.598	2151.95
476.97	2154.43
477.341	2242.34
477.713	2311.72
478.084	2316.92
478.455	2408.67
478.827	2429
479.198	2502.67
479.569	2536.57
479.94	2612.95
480.311	2675.78
480.682	2784.93
481.053	2809.33
481.424	2894.98
481.795	2949.89
482.166	2999.16
482.537	3084.13
482.908	3180.85
483.279	3244.58
483.65	3331.58
484.021	3402.31
484.391	3485.47
484.762	3549.65
485.133	3611.8
485.503	3719.14
485.874	3784.45
486.244	3866.25
486.615	3995.74
486.985	4119.35
487.356	4194.61
487.726	4230.31
488.097	4341.5
488.467	4434.6
488.837	4552.34
489.207	4653.13
489.578	4762.73
489.948	4870.75
490.318	4950.29
490.688	5049.5
491.058	5153.23
491.428	5254.92
491.798	5339.66
492.168	5499.43
492.538	5570.39
492.908	5685.42
493.278	5787.11
493.648	5884.96
494.017	5934.9
494.387	6073.43
494.757	6195.91
495.126	6250.6
495.496	6362.91
495.866	6472.06
496.235	6603.81
496.605	6675.9
496.974	6727.65
497.344	6898.94
497.713	6949.79
498.082	6981.65
498.452	7105.94
498.821	7223.91
499.19	7291.02
499.559	7428.87
499.928	7446.95
500.298	7589.77
500.667	7619.6
501.036	7692.82
501.405	7772.14
501.774	7862.76
502.143	8026.82
502.512	8036.09
502.88	8109.98
503.249	8241.28
503.618	8335.29
503.987	8345.01
504.356	8488.51
504.724	8559.46
505.093	8584.32
505.462	8694.38
505.83	8760.81
506.199	8830.42
506.567	9010.3
506.936	8994.71
507.304	9166.45
507.672	9181.37
508.041	9337.75
508.409	9366.9
508.777	9445.54
509.145	9483.96
509.514	9566.9
509.882	9639.44
510.25	9743.39
510.618	9790.84
510.986	9784.06
511.354	9953.78
511.722	10040.33
512.09	10176.82
512.458	10142.93
512.826	10233.77
513.193	10291.4
513.561	10381.79
513.929	10511.5
514.297	10599.64
514.664	10660.43
515.032	10672.85
515.4	10804.38
515.767	10809.35
516.135	10897.26
516.502	10843.7
516.869	11061.09
517.237	11092.73
517.604	11052.05
517.972	11228.09
518.339	11278.71
518.706	11269.9
519.073	11386.28
519.44	11505.83
519.808	11610.91
520.175	11624.47
520.542	11746.27
520.909	11875.31
521.276	11794.18
521.643	11936.1
522.009	12017.45
522.376	12043.89
522.743	12170.67
523.11	12307.39
523.477	12362.08
523.843	12515.52
524.21	12621.73
524.577	12640.49
524.943	12710.09
525.31	12809.3
525.676	12945.56
526.043	12980.14
526.409	13032.57
526.776	13255.61
527.142	13209.96
527.508	13312.79
527.874	13409.96
528.241	13472.1
528.607	13491.09
528.973	13605.43
529.339	13642.27
529.705	13877.52
530.071	13778.76
530.437	14025.99
530.803	14026.21
531.169	14086.1
531.535	14149.15
531.901	14140.11
532.267	14287.22
532.632	14266.21
532.998	14331.06
533.364	14429.37
533.73	14609.7
534.095	14629.81
534.461	14655.8
534.826	14718.17
535.192	14854.89
535.557	14923.82
535.923	14882.91
536.288	14962.23
536.653	15130.14
537.019	15116.13
537.384	15139.18
537.749	15213.53
538.114	15240.42
538.479	15331.94
538.845	15373.52
539.21	15374.43
539.575	15415.33
539.94	15463.46
540.305	15659.62
540.67	15703.46
541.034	15745.72
541.399	15741.65
541.764	15818.71
542.129	15908.65
542.494	15915.88
542.858	16079.04
543.223	16029.32
543.587	16103.9
543.952	16160.62
544.316	16285.81
544.681	16288.53
545.045	16323.55
545.41	16515.41
545.774	16469.31
546.138	16582.08
546.503	16527.62
546.867	16638.12
547.231	16747.72
547.595	16793.82
547.959	16840.6
548.324	16869.98
548.688	16884.67
549.052	17007.15
549.416	17111.56
549.779	17018.22
550.143	17074.49
550.507	17186.13
550.871	17217.09
551.235	17271.33
551.599	17355.84
551.962	17500.25
552.326	17555.39
552.689	17587.02
553.053	17533.69
553.417	17572.33
553.78	17899.56
554.143	17719.22
554.507	17881.48
554.87	17983.85
555.234	18051.19
555.597	17939.78
555.96	18132.32
556.323	18170.06
556.686	18204.18
557.05	18351.75
557.413	18339.55
557.776	18325.08
558.139	18460.45
558.502	18542.25
558.865	18488.92
559.228	18703.38
559.59	18768.46
559.953	18801.45
560.316	18968.68
560.679	18946.54
561.041	19175
561.404	19250.26
561.767	19344.27
562.129	19245.74
562.492	19467.43
562.854	19423.81
563.217	19403.92
563.579	19560.08
563.941	19690.47
564.304	19754.88
564.666	19835.78
565.028	19862.22
565.39	19881.43
565.753	20030.8
566.115	20171.81
566.477	20147.86
566.839	20212.94
567.201	20358.02
567.563	20287.52
567.925	20454.74
568.287	20529.54
568.648	20595.53
569.01	20596.21
569.372	20720.27
569.734	20760.05
570.095	20869.65
570.457	21020.15
570.819	21128.85
571.18	21091.79
571.542	21325.91
571.903	21302.86
572.265	21362.74
572.626	21510.76
572.987	21603.87
573.349	21565.45
573.71	21794.82
574.071	21839.79
574.432	21922.73
574.794	22197.3
575.155	22095.15
575.516	22213.57
575.877	22362.27
576.238	22425.31
576.599	22488.59
576.96	22554.8
577.32	22629.38
577.681	22814.23
578.042	23054.22
578.403	23021.46
578.763	23117.05
579.124	23162.47
579.485	23486.53
579.845	23598.39
580.206	23613.08
580.566	23813.98
580.927	23951.83
581.287	24107.08
581.648	24236.79
582.008	24410.12
582.368	24502.1
582.728	24675.65
583.089	24767.63
583.449	24882.2
583.809	25056.88
584.169	25191.8
584.529	25469.75
584.889	25686.02
585.249	25789.29
585.609	25834.94
585.969	26172.79
586.329	26194.71
586.688	26549.27
587.048	26701.81
587.408	26796.95
587.768	26851.19
588.127	27070.84
588.487	27217.96
588.846	27657.04
589.206	27580.66
589.565	27797.83
589.925	28162.34
590.284	28311.49
590.643	28442.11
591.003	28714.19
591.362	28893.17
591.721	29031.69
592.08	29204.8
592.44	29378.13
592.799	29511.91
593.158	29814.72
593.517	29962.97
593.876	30285.22
594.235	30310.53
594.593	30567.93
594.952	30792.55
595.311	30758.65
595.67	30963.62
596.029	31315.02
596.387	31584.4
596.746	31664.17
597.104	31759.98
597.463	31794.79
597.822	32265.73
598.18	32258.05
598.538	32460.3
598.897	32661.2
599.255	32686.06
599.613	33128.31
599.972	33118.82
600.33	33455.76
600.688	33352.48
601.046	33566.26
601.404	33916.76
601.762	33908.18
602.12	34266.58
602.478	34279.92
602.836	34494.6
603.194	34537.99
603.552	34646.01
603.91	34709.51
604.268	35007.81
604.625	34988.83
604.983	35324.86
605.341	35226.33
605.698	35496.38
606.056	35629.71
606.413	35731.63
606.771	35842.59
607.128	36017.5
607.485	35901.8
607.843	36232.41
608.2	36483.48
608.557	36636.69
608.914	36630.36
609.272	36893.41
609.629	36981.32
609.986	37301.31
610.343	37078.94
610.7	37525.03
611.057	37561.19
611.414	37480.96
611.771	37647.51
612.127	37913.27
612.484	37883.89
612.841	38062.87
613.198	37983.78
613.554	38117.78
613.911	38478.23
614.267	38526.36
614.624	38249.31
614.98	38728.84
615.337	38852.9
615.693	38734.04
616.05	38758.67
616.406	39113.46
616.762	38974.03
617.118	39150.52
617.475	39045.89
617.831	39225.32
618.187	39374.02
618.543	39484.98
618.899	39706.44
619.255	39773.56
619.611	39756.16
619.967	39990.28
620.323	40000.45
620.678	39826.21
621.034	39944.63
621.39	39991.86
621.746	39936.04
622.101	40507.55
622.457	40058.52
622.812	40268.46
623.168	40425.29
623.523	40371.96
623.879	40409.7
624.234	40404.5
624.589	40592.75
624.945	40674.1
625.3	40624.61
625.655	40545.74
626.01	40760.2
626.365	40908.9
626.72	40650.37
627.075	40859.86
627.43	40896.92
627.785	40762.23
628.14	40755.91
628.495	41015.79
628.85	40882
629.205	40756.81
629.559	40999.97
629.914	40994.77
630.269	40875.45
630.623	40787.32
630.978	40765.85
631.332	41044.03
631.687	41173.3
632.041	40847.65
632.396	40999.29
632.75	40999.06
633.104	40797.03
633.459	40778.96
633.813	40875
634.167	40742.8
634.521	40788.67
634.875	40898.95
635.229	40813.08
635.583	40779.63
635.937	40730.14
636.291	40670.94
636.645	40732.4
636.999	40653.76
637.352	40780.31
637.706	40539.19
638.06	40839.29
638.413	40669.81
638.767	40587.1
639.121	40742.8
639.474	40327.44
639.828	40375.35
640.181	40375.8
640.534	40423.94
640.888	40354.11
641.241	40316.37
641.594	40299.19
641.947	40392.98
642.301	40486.31
642.654	40428.23
643.007	40508.45
643.36	40329.25
643.713	40149.59
644.066	40342.13
644.419	40208.8
644.771	39898.08
645.124	39522.49
645.477	39551.64
645.83	39371.31
646.182	39277.3
646.535	39078.66
646.888	39247.92
647.24	38985.78
647.593	39192.78
647.945	39119.79
648.298	38959.57
648.65	38858.55
649.002	38817.2
649.355	38975.16
649.707	38900.14
650.059	39000.47
650.411	39510.06
650.763	39477.97
651.115	40003.16
651.467	39736.05
651.819	39722.26
652.171	39608.14
652.523	39596.84
652.875	39639.78
653.227	39505.32
653.578	39684.97
653.93	39647.01
654.282	39452.21
654.633	39515.26
654.985	39445.21
655.337	39403.85
655.688	39474.81
656.039	39590.74
656.391	39269.62
656.742	39364.53
657.094	39380.35
657.445	39363.4
657.796	39300.35
658.147	39277.75
658.498	39207.7
658.849	39306.68
659.2	39214.7
659.551	39168.38
659.902	39300.58
660.253	39263.06
660.604	39217.64
660.955	39079.34
661.306	39198.43
661.656	39174.93
662.007	39233.91
662.358	39297.64
662.708	39357.3
663.059	39193.01
663.409	38913.92
663.76	39251.76
664.11	39318.66
664.461	39281.59
664.811	39294.48
665.161	39144.42
665.511	39123.41
665.862	39119.34
666.212	39252.44
666.562	39320.46
666.912	39025.1
667.262	39084.54
667.612	39047.7
667.962	39197.53
668.312	39009.96
668.662	39224.42
669.011	39067.36
669.361	39019.68
669.711	38974.71
670.06	38908.95
670.41	39010.19
670.76	38837.09
671.109	38965.22
671.459	38934.26
671.808	38873.02
672.157	38906.24
672.507	38673.93
672.856	38761.16
673.205	38748.27
673.554	38917.54
673.904	38628.5
674.253	39030.75
674.602	38716.41
674.951	38124.79
675.3	38113.04
675.649	38823.08
675.998	38692.23
676.346	38591.89
676.695	38758.22
677.044	38494.04
677.393	38763.42
677.741	38525.23
678.09	38510.99
678.438	38322.75
678.787	38461.05
679.135	38533.59
679.484	38173.15
679.832	38354.84
680.181	38111.91
680.529	38268.97
680.877	38009.54
681.225	38137.22
681.573	38394.16
681.922	38078.46
682.27	37883.66
682.618	37976.09
682.966	37942.65
683.314	37904
683.661	37727.06
684.009	37747.85
684.357	37569.77
684.705	37674.63
685.053	37663.33
685.4	37479.38
685.748	37376.33
686.095	37397.35
686.443	37142.89
686.79	37124.36
687.138	37276.68
687.485	37338.14
687.832	37124.81
688.18	37131.59
688.527	36890.7
688.874	36888.44
689.221	36854.09
689.568	36745.84
689.915	36718.05
690.262	36778.61
690.609	36498.62
690.956	36514.66
691.303	36332.97
691.65	36224.95
691.997	36246.87
692.344	35985.86
692.69	36028.8
693.037	36058.18
693.383	35673.1
693.73	36017.27
694.077	35783.16
694.423	35570.28
694.769	35524.86
695.116	35510.85
695.462	35432.66
695.808	35282.6
696.155	35395.59
696.501	35082.38
696.847	35171.42
697.193	34779.34
697.539	34946.34
697.885	34692.79
698.231	34668.38
698.577	34719.45
698.923	34636.74
699.269	34421.84
699.614	34387.49
699.96	34140.94
700.306	34229.07
700.651	34057.1
700.997	33920.38
701.342	34039.47
701.688	33890.78
702.033	33790.89
702.379	33789.99
702.724	33593.83
703.069	33672.48
703.415	33290.34
703.76	33374.86
704.105	33358.59
704.45	33210.34
704.795	33000.4
705.14	32920.18
705.485	32928.77
705.83	32890.12
706.175	32956.79
706.52	32704.59
706.865	32633.86
707.209	32605.39
707.554	32369.69
707.899	32619.4
708.243	32544.14
708.588	32334.88
708.932	32199.07
709.277	32189.8
709.621	32225.28
709.966	31966.98
710.31	31963.37
710.654	31704.84
710.998	31845.18
711.342	31754.33
711.687	31801.79
712.031	31507.79
712.375	31561.8
712.719	31529.03
713.063	31609.48
713.407	31601.34
713.75	31427.79
714.094	31445.87
714.438	31303.95
714.782	31279.77
715.125	31121.81
715.469	31143.05
715.812	31037.52
716.156	30691.99
716.499	30813.12
716.843	30886.79
717.186	30662.84
717.53	30880.23
717.873	30717.75
718.216	30608.6
718.559	30569.73
718.902	30394.37
719.246	30447.7
719.589	30247.48
719.932	30094.49
720.275	30134.49
720.617	30036.19
720.96	30079.8
721.303	29922.29
721.646	30076.41
721.989	29847.27
722.331	29951.44
722.674	29885.23
723.016	29947.6
723.359	29814.27
723.701	29796.65
724.044	29685.01
724.386	29505.81
724.729	29621.51
725.071	29613.83
725.413	29529.53
725.755	29451.34
726.097	29343.78
726.439	29283.89
726.782	29243.89
727.124	29321.63
727.465	29210.67
727.807	29088.42
728.149	29148.75
728.491	29108.53
728.833	29146.49
729.175	29004.8
729.516	29021.75
729.858	28841.87
730.199	28964.13
730.541	28743.57
730.882	28818.82
731.224	28878.7
731.565	28623.34
731.906	28649.78
732.248	28605.94
732.589	28482.56
732.93	28580.63
733.271	28506.06
733.612	28511.03
733.953	28459.51
734.294	28250.92
734.635	28327.76
734.976	28334.99
735.317	28118.5
735.658	28276.46
735.999	28150.59
736.339	28089.8
736.68	28145.39
737.021	28016.35
737.361	27836.02
737.702	27962.12
738.042	27918.05
738.383	27842.8
738.723	27990.59
739.063	27751.5
739.404	27845.51
739.744	27676.7
740.084	27723.25
740.424	27636.7
740.764	27616.82
741.104	27701.33
741.444	27422.92
741.784	27424.05
742.124	27448.46
742.464	27488.23
742.804	27355.13
743.143	27323.72
743.483	27287.79
743.823	27054.8
744.162	27091.18
744.502	27184.74
744.841	27099.54
745.181	27203.04
745.52	27067.9
745.86	27151.74
746.199	26950.17
746.538	27047.57
746.877	26984.06
747.216	27035.36
747.556	26812.09
747.895	26947.46
748.234	26680.57
748.573	26631.76
748.911	26686.22
749.25	26711.3
749.589	26595.15
749.928	26521.03
750.267	26490.74
750.605	26436.73
750.944	26425.21
751.283	26372.33
751.621	26371.43
751.96	26231.99
752.298	26185.89
752.636	26204.2
752.975	25939.8
753.313	25876.07
753.651	25997.2
753.989	25996.07
754.327	25824.32
754.666	25714.27
755.004	25769.18
755.342	25820.71
755.679	25620.48
756.017	25563.99
756.355	25605.57
756.693	25516.98
757.031	25515.63
757.368	25372.58
