Data from hue_120_FLMS001491_00036.txt Node
Date: Tue Feb 07 16:59:17 GMT 2017
User: dcchb
Spectrometer: FLMS00149
Trigger mode: 0
Integration Time (sec): 2.000000E-2
Scans to average: 10
Electric dark correction enabled: true
Nonlinearity correction enabled: false
Boxcar width: 0
XAxis mode: Wavelengths
Number of Pixels in Spectrum: 2048
>>>>>Begin Spectral Data<<<<<
341.393	-25.08
341.776	-25.08
342.16	-25.08
342.543	-63.5
342.927	-71.64
343.31	-81.81
343.693	-73.9
344.077	-65.99
344.46	-56.27
344.843	-50.85
345.226	-32.32
345.61	-36.38
345.993	-21.47
346.376	4.52
346.759	14.69
347.142	19.43
347.525	43.39
347.908	60.34
348.291	98.08
348.674	81.35
349.057	97.17
349.44	126.78
349.823	147.11
350.206	160.67
350.588	183.72
350.971	203.84
351.354	223.5
351.737	234.57
352.119	258.52
352.502	262.82
352.884	267.34
353.267	285.19
353.65	289.94
354.032	306.43
354.414	298.75
354.797	284.06
355.179	320.9
355.562	327.9
355.944	317.73
356.326	336.26
356.709	326.32
357.091	366.09
357.473	335.58
357.855	351.86
358.238	330.16
358.62	369.03
359.002	351.63
359.384	364.96
359.766	355.7
360.148	345.08
360.53	316.38
360.912	331.29
361.294	322.48
361.676	321.8
362.057	350.27
362.439	338.75
362.821	332.19
363.203	299.65
363.584	351.18
363.966	322.48
364.348	315.7
364.729	308.24
365.111	308.01
365.493	321.8
365.874	310.27
366.256	317.51
366.637	314.34
367.019	313.66
367.4	309.37
367.781	326.77
368.163	305.75
368.544	324.74
368.925	311.18
369.306	334.91
369.688	310.5
370.069	295.59
370.45	315.47
370.831	317.73
371.212	305.08
371.593	284.74
371.974	315.25
372.355	326.09
372.736	322.93
373.117	315.92
373.498	300.11
373.879	311.63
374.26	319.77
374.641	310.95
375.021	322.48
375.402	315.25
375.783	321.8
376.163	333.78
376.544	328.8
376.925	319.09
377.305	317.05
377.686	343.27
378.066	351.86
378.447	341.46
378.827	322.25
379.208	354.34
379.588	345.3
379.968	340.78
380.349	347.79
380.729	337.84
381.109	346.43
381.489	327.45
381.87	345.08
382.25	361.57
382.63	360.89
383.01	356.6
383.39	359.76
383.77	352.08
384.15	358.41
384.53	338.52
384.91	346.21
385.29	351.63
385.67	361.57
386.049	357.96
386.429	353.21
386.809	352.53
387.189	355.47
387.568	364.51
387.948	361.8
388.328	374.68
388.707	372.65
389.087	361.35
389.466	379.43
389.846	368.8
390.225	385.53
390.605	371.74
390.984	372.42
391.363	380.78
391.743	388.69
392.122	380.78
392.501	385.07
392.881	390.95
393.26	377.84
393.639	370.16
394.018	382.81
394.397	389.59
394.776	397.05
395.155	415.81
395.534	381.68
395.913	374.23
396.292	384.85
396.671	402.02
397.05	394.11
397.429	405.87
397.808	405.19
398.186	411.51
398.565	409.71
398.944	407.67
399.323	404.06
399.701	411.51
400.08	412.87
400.458	409.25
400.837	423.27
401.215	415.36
401.594	429.59
401.972	431.18
402.351	421.23
402.729	426.66
403.107	433.21
403.486	427.56
403.864	424.17
404.242	431.4
404.62	450.38
404.999	452.87
405.377	447.45
405.755	450.84
406.133	428.01
406.511	456.71
406.889	460.33
407.267	448.58
407.645	464.85
408.023	459.65
408.401	482.47
408.779	482.47
409.156	480.44
409.534	480.21
409.912	465.98
410.29	469.37
410.667	452.87
411.045	465.3
411.422	502.36
411.8	485.41
412.178	493.77
412.555	508.91
412.933	516.37
413.31	503.72
413.687	512.3
414.065	512.53
414.442	513.43
414.819	530.83
415.197	517.05
415.574	533.55
415.951	528.35
416.328	565.63
416.705	542.36
417.082	560.89
417.46	539.19
417.837	537.39
418.214	558.86
418.591	554.34
418.967	545.75
419.344	555.24
419.721	570.38
420.098	548.69
420.475	559.08
420.852	562.47
421.228	596.37
421.605	585.75
421.982	578.29
422.358	585.52
422.735	573.32
423.111	577.16
423.488	611.06
423.864	612.64
424.241	621.68
424.617	595.92
424.994	616.71
425.37	625.97
425.746	607.22
426.123	611.51
426.499	616.71
426.875	640.66
427.251	659.19
427.627	650.38
428.003	665.07
428.379	656.93
428.756	684.95
429.132	693.54
429.507	685.86
429.883	664.39
430.259	685.18
430.635	690.6
431.011	709.36
431.387	693.54
431.763	706.65
432.138	706.42
432.514	747.32
432.89	748.23
433.265	742.58
433.641	741
434.016	754.78
434.392	756.82
434.767	759.53
435.143	776.93
435.518	785.29
435.894	788.91
436.269	792.75
436.644	801.79
437.02	809.24
437.395	816.25
437.77	814.44
438.145	817.38
438.52	814.22
438.895	835.46
439.271	833.2
439.646	829.58
440.021	850.37
440.395	871.16
440.77	856.93
441.145	875.01
441.52	873.65
441.895	886.76
442.27	888.79
442.645	877.04
443.019	881.78
443.394	887.21
443.769	900.77
444.143	894.44
444.518	877.72
444.892	919.07
445.267	955.91
445.641	959.52
446.016	926.53
446.39	929.24
446.764	957.04
447.139	954.33
447.513	963.59
447.887	969.01
448.262	984.83
448.636	977.15
449.01	967.43
449.384	994.55
449.758	1006.3
450.132	1024.15
450.506	1024.83
450.88	1017.6
451.254	1015.11
451.628	1058.73
452.002	1085.85
452.376	1062.57
452.75	1083.81
453.123	1084.49
453.497	1101.44
453.871	1105.51
454.244	1101.67
454.618	1129.46
454.992	1123.81
455.365	1142.34
455.739	1182.79
456.112	1180.31
456.486	1169.46
456.859	1186.86
457.232	1227.76
457.606	1205.62
457.979	1226.86
458.352	1255.79
458.725	1285.39
459.099	1279.97
459.472	1302.11
459.845	1313.41
460.218	1355.9
460.591	1358.16
460.964	1344.37
461.337	1383.01
461.71	1375.33
462.083	1398.38
462.456	1411.04
462.829	1420.98
463.201	1446.97
463.574	1481.09
463.947	1484.71
464.32	1514.54
464.692	1527.19
465.065	1517.7
465.438	1574.65
465.81	1600.41
466.183	1609.22
466.555	1644.25
466.928	1665.27
467.3	1692.84
467.672	1675.66
468.045	1747.75
468.417	1762.67
468.789	1801.99
469.161	1832.04
469.534	1839.95
469.906	1922.66
470.278	1915.66
470.65	1938.03
471.022	1964.24
471.394	2001.08
471.766	2032.04
472.138	2096.67
472.51	2136.67
472.882	2154.52
473.253	2171.24
473.625	2242.2
473.997	2332.14
474.369	2339.6
474.74	2393.16
475.112	2437.68
475.484	2547.28
475.855	2574.62
476.227	2624.79
476.598	2700.27
476.97	2772.13
477.341	2813.71
477.713	2859.59
478.084	2902.97
478.455	2989.3
478.827	3122.18
479.198	3203.53
479.569	3278.56
479.94	3375.28
480.311	3431.77
480.682	3538.44
481.053	3618.89
481.424	3696.63
481.795	3812.1
482.166	3959.22
482.537	3972.55
482.908	4070.85
483.279	4221.13
483.65	4327.34
484.021	4464.74
484.391	4538.19
484.762	4583.61
485.133	4739.76
485.503	4859.99
485.874	5022.47
486.244	5097.95
486.615	5345.62
486.985	5447.09
487.356	5525.73
487.726	5642.79
488.097	5822.22
488.467	5894.08
488.837	6066.73
489.207	6220.85
489.578	6354.64
489.948	6518.02
490.318	6633.5
490.688	6751.69
491.058	6909.42
491.428	7109.19
491.798	7218.79
492.168	7407.04
492.538	7510.99
492.908	7671.66
493.278	7747.82
493.648	7922.5
494.017	8064.42
494.387	8156.4
494.757	8409.04
495.126	8506.22
495.496	8568.59
495.866	8738.53
496.235	8899.2
496.605	8985.98
496.974	9092.19
497.344	9249.47
497.713	9424.38
498.082	9549.81
498.452	9640.42
498.821	9696.24
499.19	9800.87
499.559	9864.83
499.928	10051.04
500.298	10264.59
500.667	10296.23
501.036	10340.97
501.405	10492.83
501.774	10545.94
502.143	10677.23
502.512	10766.27
502.88	10885.36
503.249	10927.4
503.618	11045.59
503.987	11153.15
504.356	11260.04
504.724	11319.25
505.093	11327.84
505.462	11436.54
505.83	11548.17
506.199	11617.55
506.567	11766.47
506.936	11818.67
507.304	11980.02
507.672	12063.64
508.041	12106.35
508.409	12188.61
508.777	12294.14
509.145	12292.78
509.514	12353.12
509.882	12445.55
510.25	12465.66
510.618	12618.43
510.986	12608.93
511.354	12742.49
511.722	12870.62
512.09	12930.06
512.458	12844.41
512.826	12958.08
513.193	13021.8
513.561	13072.88
513.929	13216.15
514.297	13188.81
514.664	13349.71
515.032	13349.93
515.4	13404.39
515.767	13441.68
516.135	13512.64
516.502	13410.49
516.869	13598.29
517.237	13608.91
517.604	13572.52
517.972	13695.46
518.339	13774.33
518.706	13789.47
519.073	13829.01
519.44	13858.84
519.808	13942.23
520.175	13878.28
520.542	13992.63
520.909	14144.94
521.276	14190.81
521.643	14139.97
522.009	14282.56
522.376	14233.07
522.743	14294.09
523.11	14351.71
523.477	14471.94
523.843	14527.3
524.21	14634.64
524.577	14624.47
524.943	14580.63
525.31	14637.81
525.676	14700.86
526.043	14681.65
526.409	14763.45
526.776	14917.12
527.142	14892.94
527.508	14955.54
527.874	14957.35
528.241	15001.19
528.607	14908.53
528.973	15005.48
529.339	14982.43
529.705	15036.89
530.071	15126.61
530.437	15080.06
530.803	15116.44
531.169	15088.87
531.535	15082.32
531.901	15004.35
532.267	15088.87
532.632	15124.8
532.998	15111.02
533.364	15083.45
533.73	15136.78
534.095	15178.58
534.461	15142.2
534.826	15061.07
535.192	15087.74
535.557	15163.9
535.923	15058.14
536.288	15146.49
536.653	15101.98
537.019	15003.22
537.384	14984.24
537.749	14978.59
538.114	15002.54
538.479	14923.9
538.845	14971.36
539.21	14900.63
539.575	14908.08
539.94	14868.76
540.305	14877.35
540.67	14772.94
541.034	14858.82
541.399	14867.86
541.764	14776.79
542.129	14774.53
542.494	14724.13
542.858	14728.43
543.223	14690.24
543.587	14714.64
543.952	14640.29
544.316	14536.57
544.681	14639.62
545.045	14644.81
545.41	14570.01
545.774	14517.58
546.138	14516.45
546.503	14454.54
546.867	14438.04
547.231	14394.42
547.595	14438.49
547.959	14375.22
548.324	14284.6
548.688	14351.71
549.052	14268.1
549.416	14198.5
549.779	14215.45
550.143	14259.74
550.507	14195.78
550.871	14152.4
551.235	14080.76
551.599	14196.24
551.962	14127.09
552.326	14088.67
552.689	14062
553.053	13989.24
553.417	13995.56
553.78	14034.43
554.143	14000.99
554.507	14066.75
554.87	14076.01
555.234	14064.71
555.597	13951.5
555.96	13948.56
556.323	13956.24
556.686	14039.86
557.05	13970.25
557.413	13959.18
557.776	14003.02
558.139	13990.82
558.502	13904.27
558.865	13885.06
559.228	13940.42
559.59	13981.55
559.953	13950.37
560.316	14045.51
560.679	13913.31
561.041	14000.99
561.404	13967.99
561.767	14001.89
562.129	13893.42
562.492	14012.96
562.854	13954.89
563.217	14006.41
563.579	14027.65
563.941	13951.27
564.304	14029.01
564.666	14205.5
565.028	14091.38
565.39	14175.22
565.753	14267.42
566.115	14198.72
566.477	14221.77
566.839	14111.72
567.201	14239.4
567.563	14235.11
567.925	14220.42
568.287	14241.66
568.648	14269
569.01	14300.19
569.372	14271.49
569.734	14271.26
570.095	14345.84
570.457	14321.66
570.819	14361.2
571.18	14420.86
571.542	14413.41
571.903	14392.39
572.265	14485.49
572.626	14375.89
572.987	14545.15
573.349	14426.51
573.71	14516.23
574.071	14524.59
574.432	14540.18
574.794	14582.44
575.155	14550.13
575.516	14531.82
575.877	14638.49
576.238	14520.3
576.599	14667.64
576.96	14611.37
577.32	14571.82
577.681	14503.57
578.042	14579.5
578.403	14596.68
578.763	14631.93
579.124	14664.47
579.485	14643.68
579.845	14596.68
580.206	14612.05
580.566	14697.01
580.927	14658.15
581.287	14712.61
581.648	14562.1
582.008	14673.29
582.368	14618.6
582.728	14665.15
583.089	14641.2
583.449	14664.25
583.809	14638.26
584.169	14645.49
584.529	14633.51
584.889	14748.54
585.249	14569.56
585.609	14550.58
585.969	14637.58
586.329	14513.97
586.688	14666.28
587.048	14550.58
587.408	14495.89
587.768	14513.52
588.127	14561.88
588.487	14483.24
588.846	14570.92
589.206	14421.54
589.565	14486.62
589.925	14552.61
590.284	14454.76
590.643	14517.58
591.003	14488.21
591.362	14514.87
591.721	14440.07
592.08	14440.52
592.44	14459.28
592.799	14481.43
593.158	14423.58
593.517	14355.1
593.876	14450.47
594.235	14485.49
594.593	14391.49
594.952	14447.3
595.311	14321.88
595.67	14412.28
596.029	14445.72
596.387	14521.65
596.746	14391.94
597.104	14373.18
597.463	14407.08
597.822	14431.03
598.18	14403.46
598.538	14305.39
598.897	14387.19
599.255	14238.72
599.613	14487.08
599.972	14366.85
600.33	14381.54
600.688	14417.47
601.046	14364.59
601.404	14398.04
601.762	14313.52
602.12	14424.93
602.478	14360.98
602.836	14400.53
603.194	14326.4
603.552	14361.66
603.91	14358.72
604.268	14552.84
604.625	14378.83
604.983	14472.16
605.341	14290.47
605.698	14407.53
606.056	14451.15
606.413	14338.15
606.771	14442.11
607.128	14403.01
607.485	14373.41
607.843	14383.8
608.2	14462.9
608.557	14429.9
608.914	14430.36
609.272	14454.54
609.629	14485.04
609.986	14560.75
610.343	14484.59
610.7	14556.23
611.057	14538.37
611.414	14579.28
611.771	14492.5
612.127	14634.64
612.484	14619.28
612.841	14667.18
613.198	14586.96
613.554	14631.71
613.911	14719.84
614.267	14658.37
614.624	14664.7
614.98	14703.12
615.337	14757.13
615.693	14686.17
616.05	14639.84
616.406	14815.43
616.762	14773.85
617.118	14707.18
617.475	14738.14
617.831	14747.86
618.187	14748.31
618.543	14730.23
618.899	14812.04
619.255	14797.13
619.611	14795.54
619.967	14824.47
620.323	14905.14
620.678	14867.18
621.034	14849.1
621.39	14768.2
621.746	14831.93
622.101	14956.44
622.457	14756.22
622.812	14817.24
623.168	14842.77
623.523	14860.85
623.879	14914.86
624.234	14712.38
624.589	14877.8
624.945	14838.48
625.3	14839.38
625.655	14874.41
626.01	14835.32
626.365	14836.9
626.72	14809.55
627.075	14797.8
627.43	14854.98
627.785	14774.07
628.14	14802.32
628.495	14802.55
628.85	14820.63
629.205	14765.71
629.559	14768.43
629.914	14708.54
630.269	14720.74
630.623	14746.05
630.978	14646.62
631.332	14654.76
631.687	14906.27
632.041	14710.35
632.396	14671.03
632.75	14716.9
633.104	14699.27
633.459	14553.52
633.813	14535.21
634.167	14603.68
634.521	14518.71
634.875	14586.74
635.229	14617.47
635.583	14483.91
635.937	14521.2
636.291	14531.14
636.645	14492.73
636.999	14391.03
637.352	14444.59
637.706	14414.99
638.06	14416.12
638.413	14449.56
638.767	14410.92
639.121	14429.9
639.474	14333.86
639.828	14339.06
640.181	14310.13
640.534	14341.32
640.888	14321.66
641.241	14160.98
641.594	14235.56
641.947	14275.1
642.301	14203.47
642.654	14286.18
643.007	14227.2
643.36	14213.86
643.713	14229.23
644.066	14195.33
644.419	14109.69
644.771	14080.08
645.124	13937.94
645.477	13918.73
645.83	13876.47
646.182	13779.52
646.535	13716.7
646.888	13834.44
647.24	13662.47
647.593	13813.87
647.945	13776.36
648.298	13664.5
648.65	13621.11
649.002	13633.99
649.355	13710.83
649.707	13678.28
650.059	13780.88
650.411	13884.83
650.763	13897.49
651.115	14067.88
651.467	14088.22
651.819	14037.82
652.171	14039.63
652.523	14053.42
652.875	14019.29
653.227	13890.03
653.578	14016.13
653.93	13952.4
654.282	13919.18
654.633	13844.16
654.985	13926.41
655.337	13988.33
655.688	13949.69
656.039	14042.79
656.391	13916.24
656.742	14004.15
657.094	13932.52
657.445	14084.83
657.796	14013.19
658.147	13959.86
658.498	14021.33
658.849	14039.86
659.2	13949.01
659.551	13984.04
659.902	13999.41
660.253	13955.79
660.604	14051.61
660.955	13883.02
661.306	14003.47
661.656	13965.73
662.007	13965.96
662.358	13940.65
662.708	13994.89
663.059	14024.49
663.409	13793.76
663.76	14063.59
664.11	14031.04
664.461	14024.26
664.811	14023.59
665.161	13973.87
665.511	13980.2
665.862	13996.24
666.212	13983.59
666.562	14044.83
666.912	13955.34
667.262	14108.78
667.612	14050.93
667.962	14066.97
668.312	14071.27
668.662	14122.34
669.011	14063.59
669.361	13980.2
669.711	14036.47
670.06	13972.97
670.41	13962.8
670.76	13953.76
671.109	14038.95
671.459	13952.18
671.808	13935.68
672.157	13979.75
672.507	13949.24
672.856	13927.09
673.205	13932.52
673.554	13925.74
673.904	13912.18
674.253	13911.5
674.602	13922.57
674.951	13676.02
675.3	13632.86
675.649	13812.97
675.998	13755.12
676.346	13742.92
676.695	13797.38
677.044	13674.44
677.393	13722.58
677.741	13819.98
678.09	13796.47
678.438	13699.98
678.787	13703.59
679.135	13679.87
679.484	13613.65
679.832	13703.14
680.181	13629.7
680.529	13592.86
680.877	13561.45
681.225	13502.47
681.573	13624.95
681.922	13432.64
682.27	13471.28
682.618	13517.61
682.966	13478.29
683.314	13500.89
683.661	13336.15
684.009	13371.17
684.357	13309.71
684.705	13321.01
685.053	13273.32
685.4	13286.43
685.748	13195.13
686.095	13154.91
686.443	13210.73
686.79	13107
687.138	13164.4
687.485	13158.52
687.832	13009.38
688.18	13141.8
688.527	13032.2
688.874	12979.77
689.221	12952.43
689.568	12862.94
689.915	12946.1
690.262	12804.41
690.609	12842.6
690.956	12756.05
691.303	12812.09
691.65	12733.22
691.997	12728.7
692.344	12599.67
692.69	12609.16
693.037	12587.92
693.383	12455.49
693.73	12456.62
694.077	12315.38
694.423	12374.82
694.769	12332.33
695.116	12335.72
695.462	12239.23
695.808	12229.28
696.155	12322.61
696.501	12106.57
696.847	12125.78
697.193	11983.19
697.539	12095.73
697.885	12017.54
698.231	11924.21
698.577	11904.09
698.923	11900.25
699.269	11845.11
699.614	11704.33
699.96	11720.82
700.306	11736.87
700.651	11696.19
700.997	11589.75
701.342	11643.76
701.688	11513.37
702.033	11487.83
702.379	11484.44
702.724	11451.9
703.069	11499.81
703.415	11319.02
703.76	11324.9
704.105	11286.71
704.45	11332.13
704.795	11242.64
705.14	11230.44
705.485	11128.97
705.83	11089.65
706.175	11143.66
706.52	11063.89
706.865	10968.75
707.209	11008.98
707.554	10946.6
707.899	10935.53
708.243	10900.05
708.588	10925.81
708.932	10821.41
709.277	10791.35
709.621	10742.09
709.966	10733.05
710.31	10798.36
710.654	10631.81
710.998	10696.22
711.342	10624.81
711.687	10672.49
712.031	10546.16
712.375	10497.8
712.719	10580.29
713.063	10540.51
713.407	10544.13
713.75	10475.66
714.094	10468.43
714.438	10465.04
714.782	10456.67
715.125	10413.51
715.469	10474.98
715.812	10311.14
716.156	10293.51
716.499	10303.23
716.843	10349.33
717.186	10248.54
717.53	10301.88
717.873	10270.24
718.216	10240.18
718.559	10203.35
718.902	10107.3
719.246	10161.54
719.589	10139.39
719.932	10083.8
720.275	10068.89
720.617	10040.19
720.96	10119.28
721.303	10066.4
721.646	10056.01
721.989	9986.18
722.331	10103.24
722.674	10013.97
723.016	10052.62
723.359	9975.33
723.701	10039.28
724.044	9926.07
724.386	9902.34
724.729	9993.64
725.071	9921.55
725.413	9912.51
725.755	9933.52
726.097	9879.51
726.439	9820.53
726.782	9858.27
727.124	9943.02
727.465	9767.43
727.807	9847.88
728.149	9759.97
728.491	9825.05
728.833	9838.61
729.175	9767.88
729.516	9832.74
729.858	9739.63
730.199	9850.14
730.541	9797.26
730.882	9837.93
731.224	9807.2
731.565	9743.92
731.906	9815.11
732.248	9851.49
732.589	9726.75
732.93	9650.59
733.271	9708.22
733.612	9763.36
733.953	9716.58
734.294	9753.64
734.635	9669.58
734.976	9826.41
735.317	9592.06
735.658	9733.08
735.999	9818.27
736.339	9753.19
736.68	9755
737.021	9724.49
737.361	9719.97
737.702	9840.19
738.042	9692.63
738.383	9735.56
738.723	9785.96
739.063	9741.66
739.404	9712.96
739.744	9760.65
740.084	9784.15
740.424	9816.69
740.764	9766.07
741.104	9799.06
741.444	9837.03
741.784	9746.86
742.124	9839.52
742.464	9857.82
742.804	9882.45
743.143	9828.67
743.483	9940.53
743.823	9896.91
744.162	9971.49
744.502	9935.33
744.841	9938.95
745.181	10046.52
745.52	10019.4
745.86	10113.41
746.199	10127.19
746.538	10095.78
746.877	10213.97
747.216	10295.32
747.556	10269.11
747.895	10294.64
748.234	10434.08
748.573	10391.14
748.911	10472.94
749.25	10569.44
749.589	10547.29
749.928	10658.25
750.267	10744.58
750.605	10738.25
750.944	10816.89
751.283	10918.13
751.621	11025.7
751.96	11050.33
752.298	11115.19
752.636	11248.52
752.975	11225.47
753.313	11355.63
753.651	11541.62
753.989	11540.94
754.327	11700.26
754.666	11710.43
755.004	11870.2
755.342	12100.7
755.679	12231.99
756.017	12242.39
756.355	12410.75
756.693	12614.13
757.031	12591.99
