Data from hue_350_FLMS001491_91.txt Node
Date: Mon Feb 06 15:38:46 GMT 2017
User: dcchb
Spectrometer: FLMS00149
Trigger mode: 0
Integration Time (sec): 2.000000E-2
Scans to average: 10
Electric dark correction enabled: true
Nonlinearity correction enabled: false
Boxcar width: 0
XAxis mode: Wavelengths
Number of Pixels in Spectrum: 2048
>>>>>Begin Spectral Data<<<<<
341.393	1.81
341.776	1.81
342.16	1.81
342.543	-68.25
342.927	-54.69
343.31	-45.87
343.693	-71.18
344.077	-90.85
344.46	-56.27
344.843	-60.34
345.226	-56.04
345.61	-18.08
345.993	-9.27
346.376	-1.58
346.759	15.14
347.142	10.4
347.525	47.91
347.908	58.3
348.291	65.76
348.674	111.86
349.057	100.11
349.44	121.8
349.823	150.73
350.206	173.78
350.588	180.79
350.971	200.9
351.354	209.49
351.737	219.66
352.119	233.67
352.502	257.85
352.884	277.73
353.267	264.63
353.65	268.69
354.032	288.81
354.414	298.98
354.797	304.62
355.179	326.77
355.562	309.6
355.944	323.61
356.326	329.03
356.709	318.64
357.091	339.43
357.473	344.4
357.855	329.71
358.238	327.9
358.62	350.5
359.002	332.19
359.384	352.76
359.766	340.56
360.148	332.87
360.53	316.83
360.912	322.48
361.294	333.55
361.676	312.31
362.057	355.47
362.439	348.01
362.821	319.77
363.203	319.09
363.584	335.13
363.966	332.65
364.348	290.84
364.729	306.21
365.111	296.26
365.493	316.6
365.874	320.22
366.256	304.17
366.637	318.64
367.019	315.47
367.4	321.8
367.781	318.86
368.163	331.06
368.544	334.91
368.925	312.76
369.306	327.9
369.688	315.02
370.069	331.97
370.45	298.07
370.831	316.6
371.212	307.79
371.593	312.76
371.974	315.02
372.355	309.6
372.736	336.26
373.117	311.63
373.498	311.86
373.879	310.73
374.26	324.74
374.641	303.72
375.021	321.8
375.402	309.14
375.783	308.01
376.163	325.87
376.544	319.54
376.925	317.96
377.305	328.58
377.686	322.93
378.066	314.79
378.447	320.44
378.827	320.22
379.208	326.32
379.588	306.43
379.968	323.16
380.349	347.56
380.729	336.49
381.109	350.95
381.489	327.68
381.87	335.13
382.25	329.03
382.63	322.48
383.01	356.83
383.39	319.09
383.77	324.51
384.15	338.07
384.53	340.56
384.91	345.08
385.29	354.57
385.67	355.02
386.049	348.92
386.429	353.21
386.809	330.61
387.189	355.47
387.568	357.96
387.948	344.62
388.328	339.43
388.707	349.14
389.087	349.37
389.466	359.76
389.846	350.5
390.225	374.45
390.605	358.86
390.984	359.76
391.363	367.22
391.743	358.63
392.122	344.85
392.501	369.71
392.881	352.08
393.26	359.76
393.639	372.42
394.018	352.31
394.397	360.67
394.776	385.3
395.155	380.78
395.534	373.78
395.913	372.42
396.292	393.44
396.671	378.75
397.05	377.39
397.429	399.99
397.808	366.77
398.186	383.94
398.565	367.9
398.944	383.94
399.323	389.14
399.701	383.04
400.08	354.34
400.458	387.56
400.837	395.02
401.215	387.33
401.594	390.72
401.972	376.71
402.351	389.59
402.729	406.54
403.107	399.09
403.486	408.8
403.864	411.06
404.242	407.22
404.62	416.49
404.999	407.9
405.377	406.99
405.755	407.22
406.133	399.99
406.511	409.93
406.889	433.66
407.267	397.5
407.645	436.6
408.023	425.75
408.401	435.69
408.779	431.18
409.156	412.64
409.534	429.59
409.912	432.31
410.29	459.65
410.667	434.56
411.045	462.13
411.422	455.58
411.8	447.9
412.178	439.08
412.555	449.48
412.933	447.67
413.31	491.96
413.687	479.99
414.065	486.31
414.442	465.52
414.819	469.59
415.197	483.15
415.574	480.89
415.951	509.14
416.328	473.21
416.705	482.7
417.082	481.12
417.46	502.81
417.837	493.09
418.214	501.68
418.591	501
418.967	518.63
419.344	516.82
419.721	542.13
420.098	502.13
420.475	507.33
420.852	541.45
421.228	528.8
421.605	531.29
421.982	535.58
422.358	536.48
422.735	559.53
423.111	558.86
423.488	535.81
423.864	560.21
424.241	561.79
424.617	549.36
424.994	577.84
425.37	560.66
425.746	572.19
426.123	572.87
426.499	582.13
426.875	581
427.251	598.85
427.627	577.61
428.003	572.87
428.379	617.38
428.756	626.65
429.132	611.51
429.507	590.04
429.883	604.05
430.259	628.91
430.635	610.83
431.011	633.66
431.387	635.01
431.763	649.47
432.138	633.66
432.514	636.37
432.89	621.68
433.265	665.52
433.641	675.24
434.016	662.58
434.392	664.62
434.767	663.94
435.143	686.54
435.518	674.78
435.894	698.51
436.269	714.78
436.644	706.2
437.02	702.81
437.395	738.51
437.77	725.4
438.145	725.18
438.52	729.02
438.895	755.91
439.271	725.4
439.646	754.33
440.021	749.36
440.395	755.01
440.77	759.53
441.145	760.66
441.52	776.02
441.895	789.36
442.27	762.92
442.645	759.53
443.019	773.99
443.394	778.96
443.769	790.04
444.143	794.1
444.518	806.76
444.892	796.82
445.267	813.99
445.641	813.09
446.016	795.46
446.39	812.63
446.764	820.09
447.139	802.24
447.513	830.26
447.887	844.95
448.262	821.67
448.636	837.94
449.01	842.92
449.384	856.7
449.758	852.41
450.132	853.08
450.506	853.08
450.88	873.2
451.254	895.57
451.628	855.57
452.002	870.49
452.376	890.37
452.75	882.24
453.123	898.73
453.497	912.29
453.871	907.77
454.244	942.57
454.618	919.07
454.992	945.51
455.365	933.08
455.739	948
456.112	973.76
456.486	979.64
456.859	976.02
457.232	983.93
457.606	987.54
457.979	1010.37
458.352	989.35
458.725	1039.75
459.099	1037.03
459.472	1033.87
459.845	1063.02
460.218	1068.22
460.591	1043.14
460.964	1075.9
461.337	1121.78
461.71	1105.96
462.083	1120.42
462.456	1108.9
462.829	1139.18
463.201	1134.43
463.574	1143.7
463.947	1122.91
464.32	1176.01
464.692	1190.7
465.065	1180.31
465.438	1181.44
465.81	1227.54
466.183	1228.67
466.555	1235
466.928	1227.54
467.3	1236.8
467.672	1263.24
468.045	1317.93
468.417	1300.98
468.789	1325.61
469.161	1336.46
469.534	1337.82
469.906	1369.68
470.278	1376.23
470.65	1381.66
471.022	1434.99
471.394	1432.5
471.766	1461.88
472.138	1495.33
472.51	1498.04
472.882	1493.07
473.253	1525.16
473.625	1539.17
473.997	1584.14
474.369	1587.53
474.74	1627.08
475.112	1636.34
475.484	1673.85
475.855	1681.31
476.227	1734.42
476.598	1746.62
476.97	1776.45
477.341	1794.98
477.713	1831.82
478.084	1830.01
478.455	1870.01
478.827	1949.1
479.198	1980.51
479.569	1977.8
479.94	2039.72
480.311	2041.98
480.682	2073.84
481.053	2132.6
481.424	2155.65
481.795	2169.66
482.166	2234.07
482.537	2237.46
482.908	2262.99
483.279	2318.13
483.65	2354.51
484.021	2439.94
484.391	2409.2
484.762	2448.07
485.133	2488.07
485.503	2502.31
485.874	2574.85
486.244	2597.9
486.615	2654.62
486.985	2649.87
487.356	2757.67
487.726	2750.66
488.097	2778.23
488.467	2815.97
488.837	2831.11
489.207	2907.95
489.578	2959.92
489.948	2978.68
490.318	3002.86
490.688	3051.45
491.058	3076.98
491.428	3123.76
491.798	3163.53
492.168	3208.05
492.538	3236.98
492.908	3221.38
493.278	3297.99
493.648	3346.13
494.017	3349.97
494.387	3377.31
494.757	3411.21
495.126	3427.48
495.496	3501.83
495.866	3557.42
496.235	3556.29
496.605	3577.08
496.974	3604.65
497.344	3624.54
497.713	3675.84
498.082	3707.02
498.452	3718.09
498.821	3727.81
499.19	3753.12
499.559	3766.23
499.928	3786.79
500.298	3775.95
500.667	3898.65
501.036	3840.13
501.405	3918.32
501.774	3904.98
502.143	3909.05
502.512	3896.85
502.88	3983.4
503.249	3979.1
503.618	4025.66
503.987	4024.3
504.356	4043.96
504.724	4035.15
505.093	4085.32
505.462	4081.02
505.83	4086.67
506.199	4118.76
506.567	4186.78
506.936	4175.94
507.304	4217.97
507.672	4204.64
508.041	4276.05
508.409	4242.6
508.777	4278.08
509.145	4311.53
509.514	4340.45
509.882	4379.77
510.25	4371.41
510.618	4398.08
510.986	4389.04
511.354	4432.2
511.722	4483.72
512.09	4487.57
512.458	4498.86
512.826	4509.94
513.193	4481.92
513.561	4554.23
513.929	4505.87
514.297	4618.41
514.664	4598.52
515.032	4624.96
515.4	4605.98
515.767	4629.93
516.135	4680.55
516.502	4644.85
516.869	4766.43
517.237	4773.21
517.604	4697.28
517.972	4768.46
518.339	4795.81
518.706	4738.41
519.073	4826.99
519.44	4812.98
519.808	4819.76
520.175	4851.62
520.542	4905.18
520.909	4893.2
521.276	4930.04
521.643	4937.72
522.009	4982.24
522.376	4994.44
522.743	4964.62
523.11	5059.75
523.477	5100.43
523.843	5120.32
524.21	5132.75
524.577	5200.09
524.943	5166.64
525.31	5208.68
525.676	5234.89
526.043	5253.65
526.409	5302.23
526.776	5285.96
527.142	5337.71
527.508	5341.1
527.874	5418.84
528.241	5407.77
528.607	5451.38
528.973	5430.37
529.339	5474.66
529.705	5546.29
530.071	5571.15
530.437	5580.42
530.803	5659.51
531.169	5623.81
531.535	5662.22
531.901	5628.78
532.267	5677.59
532.632	5693.86
532.998	5763.92
533.364	5833.74
533.73	5817.47
534.095	5829.45
534.461	5807.98
534.826	5878.04
535.192	5890.69
535.557	5936.79
535.923	5977.02
536.288	5933.18
536.653	6043.46
537.019	6011.14
537.384	6018.15
537.749	6079.16
538.114	6084.36
538.479	6086.39
538.845	6164.36
539.21	6115.55
539.575	6152.38
539.94	6116.68
540.305	6167.75
540.67	6267.18
541.034	6239.16
541.399	6307.63
541.764	6304.92
542.129	6325.48
542.494	6372.94
542.858	6382.88
543.223	6338.82
543.587	6418.14
543.952	6456.55
544.316	6446.16
544.681	6508.53
545.045	6525.03
545.41	6540.62
545.774	6577.23
546.138	6602.09
546.503	6641.41
546.867	6641.18
547.231	6652.71
547.595	6668.53
547.959	6705.36
548.324	6772.25
548.688	6779.26
549.052	6794.17
549.416	6827.84
549.779	6824.23
550.143	6834.4
550.507	6898.35
550.871	6965.69
551.235	6880.72
551.599	6998.46
551.962	6979.93
552.326	7014.96
552.689	7032.36
553.053	7019.93
553.417	7074.84
553.78	7167.04
554.143	7110.77
554.507	7149.42
554.87	7132.92
555.234	7230.32
555.597	7177.89
555.96	7184.22
556.323	7227.38
556.686	7252.92
557.05	7249.07
557.413	7326.59
557.776	7322.29
558.139	7370.88
558.502	7380.82
558.865	7407.49
559.228	7492.23
559.59	7494.49
559.953	7478.22
560.316	7535.85
560.679	7539.01
561.041	7619.23
561.404	7629.18
561.767	7661.04
562.129	7670.98
562.492	7696.75
562.854	7732.68
563.217	7676.18
563.579	7746.01
563.941	7767.03
564.304	7800.02
564.666	7819.68
565.028	7883.18
565.39	7879.57
565.753	7955.95
566.115	7939.23
566.477	7900.58
566.839	8066.23
567.201	8026.91
567.563	8056.74
567.925	8196.39
568.287	8090.63
568.648	8144.42
569.01	8164.98
569.372	8233.46
569.734	8237.3
570.095	8303.06
570.457	8404.75
570.819	8343.74
571.18	8360.91
571.542	8437.52
571.903	8484.97
572.265	8499.44
572.626	8532.43
572.987	8565.42
573.349	8601.13
573.71	8642.94
574.071	8712.77
574.432	8711.64
574.794	8903.49
575.155	8875.92
575.516	8879.77
575.877	8922.03
576.238	9033.21
576.599	9106.88
576.96	9164.5
577.32	9189.59
577.681	9324.5
578.042	9383.26
578.403	9445.4
578.763	9576.7
579.124	9609.92
579.485	9696.02
579.845	9884.94
580.206	9922.9
580.566	10046.06
580.927	10051.94
581.287	10287.87
581.648	10327.86
582.008	10498.93
582.368	10553.39
582.728	10776.21
583.089	10883.1
583.449	10971.69
583.809	11127.62
584.169	11289.42
584.529	11369.19
584.889	11668.85
585.249	11799.24
585.609	11979.35
585.969	12192.45
586.329	12358.77
586.688	12513.34
587.048	12758.99
587.408	12844.86
587.768	13170.05
588.127	13311.74
588.487	13571.62
588.846	13773.2
589.206	13997.82
589.565	14210.25
589.925	14580.18
590.284	14705.6
590.643	14996.44
591.003	15170.45
591.362	15564.34
591.721	15736.54
592.08	16115.06
592.44	16398.21
592.799	16609.73
593.158	16799.78
593.517	17117.52
593.876	17421.46
594.235	17720.89
594.593	17981.9
594.952	18226.87
595.311	18415.79
595.67	18791.6
596.029	19199.72
596.387	19361.07
596.746	19814.17
597.104	19879.93
597.463	20261.84
597.822	20578.44
598.18	20801.94
598.538	20969.39
598.897	21392.66
599.255	21513.33
599.613	22130.04
599.972	22253.2
600.33	22536.13
600.688	22756.69
601.046	23154.87
601.404	23486.84
601.762	23711.24
602.12	24070.55
602.478	24332.47
602.836	24553.7
603.194	24718.45
603.552	25004.09
603.91	25041.15
604.268	25610.17
604.625	25756.16
604.983	26158.18
605.341	26219.2
605.698	26601.56
606.056	26969.01
606.413	27095.78
606.771	27347.53
607.128	27692.61
607.485	27775.31
607.843	28153.61
608.2	28352.02
608.557	28630.66
608.914	28674.27
609.272	28948.84
609.629	29293.47
609.986	29639.22
610.343	29743.62
610.7	30110.17
611.057	30052.54
611.414	30343.83
611.771	30490.95
612.127	30817.04
612.484	30972.97
612.841	31272.4
613.198	31274.66
613.554	31527.31
613.911	31875.09
614.267	31973.85
614.624	32165.03
614.98	32253.39
615.337	32591.23
615.693	32664.9
616.05	32806.6
616.406	33014.73
616.762	33127.94
617.118	33372.23
617.475	33347.82
617.831	33745.78
618.187	33816.51
618.543	33898.54
618.899	34179.44
619.255	34275.03
619.611	34252.21
619.967	34512.09
620.323	34769.48
620.678	34655.13
621.034	34699.2
621.39	34868.69
621.746	34919.31
622.101	35462.8
622.457	35201.11
622.812	35420.31
623.168	35504.38
623.523	35652.17
623.879	35831.15
624.234	35769.68
624.589	35852.62
624.945	36055.55
625.3	36048.54
625.655	36046.28
626.01	36247.86
626.365	36259.84
626.72	36357.91
627.075	36286.5
627.43	36444.69
627.785	36330.57
628.14	36543.9
628.495	36615.08
628.85	36678.58
629.205	36758.36
629.559	36874.51
629.914	36844.68
630.269	36904.34
630.623	36953.6
630.978	36841.29
631.332	36947.5
631.687	36955.19
632.041	36942.98
632.396	37049.87
632.75	36960.84
633.104	37022.98
633.459	36951.8
633.813	36968.52
634.167	37088.74
634.521	37105.01
634.875	37099.59
635.229	37220.49
635.583	37021.85
635.937	37038.57
636.291	37036.54
636.645	37126.48
636.999	36930.1
637.352	37166.25
637.706	36902.08
638.06	37163.09
638.413	37118.8
638.767	37021.4
639.121	37104.11
639.474	36998.8
639.828	37048.29
640.181	37076.99
640.534	37204.9
640.888	36965.13
641.241	36861.63
641.594	37109.76
641.947	37117.22
642.301	37007.61
642.654	37012.59
643.007	37044
643.36	36984.11
643.713	36938.01
644.066	37007.16
644.419	36738.02
644.771	36606.27
645.124	36256
645.477	36240.85
645.83	36017.13
646.182	35894.42
646.535	35762.9
646.888	36023.91
647.24	35734.2
647.593	35954.76
647.945	35884.03
648.298	35750.25
648.65	35606.07
649.002	35504.15
649.355	35828.21
649.707	35701.66
650.059	35816.69
650.411	36265.94
650.763	36274.53
651.115	36697.57
651.467	36562.43
651.819	36546.38
652.171	36503.45
652.523	36438.14
652.875	36574.18
653.227	36327.86
653.578	36647.62
653.93	36530.34
654.282	36368.31
654.633	36267.29
654.985	36470.45
655.337	36408.99
655.688	36322.21
656.039	36511.13
656.391	36172.16
656.742	36292.83
657.094	36375.54
657.445	36342.55
657.796	36259.84
658.147	36168.09
658.498	36027.53
658.849	36331.47
659.2	36073.4
659.551	36333.51
659.902	36218.71
660.253	36241.98
660.604	36179.84
660.955	35955.21
661.306	36116.11
661.656	36154.76
662.007	36211.48
662.358	36176.22
662.708	36261.19
663.059	36235.21
663.409	35927.19
663.76	36218.48
664.11	36204.02
664.461	36219.39
664.811	36053.06
665.161	36161.54
665.511	36039.5
665.862	36033.63
666.212	36132.61
666.562	36068.66
666.912	36159.95
667.262	36083.8
667.612	36022.1
667.962	36152.5
668.312	36066.17
668.662	36156.11
669.011	36142.33
669.361	36019.39
669.711	36048.54
670.06	35999.73
670.41	35920.86
670.76	35984.14
671.109	36043.12
671.459	35946.17
671.808	35943.24
672.157	35861.2
672.507	35786.4
672.856	35775.56
673.205	35982.1
673.554	35871.37
673.904	35845.16
674.253	36010.8
674.602	35874.31
674.951	35403.14
675.3	35147.32
675.649	35705.73
675.998	35747.08
676.346	35703.47
676.695	35865.27
677.044	35594.54
677.393	35581.66
677.741	35606.3
678.09	35528.33
678.438	35443.14
678.787	35487.65
679.135	35594.77
679.484	35324.27
679.832	35460.76
680.181	35270.94
680.529	35379.63
680.877	35265.97
681.225	35251.28
681.573	35456.92
681.922	35300.77
682.27	35059.87
682.618	35102.13
682.966	35121.34
683.314	35125.63
683.661	35043.37
684.009	34723.61
684.357	34863.49
684.705	34847.45
685.053	34767
685.4	34638.86
685.748	34562.26
686.095	34564.06
686.443	34343.96
686.79	34326.56
687.138	34424.18
687.485	34491.75
687.832	34314.58
688.18	34343.96
688.527	34150.74
688.874	34004.08
689.221	34032.33
689.568	34006.11
689.915	33803.86
690.262	33908.94
690.609	33800.02
690.956	33627.14
691.303	33669.4
691.65	33412.23
691.997	33533.81
692.344	33473.02
692.69	33267.15
693.037	33387.82
693.383	33147.38
693.73	33250.88
694.077	32971.34
694.423	33038.68
694.769	32937.89
695.116	32832.36
695.462	32818.57
695.808	32720.95
696.155	32636.43
696.501	32375.42
696.847	32440.73
697.193	32197.8
697.539	32362.31
697.885	32052.26
698.231	32060.85
698.577	32120.96
698.923	32080.74
699.269	31759.39
699.614	31777.7
699.96	31567.08
700.306	31621.54
700.651	31493.18
700.997	31438.72
701.342	31480.08
701.688	31322.57
702.033	31309.91
702.379	31223.59
702.724	31077.6
703.069	31215.22
703.415	30912.86
703.76	30847.55
704.105	30780.66
704.45	30764.16
704.795	30631.51
705.14	30509.25
705.485	30405.98
705.83	30371.4
706.175	30407.56
706.52	30303.61
706.865	30032.43
707.209	30148.36
707.554	30017.74
707.899	30161.24
708.243	29963.51
708.588	29888.25
708.932	29705.66
709.277	29721.7
709.621	29709.73
709.966	29606.91
710.31	29613.91
710.654	29267.93
710.998	29411.2
711.342	29333.69
711.687	29443.29
712.031	29163.75
712.375	29111.78
712.719	29110.2
713.063	29205.56
713.407	29092.12
713.75	28962.18
714.094	28978.67
714.438	28793.59
714.782	28873.37
715.125	28618
715.469	28663.43
715.812	28623.65
716.156	28488.74
716.499	28443.77
716.843	28587.04
717.186	28403.09
717.53	28462.08
717.873	28331.01
718.216	28336.88
718.559	28138.24
718.902	27973.28
719.246	28237.68
719.589	28073.39
719.932	27906.84
720.275	27787.07
720.617	27908.42
720.96	27839.72
721.303	27829.78
721.646	27788.87
721.989	27499.84
722.331	27672.04
722.674	27581.87
723.016	27678.59
723.359	27556.34
723.701	27542.55
724.044	27453.06
724.386	27286.29
724.729	27325.38
725.071	27308.21
725.413	27205.61
725.755	27213.75
726.097	27221.43
726.439	26913.19
726.782	26993.64
727.124	27116.12
727.465	26979.86
727.807	27100.98
728.149	26854.21
728.491	26898.28
728.833	26947.09
729.175	26903.25
729.516	26624.16
729.858	26728.56
730.199	26857.82
730.541	26759.97
730.882	26599.3
731.224	26669.81
731.565	26460.55
731.906	26537.16
732.248	26635.23
732.589	26337.39
732.93	26256.48
733.271	26346.2
733.612	26389.14
733.953	26343.49
734.294	26225.53
734.635	26138.3
734.976	26254.22
735.317	25960.9
735.658	26131.29
735.999	26030.95
736.339	26066.21
736.68	26047.22
737.021	25876.83
737.361	25902.14
737.702	25978.53
738.042	25772.43
738.383	25925.87
738.723	25859.43
739.063	25776.5
739.404	25750.28
739.744	25668.48
740.084	25566.33
740.424	25678.65
740.764	25558.2
741.104	25638.2
741.444	25447.47
741.784	25408.37
742.124	25393
742.464	25378.77
742.804	25330.41
743.143	25279.79
743.483	25306.68
743.823	25271.43
744.162	25228.04
744.502	25236.62
744.841	25154.82
745.181	25258.32
745.52	25123.18
745.86	25160.47
746.199	24978.78
746.538	25037.31
746.877	24986.46
747.216	25012.68
747.556	24936.52
747.895	24887.48
748.234	24808.61
748.573	24753.93
748.911	24775.85
749.25	24697.2
749.589	24676.87
749.928	24648.62
750.267	24657.43
750.605	24609.07
750.944	24419.7
751.283	24411.11
751.621	24510.54
751.96	24340.83
752.298	24277.1
752.636	24313.26
752.975	24286.59
753.313	24193.26
753.651	24164.79
753.989	24005.47
754.327	23976.54
754.666	23947.17
755.004	24001.4
755.342	24055.19
755.679	23806.38
756.017	23728.42
756.355	23895.19
756.693	23667.17
757.031	23793.72
757.368	23569.1
757.706	23602.32
758.044	23505.14
758.381	23523.45
758.719	23338.37
759.056	23435.99
759.394	23383.79
759.731	23160.07
760.068	23212.5
760.405	23161.65
760.743	23045.72
