Data from hue_350_FLMS001491_97.txt Node
Date: Mon Feb 06 15:38:47 GMT 2017
User: dcchb
Spectrometer: FLMS00149
Trigger mode: 0
Integration Time (sec): 2.000000E-2
Scans to average: 10
Electric dark correction enabled: true
Nonlinearity correction enabled: false
Boxcar width: 0
XAxis mode: Wavelengths
Number of Pixels in Spectrum: 2048
>>>>>Begin Spectral Data<<<<<
341.393	-19.02
341.776	-19.02
342.16	-19.02
342.543	-50.21
342.927	-53.37
343.31	-62.19
343.693	-59.93
344.077	-51.34
344.46	-72.58
344.843	-45.46
345.226	-35.3
345.61	-26.71
345.993	-15.41
346.376	5.61
346.759	10.13
347.142	19.62
347.525	37.02
347.908	39.73
348.291	87.64
348.674	72.05
349.057	97.13
349.44	126.96
349.823	122.44
350.206	163.57
350.588	194.08
350.971	223.45
351.354	220.74
351.737	253.74
352.119	258.93
352.502	267.07
352.884	296.67
353.267	276.79
353.65	289.22
354.032	283.34
354.414	319.5
354.797	315.88
355.179	318.14
355.562	319.5
355.944	317.69
356.326	316.79
356.709	338.48
357.091	337.12
357.473	332.38
357.855	324.69
358.238	333.51
358.62	326.05
359.002	301.42
359.384	328.99
359.766	343.9
360.148	312.04
360.53	334.41
360.912	328.54
361.294	319.27
361.676	316.79
362.057	313.85
362.439	323.56
362.821	308.65
363.203	335.99
363.584	306.62
363.966	319.72
364.348	312.49
364.729	316.11
365.111	321.08
365.493	318.37
365.874	326.73
366.256	330.8
366.637	315.66
367.019	307.07
367.4	307.29
367.781	326.5
368.163	310.91
368.544	327.18
368.925	303.45
369.306	320.63
369.688	315.66
370.069	318.37
370.45	315.43
370.831	318.14
371.212	304.36
371.593	293.96
371.974	316.79
372.355	285.15
372.736	307.52
373.117	309.33
373.498	293.96
373.879	334.64
374.26	320.85
374.641	298.71
375.021	295.32
375.402	314.53
375.783	306.62
376.163	324.69
376.544	298.71
376.925	300.74
377.305	321.08
377.686	346.16
378.066	306.84
378.447	321.53
378.827	328.54
379.208	320.85
379.588	335.54
379.968	311.81
380.349	323.34
380.729	340.29
381.109	302.1
381.489	309.55
381.87	305.94
382.25	334.19
382.63	356.56
383.01	341.64
383.39	359.95
383.77	322.89
384.15	337.58
384.53	343.23
384.91	326.95
385.29	341.42
385.67	356.78
386.049	357.69
386.429	325.37
386.809	335.54
387.189	339.16
387.568	342.77
387.948	380.74
388.328	354.98
388.707	332.15
389.087	355.65
389.466	341.64
389.846	339.38
390.225	362.21
390.605	357.69
390.984	344.58
391.363	355.88
391.743	345.49
392.122	351.59
392.501	352.26
392.881	381.64
393.26	367.63
393.639	367.86
394.018	368.54
394.397	354.07
394.776	382.32
395.155	354.07
395.534	391.59
395.913	374.19
396.292	369.44
396.671	362.66
397.05	379.61
397.429	379.16
397.808	375.54
398.186	371.7
398.565	377.35
398.944	367.86
399.323	383.22
399.701	387.07
400.08	376.22
400.458	382.32
400.837	382.09
401.215	390.23
401.594	374.64
401.972	380.51
402.351	393.39
402.729	404.24
403.107	370.8
403.486	428.19
403.864	404.69
404.242	397.01
404.62	411.47
404.999	412.38
405.377	421.42
405.755	421.64
406.133	413.96
406.511	409.44
406.889	407.86
407.267	424.13
407.645	419.83
408.023	406.27
408.401	423.9
408.779	411.92
409.156	422.32
409.534	438.14
409.912	448.08
410.29	443.79
410.667	441.3
411.045	426.61
411.422	450.12
411.8	458.02
412.178	454.86
412.555	458.48
412.933	446.73
413.31	440.4
413.687	444.92
414.065	455.54
414.442	472.26
414.819	465.03
415.197	475.43
415.574	490.79
415.951	472.94
416.328	476.33
416.705	498.48
417.082	478.14
417.46	506.16
417.837	500.28
418.214	501.87
418.591	504.8
418.967	490.57
419.344	499.83
419.721	536.67
420.098	510.45
420.475	498.93
420.852	529.21
421.228	515.88
421.605	519.49
421.982	524.92
422.358	536.89
422.735	541.86
423.111	542.77
423.488	514.07
423.864	535.31
424.241	554.97
424.617	541.64
424.994	547.97
425.37	565.82
425.746	553.39
426.123	560.62
426.499	573.95
426.875	565.14
427.251	563.56
427.627	600.17
428.003	583.9
428.379	576.89
428.756	595.42
429.132	584.35
429.507	593.61
429.883	620.96
430.259	608.76
430.635	604.69
431.011	622.77
431.387	638.13
431.763	645.82
432.138	636.33
432.514	646.04
432.89	636.55
433.265	662.77
433.641	668.64
434.016	679.94
434.392	675.87
434.767	691.24
435.143	680.84
435.518	683.78
435.894	687.62
436.269	719.94
436.644	710
437.02	719.03
437.395	685.36
437.77	710.67
438.145	708.64
438.52	731.46
438.895	725.36
439.271	741.86
439.646	760.39
440.021	759.49
440.395	764.91
440.77	761.52
441.145	764.68
441.52	762.42
441.895	772.59
442.27	776.66
442.645	770.33
443.019	803.33
443.394	752.25
443.769	792.71
444.143	768.98
444.518	807.62
444.892	787.96
445.267	806.72
445.641	796.32
446.016	833.83
446.39	813.72
446.764	833.16
447.139	813.95
447.513	817.11
447.887	805.13
448.262	822.08
448.636	814.17
449.01	832.48
449.384	849.2
449.758	852.36
450.132	851.46
450.506	859.14
450.88	845.13
451.254	841.74
451.628	872.48
452.002	893.04
452.376	910.89
452.75	865.92
453.123	925.58
453.497	922.87
453.871	910.89
454.244	909.76
454.618	926.49
454.992	928.75
455.365	950.22
455.739	954.51
456.112	966.49
456.486	970.1
456.859	988.86
457.232	983.43
457.606	980.95
457.979	999.25
458.352	1003.1
458.725	990.89
459.099	1011.23
459.472	1038.12
459.845	1035.41
460.218	1046.94
460.591	1060.49
460.964	1054.39
461.337	1087.61
461.71	1078.35
462.083	1078.8
462.456	1107.05
462.829	1104.34
463.201	1136.2
463.574	1112.24
463.947	1147.72
464.32	1141.62
464.692	1170.32
465.065	1170.77
465.438	1197.21
465.81	1188.4
466.183	1209.19
466.555	1239.25
466.928	1235.41
467.3	1227.95
467.672	1261.39
468.045	1287.61
468.417	1303.65
468.789	1313.37
469.161	1334.84
469.534	1333.93
469.906	1378.45
470.278	1397.66
470.65	1395.4
471.022	1401.95
471.394	1434.27
471.766	1440.82
472.138	1455.51
472.51	1470.88
472.882	1519.47
473.253	1518.34
473.625	1536.41
473.997	1577.54
474.369	1593.36
474.74	1589.29
475.112	1631.33
475.484	1670.87
475.855	1687.82
476.227	1695.73
476.598	1731.89
476.97	1741.61
477.341	1810.98
477.713	1816.63
478.084	1812.57
478.455	1909.74
478.827	1877.65
479.198	1940.47
479.569	1975.27
479.94	1985.44
480.311	2034.25
480.682	2092.33
481.053	2147.02
481.424	2134.36
481.795	2151.09
482.166	2168.04
482.537	2260.01
482.908	2288.94
483.279	2288.03
483.65	2363.74
484.021	2365.32
484.391	2409.39
484.762	2416.39
485.133	2453.9
485.503	2478.31
485.874	2507.46
486.244	2592.66
486.615	2644.86
486.985	2655.48
487.356	2720.11
487.726	2730.06
488.097	2760.11
488.467	2797.17
488.837	2839.88
489.207	2890.73
489.578	2932.76
489.948	2947.45
490.318	3005.98
490.688	3022.03
491.058	3041.91
491.428	3071.97
491.798	3136.6
492.168	3183.83
492.538	3186.31
492.908	3231.51
493.278	3324.39
493.648	3273.54
494.017	3366.65
494.387	3319.42
494.757	3407.33
495.126	3411.85
495.496	3457.27
495.866	3469.7
496.235	3505.85
496.605	3548.79
496.974	3568.45
497.344	3576.59
497.713	3613.65
498.082	3645.74
498.452	3678.28
498.821	3688.45
499.19	3690.93
499.559	3747.43
499.928	3774.77
500.298	3819.29
500.667	3808.9
501.036	3841.44
501.405	3870.36
501.774	3897.03
502.143	3900.19
502.512	3933.19
502.88	3963.47
503.249	3972.51
503.618	3906.07
503.987	3989.23
504.356	4041.66
504.724	4075.33
505.093	4067.2
505.462	4087.53
505.83	4080.3
506.199	4085.95
506.567	4174.09
506.936	4157.14
507.304	4213.41
507.672	4231.48
508.041	4225.61
508.409	4214.76
508.777	4292.5
509.145	4315.32
509.514	4290.24
509.882	4342.22
510.25	4351.26
510.618	4363.46
510.986	4356.23
511.354	4416.34
511.722	4445.72
512.09	4433.97
512.458	4466.05
512.826	4445.04
513.193	4488.43
513.561	4492.49
513.929	4517.13
514.297	4543.57
514.664	4600.51
515.032	4568.65
515.4	4590.35
515.767	4618.37
516.135	4643.45
516.502	4614.3
516.869	4727.29
517.237	4751.47
517.604	4702.88
517.972	4758.93
518.339	4737.46
518.706	4714.64
519.073	4770.23
519.44	4790.57
519.808	4803.67
520.175	4807.74
520.542	4887.74
520.909	4858.59
521.276	4910.56
521.643	4915.08
522.009	4976.1
522.376	4994.85
522.743	4974.06
523.11	5036.89
523.477	5087.28
523.843	5050.22
524.21	5109.43
524.577	5118.24
524.943	5174.74
525.31	5146.71
525.676	5176.54
526.043	5253.38
526.409	5250.67
526.776	5295.86
527.142	5265.58
527.508	5304.22
527.874	5390.78
528.241	5369.99
528.607	5403.88
528.973	5440.72
529.339	5432.13
529.705	5501.28
530.071	5507.38
530.437	5555.52
530.803	5580.83
531.169	5646.36
531.535	5558.68
531.901	5611.56
532.267	5655.85
532.632	5710.99
532.998	5715.51
533.364	5738.11
533.73	5742.41
534.095	5822.4
534.461	5860.82
534.826	5859.92
535.192	5881.61
535.557	5871.44
535.923	5947.6
536.288	5924.1
536.653	5958.67
537.019	5990.76
537.384	5980.37
537.749	6052.68
538.114	6046.8
538.479	6056.52
538.845	6066.46
539.21	6084.77
539.575	6084.54
539.94	6144.65
540.305	6212.45
540.67	6216.07
541.034	6212.9
541.399	6220.13
541.764	6242.05
542.129	6219.91
542.494	6340.13
542.858	6404.08
543.223	6345.78
543.587	6405.21
543.952	6428.49
544.316	6452.9
544.681	6413.12
545.045	6510.52
545.41	6479.79
545.774	6502.16
546.138	6531.99
546.503	6588.26
546.867	6582.84
547.231	6639.11
547.595	6692.89
547.959	6680.69
548.324	6743.28
548.688	6730.4
549.052	6700.12
549.416	6769.27
549.779	6756.39
550.143	6791.64
550.507	6905.09
550.871	6872.09
551.235	6905.99
551.599	6874.13
551.962	6924.3
552.326	6958.64
552.689	7005.42
553.053	6924.97
553.417	6997.74
553.78	7097.4
554.143	7031.19
554.507	7117.28
554.87	7089.94
555.234	7216.27
555.597	7145.98
555.96	7193.44
556.323	7199.32
556.686	7197.28
557.05	7249.71
557.413	7236.83
557.776	7279.77
558.139	7278.41
558.502	7277.96
558.865	7373.55
559.228	7398.41
559.59	7462.36
559.953	7444.28
560.316	7548.23
560.679	7498.52
561.041	7512.53
561.404	7621
561.767	7633.2
562.129	7557.05
562.492	7690.15
562.854	7686.08
563.217	7663.94
563.579	7689.25
563.941	7731.96
564.304	7771.05
564.666	7770.15
565.028	7860.54
565.39	7816.48
565.753	7919.75
566.115	7919.75
566.477	7924.95
566.839	7897.15
567.201	8020.99
567.563	8018.96
567.925	8091.5
568.287	8021.89
568.648	8088.56
569.01	8152.29
569.372	8105.73
569.734	8218.27
570.095	8198.61
570.457	8306.41
570.819	8254.43
571.18	8309.34
571.542	8311.38
571.903	8351.83
572.265	8375.56
572.626	8461.88
572.987	8523.12
573.349	8615.32
573.71	8642.22
574.071	8650.8
574.432	8669.33
574.794	8801.31
575.155	8826.17
575.516	8803.57
575.877	8926.95
576.238	8893.51
576.599	9017.8
576.96	9133.28
577.32	9105.71
577.681	9193.61
578.042	9324.91
578.403	9369.43
578.763	9501.4
579.124	9617.56
579.485	9645.58
579.845	9804.9
580.206	9865.01
580.566	9981.39
580.927	10116.53
581.287	10202.63
581.648	10256.64
582.008	10474.26
582.368	10563.3
582.728	10623.18
583.089	10751.99
583.449	10871.31
583.809	11068.37
584.169	11185.88
584.529	11327.8
584.889	11606.43
585.249	11753.32
585.609	11945.63
585.969	12127.32
586.329	12217.04
586.688	12500.19
587.048	12692.51
587.408	12869
587.768	13099.27
588.127	13247.52
588.487	13461.98
588.846	13822.42
589.206	13908.97
589.565	14234.84
589.925	14422.63
590.284	14727.48
590.643	14961.6
591.003	15086.57
591.362	15423.73
591.721	15623.73
592.08	15969.48
592.44	16293.99
592.799	16454.67
593.158	16796.8
593.517	17038.38
593.876	17340.97
594.235	17606.05
594.593	17874.06
594.952	18182.53
595.311	18445.57
595.67	18740.71
596.029	19089.4
596.387	19436.06
596.746	19710.85
597.104	19869.27
597.463	20137.06
597.822	20471.06
598.18	20717.83
598.538	20951.95
598.897	21360.53
599.255	21516.23
599.613	22040.28
599.972	22210
600.33	22617.22
600.688	22650.21
601.046	23123.87
601.404	23418.78
601.762	23659.67
602.12	23985.32
602.478	24299.21
602.836	24467.34
603.194	24728.35
603.552	24962.47
603.91	25087.21
604.268	25542.79
604.625	25669.34
604.983	26006.96
605.341	26147.29
605.698	26463.67
606.056	26792.02
606.413	27049.42
606.771	27392.01
607.128	27416.64
607.485	27625.22
607.843	27962.61
608.2	28262.94
608.557	28584.06
608.914	28653.89
609.272	29077.16
609.629	29240.77
609.986	29545.62
610.343	29551.95
610.7	30046.4
611.057	30261.99
611.414	30362.1
611.771	30528.87
612.127	30820.62
612.484	30883.44
612.841	31103.09
613.198	31285.01
613.554	31379.02
613.911	31758.9
614.267	31963.18
614.624	32028.72
614.98	32267.81
615.337	32486.11
615.693	32543.73
616.05	32577.18
616.406	33045.87
616.762	33037.73
617.118	33122.25
617.475	33278.86
617.831	33588.45
618.187	33729.69
618.543	33782.12
618.899	34133.07
619.255	34275.21
619.611	34153.18
619.967	34525.38
620.323	34429.79
620.678	34585.71
621.034	34629.1
621.39	34803.56
621.746	34905.03
622.101	35474.28
622.457	35058.92
622.812	35313.61
623.168	35520.15
623.523	35652.81
623.879	35644.22
624.234	35413.72
624.589	35910.65
624.945	35911.1
625.3	35945.68
625.655	36069.52
626.01	36191.77
626.365	36285.11
626.72	36382.96
627.075	36280.81
627.43	36370.3
627.785	36404.2
628.14	36502.73
628.495	36578.66
628.85	36562.61
629.205	36580.92
629.559	36853.23
629.914	36661.37
630.269	36767.58
630.623	36666.79
630.978	36617.3
631.332	36919.44
631.687	37030.85
632.041	36874.92
632.396	36985.2
632.75	36822.49
633.104	37003.96
633.459	36913.79
633.813	36993.11
634.167	36870.17
634.521	36878.08
634.875	36984.07
635.229	37028.59
635.583	36989.95
635.937	37025.2
636.291	36880.57
636.645	37030.4
636.999	36925.77
637.352	37094.58
637.706	36951.75
638.06	37055.03
638.413	36964.41
638.767	36960.79
639.121	36965.09
639.474	36885.77
639.828	36953.34
640.181	37083.28
640.534	36933.9
640.888	36841.47
641.241	36695.26
641.594	36867.69
641.947	36783.85
642.301	36935.26
642.654	36972.32
643.007	36891.64
643.36	36964.86
643.713	36837.63
644.066	37056.16
644.419	36679.22
644.771	36563.74
645.124	36277.42
645.477	36081.95
645.83	36006.92
646.182	35846.47
646.535	35818.9
646.888	35938.67
647.24	35570.32
647.593	35844.89
647.945	35696.65
648.298	35622.52
648.65	35534.84
649.002	35500.04
649.355	35773.48
649.707	35658.23
650.059	35817.09
650.411	36127.82
650.763	36191.1
651.115	36629.95
651.467	36401.03
651.819	36463.41
652.171	36370.3
652.523	36378.89
652.875	36343.18
653.227	36219.12
653.578	36519.9
653.93	36441.49
654.282	36368.94
654.633	36217.08
654.985	36303.41
655.337	36299.12
655.688	36257.54
656.039	36606.9
656.391	36118.56
656.742	36131.21
657.094	36304.31
657.445	36347.7
657.796	36269.74
658.147	36085.56
658.498	36091.89
658.849	36246.69
659.2	36288.72
659.551	36066.35
659.902	36227.71
660.253	36269.06
660.604	36238.78
660.955	36009.41
661.306	36158.78
661.656	36007.15
662.007	36036.98
662.358	36057.09
662.708	35960.59
663.059	36121.49
663.409	35898.22
663.76	36180.7
664.11	36052.79
664.461	36108.84
664.811	36135.05
665.161	36140.25
665.511	36022.06
665.862	36086.47
666.212	36124.43
666.562	36052.57
666.912	36044.21
667.262	36026.13
667.612	36123.53
667.962	36038.78
668.312	35975.51
668.662	36244.65
669.011	36013.7
669.361	35967.37
669.711	35995.17
670.06	35846.02
670.41	35875.85
670.76	35754.27
671.109	36051.89
671.459	35964.89
671.808	35869.52
672.157	35940.48
672.507	35709.08
672.856	35690.77
673.205	35781.84
673.554	35873.36
673.904	35607.83
674.253	35890.54
674.602	35780.26
674.951	35245.58
675.3	34938.02
675.649	35693.26
675.998	35745.23
676.346	35555.86
676.695	35685.35
677.044	35508.4
677.393	35577.55
677.741	35566.25
678.09	35524.9
678.438	35344.34
678.787	35557.89
679.135	35521.51
679.484	35444.68
679.832	35447.61
680.181	35157.68
680.529	35331.91
680.877	35205.13
681.225	35149.32
681.573	35422.3
681.922	35191.8
682.27	35195.64
682.618	35079.71
682.966	34987.51
683.314	35065.25
683.661	34889.44
684.009	34759.5
684.357	34599.73
684.705	34605.83
685.053	34669.1
685.4	34611.48
685.748	34446.51
686.095	34450.8
686.443	34493.51
686.79	34359.28
687.138	34387.98
687.485	34383.46
687.832	34261.88
688.18	34316.34
688.527	34136.91
688.874	34025.73
689.221	34042.23
689.568	33918.16
689.915	33890.14
690.262	33823.02
690.609	33676.59
690.956	33623.03
691.303	33450.15
691.65	33465.74
691.997	33523.82
692.344	33191.85
692.69	33310.49
693.037	33355.69
693.383	33072.53
693.73	33109.82
694.077	32968.36
694.423	33027.56
694.769	32819.21
695.116	32730.4
695.462	32793.67
695.808	32517.97
696.155	32712.32
696.501	32544.64
696.847	32475.94
697.193	32164.76
697.539	32247.47
697.885	32066.69
698.231	32069.62
698.577	31871.44
698.923	31988.95
699.269	31666.92
699.614	31623.08
699.96	31662.85
700.306	31506.93
700.651	31400.04
700.997	31213.37
701.342	31329.53
701.688	31142.42
702.033	31189.19
702.379	31255.41
702.724	31031.91
703.069	31110.1
703.415	30682.99
703.76	30752.82
704.105	30741.07
704.45	30757.34
704.795	30527.06
705.14	30477.8
705.485	30393.28
705.83	30205.27
706.175	30315.32
706.52	30259.27
706.865	30183.34
707.209	30060.18
707.554	29978.38
707.899	30003.46
708.243	29900.19
708.588	29869
708.932	29659.74
709.277	29640.53
709.621	29623.59
709.966	29512.18
710.31	29455.45
710.654	29368
710.998	29290.03
711.342	29343.37
711.687	29313.54
712.031	29149.47
712.375	29026.54
712.719	29025.64
713.063	29013.43
713.407	29105.41
713.75	28942.93
714.094	28841.23
714.438	28761.24
714.782	28758.98
715.125	28577.74
715.469	28630.39
715.812	28614.12
716.156	28436.05
716.499	28365.31
716.843	28334.58
717.186	28201.48
717.53	28313.34
717.873	28367.57
718.216	28248.71
718.559	28081.93
718.902	27918.09
719.246	28057.52
719.589	27896.4
719.932	27908.6
720.275	27834.93
720.617	27920.81
720.96	27707.7
721.303	27770.75
721.646	27715.61
721.989	27570.31
722.331	27669.96
722.674	27551.1
723.016	27666.57
723.359	27536.41
723.701	27563.07
724.044	27338
724.386	27153.59
724.729	27364.89
725.071	27179.13
725.413	27170.09
725.755	27291.44
726.097	27089.64
726.439	26998.57
726.782	26967.61
727.124	27089.87
727.465	26944.56
727.807	26960.15
728.149	26846.94
728.491	26815.52
728.833	26870.44
729.175	26673.38
729.516	26613.72
729.858	26613.72
730.199	26702.31
730.541	26592.93
730.882	26590.9
731.224	26660.95
731.565	26322.66
731.906	26515.64
732.248	26518.13
732.589	26251.02
732.93	26251.92
733.271	26299.83
733.612	26290.11
733.953	26271.81
734.294	26132.6
734.635	26127.18
734.976	26123.56
735.317	25990.23
735.658	26098.25
735.999	25983.46
736.339	25939.16
736.68	26057.8
737.021	25835.21
737.361	25863.91
737.702	25924.93
738.042	25808.32
738.383	25750.69
738.723	25786.4
739.063	25692.62
739.404	25647.19
739.744	25704.37
740.084	25577.59
740.424	25645.39
740.764	25502.79
741.104	25585.27
741.444	25469.34
741.784	25259.18
742.124	25366.07
742.464	25317.94
742.804	25357.71
743.143	25355.45
743.483	25304.38
743.823	25103.25
744.162	25207.43
744.502	25137.15
744.841	25071.39
745.181	25100.99
745.52	25037.94
745.86	25100.77
746.199	24995.46
746.538	24910.72
746.877	24975.8
747.216	24860.32
747.556	24783.03
747.895	24942.35
748.234	24674.34
748.573	24629.59
748.911	24643.83
749.25	24636.82
749.589	24590.27
749.928	24574
750.267	24625.52
750.605	24450.84
750.944	24390.05
751.283	24412.2
751.621	24579.2
751.96	24385.98
752.298	24258.3
752.636	24380.33
752.975	24202.71
753.313	24097.63
753.651	24271.86
753.989	24098.76
754.327	24010.63
754.666	23926.79
755.004	23973.56
755.342	23900.57
755.679	23815.38
756.017	23697.41
756.355	23867.35
756.693	23549.85
757.031	23766.79
757.368	23640.47
757.706	23508.27
758.044	23474.59
758.381	23514.14
758.719	23449.06
759.056	23414.26
759.394	23225.34
759.731	23114.38
760.068	23241.61
760.405	23148.73
