Data from hue_28_FLMS001491_00060.txt Node
Date: Tue Feb 07 17:17:29 GMT 2017
User: dcchb
Spectrometer: FLMS00149
Trigger mode: 0
Integration Time (sec): 2.000000E-2
Scans to average: 10
Electric dark correction enabled: true
Nonlinearity correction enabled: false
Boxcar width: 0
XAxis mode: Wavelengths
Number of Pixels in Spectrum: 2048
>>>>>Begin Spectral Data<<<<<
341.393	-13.77
341.776	-13.77
342.16	-13.77
342.543	-73.88
342.927	-82.92
343.31	-71.4
343.693	-72.07
344.077	-72.3
344.46	-63.26
344.843	-38.4
345.226	-24.62
345.61	-28.01
345.993	-30.49
346.376	-3.83
346.759	0.47
347.142	20.13
347.525	44.53
347.908	59.67
348.291	75.49
348.674	84.08
349.057	120.01
349.44	134.02
349.823	150.52
350.206	145.1
350.588	193.91
350.971	207.24
351.354	214.92
351.737	237.52
352.119	249.27
352.502	254.47
352.884	280.46
353.267	270.29
353.65	277.97
354.032	294.02
354.414	305.09
354.797	326.56
355.179	315.26
355.562	322.94
355.944	323.4
356.326	314.36
356.709	321.36
357.091	330.85
357.473	305.09
357.855	335.82
358.238	346.9
358.62	338.08
359.002	303.73
359.384	334.47
359.766	328.59
360.148	328.14
360.53	327.01
360.912	327.69
361.294	336.95
361.676	331.76
362.057	339.21
362.439	324.3
362.821	297.18
363.203	297.86
363.584	327.46
363.966	325.88
364.348	313.9
364.729	294.92
365.111	336.28
365.493	305.09
365.874	296.05
366.256	307.12
366.637	306.45
367.019	319.33
367.4	298.99
367.781	307.35
368.163	321.59
368.544	313.9
368.925	314.13
369.306	308.93
369.688	304.19
370.069	285.66
370.45	298.76
370.831	307.58
371.212	330.4
371.593	312.77
371.974	318.42
372.355	312.32
372.736	328.14
373.117	311.64
373.498	321.14
373.879	329.05
374.26	312.32
374.641	310.51
375.021	298.99
375.402	303.73
375.783	299.44
376.163	323.85
376.544	289.95
376.925	312.1
377.305	315.71
377.686	322.49
378.066	329.5
378.447	340.12
378.827	322.27
379.208	326.33
379.588	320.23
379.968	341.47
380.349	321.14
380.729	348.25
381.109	336.05
381.489	331.98
381.87	337.18
382.25	341.47
382.63	342.6
383.01	338.54
383.39	334.92
383.77	310.74
384.15	315.94
384.53	357.74
384.91	357.07
385.29	336.95
385.67	347.8
386.049	356.39
386.429	342.6
386.809	322.04
387.189	354.36
387.568	362.26
387.948	343.28
388.328	342.15
388.707	368.82
389.087	347.35
389.466	365.88
389.846	374.02
390.225	348.03
390.605	347.8
390.984	363.85
391.363	380.8
391.743	359.33
392.122	356.16
392.501	378.08
392.881	357.07
393.26	363.39
393.639	372.89
394.018	373.11
394.397	377.41
394.776	387.8
395.155	363.62
395.534	363.39
395.913	364.75
396.292	388.93
396.671	378.54
397.05	383.73
397.429	376.28
397.808	384.18
398.186	393.22
398.565	386.9
398.944	387.57
399.323	386.44
399.701	392.77
400.08	371.08
400.458	399.33
400.837	401.13
401.215	401.13
401.594	408.36
401.972	395.03
402.351	393.22
402.729	408.82
403.107	386.22
403.486	388.93
403.864	393.9
404.242	410.17
404.62	394.81
404.999	420.79
405.377	407.91
405.755	406.56
406.133	420.34
406.511	404.3
406.889	422.15
407.267	430.74
407.645	431.42
408.023	433.68
408.401	418.08
408.779	413.56
409.156	423.96
409.534	450.62
409.912	439.1
410.29	421.25
410.667	442.49
411.045	435.03
411.422	440.23
411.8	461.02
412.178	445.43
412.555	458.99
412.933	464.86
413.31	464.63
413.687	445.88
414.065	436.84
414.442	463.5
414.819	464.86
415.197	474.58
415.574	466.67
415.951	477.97
416.328	490.4
416.705	486.1
417.082	494.01
417.46	480.91
417.837	473
418.214	492.2
418.591	504.18
418.967	508.7
419.344	481.13
419.721	502.37
420.098	495.14
420.475	518.64
420.852	494.92
421.228	498.98
421.605	521.58
421.982	523.62
422.358	517.74
422.735	522.03
423.111	534.46
423.488	523.84
423.864	514.12
424.241	526.33
424.617	521.36
424.994	532.66
425.37	512.54
425.746	548.02
426.123	560.23
426.499	539.89
426.875	547.8
427.251	545.76
427.627	542.37
428.003	582.82
428.379	583.73
428.756	577.4
429.132	564.97
429.507	574.91
429.883	606.55
430.259	574.91
430.635	578.53
431.011	600.45
431.387	607.68
431.763	594.35
432.138	613.33
432.514	635.25
432.89	623.27
433.265	638.42
433.641	621.92
434.016	631.64
434.392	667.79
434.767	655.36
435.143	661.69
435.518	656.49
435.894	654.01
436.269	664.86
436.644	666.89
437.02	671.18
437.395	670.28
437.77	692.88
438.145	688.36
438.52	687.68
438.895	711.63
439.271	685.19
439.646	710.5
440.021	698.07
440.395	724.06
440.77	732.42
441.145	717.96
441.52	748.02
441.895	727.68
442.27	738.98
442.645	740.11
443.019	755.02
443.394	753.89
443.769	765.42
444.143	752.76
444.518	758.19
444.892	762.71
445.267	768.13
445.641	787.11
446.016	764.29
446.39	775.81
446.764	759.77
447.139	743.95
447.513	780.78
447.887	753.89
448.262	792.08
448.636	795.7
449.01	807.68
449.384	814.68
449.758	783.5
450.132	792.76
450.506	807.68
450.88	842.03
451.254	814.91
451.628	842.7
452.002	854.45
452.376	861.23
452.75	859.65
453.123	856.71
453.497	876.15
453.871	872.53
454.244	897.17
454.618	882.48
454.992	921.57
455.365	929.03
455.739	931.29
456.112	932.19
456.486	911.18
456.859	917.73
457.232	947.56
457.606	958.41
457.979	984.62
458.352	973.77
458.725	997.05
459.099	1003.83
459.472	1014.9
459.845	1028.69
460.218	1024.62
460.591	1003.38
460.964	1030.5
461.337	1074.11
461.71	1062.36
462.083	1092.87
462.456	1074.79
462.829	1083.15
463.201	1105.97
463.574	1116.37
463.947	1139.19
464.32	1153.43
464.692	1164.73
465.065	1167.22
465.438	1181.68
465.81	1181
466.183	1188.91
466.555	1246.31
466.928	1233.88
467.3	1227.1
467.672	1271.62
468.045	1302.8
468.417	1286.53
468.789	1290.38
469.161	1318.62
469.534	1326.08
469.906	1361.79
470.278	1395.46
470.65	1377.61
471.022	1402.69
471.394	1409.92
471.766	1457.38
472.138	1460.09
472.51	1504.38
472.882	1545.51
473.253	1561.33
473.625	1560.65
473.997	1625.06
474.369	1611.05
474.74	1634.1
475.112	1674.77
475.484	1707.09
475.855	1736.24
476.227	1761.78
476.598	1779.85
476.97	1825.05
477.341	1886.74
477.713	1916.35
478.084	1930.58
478.455	1978.04
478.827	2008.77
479.198	2070.47
479.569	2119.96
479.94	2174.42
480.311	2159.28
480.682	2224.36
481.053	2300.74
481.424	2305.26
481.795	2371.93
482.166	2406.96
482.537	2453.51
482.908	2516.11
483.279	2572.38
483.65	2572.6
484.021	2665.48
484.391	2710
484.762	2763.56
485.133	2782.31
485.503	2837.91
485.874	2886.94
486.244	2950.9
486.615	3020.27
486.985	3062.53
487.356	3150.21
487.726	3191.12
488.097	3236.54
488.467	3299.36
488.837	3371.45
489.207	3422.3
489.578	3503.88
489.948	3509.07
490.318	3589.3
490.688	3625
491.058	3671.56
491.428	3760.59
491.798	3826.81
492.168	3929.4
492.538	3922.62
492.908	3972.79
493.278	4049.17
493.648	4071.09
494.017	4160.13
494.387	4214.37
494.757	4245.33
495.126	4302.27
495.496	4271.31
495.866	4373.91
496.235	4395.6
496.605	4458.43
496.974	4480.57
497.344	4561.02
497.713	4603.28
498.082	4619.1
498.452	4684.18
498.821	4703.85
499.19	4713.56
499.559	4853.9
499.928	4858.19
500.298	4908.81
500.667	4892.09
501.036	4939.32
501.405	4959.66
501.774	5010.5
502.143	5096.38
502.512	5105.87
502.88	5130.73
503.249	5140.67
503.618	5203.27
503.987	5261.8
504.356	5327.78
504.724	5304.96
505.093	5333.43
505.462	5357.84
505.83	5415.92
506.199	5442.58
506.567	5474.22
506.936	5501.34
507.304	5506.08
507.672	5552.41
508.041	5611.62
508.409	5664.27
508.777	5685.29
509.145	5673.54
509.514	5720.54
509.882	5744.27
510.25	5782.91
510.618	5777.94
510.986	5799.86
511.354	5881.67
511.722	5928.45
512.09	5929.58
512.458	5968.9
512.826	6035.34
513.193	6040.53
513.561	6011.61
513.929	6022.45
514.297	6145.39
514.664	6112.85
515.032	6209.34
515.4	6203.69
515.767	6215.22
516.135	6219.74
516.502	6163.69
516.869	6319.62
517.237	6341.32
517.604	6255.67
517.972	6338.83
518.339	6375.21
518.706	6410.47
519.073	6433.52
519.44	6446.4
519.808	6493.63
520.175	6483.23
520.542	6581.76
520.909	6643.46
521.276	6581.08
521.643	6619.95
522.009	6694.98
522.376	6697.47
522.743	6736.79
523.11	6761.42
523.477	6821.3
523.843	6887.52
524.21	6885.48
524.577	6955.76
524.943	6934.75
525.31	6992.15
525.676	7038.93
526.043	7081.86
526.409	7074.4
526.776	7168.64
527.142	7183.1
527.508	7225.13
527.874	7262.42
528.241	7296.32
528.607	7292.93
528.973	7373.38
529.339	7406.37
529.705	7433.04
530.071	7472.59
530.437	7546.48
530.803	7526.6
531.169	7642.07
531.535	7548.52
531.901	7634.62
532.267	7692.02
532.632	7738.57
532.998	7737.66
533.364	7809.75
533.73	7795.29
534.095	7884.55
534.461	7845.01
534.826	7925.91
535.192	8009.97
535.557	7984.89
535.923	8039.58
536.288	8023.76
536.653	8021.72
537.019	8062.63
537.384	8132.68
537.749	8165.45
538.114	8177.88
538.479	8190.76
538.845	8262.62
539.21	8322.73
539.575	8273.69
539.94	8302.85
540.305	8350.98
540.67	8404.31
541.034	8423.52
541.399	8468.04
541.764	8535.38
542.129	8575.38
542.494	8636.85
542.858	8628.26
543.223	8550.3
543.587	8665.55
543.952	8647.47
544.316	8752.78
544.681	8770.86
545.045	8866.9
545.41	8856.05
545.774	8856.5
546.138	8884.53
546.503	8911.42
546.867	8946.9
547.231	9095.37
547.595	9068.7
547.959	9082.04
548.324	9135.14
548.688	9148.93
549.052	9271.86
549.416	9194.57
549.779	9243.39
550.143	9201.35
550.507	9296.04
550.871	9280.67
551.235	9303.27
551.599	9433.89
551.962	9396.83
552.326	9473.44
552.689	9501.91
553.053	9490.84
553.417	9465.98
553.78	9620.55
554.143	9536.71
554.507	9607.45
554.87	9665.52
555.234	9743.03
555.597	9751.85
555.96	9723.37
556.323	9812.86
556.686	9855.12
557.05	9876.14
557.413	9876.82
557.776	9899.64
558.139	10006.3
558.502	9992.52
558.865	10042.69
559.228	10091.95
559.59	10012.18
559.953	10075.91
560.316	10190.48
560.679	10156.13
561.041	10286.98
561.404	10233.87
561.767	10344.6
562.129	10340.08
562.492	10363.36
562.854	10422.34
563.217	10463.47
563.579	10500.53
563.941	10475.9
564.304	10532.62
564.666	10529.91
565.028	10574.43
565.39	10671.37
565.753	10720.64
566.115	10750.24
566.477	10803.12
566.839	10841.31
567.201	10880.63
567.563	10895.55
567.925	10892.38
568.287	10907.98
568.648	10928.54
569.01	11013.74
569.372	11140.29
569.734	11046.73
570.095	11131.02
570.457	11222.32
570.819	11276.78
571.18	11292.6
571.542	11437.91
571.903	11427.96
572.265	11507.73
572.626	11458.02
572.987	11567.39
573.349	11618.47
573.71	11715.64
574.071	11721.06
574.432	11868.18
574.794	11933.94
575.155	12051.22
575.516	11903.88
575.877	12032.92
576.238	12211.22
576.599	12300.48
576.96	12425
577.32	12507.48
577.681	12697.08
578.042	12767.59
578.403	12783.86
578.763	12952.67
579.124	13033.8
579.485	13199.89
579.845	13381.36
580.206	13369.83
580.566	13547.23
580.927	13625.42
581.287	13942.02
581.648	14042.36
582.008	14203.26
582.368	14362.12
582.728	14613.64
583.089	14824.03
583.449	14893.86
583.809	15115.32
584.169	15314.64
584.529	15458.59
584.889	15899.71
585.249	15914.62
585.609	16174.5
585.969	16454.95
586.329	16706.02
586.688	16952.34
587.048	17159.56
587.408	17461.7
587.768	17621.7
588.127	17934.46
588.487	18127.45
588.846	18588.23
589.206	18774.44
589.565	19089.23
589.925	19474.76
590.284	19630.23
590.643	20025.48
591.003	20374.17
591.362	20690.09
591.721	21054.15
592.08	21396.51
592.44	21595.38
592.799	22035.14
593.158	22332.99
593.517	22572.3
593.876	23022.69
594.235	23313.07
594.593	23628.09
594.952	24031.7
595.311	24268.53
595.67	24683.43
596.029	25146.47
596.387	25471.66
596.746	25789.17
597.104	25998.88
597.463	26336.72
597.822	26854.9
598.18	27067.33
598.538	27368.79
598.897	27768.1
599.255	27853.07
599.613	28662.09
599.972	28784.12
600.33	29201.73
600.688	29376.87
601.046	29798.33
601.404	30173.68
601.762	30468.59
602.12	30805.98
602.478	31061.12
602.836	31492.07
603.194	31477.83
603.552	31886.41
603.91	32121.66
604.268	32653.84
604.625	32711.02
604.983	33138.35
605.341	33272.13
605.698	33707.83
606.056	34082.96
606.413	34285.21
606.771	34554.59
607.128	34873.67
607.485	34848.36
607.843	35258.07
608.2	35766.53
608.557	35941.67
608.914	36117.71
609.272	36347.53
609.629	36667.52
609.986	37022.77
610.343	36980.28
610.7	37533.94
611.057	37810.55
611.414	37902.97
611.771	38140.25
612.127	38435.84
612.484	38676.06
612.841	38919.22
613.198	38980.91
613.554	39166.89
613.911	39475.81
614.267	39616.6
614.624	39804.17
614.98	40037.38
615.337	40299.75
615.693	40427.43
616.05	40657.02
616.406	40847.53
616.762	40790.58
617.118	41053.4
617.475	41293.62
617.831	41573.16
618.187	41608.64
618.543	41742.87
618.899	41943.09
619.255	42125.46
619.611	42219.92
619.967	42413.36
620.323	42585.11
620.678	42569.29
621.034	42582.17
621.39	42652.68
621.746	42797.98
622.101	43205.21
622.457	42938.77
622.812	43441.58
623.168	43423.51
623.523	43539.89
623.879	43655.59
624.234	43540.34
624.589	43743.04
624.945	43787.11
625.3	43911.4
625.655	43918.41
626.01	44077.95
626.365	44198.4
626.72	44192.3
627.075	44276.36
627.43	44243.82
627.785	44226.65
628.14	44346.19
628.495	44427.55
628.85	44472.97
629.205	44413.31
629.559	44765.16
629.914	44492.86
630.269	44808.55
630.623	44749.35
630.978	44741.66
631.332	44896.69
631.687	44911.38
632.041	44817.37
632.396	44946.63
632.75	44749.8
633.104	45044.93
633.459	44725.84
633.813	44902.79
634.167	44785.5
634.521	44796.8
634.875	44925.16
635.229	44933.07
635.583	44694.21
635.937	44822.34
636.291	44934.88
636.645	44914.31
636.999	44821.43
637.352	44982.11
637.706	44757.93
638.06	44986.85
638.413	44983.92
638.767	44794.32
639.121	44972.16
639.474	44799.29
639.828	44805.16
640.181	44940.3
640.534	44971.04
640.888	44739.18
641.241	44709.8
641.594	44610.82
641.947	44933.3
642.301	44785.05
642.654	44695.34
643.007	44844.94
643.36	44748.44
643.713	44706.64
644.066	44872.28
644.419	44609.69
644.771	44423.93
645.124	44011.06
645.477	43882.93
645.83	43785.3
646.182	43548.47
646.535	43553.67
646.888	43621.92
647.24	43375.6
647.593	43628.47
647.945	43378.31
648.298	43389.38
648.65	43372.21
649.002	43378.53
649.355	43361.36
649.707	43416.73
650.059	43530.62
650.411	43967.9
650.763	44115.46
651.115	44598.39
651.467	44275.23
651.819	44298.96
652.171	44370.6
652.523	44193.2
652.875	44218.51
653.227	43905.07
653.578	44237.27
653.93	44276.82
654.282	44104.17
654.633	44051.29
654.985	44044.51
655.337	44217.61
655.688	44035.24
656.039	44163.37
656.391	44020.33
656.742	43859.2
657.094	44065.07
657.445	44193.2
657.796	44040.89
658.147	43953.43
658.498	43887.9
658.849	44047.67
659.2	43969.71
659.551	43838.64
659.902	44047.9
660.253	43969.03
660.604	43912.76
660.955	43888.8
661.306	43932.87
661.656	43868.01
662.007	43906.66
662.358	43845.19
662.708	43894.68
663.059	43764.97
663.409	43668.47
663.76	43795.7
664.11	43902.59
664.461	43879.99
664.811	43991.63
665.161	43863.27
665.511	43728.81
665.862	43849.48
666.212	43929.25
666.562	43895.58
666.912	43913.21
667.262	43785.76
667.612	43850.61
667.962	43776.94
668.312	43814.68
668.662	43897.39
669.011	43813.33
669.361	43751.86
669.711	43660.79
670.06	43700.79
670.41	43503.28
670.76	43646.32
671.109	43729.26
671.459	43687.68
671.808	43694.23
672.157	43657.85
672.507	43398.65
672.856	43450.4
673.205	43453.79
673.554	43699.66
673.904	43471.19
674.253	43615.36
674.602	43565.65
674.951	42999.11
675.3	42693.58
675.649	43350.74
675.998	43349.16
676.346	43406.78
676.695	43440.23
677.044	43176.51
677.393	43397.29
677.741	43457.63
678.09	43244.75
678.438	43132.21
678.787	43101.93
679.135	43258.76
679.484	42974.48
679.832	43200.91
680.181	42728.38
680.529	42826.91
680.877	42878.89
681.225	42777.87
681.573	43123.63
681.922	42857.19
682.27	42657.42
682.618	42801.6
682.966	42734.71
683.314	42719.79
683.661	42612.68
684.009	42326.81
684.357	42364.32
684.705	42264.44
685.053	42387.37
685.4	42199.13
685.748	42029.87
686.095	42102.41
686.443	42039.81
686.79	41928.18
687.138	42003.66
687.485	42021.73
687.832	41734.96
688.18	41922.53
688.527	41627.85
688.874	41631.46
689.221	41575.87
689.568	41395.76
689.915	41411.35
690.262	41395.99
690.609	41130.01
690.956	41107.86
691.303	41066.28
691.65	41007.3
691.997	40820.18
692.344	40645.27
692.69	40728.66
693.037	40594.2
693.383	40344.49
693.73	40567.99
694.077	40252.52
694.423	40330.93
694.769	40080.32
695.116	39978.4
695.462	39987.21
695.808	39785.63
696.155	39897.72
696.501	39615.47
696.847	39633.1
697.193	39329.6
697.539	39550.84
697.885	39290.51
698.231	39093
698.577	39101.81
698.923	39050.29
699.269	38926
699.614	38875.38
699.96	38818.43
700.306	38610.98
700.651	38551.54
700.997	38365.56
701.342	38439.23
701.688	38421.38
702.033	38274.94
702.379	38288.05
702.724	38066.36
703.069	38100.26
703.415	37706.82
703.76	37742.75
704.105	37791.11
704.45	37648.29
704.795	37630.44
705.14	37427.05
705.485	37387.73
705.83	37087.4
706.175	37200.39
706.52	37070.68
706.865	37100.51
707.209	36853.51
707.554	36813.74
707.899	37067.74
708.243	36644.47
708.588	36653.29
708.932	36476.12
709.277	36408.77
709.621	36481.31
709.966	36096.69
710.31	36211.94
710.654	35972.85
710.998	36102.79
711.342	36119.06
711.687	36038.61
712.031	35798.85
712.375	35638.85
712.719	35681.79
713.063	35679.08
713.407	35819.64
713.75	35440.89
714.094	35471.62
714.438	35437.95
714.782	35309.82
715.125	35309.37
715.469	35312.53
715.812	34989.83
716.156	34877.52
716.499	34902.83
716.843	35037.74
717.186	34647.24
717.53	34932.88
717.873	34725.43
718.216	34688.59
718.559	34544.19
718.902	34287.47
719.246	34455.61
719.589	34449.73
719.932	34243.63
720.275	34323.18
720.617	34217.65
720.96	34135.84
721.303	34074.82
721.646	34078.44
721.989	33873.47
722.331	34069.4
722.674	33935.62
723.016	33929.07
723.359	33901.72
723.701	33787.15
724.044	33719.35
724.386	33542.41
724.729	33760.93
725.071	33656.53
725.413	33434.84
725.755	33513.26
726.097	33354.84
726.439	33263.55
726.782	33207.28
727.124	33400.49
727.465	33160.05
727.807	33206.6
728.149	33128.63
728.491	33048.18
728.833	33017.9
729.175	32923.67
729.516	32848.87
729.858	32927.74
730.199	32782.2
730.541	32652.04
730.882	32705.37
731.224	32838.02
731.565	32614.07
731.906	32517.8
732.248	32671.92
732.589	32374.08
732.93	32280.07
733.271	32321.65
733.612	32294.76
733.953	32482.1
734.294	32262.44
734.635	32234.42
734.976	32228.09
735.317	32076.46
735.658	31969.34
735.999	32056.57
736.339	32080.53
736.68	32048.44
737.021	32006.18
737.361	31806.64
737.702	31990.36
738.042	31893.86
738.383	31732.74
738.723	31796.69
739.063	31632.4
739.404	31633.31
739.744	31656.58
740.084	31460.66
740.424	31637.37
740.764	31471.5
741.104	31611.84
741.444	31331.85
741.784	31255.46
742.124	31379.53
742.464	31158.29
742.804	31140.89
743.143	31127.78
743.483	31129.59
743.823	30949.93
744.162	30930.95
744.502	31006.2
744.841	30887.11
745.181	30899.99
745.52	30806.44
745.86	30851.18
746.199	30829.03
746.538	30667.23
746.877	30813.89
747.216	30602.83
747.556	30553.11
747.895	30690.05
748.234	30561.47
748.573	30427.24
748.911	30449.16
749.25	30516.95
749.589	30284.19
749.928	30320.35
750.267	30286.68
750.605	30230.41
750.944	30120.8
751.283	30046.68
751.621	30139.79
751.96	30005.78
752.298	29865.67
752.636	29940.02
752.975	29839
753.313	29743.86
753.651	29829.06
753.989	29630.2
754.327	29707.71
754.666	29574.38
755.004	29513.36
755.342	29667.26
755.679	29530.54
756.017	29314.05
756.355	29413.25
756.693	29151.34
757.031	29196.08
757.368	29006.48
757.706	29117.44
758.044	28974.39
758.381	28969.65
758.719	28912.02
759.056	28797
759.394	28773.49
759.731	28522.2
