Data from hue_00_FLMS001491_66.txt Node
Date: Mon Feb 06 15:30:04 GMT 2017
User: dcchb
Spectrometer: FLMS00149
Trigger mode: 0
Integration Time (sec): 2.000000E-2
Scans to average: 10
Electric dark correction enabled: true
Nonlinearity correction enabled: false
Boxcar width: 0
XAxis mode: Wavelengths
Number of Pixels in Spectrum: 2048
>>>>>Begin Spectral Data<<<<<
341.393	-7.56
341.776	-7.56
342.16	-7.56
342.543	-62.24
342.927	-82.58
343.31	-70.61
343.693	-74.67
344.077	-52.53
344.46	-77.16
344.843	-58.4
345.226	-46.2
345.61	-19.76
345.993	-26.99
346.376	-13.66
346.759	15.27
347.142	39.45
347.525	42.61
347.908	55.04
348.291	68.37
348.674	96.17
349.057	123.06
349.44	118.99
349.823	141.82
350.206	170.52
350.588	168.26
350.971	201.25
351.354	225.43
351.737	237.86
352.119	245.32
352.502	257.52
352.884	261.14
353.267	270.85
353.65	282.15
354.032	300.23
354.414	290.97
354.797	288.93
355.179	312.21
355.562	338.65
355.944	310.85
356.326	317.86
356.709	329.61
357.091	317.18
357.473	334.81
357.855	339.55
358.238	334.13
358.62	313.79
359.002	360.34
359.384	329.38
359.766	351.53
360.148	335.49
360.53	341.59
360.912	319.67
361.294	323.51
361.676	321.7
362.057	317.18
362.439	320.34
362.821	327.12
363.203	327.8
363.584	328.03
363.966	320.34
364.348	314.47
364.729	295.94
365.111	316.95
365.493	328.25
365.874	318.99
366.256	295.26
366.637	312.21
367.019	323.51
367.4	316.5
367.781	316.73
368.163	328.93
368.544	295.26
368.925	316.05
369.306	329.38
369.688	306.79
370.069	324.64
370.45	299.55
370.831	313.34
371.212	302.94
371.593	309.95
371.974	325.09
372.355	321.47
372.736	300.01
373.117	315.15
373.498	306.79
373.879	317.18
374.26	289.84
374.641	306.56
375.021	311.31
375.402	308.37
375.783	328.71
376.163	325.09
376.544	331.42
376.925	302.04
377.305	320.8
377.686	309.27
378.066	320.34
378.447	321.93
378.827	334.58
379.208	328.48
379.588	325.99
379.968	324.19
380.349	328.71
380.729	325.54
381.109	335.49
381.489	325.54
381.87	330.74
382.25	330.51
382.63	337.29
383.01	333.45
383.39	332.77
383.77	311.98
384.15	343.17
384.53	327.12
384.91	330.06
385.29	342.72
385.67	337.07
386.049	355.37
386.429	337.07
386.809	356.5
387.189	316.95
387.568	345.43
387.948	340.91
388.328	344.98
388.707	357.86
389.087	346.78
389.466	339.55
389.846	355.37
390.225	330.74
390.605	358.54
390.984	364.41
391.363	341.36
391.743	349.95
392.122	358.54
392.501	369.61
392.881	354.69
393.26	349.04
393.639	362.6
394.018	363.51
394.397	369.38
394.776	366.45
395.155	362.15
395.534	366.22
395.913	351.53
396.292	372.32
396.671	378.42
397.05	366.9
397.429	378.42
397.808	362.15
398.186	343.85
398.565	383.62
398.944	383.85
399.323	361.7
399.701	365.99
400.08	379.33
400.458	380.68
400.837	386.78
401.215	387.24
401.594	387.01
401.972	390.85
402.351	378.65
402.729	393.79
403.107	393.56
403.486	406.44
403.864	402.38
404.242	387.46
404.62	420.68
404.999	397.86
405.377	405.54
405.755	371.87
406.133	390.63
406.511	383.39
406.889	422.04
407.267	438.99
407.645	401.25
408.023	423.17
408.401	412.32
408.779	438.99
409.156	417.29
409.534	420.23
409.912	430.4
410.29	451.64
410.667	445.31
411.045	447.57
411.422	423.62
411.8	462.71
412.178	435.82
412.555	434.24
412.933	466.33
413.31	449.38
413.687	472.88
414.065	450.28
414.442	462.94
414.819	457.52
415.197	471.98
415.574	482.83
415.951	465.88
416.328	449.15
416.705	457.97
417.082	454.13
417.46	468.82
417.837	494.35
418.214	485.99
418.591	488.7
418.967	466.78
419.344	475.14
419.721	504.97
420.098	469.49
420.475	498.19
420.852	522.83
421.228	527.57
421.605	495.48
421.982	516.5
422.358	503.39
422.735	512.66
423.111	499.1
423.488	506.78
423.864	545.2
424.241	538.64
424.617	530.06
424.994	526.21
425.37	549.27
425.746	556.72
426.123	525.09
426.499	530.06
426.875	544.75
427.251	546.1
427.627	561.92
428.003	544.75
428.379	575.93
428.756	587.23
429.132	574.35
429.507	550.85
429.883	579.09
430.259	596.72
430.635	601.47
431.011	573.22
431.387	589.72
431.763	624.07
432.138	634.69
432.514	616.83
432.89	625.42
433.265	633.78
433.641	619.09
434.016	666.32
434.392	630.39
434.767	655.7
435.143	646.21
435.518	650.28
435.894	685.08
436.269	671.75
436.644	672.65
437.02	657.28
437.395	681.01
437.77	668.36
438.145	702.93
438.52	699.54
438.895	677.62
439.271	680.34
439.646	712.2
440.021	685.76
440.395	708.81
440.77	702.93
441.145	706.55
441.52	731.41
441.895	732.31
442.27	739.32
442.645	715.36
443.019	714.68
443.394	739.32
443.769	754.91
444.143	734.57
444.518	755.14
444.892	772.31
445.267	749.26
445.641	766.43
446.016	767.34
446.39	773.89
446.764	761.69
447.139	769.15
447.513	773.44
447.887	777.96
448.262	805.53
448.636	785.19
449.01	803.95
449.384	790.61
449.758	802.37
450.132	820.44
450.506	792.2
450.88	801.69
451.254	808.69
451.628	833.1
452.002	821.12
452.376	821.8
452.75	841.69
453.123	851.4
453.497	843.27
453.871	862.48
454.244	864.74
454.618	889.37
454.992	897.5
455.365	877.84
455.739	918.52
456.112	898.18
456.486	886.66
456.859	899.99
457.232	912.87
457.606	920.33
457.979	932.08
458.352	930.95
458.725	946.32
459.099	961.23
459.472	954.68
459.845	958.07
460.218	981.34
460.591	999.87
460.964	1013.89
461.337	1012.53
461.71	1050.72
462.083	1025.64
462.456	1029.93
462.829	1023.83
463.201	1074.22
463.574	1060.89
463.947	1071.96
464.32	1109.02
464.692	1088.69
465.065	1108.35
465.438	1118.06
465.81	1164.62
466.183	1172.07
466.555	1183.37
466.928	1176.37
467.3	1195.8
467.672	1181.34
468.045	1228.12
468.417	1198.06
468.789	1254.78
469.161	1250.49
469.534	1276.03
469.906	1294.78
470.278	1293.2
470.65	1296.14
471.022	1323.26
471.394	1343.14
471.766	1374.78
472.138	1375.23
472.51	1388.11
472.882	1433.99
473.253	1454.33
473.625	1453.65
473.997	1483.48
474.369	1519.18
474.74	1518.05
475.112	1549.92
475.484	1552.4
475.855	1581.78
476.227	1613.87
476.598	1653.87
476.97	1675.34
477.341	1712.85
477.713	1740.42
478.084	1765.73
478.455	1773.87
478.827	1833.07
479.198	1846.41
479.569	1899.51
479.94	1929.12
480.311	1937.25
480.682	2009.34
481.053	2017.7
481.424	2055.67
481.795	2102.67
482.166	2090.69
482.537	2111.94
482.908	2156.23
483.279	2201.2
483.65	2241.2
484.021	2300.63
484.391	2314.87
484.762	2340.18
485.133	2391.48
485.503	2421.76
485.874	2480.74
486.244	2479.16
486.615	2533.85
486.985	2571.81
487.356	2607.74
487.726	2668.08
488.097	2664.24
488.467	2707.4
488.837	2770.68
489.207	2783.33
489.578	2850.67
489.948	2867.17
490.318	2871.69
490.688	2921.41
491.058	2985.59
491.428	3044.34
491.798	3034.62
492.168	3121.17
492.538	3107.62
492.908	3147.61
493.278	3173.83
493.648	3212.92
494.017	3239.36
494.387	3293.6
494.757	3307.61
495.126	3361.17
495.496	3359.36
495.866	3425.12
496.235	3399.59
496.605	3459.7
496.974	3534.05
497.344	3508.96
497.713	3530.43
498.082	3550.54
498.452	3577.21
498.821	3622.4
499.19	3628.05
499.559	3700.37
499.928	3645.45
500.298	3733.81
500.667	3777.65
501.036	3753.25
501.405	3818.56
501.774	3787.15
502.143	3832.34
502.512	3831.44
502.88	3869.63
503.249	3889.97
503.618	3906.24
503.987	3932.23
504.356	3943.07
504.724	3953.02
505.093	3996.41
505.462	3994.15
505.83	4022.39
506.199	4013.35
506.567	4097.19
506.936	4083.86
507.304	4122.73
507.672	4154.37
508.041	4130.64
508.409	4196.17
508.777	4204.31
509.145	4213.58
509.514	4218.55
509.882	4282.5
510.25	4226.46
510.618	4242.95
510.986	4275.04
511.354	4344.65
511.722	4407.92
512.09	4353.23
512.458	4400.24
512.826	4414.25
513.193	4419.45
513.561	4443.85
513.929	4458.99
514.297	4496.51
514.664	4475.49
515.032	4514.36
515.4	4532.89
515.767	4590.06
516.135	4559.33
516.502	4494.25
516.869	4583.28
517.237	4649.72
517.604	4607.24
517.972	4657.63
518.339	4673.22
518.706	4648.14
519.073	4693.11
519.44	4694.92
519.808	4767.01
520.175	4698.76
520.542	4795.93
520.909	4756.61
521.276	4762.26
521.643	4773.56
522.009	4802.26
522.376	4872.09
522.743	4867.34
523.11	4883.84
523.477	4928.59
523.843	4948.02
524.21	5000.9
524.577	5032.09
524.943	5011.52
525.31	5041.35
525.676	5086.55
526.043	5126.09
526.409	5110.95
526.776	5226.43
527.142	5128.35
527.508	5204.51
527.874	5255.13
528.241	5251.29
528.607	5284.28
528.973	5317.95
529.339	5318.18
529.705	5371.96
530.071	5414.22
530.437	5388.46
530.803	5436.59
531.169	5474.11
531.535	5478.85
531.901	5490.83
532.267	5492.41
532.632	5517.27
532.998	5546.87
533.364	5606.08
533.73	5573.99
534.095	5624.61
534.461	5672.75
534.826	5698.28
535.192	5742.35
535.557	5710.71
535.923	5757.49
536.288	5811.05
536.653	5810.82
537.019	5804.72
537.384	5859.86
537.749	5933.08
538.114	5872.97
538.479	5925.62
538.845	5932.63
539.21	5936.47
539.575	5942.12
539.94	6017.14
540.305	6010.59
540.67	6056.92
541.034	6077.26
541.399	6057.59
541.764	6068.44
542.129	6134.2
542.494	6148.89
542.858	6199.29
543.223	6210.81
543.587	6228.21
543.952	6252.17
544.316	6283.35
544.681	6300.75
545.045	6326.97
545.41	6368.32
545.774	6415.1
546.138	6357.02
546.503	6405.61
546.867	6425.72
547.231	6457.13
547.595	6513.63
547.959	6470.92
548.324	6471.37
548.688	6584.81
549.052	6617.81
549.416	6606.06
549.779	6569.67
550.143	6649.44
550.507	6660.29
550.871	6674.98
551.235	6675.88
551.599	6747.29
551.962	6743
552.326	6771.25
552.689	6799.72
553.053	6786.62
553.417	6832.04
553.78	6862.77
554.143	6904.13
554.507	6896.89
554.87	6922.66
555.234	6984.58
555.597	6898.48
555.96	7006.04
556.323	7041.52
556.686	7020.73
557.05	7069.77
557.413	7070.68
557.776	7088.08
558.139	7112.71
558.502	7167.4
558.865	7134.4
559.228	7164.46
559.59	7194.29
559.953	7225.47
560.316	7288.07
560.679	7281.74
561.041	7341.18
561.404	7352.93
561.767	7325.81
562.129	7389.31
562.492	7441.06
562.854	7434.73
563.217	7409.2
563.579	7465.92
563.941	7517.9
564.304	7505.92
564.666	7592.02
565.028	7558.8
565.39	7607.84
565.753	7641.06
566.115	7691.22
566.477	7696.65
566.839	7726.7
567.201	7778.68
567.563	7771.45
567.925	7821.16
568.287	7838.79
568.648	7842.41
569.01	7889.64
569.372	7961.73
569.734	7964.89
570.095	8011.89
570.457	8065.9
570.819	8118.78
571.18	8057.77
571.542	8150.42
571.903	8201.04
572.265	8226.35
572.626	8184.77
572.987	8280.36
573.349	8332.34
573.71	8414.6
574.071	8410.75
574.432	8460.7
574.794	8520.81
575.155	8561.03
575.516	8635.61
575.877	8621.37
576.238	8747.02
576.599	8793.12
576.96	8902.72
577.32	8914.69
577.681	9006.44
578.042	9140
578.403	9153.56
578.763	9237.62
579.124	9279.21
579.485	9485.98
579.845	9593.55
580.206	9651.85
580.566	9755.35
580.927	9869.02
581.287	9985.63
581.648	10073.31
582.008	10249.12
582.368	10268.78
582.728	10446.41
583.089	10590.36
583.449	10693.18
583.809	10830.8
584.169	11042.32
584.529	11205.93
584.889	11429.66
585.249	11568.18
585.609	11655.41
585.969	11941.51
586.329	12046.59
586.688	12336.75
587.048	12503.3
587.408	12682.96
587.768	12942.84
588.127	13100.57
588.487	13364.75
588.846	13660.11
589.206	13731.07
589.565	14086.31
589.925	14302.58
590.284	14510.71
590.643	14797.7
591.003	15098.04
591.362	15441.53
591.721	15609.43
592.08	15806.72
592.44	16112.47
592.799	16333.71
593.158	16673.36
593.517	16906.58
593.876	17209.84
594.235	17381.59
594.593	17733.22
594.952	18013.21
595.311	18335.46
595.67	18651.84
596.029	18881.21
596.387	19241.43
596.746	19552.16
597.104	19637.12
597.463	19945.14
597.822	20357.78
598.18	20563.2
598.538	20707.38
598.897	21204.99
599.255	21265.33
599.613	21868.03
599.972	22035.71
600.33	22275.47
600.688	22392.08
601.046	22846.31
601.404	23135.79
601.762	23407.65
602.12	23767.19
602.478	23971.02
602.836	24268.64
603.194	24274.97
603.552	24787.05
603.91	24822.3
604.268	25114.27
604.625	25380.7
604.983	25747.92
605.341	25775.72
605.698	26241.92
606.056	26416.16
606.413	26691.63
606.771	26917.16
607.128	27278.73
607.485	27234.67
607.843	27480.53
608.2	27826.29
608.557	28211.14
608.914	28284.36
609.272	28478.7
609.629	28796.21
609.986	29051.34
610.343	29139.7
610.7	29448.39
611.057	29520.48
611.414	29547.15
611.771	29928.83
612.127	30144.87
612.484	30312.78
612.841	30504.64
613.198	30672.54
613.554	30851.97
613.911	31204.5
614.267	31193.21
614.624	31373.31
614.98	31569.69
615.337	31844.49
615.693	31869.8
616.05	31970.59
616.406	32310.46
616.762	32327.19
617.118	32479.05
617.475	32728.53
617.831	32848.53
618.187	32888.98
618.543	33230.44
618.899	33389.98
619.255	33414.62
619.611	33536.87
619.967	33680.82
620.323	33853.25
620.678	33775.51
621.034	33804.66
621.39	33965.79
621.746	33987.71
622.101	34439
622.457	34127.37
622.812	34522.16
623.168	34570.97
623.523	34586.11
623.879	34849.83
624.234	34650.97
624.589	34909.94
624.945	35015.25
625.3	35169.37
625.655	35158.75
626.01	35339.76
626.365	35392.42
626.72	35387.22
627.075	35300.44
627.43	35502.47
627.785	35456.14
628.14	35736.81
628.495	35802.12
628.85	35697.27
629.205	35593.32
629.559	35826.3
629.914	35704.27
630.269	35771.62
630.623	35664.05
630.978	35740.2
631.332	35887.55
631.687	36009.12
632.041	36116.24
632.396	36102.91
632.75	35969.8
633.104	36020.42
633.459	35861.11
633.813	35968.9
634.167	35994.43
634.521	35949.24
634.875	36029.46
635.229	36055
635.583	35954.66
635.937	35970.93
636.291	36013.19
636.645	35936.13
636.999	36016.13
637.352	36098.84
637.706	35859.75
638.06	36155.33
638.413	36043.47
638.767	35931.61
639.121	35957.83
639.474	35959.18
639.828	35891.61
640.181	36011.61
640.534	36017.71
640.888	35939.52
641.241	35865.4
641.594	35925.51
641.947	35833.99
642.301	35918.73
642.654	35886.19
643.007	35972.51
643.36	35902.46
643.713	35791.95
644.066	35846.64
644.419	35798.51
644.771	35473.54
645.124	35239.65
645.477	35097.06
645.83	34953.78
646.182	34914.69
646.535	34715.15
646.888	34843.05
647.24	34770.06
647.593	34870.85
647.945	34846.67
648.298	34615.94
648.65	34640.57
649.002	34690.06
649.355	34742.72
649.707	34723.96
650.059	34844.86
650.411	35003.5
650.763	35238.75
651.115	35570.27
651.467	35495.92
651.819	35471.51
652.171	35492.53
652.523	35393.77
652.875	35436.48
653.227	35150.39
653.578	35455.92
653.93	35386.32
654.282	35335.7
654.633	35131.86
654.985	35143.16
655.337	35187.68
655.688	35166.21
656.039	35380.89
656.391	35076.49
656.742	35108.58
657.094	35206.21
657.445	35174.57
657.796	35062.03
658.147	35136.38
658.498	35238.52
658.849	35110.16
659.2	35091.41
659.551	34933.9
659.902	35149.03
660.253	35165.76
660.604	35271.29
660.955	35121.46
661.306	35167.79
661.656	34945.65
662.007	35107.9
662.358	34970.06
662.708	35079.88
663.059	35062.03
663.409	34873.79
663.76	35036.49
664.11	35029.71
664.461	35188.13
664.811	35057.06
665.161	35057.74
665.511	35044.18
665.862	35059.77
666.212	35208.92
666.562	35019.55
666.912	35020
667.262	34954.24
667.612	34997.17
667.962	34900.68
668.312	34916.95
668.662	35156.26
669.011	34912.88
669.361	34906.55
669.711	34902.26
670.06	34903.84
670.41	34815.03
670.76	34718.54
671.109	34870.17
671.459	34913.11
671.808	34731.19
672.157	34840.11
672.507	34591.53
672.856	34657.75
673.205	34659.78
673.554	34848.02
673.904	34702.72
674.253	34786.78
674.602	34687.12
674.951	34241.71
675.3	34050.08
675.649	34528.03
675.998	34460.01
676.346	34561.03
676.695	34746.78
677.044	34476.96
677.393	34589.5
677.741	34602.16
678.09	34459.56
678.438	34343.4
678.787	34585.66
679.135	34557.41
679.484	34240.13
679.832	34366.46
680.181	34219.11
680.529	34282.84
680.877	34232
681.225	34207.36
681.573	34404.42
681.922	34056.63
682.27	34014.6
682.618	33946.81
682.966	33839.24
683.314	34069.74
683.661	33930.53
684.009	33734.16
684.357	33651.22
684.705	33600.37
685.053	33574.39
685.4	33561.73
685.748	33359.02
686.095	33391.57
686.443	33392.92
686.79	33337.78
687.138	33277.22
687.485	33365.13
687.832	33273.6
688.18	33265.92
688.527	33080.61
688.874	32947.51
689.221	33147.28
689.568	33051.46
689.915	32795.42
690.262	32810.79
690.609	32714.3
690.956	32644.69
691.303	32623.9
691.65	32419.84
691.997	32417.35
692.344	32294.19
692.69	32262.1
693.037	32232.5
693.383	31980.76
693.73	32161.77
694.077	31938.04
694.423	32069.79
694.769	31772.85
695.116	31787.54
695.462	31663.48
695.808	31759.74
696.155	31795.68
696.501	31463.48
696.847	31551.61
697.193	31310.26
697.539	31367.66
697.885	31124.05
698.231	31098.07
698.577	31084.73
698.923	31004.74
699.269	30768.36
699.614	30815.59
699.96	30603.39
700.306	30631.19
700.651	30584.63
700.997	30357.07
701.342	30375.83
701.688	30292.89
702.033	30271.42
702.379	30237.75
702.724	30040.92
703.069	30202.72
703.415	29769.29
703.76	29862.84
704.105	29871.66
704.45	29817.42
704.795	29573.59
705.14	29545.11
705.485	29626.47
705.83	29449.52
706.175	29428.51
706.52	29345.34
706.865	29204.56
707.209	29225.8
707.554	29179.47
707.899	29193.71
708.243	28921.85
708.588	28949.87
708.932	28755.98
709.277	28774.29
709.621	28653.16
709.966	28548.3
710.31	28724.57
710.654	28357.35
710.998	28400.06
711.342	28472.6
711.687	28290.68
712.031	28189.44
712.375	28181.53
712.719	28141.08
713.063	28208.88
713.407	28176.34
713.75	28078.03
714.094	27953.74
714.438	27950.13
714.782	27904.25
715.125	27941.99
715.469	27844.82
715.812	27651.6
716.156	27637.82
716.499	27584.71
716.843	27575.67
717.186	27504.26
717.53	27595.56
717.873	27513.53
718.216	27440.99
718.559	27299.3
718.902	27182.46
719.246	27203.71
719.589	27135.68
719.932	27141.11
720.275	27020.89
720.617	27087.78
720.96	26990.38
721.303	27005.74
721.646	27017.04
721.989	26758.52
722.331	26895.47
722.674	26835.13
723.016	26787.67
723.359	26730.72
723.701	26723.49
724.044	26624.74
724.386	26451.41
724.729	26520.79
725.071	26429.26
725.413	26553.33
725.755	26390.85
726.097	26373.44
726.439	26202.6
726.782	26091.19
727.124	26270.17
727.465	26071.08
727.807	26082.38
728.149	26055.49
728.491	26064.75
728.833	26067.92
729.175	26104.53
729.516	25908.6
729.858	25815.49
730.199	25862.27
730.541	25845.55
730.882	25727.59
731.224	25812.33
731.565	25645.33
731.906	25690.75
732.248	25648.94
732.589	25442.4
732.93	25385.9
733.271	25564.43
733.612	25470.42
733.953	25458.44
734.294	25327.82
734.635	25195.17
734.976	25400.59
735.317	25356.97
735.658	25231.1
735.999	25199.01
736.339	25211.22
736.68	25219.58
737.021	25090.31
737.361	25067.72
737.702	25163.76
738.042	25041.5
738.383	25028.4
738.723	25050.09
739.063	24852.81
739.404	24992.24
739.744	24865.24
740.084	24806.71
740.424	24738.23
740.764	24771.91
741.104	24882.18
741.444	24622.98
741.784	24584.11
742.124	24708.18
742.464	24625.47
742.804	24526.26
743.143	24486.04
743.483	24519.71
743.823	24401.52
744.162	24409.65
744.502	24479.71
744.841	24264.12
745.181	24411.46
745.52	24260.73
745.86	24290.11
746.199	24232.03
746.538	24204.91
746.877	24197.46
747.216	24292.82
747.556	24134.63
747.895	24092.6
748.234	24015.99
748.573	24037.01
748.911	23908.2
749.25	23930.57
749.589	23797.92
749.928	23796.79
750.267	23911.36
750.605	23801.76
750.944	23683.12
751.283	23645.16
751.621	23657.81
751.96	23492.62
752.298	23571.48
752.636	23621.2
752.975	23355.22
753.313	23390.92
753.651	23489.68
753.989	23331.72
754.327	23256.46
754.666	23236.35
755.004	23288.33
755.342	23187.31
755.679	23192.96
756.017	23058.5
756.355	23040.88
756.693	23072.06
757.031	23002.91
757.368	22906.42
757.706	22917.26
758.044	22814.67
758.381	22788.45
758.719	22531.06
759.056	22749.13
759.394	22589.59
759.731	22498.52
760.068	22409.48
760.405	22391.4
