Data from hue_250_FLMS001491_00073.txt Node
Date: Tue Feb 07 16:01:26 GMT 2017
User: dcchb
Spectrometer: FLMS00149
Trigger mode: 0
Integration Time (sec): 2.000000E-2
Scans to average: 10
Electric dark correction enabled: true
Nonlinearity correction enabled: false
Boxcar width: 0
XAxis mode: Wavelengths
Number of Pixels in Spectrum: 2048
>>>>>Begin Spectral Data<<<<<
341.393	-6.05
341.776	-6.05
342.16	-6.05
342.543	-69.77
342.927	-80.85
343.31	-69.77
343.693	-65.93
344.077	-62.99
344.46	-49.43
344.843	-44.91
345.226	-29.55
345.61	-26.38
345.993	-16.21
346.376	-15.08
346.759	-2.88
347.142	14.52
347.525	39.38
347.908	53.61
348.291	78.25
348.674	90.9
349.057	106.49
349.44	122.99
349.823	144.01
350.206	149.66
350.588	200.5
350.971	206.83
351.354	223.33
351.737	232.59
352.119	227.4
352.502	230.11
352.884	257.9
353.267	278.47
353.65	264.68
354.032	308.97
354.414	300.16
354.797	298.58
355.179	300.39
355.562	296.32
355.944	302.42
356.326	299.48
356.709	321.18
357.091	321.63
357.473	345.58
357.855	322.53
358.238	317.34
358.62	331.35
359.002	338.58
359.384	334.28
359.766	320.27
360.148	315.75
360.53	327.28
360.912	335.19
361.294	326.6
361.676	322.08
362.057	317.79
362.439	325.25
362.821	293.16
363.203	308.97
363.584	319.37
363.966	334.06
364.348	287.96
364.729	310.33
365.111	311.69
365.493	300.16
365.874	286.83
366.256	280.05
366.637	318.24
367.019	308.75
367.4	286.15
367.781	297
368.163	310.1
368.544	320.05
368.925	307.39
369.306	314.85
369.688	281.41
370.069	294.29
370.45	307.85
370.831	321.63
371.212	301.29
371.593	315.98
371.974	296.77
372.355	324.12
372.736	283.44
373.117	303.55
373.498	294.29
373.879	297.68
374.26	311.69
374.641	292.7
375.021	284.12
375.402	326.83
375.783	315.98
376.163	314.85
376.544	341.06
376.925	318.01
377.305	321.18
377.686	309.65
378.066	304.68
378.447	327.05
378.827	319.6
379.208	316.66
379.588	318.69
379.968	303.1
380.349	320.73
380.729	327.73
381.109	338.35
381.489	318.47
381.87	332.03
382.25	322.76
382.63	327.96
383.01	325.92
383.39	316.21
383.77	326.38
384.15	340.84
384.53	341.52
384.91	319.14
385.29	340.39
385.67	352.36
386.049	331.35
386.429	358.01
386.809	349.65
387.189	333.83
387.568	339.03
387.948	374.74
388.328	374.74
388.707	347.39
389.087	344.68
389.466	379.03
389.846	362.76
390.225	342.19
390.605	335.87
390.984	360.05
391.363	375.64
391.743	378.35
392.122	369.31
392.501	367.28
392.881	362.76
393.26	402.98
393.639	388.52
394.018	367.73
394.397	383.55
394.776	368.18
395.155	356.43
395.534	358.92
395.913	389.88
396.292	380.61
396.671	373.38
397.05	391.46
397.429	386.49
397.808	379.71
398.186	388.52
398.565	407.28
398.944	387.39
399.323	384
399.701	396.2
400.08	409.76
400.458	400.5
400.837	407.73
401.215	405.92
401.594	402.76
401.972	430.1
402.351	422.42
402.729	410.67
403.107	423.77
403.486	428.29
403.864	438.46
404.242	433.27
404.62	441.63
404.999	436.43
405.377	425.81
405.755	427.84
406.133	452.7
406.511	472.81
406.889	459.03
407.267	450.89
407.645	457.67
408.023	472.36
408.401	476.88
408.779	483.21
409.156	494.05
409.534	461.97
409.912	520.95
410.29	497.67
410.667	522.08
411.045	522.08
411.422	528.18
411.8	535.86
412.178	527.95
412.555	533.6
412.933	525.69
413.31	562.3
413.687	553.26
414.065	572.7
414.442	576.09
414.819	584.22
415.197	583.77
415.574	591.91
415.951	597.55
416.328	592.58
416.705	599.36
417.082	606.14
417.46	611.79
417.837	635.75
418.214	613.37
418.591	620.38
418.967	640.27
419.344	646.37
419.721	665.35
420.098	664.9
420.475	658.8
420.852	689.98
421.228	696.08
421.605	697.67
421.982	696.54
422.358	712.58
422.735	720.49
423.111	741.28
423.488	764.33
423.864	762.75
424.241	758.45
424.617	800.49
424.994	786.02
425.37	783.54
425.746	778.34
426.123	777.44
426.499	817.89
426.875	818.79
427.251	826.93
427.627	868.96
428.003	848.85
428.379	882.75
428.756	893.59
429.132	894.5
429.507	909.64
429.883	905.57
430.259	920.71
430.635	931.56
431.011	936.53
431.387	941.73
431.763	978.56
432.138	960.94
432.514	1003.65
432.89	1000.48
433.265	1020.14
433.641	1051.33
434.016	1029.86
434.392	1075.51
434.767	1068.28
435.143	1078.9
435.518	1092.01
435.894	1117.09
436.269	1141.72
436.644	1186.47
437.02	1177.43
437.395	1153.7
437.77	1193.25
438.145	1210.87
438.52	1222.4
438.895	1221.72
439.271	1262.85
439.646	1299.46
440.021	1302.85
440.395	1316.41
440.77	1322.28
441.145	1323.86
441.52	1352.56
441.895	1365.44
442.27	1416.29
442.645	1359.57
443.019	1383.07
443.394	1398.44
443.769	1407.93
444.143	1417.65
444.518	1452.45
444.892	1447.93
445.267	1487.93
445.641	1463.97
446.016	1476.85
446.39	1489.06
446.764	1482.73
447.139	1491.32
447.513	1528.83
447.887	1518.66
448.262	1554.82
448.636	1531.77
449.01	1564.76
449.384	1574.7
449.758	1566.34
450.132	1615.83
450.506	1629.84
450.88	1617.19
451.254	1634.59
451.628	1653.35
452.002	1661.26
452.376	1688.6
452.75	1713.46
453.123	1722.95
453.497	1732.89
453.871	1720.24
454.244	1771.99
454.618	1777.64
454.992	1811.08
455.365	1828.03
455.739	1844.3
456.112	1871.19
456.486	1866.67
456.859	1887.46
457.232	1913
457.606	1921.59
457.979	1948.93
458.352	1982.15
458.725	1981.25
459.099	2005.43
459.472	2034.81
459.845	2081.13
460.218	2088.14
460.591	2088.14
460.964	2109.15
461.337	2154.12
461.71	2189.6
462.083	2180.56
462.456	2189.83
462.829	2199.55
463.201	2247.46
463.574	2235.7
463.947	2299.66
464.32	2309.83
464.692	2344.4
465.065	2381.46
465.438	2395.93
465.81	2419.88
466.183	2459.43
466.555	2527.67
466.928	2492.42
467.3	2489.26
467.672	2524.28
468.045	2604.51
468.417	2594.56
468.789	2619.42
469.161	2672.75
469.534	2701.23
469.906	2742.13
470.278	2763.15
470.65	2765.86
471.022	2853.54
471.394	2850.38
471.766	2895.8
472.138	2904.39
472.51	3003.59
472.882	3009.24
473.253	3045.63
473.625	3098.28
473.997	3130.14
474.369	3162.91
474.74	3190.48
475.112	3223.02
475.484	3310.03
475.855	3314.32
476.227	3351.61
476.598	3417.14
476.97	3456.24
477.341	3567.19
477.713	3578.95
478.084	3604.48
478.455	3691.03
478.827	3688.77
479.198	3799.73
479.569	3809.45
479.94	3894.64
480.311	3925.83
480.682	4002.44
481.053	4065.26
481.424	4152.26
481.795	4155.43
482.166	4199.72
482.537	4304.58
482.908	4318.81
483.279	4364.69
483.65	4413.05
484.021	4485.14
484.391	4572.59
484.762	4649.2
485.133	4644.68
485.503	4689.88
485.874	4721.51
486.244	4768.52
486.615	4848.97
486.985	4873.83
487.356	4968.74
487.726	5027.95
488.097	5101.84
488.467	5147.72
488.837	5233.14
489.207	5236.08
489.578	5372.8
489.948	5388.84
490.318	5452.57
490.688	5478.56
491.058	5530.76
491.428	5593.36
491.798	5623.19
492.168	5698.21
492.538	5709.06
492.908	5767.14
493.278	5846
493.648	5833.58
494.017	5954.02
494.387	5991.09
494.757	6013.68
495.126	6080.12
495.496	6085.09
495.866	6129.39
496.235	6177.07
496.605	6225.2
496.974	6208.48
497.344	6304.75
497.713	6321.02
498.082	6341.58
498.452	6359.89
498.821	6388.36
499.19	6428.14
499.559	6434.69
499.928	6547.91
500.298	6532.31
500.667	6605.76
501.036	6563.95
501.405	6627
501.774	6649.83
502.143	6671.97
502.512	6713.33
502.88	6770.95
503.249	6768.01
503.618	6778.41
503.987	6858.41
504.356	6862.7
504.724	6867.45
505.093	6917.16
505.462	6879.88
505.83	6969.14
506.199	6999.19
506.567	7046.42
506.936	7057.27
507.304	7131.62
507.672	7090.94
508.041	7154.9
508.409	7154.22
508.777	7188.57
509.145	7328.68
509.514	7235.12
509.882	7248.23
510.25	7271.5
510.618	7335.23
510.986	7255.23
511.354	7319.19
511.722	7417.49
512.09	7471.5
512.458	7408.68
512.826	7464.94
513.193	7473.98
513.561	7452.74
513.929	7576.58
514.297	7605.73
514.664	7607.09
515.032	7629.46
515.4	7642.57
515.767	7677.59
516.135	7664.26
516.502	7666.97
516.869	7708.1
517.237	7749.46
517.604	7734.32
517.972	7764.15
518.339	7779.74
518.706	7761.66
519.073	7808.66
519.44	7812.73
519.808	7896.57
520.175	7852.96
520.542	7950.36
520.909	7947.64
521.276	7950.58
521.643	7978.6
522.009	8024.03
522.376	8059.05
522.743	8044.59
523.11	8136.11
523.477	8121.88
523.843	8134.31
524.21	8163.68
524.577	8186.73
524.943	8196.45
525.31	8291.36
525.676	8237.35
526.043	8325.49
526.409	8254.08
526.776	8307.63
527.142	8379.95
527.508	8371.59
527.874	8443.22
528.241	8423.11
528.607	8402.1
528.973	8495.88
529.339	8454.75
529.705	8483.45
530.071	8540.62
530.437	8549.66
530.803	8557.8
531.169	8535.65
531.535	8506.73
531.901	8557.57
532.267	8539.27
532.632	8532.26
532.998	8572.94
533.364	8568.42
533.73	8644.57
534.095	8640.28
534.461	8592.37
534.826	8609.1
535.192	8603.67
535.557	8709.21
535.923	8645.93
536.288	8649.32
536.653	8676.89
537.019	8622.65
537.384	8629.66
537.749	8617.91
538.114	8668.08
538.479	8624.69
538.845	8610.45
539.21	8601.64
539.575	8649.55
539.94	8619.04
540.305	8618.36
540.67	8615.88
541.034	8602.99
541.399	8618.13
541.764	8634.41
542.129	8710.56
542.494	8575.88
542.858	8592.82
543.223	8572.71
543.587	8652.94
543.952	8601.86
544.316	8674.86
544.681	8582.43
545.045	8610
545.41	8641.19
545.774	8626.72
546.138	8552.15
546.503	8605.71
546.867	8572.03
547.231	8617.91
547.595	8631.02
547.959	8577.68
548.324	8606.16
548.688	8586.5
549.052	8624.91
549.416	8608.64
549.779	8631.92
550.143	8635.99
550.507	8607.29
550.871	8646.83
551.235	8588.53
551.599	8645.25
551.962	8648.19
552.326	8621.07
552.689	8633.73
553.053	8608.87
553.417	8553.5
553.78	8678.02
554.143	8684.8
554.507	8646.16
554.87	8677.12
555.234	8706.72
555.597	8581.3
555.96	8620.39
556.323	8710.11
556.686	8715.31
557.05	8735.65
557.413	8663.33
557.776	8699.04
558.139	8772.71
558.502	8756.66
558.865	8772.93
559.228	8724.57
559.59	8772.93
559.953	8816.77
560.316	8866.94
560.679	8860.84
561.041	8894.06
561.404	8894.29
561.767	8904
562.129	8871.46
562.492	8907.62
562.854	8949.2
563.217	8938.58
563.579	8970.22
563.941	9021.74
564.304	9054.73
564.666	9059.71
565.028	9099.25
565.39	9119.82
565.753	9109.2
566.115	9139.48
566.477	9131.12
566.839	9185.8
567.201	9179.02
567.563	9242.53
567.925	9316.65
568.287	9216.76
568.648	9296.08
569.01	9366.36
569.372	9360.26
569.734	9318.23
570.095	9383.09
570.457	9465.57
570.819	9447.72
571.18	9395.52
571.542	9452.92
571.903	9507.6
572.265	9568.39
572.626	9520.48
572.987	9541.95
573.349	9554.38
573.71	9625.57
574.071	9624.44
574.432	9698.56
574.794	9754.38
575.155	9645
575.516	9717.32
575.877	9738.11
576.238	9791.44
576.599	9772.91
576.96	9797.99
577.32	9782.85
577.681	9778.1
578.042	9853.13
578.403	9863.07
578.763	9855.16
579.124	9872.34
579.485	9942.62
579.845	9976.74
580.206	9960.47
580.566	10015.16
580.927	9989.62
581.287	10042.5
581.648	9993.47
582.008	10058.55
582.368	10098.1
582.728	10104.42
583.089	10111.43
583.449	10140.35
583.809	10188.04
584.169	10206.57
584.529	10121.15
584.889	10223.06
585.249	10133.8
585.609	10172.9
585.969	10230.07
586.329	10209.05
586.688	10274.14
587.048	10242.5
587.408	10131.09
587.768	10240.01
588.127	10253.57
588.487	10266.45
588.846	10348.26
589.206	10262.84
589.565	10215.61
589.925	10372.21
590.284	10345.32
590.643	10323.4
591.003	10341.25
591.362	10367.24
591.721	10433.91
592.08	10302.16
592.44	10349.16
592.799	10403.4
593.158	10371.08
593.517	10397.52
593.876	10435.94
594.235	10465.77
594.593	10423.51
594.952	10453.11
595.311	10474.36
595.67	10418.77
596.029	10471.19
596.387	10519.1
596.746	10524.07
597.104	10483.4
597.463	10482.49
597.822	10523.85
598.18	10471.65
598.538	10513.23
598.897	10557.97
599.255	10456.73
599.613	10550.29
599.972	10597.29
600.33	10528.37
600.688	10530.85
601.046	10610.4
601.404	10613.79
601.762	10621.92
602.12	10573.79
602.478	10604.07
602.836	10682.94
603.194	10589.83
603.552	10667.8
603.91	10566.33
604.268	10635.48
604.625	10596.61
604.983	10682.49
605.341	10568.14
605.698	10634.35
606.056	10631.42
606.413	10673
606.771	10674.58
607.128	10735.37
607.485	10649.04
607.843	10668.02
608.2	10712.54
608.557	10748.02
608.914	10768.81
609.272	10759.32
609.629	10771.75
609.986	10791.86
610.343	10772.2
610.7	10825.31
611.057	10825.53
611.414	10857.4
611.771	10901.69
612.127	10880.9
612.484	10858.53
612.841	10868.7
613.198	10857.4
613.554	10868.02
613.911	10890.84
614.267	10892.2
614.624	10952.31
614.98	10869.15
615.337	11052.2
615.693	10957.06
616.05	10942.14
616.406	10997.51
616.762	10964.97
617.118	10921.8
617.475	10985.98
617.831	11039.54
618.187	10981.46
618.543	11050.61
618.899	11040.22
619.255	11007.68
619.611	11008.81
619.967	11012.2
620.323	11127.9
620.678	11030.95
621.034	10964.97
621.39	10992.99
621.746	11026.89
622.101	11148.46
622.457	11035.7
622.812	11056.26
623.168	11084.28
623.523	11090.84
623.879	11124.74
624.234	11023.27
624.589	11068.24
624.945	11063.49
625.3	11069.14
625.655	11064.85
626.01	11062.59
626.365	11017.85
626.72	11042.93
627.075	11011.07
627.43	11032.99
627.785	11015.13
628.14	11039.09
628.495	11057.17
628.85	11070.5
629.205	10920.9
629.559	11077.51
629.914	11032.76
630.269	11048.81
630.623	10983.95
630.978	10912.54
631.332	10944.63
631.687	11085.41
632.041	10929.26
632.396	10956.38
632.75	10901.01
633.104	10895.59
633.459	10838.19
633.813	10841.58
634.167	10829.15
634.521	10836.83
634.875	10852.88
635.229	10821.47
635.583	10723.84
635.937	10791.41
636.291	10734.69
636.645	10806.55
636.999	10763.62
637.352	10715.48
637.706	10738.76
638.06	10700.57
638.413	10728.59
638.767	10666.67
639.121	10708.93
639.474	10651.08
639.828	10612.43
640.181	10687.91
640.534	10624.64
640.888	10628.03
641.241	10591.42
641.594	10615.37
641.947	10655.82
642.301	10600.23
642.654	10558.65
643.007	10601.13
643.36	10547.35
643.713	10594.35
644.066	10541.02
644.419	10494.92
644.771	10436.84
645.124	10440.91
645.477	10315.94
645.83	10281.82
646.182	10253.57
646.535	10176.96
646.888	10293.57
647.24	10143.97
647.593	10133.35
647.945	10094.71
648.298	10115.04
648.65	10131.32
649.002	10089.73
649.355	10146.23
649.707	10114.59
650.059	10193.69
650.411	10320.69
650.763	10286.57
651.115	10411.76
651.467	10428.03
651.819	10305.1
652.171	10295.6
652.523	10288.6
652.875	10236.62
653.227	10256.74
653.578	10418.09
653.93	10387.13
654.282	10340.12
654.633	10246.34
654.985	10322.95
655.337	10340.58
655.688	10337.19
656.039	10341.71
656.391	10340.58
656.742	10285.66
657.094	10258.54
657.445	10287.47
657.796	10271.65
658.147	10238.21
658.498	10227.13
658.849	10322.04
659.2	10247.92
659.551	10213.35
659.902	10305.55
660.253	10263.29
660.604	10296.28
660.955	10155.5
661.306	10225.78
661.656	10232.33
662.007	10280.46
662.358	10238.21
662.708	10297.86
663.059	10245.44
663.409	10128.83
663.76	10243.4
664.11	10257.64
664.461	10314.59
664.811	10254.93
665.161	10229.84
665.511	10200.69
665.862	10313.68
666.212	10276.4
666.562	10324.76
666.912	10289.5
667.262	10314.81
667.612	10204.99
667.962	10190.75
668.312	10288.6
668.662	10311.42
669.011	10336.28
669.361	10204.99
669.711	10215.83
670.06	10233.46
670.41	10221.48
670.76	10195.49
671.109	10204.31
671.459	10238.88
671.808	10183.07
672.157	10230.97
672.507	10125.44
672.856	10138.55
673.205	10151.88
673.554	10161.82
673.904	10088.6
674.253	10147.13
674.602	10088.38
674.951	10036.63
675.3	9947.59
675.649	10151.2
675.998	10075.5
676.346	10067.14
676.695	10073.24
677.044	10099
677.393	10076.18
677.741	10078.44
678.09	9985.33
678.438	10014.93
678.787	10070.75
679.135	9996.18
679.484	9952.34
679.832	9996.4
680.181	9910.53
680.529	9955.05
680.877	9932.22
681.225	9929.74
681.573	9944.65
681.922	9856.07
682.27	9833.47
682.618	9795.28
682.966	9890.42
683.314	9856.75
683.661	9800.25
684.009	9788.27
684.357	9714.15
684.705	9752.79
685.053	9752.34
685.4	9763.42
685.748	9679.35
686.095	9662.18
686.443	9692.68
686.79	9653.36
687.138	9642.29
687.485	9644.55
687.832	9578.11
688.18	9565.68
688.527	9559.35
688.874	9472.8
689.221	9540.82
689.568	9577.21
689.915	9523.2
690.262	9468.28
690.609	9424.67
690.956	9302.86
691.303	9296.31
691.65	9273.71
691.997	9277.55
692.344	9172.02
692.69	9231.45
693.037	9221.73
693.383	9188.06
693.73	9112.59
694.077	9125.24
694.423	9145.58
694.769	9079.37
695.116	9054.28
695.462	8986.94
695.808	8971.57
696.155	9010.89
696.501	8968.18
696.847	8873.72
697.193	8875.76
697.539	8853.61
697.885	8812.93
698.231	8808.86
698.577	8840.5
698.923	8754.63
699.269	8726.38
699.614	8712.82
699.96	8635.54
700.306	8610.45
700.651	8592.82
700.997	8572.03
701.342	8591.24
701.688	8500.17
702.033	8485.94
702.379	8462.66
702.724	8426.28
703.069	8480.06
703.415	8403
703.76	8379.27
704.105	8351.93
704.45	8325.71
704.795	8245.94
705.14	8238.03
705.485	8242.1
705.83	8203
706.175	8188.09
706.52	8164.59
706.865	8120.52
707.209	8094.76
707.554	8134.98
707.899	8179.28
708.243	8131.82
708.588	8057.7
708.932	8006.63
709.277	8002.33
709.621	8032.39
709.966	7984.03
710.31	7983.58
710.654	7902.9
710.998	7883.01
711.342	7840.53
711.687	7882.79
712.031	7886.18
712.375	7800.76
712.719	7793.98
713.063	7764.6
713.407	7782.68
713.75	7792.85
714.094	7778.84
714.438	7728.21
714.782	7720.53
715.125	7687.54
715.469	7630.82
715.812	7671.49
716.156	7615
716.499	7651.61
716.843	7667.2
717.186	7619.97
717.53	7652.51
717.873	7619.74
718.216	7682.11
718.559	7570.93
718.902	7501.33
719.246	7591.27
719.589	7521.44
719.932	7521.44
720.275	7456.58
720.617	7501.1
720.96	7423.82
721.303	7530.25
721.646	7476.02
721.989	7457.04
722.331	7459.52
722.674	7351.5
723.016	7435.79
723.359	7375.23
723.701	7403.25
724.044	7356.93
724.386	7349.47
724.729	7371.39
725.071	7332.07
725.413	7308.56
725.755	7346.3
726.097	7341.33
726.439	7298.17
726.782	7276.02
727.124	7300.66
727.465	7351.73
727.807	7288.23
728.149	7295.46
728.491	7244.84
728.833	7309.47
729.175	7292.97
729.516	7217.95
729.858	7218.85
730.199	7313.76
730.541	7216.82
730.882	7217.49
731.224	7216.14
731.565	7226.53
731.906	7230.83
732.248	7218.85
732.589	7189.25
732.93	7160.09
733.271	7218.4
733.612	7179.53
733.953	7194.67
734.294	7130.26
734.635	7200.09
734.976	7153.77
735.317	7166.2
735.658	7160.09
735.999	7180.43
736.339	7159.87
736.68	7203.48
737.021	7063.37
737.361	7157.83
737.702	7199.64
738.042	7154.22
738.383	7153.54
738.723	7157.61
739.063	7141.56
739.404	7198.96
739.744	7106.08
740.084	7212.97
740.424	7228.34
740.764	7213.2
741.104	7237.83
741.444	7119.87
741.784	7156.25
742.124	7151.96
742.464	7193.99
742.804	7179.08
743.143	7215.23
743.483	7179.75
743.823	7219.53
744.162	7251.17
744.502	7257.94
744.841	7237.38
745.181	7323.71
745.52	7293.65
745.86	7356.25
746.199	7355.12
746.538	7340.2
746.877	7330.03
747.216	7385.4
747.556	7456.36
747.895	7459.52
748.234	7463.59
748.573	7491.16
748.911	7566.64
749.25	7611.83
749.589	7562.57
749.928	7636.24
750.267	7742.23
750.605	7700.87
750.944	7763.47
751.283	7830.81
751.621	7843.47
751.96	7933.63
752.298	7957.81
752.636	8043.23
752.975	8073.29
753.313	8079.17
753.651	8252.49
753.989	8193.97
754.327	8270.35
754.666	8321.87
755.004	8506.73
755.342	8524.13
755.679	8596.67
756.017	8600.28
756.355	8806.38
756.693	8852.93
757.031	8971.8
757.368	8962.31
757.706	9099.93
758.044	9212.7
758.381	9346.7
758.719	9353.26
759.056	9461.5
759.394	9583.08
759.731	9601.84
760.068	9749.18
760.405	9827.37
760.743	9924.32
761.08	10082.28
761.417	10037.53
761.754	10128.38
762.091	10247.47
762.428	10394.13
762.765	10471.19
763.102	10555.94
763.438	10619.66
763.775	10743.73
764.112	10882.26
