Data from hue_200_FLMS001491_00058.txt Node
Date: Tue Feb 07 16:43:38 GMT 2017
User: dcchb
Spectrometer: FLMS00149
Trigger mode: 0
Integration Time (sec): 2.000000E-2
Scans to average: 10
Electric dark correction enabled: true
Nonlinearity correction enabled: false
Boxcar width: 0
XAxis mode: Wavelengths
Number of Pixels in Spectrum: 2048
>>>>>Begin Spectral Data<<<<<
341.393	-1.34
341.776	-1.34
342.16	-1.34
342.543	-62.36
342.927	-70.49
343.31	-42.02
343.693	-70.72
344.077	-53.77
344.46	-71.85
344.843	-50.15
345.226	-42.02
345.61	-44.28
345.993	-15.13
346.376	-15.13
346.759	9.96
347.142	29.62
347.525	33.91
347.908	51.54
348.291	76.62
348.674	84.08
349.057	119.33
349.44	135.83
349.823	156.17
350.206	190.52
350.588	188.48
350.971	199.33
351.354	253.79
351.737	254.47
352.119	250.63
352.502	257.63
352.884	272.1
353.267	269.16
353.65	303.28
354.032	300.12
354.414	294.02
354.797	299.44
355.179	318.2
355.562	318.65
355.944	322.04
356.326	336.28
356.709	360.23
357.091	347.58
357.473	365.65
357.855	334.47
358.238	348.71
358.62	341.02
359.002	346.45
359.384	357.74
359.766	347.12
360.148	316.39
360.53	338.76
360.912	345.54
361.294	334.47
361.676	330.4
362.057	329.95
362.439	326.79
362.821	330.4
363.203	316.62
363.584	315.94
363.966	335.6
364.348	325.88
364.729	314.13
365.111	330.85
365.493	306.67
365.874	340.34
366.256	310.51
366.637	318.42
367.019	331.53
367.4	303.06
367.781	323.62
368.163	334.69
368.544	331.53
368.925	317.75
369.306	328.82
369.688	315.94
370.069	298.54
370.45	312.55
370.831	319.1
371.212	314.13
371.593	309.84
371.974	292.89
372.355	300.8
372.736	323.4
373.117	322.27
373.498	295.37
373.879	317.97
374.26	344.41
374.641	318.65
375.021	325.43
375.402	313.45
375.783	328.82
376.163	331.08
376.544	318.65
376.925	331.3
377.305	329.95
377.686	325.43
378.066	339.21
378.447	325.2
378.827	331.3
379.208	324.98
379.588	347.35
379.968	341.7
380.349	324.98
380.729	340.57
381.109	341.7
381.489	334.92
381.87	345.32
382.25	338.08
382.63	338.08
383.01	331.98
383.39	327.46
383.77	343.28
384.15	352.77
384.53	331.53
384.91	345.54
385.29	345.99
385.67	376.28
386.049	371.53
386.429	374.47
386.809	374.47
387.189	359.33
387.568	363.17
387.948	378.76
388.328	346.22
388.707	371.08
389.087	356.16
389.466	361.59
389.846	354.36
390.225	397.52
390.605	362.04
390.984	370.63
391.363	340.12
391.743	369.5
392.122	372.21
392.501	381.47
392.881	368.37
393.26	391.42
393.639	374.69
394.018	392.32
394.397	397.97
394.776	409.49
395.155	361.13
395.534	391.87
395.913	381.92
396.292	393.45
396.671	401.81
397.05	395.71
397.429	395.48
397.808	403.17
398.186	409.95
398.565	415.14
398.944	409.04
399.323	418.53
399.701	409.04
400.08	398.42
400.458	425.54
400.837	428.25
401.215	420.57
401.594	416.05
401.972	433.9
402.351	443.84
402.729	434.13
403.107	447.46
403.486	443.39
403.864	454.47
404.242	446.56
404.62	441.36
404.999	467.8
405.377	467.12
405.755	455.82
406.133	463.73
406.511	458.53
406.889	477.52
407.267	475.48
407.645	482.26
408.023	501.92
408.401	493.79
408.779	486.56
409.156	512.32
409.534	531.98
409.912	536.95
410.29	543.05
410.667	547.12
411.045	563.16
411.422	535.14
411.8	560
412.178	553.22
412.555	587.12
412.933	592.31
413.31	612.65
413.687	609.94
414.065	597.51
414.442	618.75
414.819	638.19
415.197	667.57
415.574	658.08
415.951	666.89
416.328	668.47
416.705	677.28
417.082	686.78
417.46	694.23
417.837	706.21
418.214	690.84
418.591	729.94
418.967	733.33
419.344	722.71
419.721	769.94
420.098	759.99
420.475	757.06
420.852	776.49
421.228	787.11
421.605	814.23
421.982	830.05
422.358	859.43
422.735	847.68
423.111	842.25
423.488	867.79
423.864	903.95
424.241	924.96
424.617	923.83
424.994	954.34
425.37	931.97
425.746	948.69
426.123	978.07
426.499	969.93
426.875	1008.35
427.251	1017.84
427.627	1060.55
428.003	1035.24
428.379	1063.49
428.756	1089.7
429.132	1087.67
429.507	1103.26
429.883	1114.79
430.259	1149.14
430.635	1142.13
431.011	1154.79
431.387	1165.18
431.763	1196.14
432.138	1195.69
432.514	1224.39
432.89	1234.33
433.265	1265.29
433.641	1282.92
434.016	1347.32
434.392	1346.65
434.767	1374.44
435.143	1365.4
435.518	1388.45
435.894	1425.29
436.269	1429.81
436.644	1480.2
437.02	1514.78
437.395	1524.95
437.77	1578.73
438.145	1596.58
438.52	1609.92
438.895	1634.77
439.271	1643.59
439.646	1706.41
440.021	1716.35
440.395	1740.31
440.77	1752.28
441.145	1769.23
441.52	1833.19
441.895	1842
442.27	1860.76
442.645	1830.93
443.019	1884.48
443.394	1911.38
443.769	1896.24
444.143	1926.97
444.518	1964.03
444.892	1992.28
445.267	1971.49
445.641	2049
446.016	2026.18
446.39	2066.85
446.764	2065.95
447.139	2088.55
447.513	2115.21
447.887	2091.03
448.262	2119.96
448.636	2156.79
449.01	2193.18
449.384	2232.27
449.758	2207.64
450.132	2259.62
450.506	2232.05
450.88	2277.47
451.254	2296.9
451.628	2295.55
452.002	2321.99
452.376	2331.25
452.75	2353.17
453.123	2391.14
453.497	2437.69
453.871	2449.22
454.244	2495.77
454.618	2529.67
454.992	2573.28
455.365	2585.71
455.739	2610.11
456.112	2667.74
456.486	2671.36
456.859	2647.63
457.232	2718.13
457.606	2728.76
457.979	2744.12
458.352	2844.23
458.725	2823.67
459.099	2881.07
459.472	2938.92
459.845	2963.33
460.218	2958.35
460.591	3001.52
460.964	3004.45
461.337	3076.54
461.71	3117.45
462.083	3166.71
462.456	3174.39
462.829	3197.9
463.201	3281.06
463.574	3231.12
463.947	3296.65
464.32	3355.41
464.692	3379.59
465.065	3417.33
465.438	3474.05
465.81	3509.07
466.183	3586.59
466.555	3619.35
466.928	3638.34
467.3	3617.55
467.672	3722.63
468.045	3803.76
468.417	3844.43
468.789	3830.65
469.161	3898.22
469.534	3943.19
469.906	4012.34
470.278	4055.5
470.65	4118.55
471.022	4191.54
471.394	4240.35
471.766	4256.85
472.138	4291.2
472.51	4382.95
472.882	4377.53
473.253	4482.61
473.625	4555.15
473.997	4615.26
474.369	4659.1
474.74	4679.44
475.112	4788.14
475.484	4820.9
475.855	4932.99
476.227	5004.18
476.598	5083.72
476.97	5110.39
477.341	5262.25
477.713	5323.49
478.084	5323.72
478.455	5473.32
478.827	5463.37
479.198	5650.71
479.569	5648.23
479.94	5802.8
480.311	5835.11
480.682	5967.09
481.053	6058.16
481.424	6196.24
481.795	6248.44
482.166	6279.17
482.537	6367.08
482.908	6478.04
483.279	6541.99
483.65	6686.39
484.021	6824.24
484.391	6821.53
484.762	6870.12
485.133	6917.57
485.503	6999.6
485.874	7093.84
486.244	7211.58
486.615	7326.83
486.985	7440.5
487.356	7492.92
487.726	7562.3
488.097	7685.69
488.467	7687.04
488.837	7887.04
489.207	7913.93
489.578	8024.66
489.948	8129.74
490.318	8191.44
490.688	8192.79
491.058	8370.87
491.428	8425.33
491.798	8508.04
492.168	8671.42
492.538	8710.07
492.908	8706.9
493.278	8797.3
493.648	8884.3
494.017	8920.46
494.387	9015.14
494.757	9072.32
495.126	9141.92
495.496	9143.95
495.866	9211.52
496.235	9236.16
496.605	9295.81
496.974	9350.95
497.344	9456.49
497.713	9583.94
498.082	9515.24
498.452	9546.88
498.821	9588.46
499.19	9589.59
499.559	9653.77
499.928	9708.91
500.298	9763.83
500.667	9862.35
501.036	9825.29
501.405	9928.57
501.774	9869.81
502.143	9926.76
502.512	9923.37
502.88	10022.35
503.249	10030.94
503.618	10034.1
503.987	10068.45
504.356	10125.17
504.724	10129.01
505.093	10175.79
505.462	10175.34
505.83	10196.58
506.199	10263.93
506.567	10393.87
506.936	10335.56
507.304	10383.24
507.672	10402.23
508.041	10450.13
508.409	10474.54
508.777	10544.14
509.145	10522.45
509.514	10542.79
509.882	10570.81
510.25	10570.81
510.618	10607.42
510.986	10627.76
511.354	10686.96
511.722	10754.99
512.09	10692.16
512.458	10639.51
512.826	10721.54
513.193	10778.71
513.561	10669.56
513.929	10813.06
514.297	10854.87
514.664	10937.81
515.032	10829.79
515.4	10910.46
515.767	10915.66
516.135	10917.02
516.502	10864.36
516.869	10988.65
517.237	10971.48
517.604	10938.48
517.972	10939.84
518.339	11066.39
518.706	10923.57
519.073	10934.42
519.44	11032.94
519.808	11099.61
520.175	10966.73
520.542	11123.79
520.909	11091.25
521.276	11057.58
521.643	11082.43
522.009	11190
522.376	11151.59
522.743	11148.87
523.11	11183.9
523.477	11235.88
523.843	11227.74
524.21	11272.49
524.577	11246.27
524.943	11268.19
525.31	11301.64
525.676	11338.47
526.043	11379.15
526.409	11289.21
526.776	11373.27
527.142	11302.32
527.508	11370.56
527.874	11319.26
528.241	11313.39
528.607	11310.45
528.973	11334.18
529.339	11289.66
529.705	11354.97
530.071	11338.25
530.437	11245.37
530.803	11250.34
531.169	11262.77
531.535	11271.36
531.901	11156.56
532.267	11177.12
532.632	11167.63
532.998	11175.99
533.364	11153.39
533.73	11143.68
534.095	11100.97
534.461	11082.89
534.826	11112.49
535.192	11117.01
535.557	11093.96
535.923	11020.97
536.288	11038.59
536.653	10986.39
537.019	10885.6
537.384	10803.57
537.749	10871.82
538.114	10802.89
538.479	10802.89
538.845	10781.43
539.21	10644.25
539.575	10743.46
539.94	10646.29
540.305	10700.07
540.67	10554.09
541.034	10530.36
541.399	10527.42
541.764	10479.74
542.129	10397.93
542.494	10402
542.858	10410.59
543.223	10279.29
543.587	10272.51
543.952	10231.38
544.316	10224.15
544.681	10199.07
545.045	10169.46
545.41	10152.52
545.774	10043.37
546.138	10090.14
546.503	9989.58
546.867	9898.51
547.231	9962.69
547.595	9948.91
547.959	9794.11
548.324	9765.41
548.688	9734.9
549.052	9741
549.416	9753.88
549.779	9664.17
550.143	9598.41
550.507	9689.48
550.871	9614.68
551.235	9453.1
551.599	9588.24
551.962	9499.65
552.326	9500.78
552.689	9511.85
553.053	9394.12
553.417	9350.95
553.78	9409.71
554.143	9337.4
554.507	9284.52
554.87	9261.92
555.234	9326.77
555.597	9208.36
555.96	9115.71
556.323	9165.2
556.686	9150.73
557.05	9158.42
557.413	9095.14
557.776	9058.53
558.139	9103.28
558.502	9042.26
558.865	9048.14
559.228	9027.35
559.59	9067.35
559.953	9021.47
560.316	9049.49
560.679	9008.14
561.041	9015.6
561.404	9048.59
561.767	9010.4
562.129	8932.89
562.492	9014.47
562.854	8902.38
563.217	8926.56
563.579	8964.52
563.941	8858.31
564.304	8926.11
564.666	8953.23
565.028	8953.68
565.39	9006.33
565.753	8947.58
566.115	8940.8
566.477	8962.49
566.839	8964.3
567.201	8958.42
567.563	8952.32
567.925	9029.38
568.287	8930.85
568.648	9000.46
569.01	8956.16
569.372	8953.9
569.734	8916.84
570.095	9042.49
570.457	8997.52
570.819	9010.85
571.18	8956.16
571.542	9064.86
571.903	9004.3
572.265	9014.01
572.626	9083.17
572.987	9050.62
573.349	8992.09
573.71	9010.17
574.071	9016.95
574.432	9054.69
574.794	9033.45
575.155	9042.49
575.516	9016.05
575.877	9057.4
576.238	8995.48
576.599	9148.47
576.96	9097.63
577.32	9072.32
577.681	9090.4
578.042	9066.44
578.403	9097.85
578.763	9139.21
579.124	9051.98
579.485	9112.54
579.845	9170.17
580.206	9067.8
580.566	9094.69
580.927	9073.9
581.287	9157.06
581.648	9070.74
582.008	9106.89
582.368	9085.65
582.728	9066.67
583.089	9070.28
583.449	9108.7
583.809	9038.87
584.169	9009.95
584.529	9000.46
584.889	9104.86
585.249	9085.88
585.609	9042.26
585.969	9065.99
586.329	9009.72
586.688	9006.33
587.048	9046.1
587.408	8969.04
587.768	8915.71
588.127	8911.87
588.487	9001.13
588.846	9017.63
589.206	8988.93
589.565	8978.31
589.925	9002.26
590.284	8995.03
590.643	9028.03
591.003	8961.13
591.362	9013.11
591.721	9062.6
592.08	8964.98
592.44	8949.61
592.799	8945.77
593.158	8953.45
593.517	8901.25
593.876	8997.74
594.235	8945.54
594.593	8946.9
594.952	8877.97
595.311	8928.14
595.67	8923.85
596.029	8974.24
596.387	8923.62
596.746	8951.42
597.104	8884.98
597.463	8844.75
597.822	8971.08
598.18	8851.53
598.538	8897.86
598.897	8893.34
599.255	8899.22
599.613	8878.65
599.972	8886.33
600.33	8941.02
600.688	8862.38
601.046	8834.36
601.404	8896.05
601.762	8919.1
602.12	8948.71
602.478	8953.45
602.836	8918.2
603.194	8864.19
603.552	8858.99
603.91	8821.93
604.268	8888.82
604.625	8825.09
604.983	8889.95
605.341	8839.78
605.698	8873.23
606.056	8920.46
606.413	8907.12
606.771	8891.08
607.128	8868.26
607.485	8837.97
607.843	8838.43
608.2	8910.29
608.557	8911.42
608.914	8900.57
609.272	8919.33
609.629	8939.21
609.986	8872.55
610.343	8900.57
610.7	8966.11
611.057	8976.5
611.414	8954.81
611.771	8929.04
612.127	9023.28
612.484	9011.75
612.841	9009.27
613.198	8989.83
613.554	8933.34
613.911	9012.88
614.267	9019.89
614.624	9013.34
614.98	9021.47
615.337	9023.05
615.693	8975.37
616.05	8965.65
616.406	8997.07
616.762	9003.39
617.118	8994.13
617.475	8950.06
617.831	9003.17
618.187	9016.5
618.543	9087.91
618.899	9065.99
619.255	9063.73
619.611	9059.66
619.967	9034.58
620.323	9076.84
620.678	9107.8
621.034	9045.65
621.39	9026.44
621.746	9028.93
622.101	9120.45
622.457	9051.98
622.812	9055.14
623.168	9031.19
623.523	9069.15
623.879	9127.68
624.234	9079.78
624.589	9099.44
624.945	9073.67
625.3	9074.13
625.655	9028.7
626.01	9038.65
626.365	9030.29
626.72	9031.64
627.075	9064.41
627.43	9038.65
627.785	9017.86
628.14	9054.24
628.495	9067.12
628.85	9087.01
629.205	9001.59
629.559	9019.21
629.914	8987.57
630.269	8966.33
630.623	8999.55
630.978	8940.57
631.332	9004.98
631.687	9025.99
632.041	8965.88
632.396	8976.5
632.75	8923.4
633.104	8958.65
633.459	8912.1
633.813	8916.16
634.167	8895.15
634.521	8904.41
634.875	8838.65
635.229	8853.34
635.583	8839.78
635.937	8867.8
636.291	8769.5
636.645	8825.09
636.999	8800.46
637.352	8776.73
637.706	8758.65
638.06	8752.33
638.413	8747.13
638.767	8742.38
639.121	8786.9
639.474	8712.78
639.828	8795.72
640.181	8741.48
640.534	8717.98
640.888	8727.92
641.241	8647.7
641.594	8669.62
641.947	8734.02
642.301	8614.48
642.654	8622.39
643.007	8649.5
643.36	8668.26
643.713	8668.49
644.066	8625.55
644.419	8611.09
644.771	8608.6
645.124	8484.31
645.477	8507.81
645.83	8458.77
646.182	8448.83
646.535	8297.2
646.888	8406.8
647.24	8345.56
647.593	8380.36
647.945	8373.35
648.298	8292.9
648.65	8352.79
649.002	8295.62
649.355	8334.26
649.707	8347.14
650.059	8361.6
650.411	8414.48
650.763	8451.77
651.115	8568.83
651.467	8567.02
651.819	8492.9
652.171	8539.68
652.523	8499.45
652.875	8481.37
653.227	8448.38
653.578	8483.63
653.93	8477.31
654.282	8470.3
654.633	8478.89
654.985	8486.34
655.337	8535.38
655.688	8500.13
656.039	8509.39
656.391	8454.93
656.742	8479.79
657.094	8527.93
657.445	8514.37
657.796	8503.75
658.147	8452.45
658.498	8531.99
658.849	8525.21
659.2	8489.51
659.551	8434.59
659.902	8462.84
660.253	8517.08
660.604	8499
660.955	8525.89
661.306	8540.81
661.656	8508.72
662.007	8581.71
662.358	8564.08
662.708	8538.55
663.059	8556.63
663.409	8502.39
663.76	8573.35
664.11	8534.93
664.461	8564.76
664.811	8561.6
665.161	8585.33
665.511	8520.47
665.862	8562.05
666.212	8578.32
666.562	8534.7
666.912	8581.94
667.262	8526.57
667.612	8559.79
667.962	8538.09
668.312	8556.85
668.662	8603.4
669.011	8468.27
669.361	8523.86
669.711	8574.48
670.06	8549.17
670.41	8474.37
670.76	8462.39
671.109	8550.98
671.459	8449.51
671.808	8436.85
672.157	8486.12
672.507	8397.53
672.856	8468.72
673.205	8462.16
673.554	8535.38
673.904	8458.32
674.253	8535.16
674.602	8506.91
674.951	8373.35
675.3	8326.35
675.649	8446.35
675.998	8442.28
676.346	8376.07
676.695	8466.91
677.044	8415.61
677.393	8384.88
677.741	8383.52
678.09	8385.56
678.438	8299.91
678.787	8384.88
679.135	8341.49
679.484	8240.02
679.832	8308.72
680.181	8256.97
680.529	8270.76
680.877	8213.58
681.225	8191.44
681.573	8328.38
681.922	8186.69
682.27	8218.56
682.618	8158.44
682.966	8176.07
683.314	8186.01
683.661	8175.84
684.009	8121.38
684.357	8070.54
684.705	8081.16
685.053	8081.38
685.4	8085.45
685.748	8029.41
686.095	8033.25
686.443	7959.13
686.79	7971.56
687.138	8013.14
687.485	7975.17
687.832	7927.04
688.18	7926.59
688.527	7936.3
688.874	7864.67
689.221	7781.28
689.568	7838.23
689.915	7789.19
690.262	7816.76
690.609	7765.91
690.956	7750.32
691.303	7706.7
691.65	7704.67
691.997	7597.33
692.344	7689.08
692.69	7657.44
693.037	7618.8
693.383	7526.37
693.73	7564.34
694.077	7503.77
694.423	7474.17
694.769	7519.59
695.116	7455.41
695.462	7436.88
695.808	7395.75
696.155	7420.84
696.501	7365.24
696.847	7398.92
697.193	7356.66
697.539	7289.31
697.885	7238.02
698.231	7204.8
698.577	7231.91
698.923	7186.94
699.269	7138.58
699.614	7075.31
699.96	7095.87
700.306	7087.96
700.651	7084.35
700.997	7068.3
701.342	6986.95
701.688	6968.19
702.033	6930.23
702.379	6947.18
702.724	6951.7
703.069	6904.47
703.415	6860.85
703.76	6788.31
704.105	6848.42
704.45	6812.94
704.795	6782.66
705.14	6716.67
705.485	6680.52
705.83	6642.1
706.175	6685.49
706.52	6637.58
706.865	6614.76
707.209	6593.97
707.554	6580.86
707.899	6610.01
708.243	6538.15
708.588	6518.26
708.932	6558.71
709.277	6506.96
709.621	6568.2
709.966	6493.85
710.31	6523.01
710.654	6421.54
710.998	6417.02
711.342	6419.05
711.687	6383.58
712.031	6358.72
712.375	6364.82
712.719	6372.95
713.063	6360.98
713.407	6353.75
713.75	6316.23
714.094	6349.68
714.438	6274.43
714.782	6305.16
715.125	6263.58
715.469	6249.12
715.812	6225.61
716.156	6184.94
716.499	6259.06
716.843	6183.35
717.186	6152.85
717.53	6236.46
717.873	6218.38
718.216	6196.69
718.559	6137.25
718.902	6106.07
719.246	6190.13
719.589	6186.52
719.932	6110.59
720.275	6064.71
720.617	6097.03
720.96	6116.24
721.303	6075.56
721.646	6122.34
721.989	6093.19
722.331	6089.57
722.674	6090.93
723.016	6083.02
723.359	6046.86
723.701	6045.96
724.044	6013.42
724.386	5990.59
724.729	6038.27
725.071	6021.1
725.413	6037.6
725.755	6034.21
726.097	5970.7
726.439	5932.74
726.782	5968.44
727.124	6055.9
727.465	5946.52
727.807	5971.16
728.149	5954.21
728.491	5926.41
728.833	5986.75
729.175	5898.62
729.516	5973.64
729.858	5994.88
730.199	5937.26
730.541	5913.76
730.882	5955.79
731.224	5955.34
731.565	5912.63
731.906	5987.43
732.248	5973.64
732.589	5924.83
732.93	5958.28
733.271	5946.98
733.612	5906.53
733.953	5984.94
734.294	5945.39
734.635	5913.76
734.976	5967.54
735.317	5965.96
735.658	5985.39
735.999	5967.54
736.339	5974.32
736.68	5950.59
737.021	5967.54
737.361	5952.85
737.702	5960.76
738.042	5978.39
738.383	5989.24
738.723	6035.56
739.063	6015
739.404	6011.61
739.744	6044.37
740.084	6024.26
740.424	6021.78
740.764	6049.57
741.104	6045.28
741.444	6073.53
741.784	6081.89
742.124	6165.28
742.464	6072.4
742.804	6109.46
743.143	6160.98
743.483	6177.93
743.823	6115.79
744.162	6158.04
744.502	6251.15
744.841	6236.91
745.181	6281.66
745.52	6264.71
745.86	6311.03
746.199	6354.88
746.538	6380.41
746.877	6433.07
747.216	6400.07
747.556	6463.35
747.895	6540.63
748.234	6621.08
748.573	6671.7
748.911	6595.32
749.25	6755.32
749.589	6734.53
749.928	6833.51
750.267	6887.06
750.605	6938.81
750.944	7002.09
751.283	7074.18
751.621	7117.79
751.96	7198.47
752.298	7266.72
752.636	7371.8
752.975	7445.24
753.313	7547.84
753.651	7708.29
753.989	7788.28
754.327	7819.02
754.666	7935.17
755.004	8035.74
755.342	8285.45
755.679	8311.21
756.017	8443.63
756.355	8598.66
756.693	8651.99
757.031	8775.38
757.368	8945.32
757.706	9098.31
758.044	9235.93
758.381	9408.13
758.719	9549.59
759.056	9688.8
759.394	9856.7
759.731	9988.9
760.068	10124.95
760.405	10249.69
760.743	10392.96
761.08	10582.56
761.417	10741.88
761.754	10939.39
762.091	11086.73
762.428	11248.31
762.765	11366.49
763.102	11692.81
763.438	11766.26
763.775	11872.7
764.112	12081.5
764.449	12346.36
764.785	12424.09
765.122	12516.52
765.458	12694.37
765.795	12867.92
766.131	13108.14
