Data from hue_80_FLMS001491_26.txt Node
Date: Mon Feb 06 15:22:44 GMT 2017
User: dcchb
Spectrometer: FLMS00149
Trigger mode: 0
Integration Time (sec): 2.000000E-2
Scans to average: 10
Electric dark correction enabled: true
Nonlinearity correction enabled: false
Boxcar width: 0
XAxis mode: Wavelengths
Number of Pixels in Spectrum: 2048
>>>>>Begin Spectral Data<<<<<
341.393	-12.27
341.776	-12.27
342.16	-12.27
342.543	-45.27
342.927	-61.31
343.31	-60.41
343.693	-88.43
344.077	-81.88
344.46	-56.34
344.843	-52.5
345.226	-54.76
345.61	-30.35
345.993	-20.86
346.376	-8.43
346.759	15.52
347.142	21.85
347.525	44
347.908	73.15
348.291	91.45
348.674	88.29
349.057	119.7
349.44	131.68
349.823	127.61
350.206	162.19
350.588	196.53
350.971	214.16
351.354	226.14
351.737	238.57
352.119	239.25
352.502	261.39
352.884	258
353.267	298.45
353.65	279.24
354.032	294.38
354.414	325.8
354.797	315.18
355.179	321.05
355.562	332.35
355.944	334.84
356.326	334.61
356.709	331.67
357.091	343.42
357.473	355.17
357.855	361.95
358.238	352.46
358.62	323.99
359.002	343.2
359.384	327.38
359.766	340.94
360.148	361.5
360.53	330.09
360.912	345.23
361.294	325.34
361.676	354.27
362.057	348.62
362.439	338.68
362.821	339.58
363.203	319.69
363.584	330.77
363.966	307.49
364.348	332.35
364.729	325.34
365.111	326.93
365.493	311.33
365.874	306.14
366.256	319.02
366.637	335.29
367.019	335.74
367.4	332.8
367.781	326.47
368.163	320.15
368.544	317.89
368.925	291.45
369.306	329.64
369.688	336.19
370.069	306.14
370.45	311.11
370.831	330.54
371.212	302.07
371.593	313.59
371.974	309.75
372.355	319.47
372.736	306.81
373.117	304.1
373.498	302.75
373.879	310.2
374.26	325.12
374.641	321.95
375.021	303.2
375.402	324.21
375.783	336.87
376.163	335.51
376.544	323.76
376.925	314.05
377.305	322.86
377.686	313.59
378.066	312.92
378.447	321.5
378.827	318.11
379.208	330.99
379.588	317.66
379.968	326.47
380.349	337.1
380.729	338.68
381.109	325.34
381.489	340.49
381.87	340.71
382.25	345.01
382.63	339.58
383.01	326.93
383.39	335.51
383.77	341.16
384.15	353.82
384.53	333.25
384.91	354.72
385.29	340.94
385.67	331.22
386.049	336.87
386.429	342.75
386.809	360.6
387.189	323.08
387.568	351.56
387.948	352.69
388.328	350.88
388.707	344.55
389.087	364.44
389.466	352.24
389.846	360.37
390.225	342.29
390.605	352.69
390.984	347.04
391.363	354.95
391.743	364.21
392.122	360.37
392.501	339.13
392.881	350.2
393.26	365.12
393.639	357.66
394.018	365.34
394.397	371.22
394.776	359.69
395.155	373.7
395.534	350.88
395.913	376.64
396.292	375.74
396.671	371.67
397.05	377.55
397.429	373.7
397.808	368.73
398.186	387.72
398.565	386.81
398.944	372.35
399.323	387.94
399.701	399.01
400.08	383.42
400.458	397.43
400.837	397.21
401.215	379.58
401.594	373.48
401.972	374.16
402.351	377.09
402.729	380.71
403.107	388.85
403.486	380.71
403.864	411.67
404.242	406.47
404.62	413.7
404.999	373.7
405.377	388.17
405.755	403.31
406.133	429.07
406.511	399.69
406.889	397.66
407.267	415.29
407.645	418.68
408.023	396.3
408.401	420.48
408.779	405.79
409.156	414.83
409.534	431.33
409.912	431.56
410.29	418.45
410.667	456.19
411.045	427.04
411.422	450.76
411.8	457.32
412.178	443.99
412.555	441.5
412.933	468.62
413.31	460.93
413.687	474.27
414.065	471.78
414.442	465.23
414.819	466.58
415.197	455.28
415.574	465.23
415.951	464.55
416.328	464.1
416.705	462.52
417.082	474.27
417.46	479.46
417.837	516.07
418.214	478.56
418.591	500.26
418.967	479.92
419.344	482.18
419.721	479.69
420.098	483.76
420.475	483.76
420.852	517.2
421.228	515.17
421.605	523.53
421.982	498.67
422.358	530.08
422.735	496.41
423.111	516.53
423.488	534.83
423.864	525.11
424.241	525.79
424.617	535.28
424.994	530.08
425.37	515.4
425.746	542.29
426.123	555.17
426.499	545.68
426.875	535.51
427.251	540.93
427.627	567.15
428.003	551.1
428.379	552.91
428.756	552.01
429.132	573.02
429.507	554.72
429.883	591.1
430.259	582.51
430.635	598.33
431.011	601.95
431.387	607.6
431.763	585.45
432.138	600.82
432.514	608.05
432.89	625.45
433.265	642.17
433.641	614.6
434.016	657.31
434.392	646.47
434.767	641.27
435.143	657.54
435.518	658.22
435.894	657.77
436.269	639.69
436.644	665.9
437.02	661.38
437.395	673.13
437.77	680.59
438.145	708.39
438.52	696.41
438.895	690.31
439.271	692.79
439.646	695.73
440.021	717.88
440.395	718.33
440.77	715.84
441.145	714.71
441.52	709.74
441.895	727.82
442.27	750.87
442.645	711.1
443.019	761.94
443.394	750.42
443.769	743.41
444.143	756.75
444.518	749.06
444.892	774.6
445.267	754.26
445.641	784.54
446.016	769.85
446.39	776.41
446.764	789.74
447.139	767.59
447.513	801.04
447.887	774.37
448.262	776.41
448.636	788.84
449.01	819.12
449.384	806.69
449.758	827.03
450.132	824.99
450.506	806.69
450.88	830.64
451.254	841.72
451.628	850.08
452.002	874.71
452.376	834.94
452.75	869.06
453.123	858.21
453.497	874.71
453.871	896.4
454.244	893.69
454.618	902.96
454.992	898.66
455.365	906.12
455.739	959.23
456.112	927.81
456.486	949.73
456.859	949.06
457.232	972.11
457.606	963.97
457.979	974.59
458.352	999.68
458.725	1026.34
459.099	1000.13
459.472	1022.28
459.845	1039
460.218	1064.08
460.591	1066.12
460.964	1066.57
461.337	1073.57
461.71	1058.88
462.083	1110.18
462.456	1129.17
462.829	1128.71
463.201	1139.79
463.574	1147.7
463.947	1193.8
464.32	1203.29
464.692	1157.19
465.065	1207.81
465.438	1227.92
465.81	1227.24
466.183	1242.61
466.555	1283.51
466.928	1280.35
467.3	1305.43
467.672	1323.74
468.045	1391.98
468.417	1364.64
468.789	1397.86
469.161	1384.3
469.534	1432.21
469.906	1439.89
470.278	1488.03
470.65	1478.76
471.022	1550.85
471.394	1550.4
471.766	1567.35
472.138	1601.7
472.51	1636.27
472.882	1703.84
473.253	1722.82
473.625	1734.35
473.997	1766.66
474.369	1827.68
474.74	1828.58
475.112	1895.25
475.484	1898.18
475.855	1963.27
476.227	2037.39
476.598	2100.67
476.97	2110.16
477.341	2193.32
477.713	2226.54
478.084	2261.11
478.455	2341.34
478.827	2412.97
479.198	2492.75
479.569	2520.09
479.94	2590.6
480.311	2653.64
480.682	2764.6
481.053	2821.1
481.424	2883.92
481.795	2943.13
482.166	3062
482.537	3156.91
482.908	3217.7
483.279	3297.7
483.65	3381.08
484.021	3508.99
484.391	3598.25
484.762	3692.04
485.133	3738.14
485.503	3813.61
485.874	3979.26
486.244	4031.91
486.615	4200.27
486.985	4290.66
487.356	4483.2
487.726	4542.41
488.097	4678.68
488.467	4733.36
488.837	4872.57
489.207	5049.29
489.578	5154.82
489.948	5250.86
490.318	5442.5
490.688	5501.71
491.058	5616.28
491.428	5790.74
491.798	5934.69
492.168	6112.99
492.538	6166.09
492.908	6331.97
493.278	6481.11
493.648	6523.83
494.017	6675.23
494.387	6838.17
494.757	6951.84
495.126	7121.55
495.496	7196.8
495.866	7341.21
496.235	7459.85
496.605	7537.58
496.974	7724.7
497.344	7852.83
497.713	8021.19
498.082	8067.51
498.452	8215.76
498.821	8265.7
499.19	8481.29
499.559	8627.73
499.928	8651.45
500.298	8774.84
500.667	9002.4
501.036	9032.46
501.405	9185.45
501.774	9239.69
502.143	9312
502.512	9433.35
502.88	9601.48
503.249	9565.1
503.618	9789.28
503.987	9852.1
504.356	9999.44
504.724	10038.08
505.093	10159.44
505.462	10287.34
505.83	10367.11
506.199	10422.93
506.567	10618.86
506.936	10619.76
507.304	10818.85
507.672	10884.84
508.041	10965.74
508.409	11013.2
508.777	11178.39
509.145	11208.22
509.514	11251.38
509.882	11385.84
510.25	11449.8
510.618	11583.13
510.986	11636.46
511.354	11810.24
511.722	11864.25
512.09	12000.74
512.458	11934.53
512.826	12064.47
513.193	12100.85
513.561	12114.41
513.929	12260.4
514.297	12360.73
514.664	12454.52
515.032	12522.99
515.4	12673.49
515.767	12738.8
516.135	12664.68
516.502	12636.43
516.869	12943.09
517.237	12909.19
517.604	12988.97
517.972	13081.17
518.339	13157.78
518.706	13252.01
519.073	13172.69
519.44	13283.42
519.808	13409.29
520.175	13430.99
520.542	13560.7
520.909	13613.13
521.276	13600.25
521.643	13651.1
522.009	13768.83
522.376	13896.51
522.743	13884.08
523.11	14058.32
523.477	14148.71
523.843	14166.79
524.21	14262.38
524.577	14308.25
524.943	14344.86
525.31	14464.63
525.676	14521.58
526.043	14539.43
526.409	14666.21
526.776	14775.59
527.142	14763.61
527.508	14736.72
527.874	14800.44
528.241	14985.07
528.607	14892.87
528.973	14971.74
529.339	15034.79
529.705	15136.71
530.071	15149.59
530.437	15167.67
530.803	15237.27
531.169	15285.63
531.535	15261
531.901	15242.24
532.267	15302.35
532.632	15378.96
532.998	15335.57
533.364	15399.07
533.73	15407.89
534.095	15463.7
534.461	15466.64
534.826	15446.3
535.192	15533.98
535.557	15610.82
535.923	15562.01
536.288	15554.77
536.653	15627.77
537.019	15589.58
537.384	15575.57
537.749	15664.83
538.114	15649.01
538.479	15515
538.845	15665.28
539.21	15582.8
539.575	15620.54
539.94	15624.38
540.305	15632.51
540.67	15584.6
541.034	15653.08
541.399	15697.14
541.764	15718.84
542.129	15746.18
542.494	15673.42
542.858	15635.68
543.223	15621.89
543.587	15680.87
543.952	15646.52
544.316	15571.95
544.681	15603.36
545.045	15639.74
545.41	15689.01
545.774	15592.29
546.138	15580.31
546.503	15661.44
546.867	15549.35
547.231	15602.46
547.595	15614.21
547.959	15615.56
548.324	15553.87
548.688	15580.76
549.052	15612.85
549.416	15638.84
549.779	15585.51
550.143	15583.25
550.507	15628.22
550.871	15679.97
551.235	15548.45
551.599	15647.2
551.962	15642.91
552.326	15595.68
552.689	15615.56
553.053	15540.76
553.417	15611.72
553.78	15797.25
554.143	15617.37
554.507	15640.65
554.87	15576.92
555.234	15681.78
555.597	15639.07
555.96	15678.84
556.323	15624.15
556.686	15663.25
557.05	15631.16
557.413	15760.42
557.776	15713.19
558.139	15781.44
558.502	15700.99
558.865	15743.7
559.228	15741.44
559.59	15759.06
559.953	15794.77
560.316	15949.57
560.679	15892.39
561.041	15934.88
561.404	15997.02
561.767	16037.02
562.129	15954.54
562.492	16151.37
562.854	16048.55
563.217	16104.59
563.579	16077.47
563.941	16147.08
564.304	16230.69
564.666	16157.92
565.028	16196.79
565.39	16263.68
565.753	16322.44
566.115	16408.76
566.477	16417.35
566.839	16377.58
567.201	16499.61
567.563	16486.95
567.925	16641.75
568.287	16541.19
568.648	16554.97
569.01	16666.61
569.372	16685.59
569.734	16601.98
570.095	16768.98
570.457	16750.9
570.819	16701.19
571.18	16793.16
571.542	16749.09
571.903	16896.66
572.265	16830.22
572.626	16970.33
572.987	16857.79
573.349	16878.13
573.71	17041.29
574.071	16899.37
574.432	17013.72
574.794	17111.34
575.155	17041.74
575.516	17050.33
575.877	17100.27
576.238	17079.25
576.599	17129.2
576.96	17167.84
577.32	17093.94
577.681	17250.1
578.042	17231.79
578.403	17301.4
578.763	17230.44
579.124	17246.71
579.485	17308.4
579.845	17328.97
580.206	17293.94
580.566	17279.25
580.927	17235.18
581.287	17275.86
581.648	17189.99
582.008	17335.52
582.368	17286.25
582.728	17342.75
583.089	17247.84
583.449	17242.41
583.809	17328.51
584.169	17411
584.529	17231.79
584.889	17438.34
585.249	17260.72
585.609	17195.18
585.969	17274.28
586.329	17256.42
586.688	17288.29
587.048	17277.67
587.408	17206.48
587.768	17188.18
588.127	17309.08
588.487	17295.52
588.846	17300.49
589.206	17135.3
589.565	17164.9
589.925	17303.88
590.284	17225.69
590.643	17208.06
591.003	17209.87
591.362	17273.6
591.721	17234.96
592.08	17208.97
592.44	17233.15
592.799	17292.58
593.158	17226.37
593.517	17246.93
593.876	17265.46
594.235	17155.86
594.593	17200.38
594.952	17227.27
595.311	17121.06
595.67	17209.65
596.029	17318.57
596.387	17249.19
596.746	17203.32
597.104	17123.77
597.463	17081.97
597.822	17202.87
598.18	17188.18
598.538	17161.74
598.897	17246.93
599.255	17167.39
599.613	17360.6
599.972	17194.05
600.33	17250.78
600.688	17094.4
601.046	17229.08
601.404	17311.79
601.762	17128.52
602.12	17266.82
602.478	17235.63
602.836	17228.18
603.194	17140.27
603.552	17286.93
603.91	17120.84
604.268	17327.16
604.625	17213.94
604.983	17325.58
605.341	17225.24
605.698	17261.4
606.056	17299.59
606.413	17227.72
606.771	17379.13
607.128	17321.51
607.485	17281.28
607.843	17279.93
608.2	17391.79
608.557	17329.19
608.914	17402.64
609.272	17460.71
609.629	17494.38
609.986	17445.57
610.343	17375.07
610.7	17559.47
611.057	17498.23
611.414	17517.89
611.771	17374.61
612.127	17669.75
612.484	17506.14
612.841	17605.34
613.198	17594.72
613.554	17596.3
613.911	17625
614.267	17693.7
614.624	17627.26
614.98	17702.29
615.337	17789.97
615.693	17710.42
616.05	17671.56
616.406	17881.95
616.762	17771.44
617.118	17787.26
617.475	17780.03
617.831	17863.87
618.187	17879.91
618.543	17806.01
618.899	17871.32
619.255	17855.73
619.611	17873.81
619.967	17981.6
620.323	17932.11
620.678	17912.9
621.034	17880.14
621.39	17865.45
621.746	17797.65
622.101	17993.13
622.457	17856.86
622.812	17933.92
623.168	17995.84
623.523	17979.57
623.879	18012.56
624.234	17880.82
624.589	17887.37
624.945	17997.2
625.3	17987.48
625.655	18020.02
626.01	18072.22
626.365	18067.48
626.72	17912.9
627.075	17920.14
627.43	18019.79
627.785	17976.86
628.14	17988.16
628.495	17953.58
628.85	17912.9
629.205	17873.58
629.559	17964.65
629.914	17919.46
630.269	17886.46
630.623	17839.23
630.978	17835.39
631.332	17919.68
631.687	17862.51
632.041	17832.45
632.396	17844.43
632.75	17806.47
633.104	17893.24
633.459	17774.6
633.813	17827.26
634.167	17761.72
634.521	17670.43
634.875	17695.06
635.229	17720.82
635.583	17459.58
635.937	17625
636.291	17596.98
636.645	17527.83
636.999	17590.65
637.352	17598.34
637.706	17470.88
638.06	17509.75
638.413	17522.86
638.767	17495.06
639.121	17563.54
639.474	17489.86
639.828	17419.36
640.181	17502.07
640.534	17484.67
640.888	17304.56
641.241	17332.13
641.594	17404.67
641.947	17459.36
642.301	17354.73
642.654	17423.43
643.007	17394.05
643.36	17352.92
643.713	17321.06
644.066	17342.3
644.419	17280.83
644.771	17164.22
645.124	17006.04
645.477	16918.81
645.83	16850.11
646.182	16761.07
646.535	16683.56
646.888	16843.78
647.24	16690.11
647.593	16775.76
647.945	16746.16
648.298	16749.09
648.65	16711.35
649.002	16599.72
649.355	16785.48
649.707	16599.94
650.059	16800.84
650.411	16905.02
650.763	17037.9
651.115	17110.44
651.467	17122.42
651.819	17129.65
652.171	17019.82
652.523	17108.18
652.875	17089.65
653.227	17009.65
653.578	17143.43
653.93	17058.92
654.282	16993.15
654.633	16995.64
654.985	16940.5
655.337	17138.46
655.688	16936.43
656.039	17063.21
656.391	16822.76
656.742	16935.98
657.094	16900.05
657.445	17087.62
657.796	16939.15
658.147	17055.53
658.498	16896.66
658.849	17005.13
659.2	16941.86
659.551	16997.9
659.902	17077.22
660.253	17019.37
660.604	17050.55
660.955	16930.78
661.306	17189.53
661.656	17051.68
662.007	16971.46
662.358	17025.92
662.708	16974.85
663.059	17072.25
663.409	16932.37
663.76	17096.65
664.11	17010.33
664.461	17116.77
664.811	17164.22
665.161	17026.37
665.511	17037.22
665.862	17100.5
666.212	17102.53
666.562	17010.1
666.912	17007.17
667.262	17107.28
667.612	17122.87
667.962	17086.71
668.312	17032.02
668.662	17176.43
669.011	17156.77
669.361	16885.14
669.711	17067.5
670.06	17004.68
670.41	17015.53
670.76	16918.81
671.109	16966.26
671.459	16972.82
671.808	16965.36
672.157	17020.05
672.507	16764.91
672.856	16873.84
673.205	16908.41
673.554	16929.65
673.904	16928.98
674.253	17000.61
674.602	16919.48
674.951	16627.06
675.3	16572.83
675.649	16904.8
675.998	16798.36
676.346	16821.41
676.695	16814.85
677.044	16719.94
677.393	16790
677.741	16837.68
678.09	16757.68
678.438	16714.52
678.787	16856.44
679.135	16715.65
679.484	16537.8
679.832	16661.19
680.181	16623.67
680.529	16639.27
680.877	16592.49
681.225	16489.67
681.573	16747.06
681.922	16537.35
682.27	16472.49
682.618	16499.83
682.966	16457.58
683.314	16402.89
683.661	16427.07
684.009	16249.9
684.357	16199.73
684.705	16218.49
685.053	16205.83
685.4	16224.36
685.748	16083.35
686.095	16067.3
686.443	16026.4
686.79	16137.36
687.138	16127.87
687.485	16082.67
687.832	15923.8
688.18	15966.29
688.527	15964.26
688.874	15876.8
689.221	15908.44
689.568	15781.21
689.915	15756.8
690.262	15710.25
690.609	15639.52
690.956	15634.77
691.303	15629.8
691.65	15534.66
691.997	15510.26
692.344	15366.53
692.69	15387.77
693.037	15428.45
693.383	15237.95
693.73	15322.69
694.077	15178.29
694.423	15234.11
694.769	15079.31
695.116	15083.6
695.462	15129.25
695.808	14932.19
696.155	15041.34
696.501	14831.18
696.847	14799.99
697.193	14710.96
697.539	14799.77
697.885	14633.44
698.231	14597.29
698.577	14610.62
698.923	14564.52
699.269	14559.55
699.614	14369.95
699.96	14412.43
700.306	14408.59
700.651	14250.85
700.997	14287.24
701.342	14188.03
701.688	14198.65
702.033	14070.29
702.379	14122.72
702.724	14080.24
703.069	14038.43
703.415	13929.73
703.76	13865.55
704.105	13908.04
704.45	13842.96
704.795	13720.25
705.14	13732.22
705.485	13680.7
705.83	13620.59
706.175	13698.78
706.52	13593.02
706.865	13542.4
707.209	13543.3
707.554	13409.97
707.899	13575.62
708.243	13427.15
708.588	13359.58
708.932	13237.1
709.277	13282.07
709.621	13239.81
709.966	13149.64
710.31	13195.97
710.654	13089.98
710.998	13114.61
711.342	13029.64
711.687	12959.36
712.031	12947.84
712.375	12887.95
712.719	12940.61
713.063	12850.66
713.407	12911.45
713.75	12833.94
714.094	12765.7
714.438	12776.54
714.782	12852.02
715.125	12703.32
715.469	12732.02
715.812	12692.03
716.156	12611.8
716.499	12662.2
716.843	12695.64
717.186	12602.08
717.53	12685.92
717.873	12576.55
718.216	12554.4
718.559	12575.19
718.902	12483.67
719.246	12456.55
719.589	12433.95
719.932	12384.91
720.275	12469.43
720.617	12408.19
720.96	12344.46
721.303	12430.79
721.646	12324.13
721.989	12326.16
722.331	12351.7
722.674	12352.15
723.016	12283.67
723.359	12285.26
723.701	12271.92
724.044	12288.19
724.386	12161.87
724.729	12257.46
725.071	12172.49
725.413	12207.29
725.755	12161.19
726.097	12157.35
726.439	12084.36
726.782	12040.06
727.124	12115.09
727.465	12075.77
727.807	12062.21
728.149	12111.25
728.491	12098.82
728.833	12109.22
729.175	12075.09
729.516	12012.95
729.858	12018.14
730.199	12030.35
730.541	12023.12
730.882	12005.49
731.224	12071.25
731.565	11951.71
731.906	11944.02
732.248	11949.45
732.589	11867.64
732.93	11857.02
733.271	11909.22
733.612	11947.41
733.953	12040.29
734.294	12000.52
734.635	11950.12
734.976	11976.56
735.317	11882.55
735.658	11821.77
735.999	11939.5
736.339	11895.21
736.68	11938.6
737.021	11955.32
737.361	11836.68
737.702	11990.57
738.042	11869.22
738.383	11964.36
738.723	11957.81
739.063	11847.3
739.404	11946.28
739.744	11907.19
740.084	11910.12
740.424	12012.04
740.764	11932.27
741.104	12010.69
741.444	11952.38
741.784	11926.4
742.124	12028.54
742.464	11915.1
742.804	12032.16
743.143	11955.77
743.483	11998.71
743.823	11985.15
744.162	12103.34
744.502	12146.5
744.841	12087.97
745.181	12126.16
745.52	12130.01
745.86	12225.82
746.199	12289.1
746.538	12289.55
746.877	12324.58
747.216	12381.07
747.556	12312.83
747.895	12407.06
748.234	12475.76
748.573	12494.74
748.911	12556.44
749.25	12663.55
749.589	12601.41
749.928	12731.57
750.267	12758.01
750.605	12829.87
750.944	12833.04
751.283	12859.7
751.621	13052.92
751.96	13034.16
752.298	13105.8
752.636	13258.56
752.975	13176.76
753.313	13276.87
753.651	13476.41
753.989	13521.83
754.327	13614.26
754.666	13588.05
755.004	13727.7
755.342	13914.37
755.679	13947.36
756.017	13942.39
756.355	14100.58
756.693	14222.61
757.031	14382.83
