Data from hue_20_FLMS001491_50.txt Node
Date: Mon Feb 06 15:34:12 GMT 2017
User: dcchb
Spectrometer: FLMS00149
Trigger mode: 0
Integration Time (sec): 2.000000E-2
Scans to average: 10
Electric dark correction enabled: true
Nonlinearity correction enabled: false
Boxcar width: 0
XAxis mode: Wavelengths
Number of Pixels in Spectrum: 2048
>>>>>Begin Spectral Data<<<<<
341.393	-13.29
341.776	-13.29
342.16	-13.29
342.543	-60.97
342.927	-82.89
343.31	-53.06
343.693	-76.34
344.077	-76.79
344.46	-54.42
344.843	-42.44
345.226	-41.99
345.61	-28.66
345.993	-25.72
346.376	-14.87
346.759	28.52
347.142	21.74
347.525	40.04
347.908	54.28
348.291	73.94
348.674	89.98
349.057	105.8
349.44	101.06
349.823	124.78
350.206	139.7
350.588	203.43
350.971	207.04
351.354	243.65
351.737	253.14
352.119	239.36
352.502	264.89
352.884	273.26
353.267	280.49
353.65	280.04
354.032	291.79
354.414	303.99
354.797	313.93
355.179	296.98
355.562	315.29
355.944	319.13
356.326	326.14
356.709	326.81
357.091	346.7
357.473	327.04
357.855	341.05
358.238	338.79
358.62	347.38
359.002	348.06
359.384	332.91
359.766	322.52
360.148	323.88
360.53	360.26
360.912	343.31
361.294	341.28
361.676	330.2
362.057	331.79
362.439	336.98
362.821	325.68
363.203	344.21
363.584	324.1
363.966	341.95
364.348	325.46
364.729	321.84
365.111	335.85
365.493	315.29
365.874	332.91
366.256	325.01
366.637	304.67
367.019	351.45
367.4	328.62
367.781	311.22
368.163	315.29
368.544	319.58
368.925	325.46
369.306	316.64
369.688	313.25
370.069	306.93
370.45	314.16
370.831	319.58
371.212	322.07
371.593	314.16
371.974	323.65
372.355	298.57
372.736	321.39
373.117	320.26
373.498	305.57
373.879	326.36
374.26	327.72
374.641	303.54
375.021	313.71
375.402	319.36
375.783	338.79
376.163	332.24
376.544	344.21
376.925	309.86
377.305	324.1
377.686	327.04
378.066	323.88
378.447	332.46
378.827	334.95
379.208	340.15
379.588	343.99
379.968	332.46
380.349	348.28
380.729	337.89
381.109	341.5
381.489	329.53
381.87	324.1
382.25	357.32
382.63	346.25
383.01	354.38
383.39	355.06
383.77	335.85
384.15	348.73
384.53	349.64
384.91	347.83
385.29	360.48
385.67	361.84
386.049	343.31
386.429	350.54
386.809	348.96
387.189	353.93
387.568	344.67
387.948	361.16
388.328	370.2
388.707	369.98
389.087	359.81
389.466	379.92
389.846	381.95
390.225	367.04
390.605	361.84
390.984	368.17
391.363	368.62
391.743	354.61
392.122	379.92
392.501	390.54
392.881	386.25
393.26	367.04
393.639	398
394.018	398.45
394.397	384.89
394.776	393.93
395.155	395.06
395.534	389.18
395.913	386.7
396.292	400.26
396.671	388.05
397.05	408.39
397.429	409.3
397.808	411.33
398.186	403.65
398.565	417.43
398.944	413.36
399.323	400.48
399.701	423.99
400.08	408.85
400.458	429.64
400.837	437.54
401.215	403.87
401.594	395.06
401.972	425.34
402.351	442.74
402.729	419.47
403.107	408.39
403.486	420.37
403.864	431.67
404.242	430.99
404.62	419.47
404.999	430.31
405.377	424.21
405.755	429.18
406.133	427.6
406.511	432.57
406.889	446.81
407.267	458.34
407.645	447.26
408.023	458.34
408.401	465.34
408.779	464.66
409.156	472.57
409.534	450.43
409.912	486.36
410.29	471.22
410.667	459.01
411.045	482.06
411.422	463.76
411.8	484.55
412.178	470.76
412.555	493.81
412.933	501.5
413.31	502.4
413.687	485.68
414.065	508.05
414.442	492.46
414.819	499.46
415.197	514.61
415.574	519.58
415.951	533.81
416.328	531.55
416.705	532.01
417.082	526.13
417.46	528.84
417.837	525.9
418.214	524.1
418.591	535.85
418.967	541.27
419.344	555.06
419.721	546.47
420.098	557.77
420.475	551.67
420.852	569.97
421.228	555.96
421.605	545.79
421.982	555.28
422.358	564.55
422.735	578.33
423.111	580.37
423.488	586.69
423.864	577.88
424.241	583.76
424.617	575.39
424.994	588.05
425.37	596.41
425.746	604.55
426.123	583.98
426.499	607.48
426.875	606.58
427.251	612.23
427.627	623.75
428.003	620.14
428.379	642.29
428.756	646.35
429.132	628.95
429.507	673.25
429.883	655.17
430.259	653.58
430.635	687.26
431.011	663.3
431.387	677.54
431.763	707.59
432.138	675.05
432.514	688.84
432.89	678.22
433.265	716.41
433.641	716.63
434.016	719.57
434.392	728.84
434.767	744.88
435.143	737.2
435.518	715.05
435.894	732
436.269	765.9
436.644	778.78
437.02	751.44
437.395	781.49
437.77	757.08
438.145	777.88
438.52	797.31
438.895	776.29
439.271	806.57
439.646	813.35
440.021	814.71
440.395	816.52
440.77	801.15
441.145	826.46
441.52	810.42
441.895	843.86
442.27	845.67
442.645	818.55
443.019	850.64
443.394	845.9
443.769	859.68
444.143	861.94
444.518	892.22
444.892	859
445.267	875.73
445.641	894.48
446.016	856.74
446.39	895.84
446.764	906.01
447.139	888.61
447.513	907.14
447.887	910.3
448.262	918.21
448.636	922.28
449.01	924.54
449.384	935.84
449.758	922.96
450.132	946.46
450.506	941.03
450.88	950.75
451.254	957.98
451.628	988.49
452.002	975.61
452.376	974.71
452.75	997.98
453.123	995.27
453.497	1016.96
453.871	1012.67
454.244	1009.96
454.618	1063.07
454.992	1059.45
455.365	1036.4
455.739	1071.43
456.112	1090.18
456.486	1095.15
456.859	1099.22
457.232	1106.45
457.606	1111.65
457.979	1124.08
458.352	1148.03
458.725	1166.57
459.099	1191.42
459.472	1173.34
459.845	1190.75
460.218	1178.09
460.591	1212.89
460.964	1230.52
461.337	1233.46
461.71	1243.4
462.083	1248.82
462.456	1264.19
462.829	1282.49
463.201	1282.27
463.574	1293.57
463.947	1331.53
464.32	1343.51
464.692	1368.37
465.065	1385.32
465.438	1378.76
465.81	1399.33
466.183	1400.01
466.555	1423.06
466.928	1424.64
467.3	1456.95
467.672	1480.46
468.045	1528.14
468.417	1498.76
468.789	1565.65
469.161	1560.91
469.534	1590.06
469.906	1608.59
470.278	1622.6
470.65	1629.15
471.022	1664.18
471.394	1680.68
471.766	1705.99
472.138	1700.79
472.51	1777.17
472.882	1792.99
473.253	1805.42
473.625	1816.72
473.997	1874.8
474.369	1878.41
474.74	1914.79
475.112	1922.03
475.484	1975.36
475.855	2008.8
476.227	2047.67
476.598	2049.25
476.97	2091.29
477.341	2145.97
477.713	2195.01
478.084	2225.75
478.455	2244.5
478.827	2294.22
479.198	2335.12
479.569	2327.66
479.94	2410.6
480.311	2453.54
480.682	2507.55
481.053	2551.39
481.424	2602.46
481.795	2630.93
482.166	2675
482.537	2717.71
482.908	2781.66
483.279	2799.97
483.65	2867.31
484.021	2907.76
484.391	2944.82
484.762	3021.43
485.133	3054.43
485.503	3084.26
485.874	3169.68
486.244	3181.88
486.615	3223.69
486.985	3289
487.356	3353.4
487.726	3367.41
488.097	3420.52
488.467	3470.01
488.837	3571.25
489.207	3599.5
489.578	3670.91
489.948	3677.46
490.318	3782.99
490.688	3780.51
491.058	3822.77
491.428	3919.49
491.798	3952.25
492.168	4018.24
492.538	4087.17
492.908	4102.31
493.278	4153.15
493.648	4159.48
494.017	4233.83
494.387	4275.86
494.757	4300.95
495.126	4368.06
495.496	4356.99
495.866	4405.12
496.235	4493.71
496.605	4521.73
496.974	4556.53
497.344	4592.24
497.713	4606.02
498.082	4611.67
498.452	4718.34
498.821	4764.66
499.19	4722.18
499.559	4822.29
499.928	4802.4
500.298	4895.73
500.667	4935.73
501.036	4978.67
501.405	4951.78
501.774	4966.92
502.143	5022.06
502.512	5029.97
502.88	5126.01
503.249	5030.64
503.618	5105.9
503.987	5165.1
504.356	5221.37
504.724	5191.77
505.093	5230.87
505.462	5242.16
505.83	5288.94
506.199	5351.54
506.567	5388.15
506.936	5387.25
507.304	5506.79
507.672	5500.69
508.041	5525.32
508.409	5573.46
508.777	5534.13
509.145	5610.06
509.514	5584.75
509.882	5613.23
510.25	5637.63
510.618	5743.85
510.986	5732.55
511.354	5770.96
511.722	5801.7
512.09	5864.75
512.458	5862.71
512.826	5897.51
513.193	5931.19
513.561	5953.11
513.929	5976.16
514.297	6025.87
514.664	6056.61
515.032	6042.82
515.4	6143.16
515.767	6122.59
516.135	6159.88
516.502	6158.98
516.869	6207.11
517.237	6238.07
517.604	6224.74
517.972	6255.47
518.339	6317.84
518.706	6290.27
519.073	6364.85
519.44	6392.87
519.808	6456.14
520.175	6447.78
520.542	6514.9
520.909	6546.08
521.276	6479.65
521.643	6569.14
522.009	6633.31
522.376	6658.4
522.743	6705.63
523.11	6757.38
523.477	6783.14
523.843	6802.35
524.21	6890.03
524.577	6891.39
524.943	6918.96
525.31	6998.95
525.676	7006.86
526.043	7093.42
526.409	7170.48
526.776	7184.71
527.142	7136.35
527.508	7229.46
527.874	7231.26
528.241	7335.89
528.607	7298.16
528.973	7380.87
529.339	7394.2
529.705	7460.41
530.071	7514.65
530.437	7562.78
530.803	7602.78
531.169	7622.44
531.535	7677.35
531.901	7643.91
532.267	7765.71
532.632	7775.66
532.998	7816.56
533.364	7830.57
533.73	7810.01
534.095	7854.98
534.461	7965.48
534.826	7960.06
535.192	8033.96
535.557	8026.95
535.923	7998.7
536.288	8055.88
536.653	8148.75
537.019	8088.64
537.384	8177.68
537.749	8212.03
538.114	8267.17
538.479	8298.36
538.845	8245.02
539.21	8269.2
539.575	8354.17
539.94	8382.42
540.305	8413.15
540.67	8448.18
541.034	8512.59
541.399	8509.2
541.764	8501.29
542.129	8561.85
542.494	8641.62
542.858	8611.12
543.223	8675.29
543.587	8748.06
543.952	8730.66
544.316	8747.83
544.681	8771.34
545.045	8823.99
545.41	8859.02
545.774	8898.57
546.138	8948.73
546.503	9031.44
546.867	8978.56
547.231	9035.29
547.595	9079.58
547.959	9125.9
548.324	9128.39
548.688	9165.23
549.052	9187.82
549.416	9209.29
549.779	9192.12
550.143	9319.35
550.507	9360.47
550.871	9373.58
551.235	9412
551.599	9395.5
551.962	9515.27
552.326	9508.04
552.689	9514.82
553.053	9518.89
553.417	9514.59
553.78	9700.58
554.143	9624.42
554.507	9711.43
554.87	9663.29
555.234	9746.23
555.597	9763.85
555.96	9804.76
556.323	9852.66
556.686	9874.13
557.05	9922.72
557.413	9965.2
557.776	9945.54
558.139	10057.41
558.502	10013.79
558.865	10046.33
559.228	10084.52
559.59	10124.97
559.953	10167.91
560.316	10283.61
560.679	10218.3
561.041	10297.4
561.404	10445.42
561.767	10471.86
562.129	10400.67
562.492	10490.16
562.854	10481.12
563.217	10465.76
563.579	10561.8
563.941	10628.69
564.304	10698.07
564.666	10666.65
565.028	10767.44
565.39	10690.61
565.753	10723.15
566.115	10817.16
566.477	10922.24
566.839	10861.45
567.201	11001.11
567.563	10979.41
567.925	11039.53
568.287	11064.61
568.648	11115.68
569.01	11132.41
569.372	11256.02
569.734	11218.5
570.095	11296.92
570.457	11366.3
570.819	11415.34
571.18	11335.11
571.542	11465.5
571.903	11522.45
572.265	11518.16
572.626	11611.71
572.987	11665.95
573.349	11697.81
573.71	11849
574.071	11864.82
574.432	11836.57
574.794	11937.13
575.155	12012.61
575.516	12042.66
575.877	12145.03
576.238	12129.89
576.599	12227.52
576.96	12357.68
577.32	12356.33
577.681	12510.9
578.042	12568.53
578.403	12685.13
578.763	12654.62
579.124	12804.23
579.485	12880.16
579.845	13013.26
580.206	13151.56
580.566	13258
580.927	13360.6
581.287	13507.94
581.648	13592.23
582.008	13717.87
582.368	13800.58
582.728	14006.23
583.089	14183.4
583.449	14246.67
583.809	14416.61
584.169	14638.3
584.529	14759.65
584.889	14982.7
585.249	15090.49
585.609	15252.75
585.969	15469.01
586.329	15686.86
586.688	15892.28
587.048	16109.9
587.408	16280.29
587.768	16571.81
588.127	16735.42
588.487	16977.45
588.846	17286.82
589.206	17417.89
589.565	17697.2
589.925	18075.95
590.284	18203.86
590.643	18517.3
591.003	18827.8
591.362	19173.1
591.721	19338.52
592.08	19626.64
592.44	19969.91
592.799	20239.06
593.158	20545.94
593.517	20877.01
593.876	21014.86
594.235	21318.8
594.593	21686.48
594.952	22018.22
595.311	22236.97
595.67	22683.74
596.029	22979.1
596.387	23371.63
596.746	23675.13
597.104	23889.81
597.463	24163.02
597.822	24640.07
598.18	24783.8
598.538	25067.86
598.897	25522.99
599.255	25737.67
599.613	26365.68
599.972	26495.16
600.33	26829.85
600.688	27051.53
601.046	27393.9
601.404	27814.23
601.762	28055.35
602.12	28471.38
602.478	28710.02
602.836	28948.66
603.194	29142.78
603.552	29587.06
603.91	29733.27
604.268	30064.34
604.625	30399.7
604.983	30668.39
605.341	30923.75
605.698	31278.99
606.056	31526.22
606.413	31815.48
606.771	32213.43
607.128	32518.51
607.485	32496.36
607.843	32916.92
608.2	33287.3
608.557	33610.46
608.914	33736.56
609.272	34082.99
609.629	34303.1
609.986	34746.93
610.343	34662.86
610.7	35239.79
611.057	35376.29
611.414	35443.18
611.771	35607.47
612.127	36155.25
612.484	36354.11
612.841	36604.96
613.198	36674.78
613.554	36879.52
613.911	37338.95
614.267	37299.17
614.624	37493.29
614.98	37778.94
615.337	38192.48
615.693	38215.53
616.05	38307.96
616.406	38722.87
616.762	38672.02
617.118	38829.3
617.475	39035.4
617.831	39354.04
618.187	39535.5
618.543	39650.53
618.899	39928.03
619.255	40040.12
619.611	40087.58
619.967	40396.27
620.323	40524.63
620.678	40475.59
621.034	40528.69
621.39	40797.61
621.746	40622.48
622.101	41120.32
622.457	41135.01
622.812	41297.49
623.168	41495
623.523	41506.52
623.879	41674.43
624.234	41501.78
624.589	41760.07
624.945	41834.42
625.3	41954.65
625.655	42075.55
626.01	42138.14
626.365	42392.83
626.72	42260.85
627.075	42287.74
627.43	42515.76
627.785	42599.37
628.14	42646.38
628.495	42713.5
628.85	42588.98
629.205	42720.5
629.559	42998.91
629.914	42706.04
630.269	42836.43
630.623	43049.31
630.978	42805.92
631.332	43088.85
631.687	43211.34
632.041	42958.23
632.396	43183.31
632.75	43006.14
633.104	43067.16
633.459	42994.39
633.813	43044.11
634.167	43100.38
634.521	43146.7
634.875	43175.18
635.229	43176.99
635.583	43049.08
635.937	43194.39
636.291	43199.36
636.645	43139.93
636.999	43057.22
637.352	43247.72
637.706	43040.49
638.06	43292.92
638.413	43075.52
638.767	43168.85
639.121	43197.1
639.474	43016.76
639.828	43102.41
640.181	43210.88
640.534	43219.02
640.888	43106.48
641.241	42967.73
641.594	43026.48
641.947	43124.78
642.301	42992.13
642.654	43093.82
643.007	43190.32
643.36	42920.27
643.713	42972.47
644.066	43166.36
644.419	42895.86
644.771	42639.37
645.124	42330
645.477	42352.6
645.83	41981.31
646.182	41933.63
646.535	41779.06
646.888	41872.61
647.24	41614.09
647.593	41863.12
647.945	41848.89
648.298	41593.52
648.65	41602.79
649.002	41489.8
649.355	41777.25
649.707	41692.96
650.059	41838.26
650.411	42262.66
650.763	42504.01
651.115	42729.09
651.467	42635.76
651.819	42810.44
652.171	42507.63
652.523	42455.2
652.875	42619.49
653.227	42420.85
653.578	42568.19
653.93	42555.99
654.282	42449.32
654.633	42307.63
654.985	42438.93
655.337	42320.51
655.688	42412.49
656.039	42512.82
656.391	42179.5
656.742	42042.78
657.094	42201.87
657.445	42393.5
657.796	42341.75
658.147	42223.34
658.498	42285.48
658.849	42474.18
659.2	42261.53
659.551	42268.54
659.902	42238.71
660.253	42111.48
660.604	42183.34
660.955	42186.28
661.306	42263.11
661.656	42043.68
662.007	42113.96
662.358	42211.36
662.708	42138.37
663.059	42145.6
663.409	41852.73
663.76	42162.1
664.11	42146.96
664.461	42050.24
664.811	42102.21
665.161	42066.28
665.511	41852.5
665.862	42179.72
666.212	42185.37
666.562	42249.1
666.912	42030.58
667.262	42126.84
667.612	42057.92
667.962	42112.61
668.312	42005.72
668.662	42128.43
669.011	42107.41
669.361	41925.04
669.711	41918.26
670.06	41921.65
670.41	41904.03
670.76	41786.74
671.109	42006.62
671.459	41899.05
671.808	41834.2
672.157	41890.24
672.507	41660.87
672.856	41716.01
673.205	41911.71
673.554	41902.67
673.904	41769.34
674.253	42053.17
674.602	41784.03
674.951	41208
675.3	41168.9
675.649	41672.17
675.998	41628.1
676.346	41671.04
676.695	41662.22
677.044	41483.25
677.393	41577.93
677.741	41564.37
678.09	41507.2
678.438	41407.99
678.787	41596.46
679.135	41443.25
679.484	41122.8
679.832	41401.44
680.181	41130.49
680.529	41323.7
680.877	41142.46
681.225	41118.28
681.573	41343.81
681.922	41135.01
682.27	41025.86
682.618	40924.39
682.966	40857.27
683.314	40971.17
683.661	40799.87
684.009	40734.11
684.357	40605.75
684.705	40630.84
685.053	40528.92
685.4	40568.47
685.748	40462.93
686.095	40243.73
686.443	40253.22
686.79	40132.32
687.138	40257.29
687.485	40229.95
687.832	40021.36
688.18	40169.38
688.527	39965.77
688.874	39937.75
689.221	39730.98
689.568	39697.08
689.915	39668.15
690.262	39445.56
690.609	39405.11
690.956	39301.83
691.303	39368.95
691.65	39175.06
691.997	39114.95
692.344	38956.08
692.69	38806.03
693.037	38837.44
693.383	38571.68
693.73	38655.98
694.077	38452.36
694.423	38524.23
694.769	38423.66
695.116	38265.25
695.462	38409.88
695.808	38096.22
696.155	38078.14
696.501	37838.82
696.847	37909.78
697.193	37716.56
697.539	37752.72
697.885	37631.6
698.231	37466.85
698.577	37590.92
698.923	37414.65
699.269	37228.22
699.614	37121.78
699.96	37033.19
700.306	37077.03
700.651	36887.89
700.997	36817.61
701.342	36673.2
701.688	36720.21
702.033	36564.73
702.379	36466.65
702.724	36417.84
703.069	36390.72
703.415	36040.68
703.76	36102.82
704.105	36112.99
704.45	36155.48
704.795	35735.83
705.14	35641.14
705.485	35747.8
705.83	35592.78
706.175	35585.77
706.52	35492.22
706.865	35430.3
707.209	35360.69
707.554	35223.75
707.899	35387.59
708.243	35112.34
708.588	35023.98
708.932	34811.78
709.277	34775.4
709.621	34762.07
709.966	34690.88
710.31	34645.23
710.654	34357.33
710.998	34438.46
711.342	34484.79
711.687	34196.66
712.031	34246.15
712.375	34123.21
712.719	34087.06
713.063	34101.97
713.407	34112.59
713.75	33902.43
714.094	33947.62
714.438	33836.44
714.782	33924.8
715.125	33738.59
715.469	33675.09
715.812	33572.04
716.156	33354.87
716.499	33388.77
716.843	33303.12
717.186	33189.68
717.53	33358.71
717.873	33388.32
718.216	33265.61
718.559	33119.17
718.902	32908.33
719.246	33003.92
719.589	32933.87
719.932	32825.17
720.275	32794.21
720.617	32574.33
720.96	32646.87
721.303	32575.91
721.646	32635.57
721.989	32407.1
722.331	32575.01
722.674	32406.42
723.016	32385.41
723.359	32377.5
723.701	32320.32
724.044	32119.42
724.386	32025.64
724.729	32161.46
725.071	32054.34
725.413	32001.46
725.755	32096.15
726.097	31950.16
726.439	31730.06
726.782	31710.17
727.124	31976.38
727.465	31571.87
727.807	31641.02
728.149	31411.19
728.491	31503.39
728.833	31586.78
729.175	31454.13
729.516	31281.93
729.858	31363.51
730.199	31231.09
730.541	31270.41
730.882	31165.1
731.224	31434.7
731.565	31060.92
731.906	31142.73
732.248	31208.71
732.589	31001.49
732.93	30862.51
733.271	30893.69
733.612	30886.01
733.953	30972.34
734.294	30785.45
734.635	30544.1
734.976	30812.11
735.317	30534.61
735.658	30493.7
735.999	30660.03
736.339	30552.69
736.68	30535.96
737.021	30456.87
737.361	30271.11
737.702	30451.67
738.042	30429.52
738.383	30241.28
738.723	30331.9
739.063	30108.63
739.404	30198.12
739.744	30101.17
740.084	29922.42
740.424	30040.61
740.764	29985.47
741.104	30085.58
741.444	29839.48
741.784	29793.61
742.124	29844.23
742.464	29657.12
742.804	29588.64
743.143	29749.32
743.483	29604.69
743.823	29490.11
744.162	29574.41
744.502	29563.56
744.841	29381.19
745.181	29526.95
745.52	29412.15
745.86	29489.66
746.199	29353.17
746.538	29318.82
746.877	29350.23
747.216	29236.79
747.556	29225.26
747.895	29210.12
748.234	29176.9
748.573	29080.63
748.911	29024.14
749.25	29054.65
749.589	28930.13
749.928	28921.32
750.267	28888.32
750.605	28639.06
750.944	28721.32
751.283	28710.93
751.621	28729.91
751.96	28491.72
752.298	28507.09
752.636	28492.17
752.975	28338.51
753.313	28340.31
753.651	28385.74
753.989	28239.75
754.327	28178.74
754.666	28159.3
755.004	28060.1
755.342	28235.91
755.679	28139.42
756.017	28009.93
756.355	28009.7
756.693	27912.53
757.031	27901
757.368	27735.81
757.706	27669.15
758.044	27538.53
758.381	27576.72
758.719	27582.59
759.056	27504.63
759.394	27481.13
