Data from hue_00_FLMS001491_49.txt Node
Date: Mon Feb 06 15:29:46 GMT 2017
User: dcchb
Spectrometer: FLMS00149
Trigger mode: 0
Integration Time (sec): 2.000000E-2
Scans to average: 10
Electric dark correction enabled: true
Nonlinearity correction enabled: false
Boxcar width: 0
XAxis mode: Wavelengths
Number of Pixels in Spectrum: 2048
>>>>>Begin Spectral Data<<<<<
341.393	-36.43
341.776	-36.43
342.16	-36.43
342.543	-74.62
342.927	-56.99
343.31	-89.76
343.693	-85.01
344.077	-69.65
344.46	-57.44
344.843	-49.53
345.226	-56.31
345.61	-24
345.993	-0.72
346.376	8.32
346.759	19.62
347.142	9.67
347.525	46.51
347.908	68.88
348.291	77.02
348.674	85.15
349.057	117.24
349.44	135.32
349.823	137.58
350.206	157.24
350.588	181.65
350.971	201.53
351.354	219.84
351.737	232.27
352.119	256.45
352.502	227.52
352.884	268.88
353.267	258.93
353.65	279.72
354.032	304.36
354.414	294.87
354.797	289.44
355.179	311.36
355.562	314.3
355.944	317.24
356.326	327.86
356.709	307.07
357.091	326.73
357.473	350.91
357.855	320.18
358.238	336.45
358.62	333.96
359.002	324.02
359.384	322.66
359.766	327.63
360.148	308.88
360.53	330.8
360.912	324.24
361.294	323.79
361.676	319.95
362.057	321.31
362.439	324.92
362.821	305.49
363.203	337.12
363.584	318.14
363.966	331.93
364.348	323.56
364.729	306.39
365.111	321.08
365.493	309.33
365.874	312.94
366.256	299.84
366.637	299.61
367.019	307.75
367.4	298.71
367.781	312.27
368.163	295.32
368.544	319.95
368.925	309.78
369.306	316.79
369.688	288.54
370.069	304.81
370.45	286.05
370.831	281.98
371.212	317.01
371.593	309.78
371.974	282.66
372.355	305.49
372.736	308.42
373.117	294.41
373.498	298.48
373.879	314.07
374.26	302.77
374.641	296.22
375.021	307.75
375.402	316.79
375.783	336.67
376.163	321.08
376.544	315.43
376.925	315.66
377.305	333.06
377.686	291.93
378.066	311.36
378.447	331.93
378.827	306.62
379.208	326.28
379.588	307.97
379.968	314.53
380.349	314.98
380.729	334.86
381.109	324.69
381.489	327.41
381.87	309.55
382.25	324.02
382.63	322.21
383.01	336.45
383.39	340.06
383.77	326.95
384.15	308.2
384.53	330.8
384.91	340.51
385.29	325.37
385.67	347.97
386.049	340.06
386.429	345.71
386.809	340.74
387.189	344.81
387.568	339.16
387.948	337.8
388.328	322.66
388.707	342.77
389.087	330.34
389.466	349.78
389.846	349.78
390.225	345.03
390.605	341.19
390.984	345.71
391.363	358.82
391.743	362.89
392.122	373.73
392.501	354.3
392.881	369.21
393.26	363.11
393.639	363.56
394.018	345.49
394.397	358.59
394.776	360.85
395.155	369.89
395.534	367.86
395.913	371.93
396.292	363.79
396.671	384.81
397.05	346.84
397.429	376.44
397.808	354.07
398.186	350.23
398.565	361.98
398.944	393.85
399.323	377.57
399.701	381.42
400.08	354.07
400.458	386.16
400.837	398.82
401.215	386.61
401.594	379.61
401.972	362.43
402.351	366.95
402.729	397.01
403.107	404.24
403.486	392.49
403.864	394.52
404.242	391.36
404.62	398.14
404.999	399.95
405.377	398.14
405.755	420.51
406.133	370.8
406.511	403.56
406.889	421.87
407.267	410.12
407.645	399.95
408.023	410.12
408.401	426.84
408.779	417.8
409.156	418.03
409.534	416.9
409.912	431.13
410.29	433.84
410.667	444.69
411.045	425.26
411.422	443.79
411.8	443.79
412.178	443.79
412.555	460.06
412.933	429.32
413.31	446.27
413.687	450.34
414.065	468.19
414.442	460.06
414.819	425.03
415.197	471.58
415.574	463.45
415.951	472.94
416.328	481.98
416.705	478.82
417.082	469.1
417.46	486.72
417.837	482.43
418.214	489.44
418.591	496.89
418.967	508.87
419.344	484.69
419.721	486.95
420.098	490.11
420.475	500.96
420.852	505.48
421.228	516.33
421.605	508.42
421.982	527.85
422.358	514.52
422.735	534.18
423.111	516.78
423.488	534.18
423.864	541.41
424.241	542.54
424.617	554.75
424.994	548.87
425.37	540.51
425.746	545.93
426.123	546.16
426.499	524.01
426.875	546.38
427.251	563.11
427.627	571.24
428.003	554.29
428.379	571.24
428.756	578.25
429.132	587.74
429.507	587.29
429.883	597
430.259	592.48
430.635	580.51
431.011	600.85
431.387	601.52
431.763	621.41
432.138	601.3
432.514	620.73
432.89	610.56
433.265	630
433.641	635.42
434.016	634.07
434.392	638.81
434.767	642.65
435.143	665.93
435.518	656.66
435.894	643.1
436.269	668.41
436.644	693.95
437.02	683.33
437.395	670
437.77	694.18
438.145	721.29
438.52	703.67
438.895	674.52
439.271	687.4
439.646	709.77
440.021	708.64
440.395	704.35
440.77	714.06
441.145	737.34
441.52	750.22
441.895	725.36
442.27	740.96
442.645	728.07
443.019	745.02
443.394	741.63
443.769	748.41
444.143	735.53
444.518	757.9
444.892	759.71
445.267	754.06
445.641	770.56
446.016	771.46
446.39	782.99
446.764	783.21
447.139	807.62
447.513	811.46
447.887	804.46
448.262	798.13
448.636	789.99
449.01	829.31
449.384	781.86
449.758	813.95
450.132	815.98
450.506	815.98
450.88	831.8
451.254	837.45
451.628	839.26
452.002	834.96
452.376	839.48
452.75	877.9
453.123	874.74
453.497	855.3
453.871	873.38
454.244	863.44
454.618	872.93
454.992	876.54
455.365	871.57
455.739	900.95
456.112	932.14
456.486	926.71
456.859	931.46
457.232	943.89
457.606	970.55
457.979	942.53
458.352	966.26
458.725	966.26
459.099	994.73
459.472	1016.43
459.845	998.35
460.218	1014.39
460.591	1012.36
460.964	1033.6
461.337	1044.68
461.71	1040.16
462.083	1069.99
462.456	1051.91
462.829	1065.92
463.201	1110.66
463.574	1064.11
463.947	1105.69
464.32	1106.14
464.692	1138.23
465.065	1130.32
465.438	1133.26
465.81	1188.85
466.183	1161.51
466.555	1200.83
466.928	1199.93
467.3	1185.92
467.672	1210.1
468.045	1235.86
468.417	1222.98
468.789	1273.37
469.161	1276.99
469.534	1284.67
469.906	1321.05
470.278	1331.45
470.65	1345.23
471.022	1357.89
471.394	1398.11
471.766	1408.96
472.138	1411.67
472.51	1424.33
472.882	1459.13
473.253	1488.28
473.625	1512.46
473.997	1545.45
474.369	1538.67
474.74	1539.8
475.112	1599.01
475.484	1633.59
475.855	1630.2
476.227	1636.98
476.598	1691.89
476.97	1736.64
477.341	1734.38
477.713	1742.28
478.084	1797.42
478.455	1855.73
478.827	1845.11
479.198	1894.6
479.569	1916.29
479.94	1922.84
480.311	1954.93
480.682	2012.33
481.053	2064.31
481.424	2070.41
481.795	2144.76
482.166	2131.2
482.537	2209.17
482.908	2236.28
483.279	2242.61
483.65	2291.2
484.021	2338.2
484.391	2345.88
484.762	2400.57
485.133	2441.93
485.503	2426.11
485.874	2496.16
486.244	2537.74
486.615	2577.52
486.985	2639.44
487.356	2665.42
487.726	2694.8
488.097	2727.34
488.467	2775.03
488.837	2793.56
489.207	2857.51
489.578	2901.58
489.948	2948.81
490.318	2935.7
490.688	2998.97
491.058	3060.67
491.428	3035.36
491.798	3116.71
492.168	3175.02
492.538	3228.8
492.908	3246.2
493.278	3248.69
493.648	3249.59
494.017	3313.32
494.387	3328.91
494.757	3358.29
495.126	3401.22
495.496	3415.46
495.866	3437.16
496.235	3447.55
496.605	3471.05
496.974	3543.37
497.344	3585.17
497.713	3591.05
498.082	3644.61
498.452	3658.84
498.821	3675.34
499.19	3746.75
499.559	3740.42
499.928	3738.62
500.298	3773.19
500.667	3800.76
501.036	3816.35
501.405	3839.18
501.774	3858.61
502.143	3922.11
502.512	3904.04
502.88	3927.99
503.249	3932.51
503.618	3979.51
503.987	4005.28
504.356	4043.69
504.724	4007.31
505.093	4037.59
505.462	4049.57
505.83	4076.69
506.199	4119.85
506.567	4191.26
506.936	4138.61
507.304	4182.67
507.672	4189.68
508.041	4245.04
508.409	4242.56
508.777	4248.43
509.145	4317.36
509.514	4264.93
509.882	4346.74
510.25	4360.29
510.618	4337.92
510.986	4368.66
511.354	4359.84
511.722	4453.85
512.09	4473.29
512.458	4403.68
512.826	4492.49
513.193	4509.22
513.561	4546.96
513.929	4472.61
514.297	4531.14
514.664	4579.72
515.032	4574.98
515.4	4615.2
515.767	4608.2
516.135	4623.11
516.502	4629.89
516.869	4687.52
517.237	4740.85
517.604	4675.09
517.972	4692.26
518.339	4803.22
518.706	4726.16
519.073	4727.97
519.44	4772.94
519.808	4795.76
520.175	4795.76
520.542	4842.54
520.909	4893.84
521.276	4864.46
521.643	4931.13
522.009	4950.56
522.376	4964.35
522.743	4978.36
523.11	5010.45
523.477	5048.64
523.843	5096.09
524.21	5127.96
524.577	5110.78
524.943	5174.06
525.31	5104.91
525.676	5183.78
526.043	5242.31
526.409	5270.55
526.776	5264.68
527.142	5289.08
527.508	5302.19
527.874	5366.37
528.241	5362.3
528.607	5405.24
528.973	5444.56
529.339	5431
529.705	5492.02
530.071	5497.21
530.437	5527.72
530.803	5555.07
531.169	5553.71
531.535	5643.2
531.901	5626.93
532.267	5639.81
532.632	5669.87
532.998	5675.74
533.364	5737.89
533.73	5770.2
534.095	5789.86
534.461	5788.28
534.826	5813.82
535.192	5844.32
535.557	5917.32
535.923	5876.64
536.288	5928.62
536.653	5930.42
537.019	5933.13
537.384	5943.98
537.749	5992.79
538.114	6078.44
538.479	6012.68
538.845	6043.64
539.21	6072.79
539.575	6116.41
539.94	6163.19
540.305	6161.15
540.67	6169.96
541.034	6164.09
541.399	6179.46
541.764	6240.92
542.129	6280.02
542.494	6284.99
542.858	6338.32
543.223	6347.81
543.587	6382.61
543.952	6406.79
544.316	6439.11
544.681	6411.77
545.045	6501.71
545.41	6475.95
545.774	6511.65
546.138	6515.04
546.503	6587.13
546.867	6548.03
547.231	6669.61
547.595	6678.65
547.959	6679.1
548.324	6698.99
548.688	6628.48
549.052	6715.04
549.416	6737.86
549.779	6781.47
550.143	6783.06
550.507	6829.61
550.871	6836.39
551.235	6842.94
551.599	6887.23
551.962	6945.76
552.326	6940.11
552.689	6957.97
553.053	6928.81
553.417	7005.88
553.78	7085.2
554.143	7070.05
554.507	7078.87
554.87	7069.15
555.234	7145.76
555.597	7122.48
555.96	7192.31
556.323	7169.71
556.686	7204.51
557.05	7181.69
557.413	7242.03
557.776	7268.92
558.139	7312.31
558.502	7352.31
558.865	7349.37
559.228	7359.76
559.59	7369.26
559.953	7355.92
560.316	7466.2
560.679	7474.56
561.041	7535.58
561.404	7573.09
561.767	7553.66
562.129	7524.28
562.492	7684.73
562.854	7656.25
563.217	7653.99
563.579	7662.13
563.941	7755.23
564.304	7792.52
564.666	7800.88
565.028	7769.24
565.39	7839.53
565.753	7809.92
566.115	7875.68
566.477	7892.86
566.839	7900.99
567.201	8004.49
567.563	7954.1
567.925	8041.33
568.287	8047.66
568.648	8060.54
569.01	8122.68
569.372	8140.76
569.734	8121.1
570.095	8164.04
570.457	8256.24
570.819	8237.71
571.18	8301.89
571.542	8347.53
571.903	8345.73
572.265	8420.98
572.626	8470.47
572.987	8461.88
573.349	8521.54
573.71	8531.03
574.071	8602.67
574.432	8706.4
574.794	8797.92
575.155	8795.43
575.516	8731.48
575.877	8899.16
576.238	8929.89
576.599	9044.24
576.96	9020.51
577.32	9104.13
577.681	9196.33
578.042	9314.97
578.403	9333.5
578.763	9458.47
579.124	9533.94
579.485	9660.04
579.845	9730.1
580.206	9851.45
580.566	9930.77
580.927	10008.06
581.287	10193.14
581.648	10257.09
582.008	10381.15
582.368	10530.53
582.728	10649.62
583.089	10804.19
583.449	10929.84
583.809	11066.56
584.169	11229.94
584.529	11372.54
584.889	11603.27
585.249	11797.61
585.609	11817.95
585.969	12169.58
586.329	12208
586.688	12478.05
587.048	12658.16
587.408	12909
587.768	13033.06
588.127	13310.34
588.487	13515.76
588.846	13781.06
589.206	13869.65
589.565	14176.99
589.925	14459.24
590.284	14583.98
590.643	14933.8
591.003	15139.22
591.362	15497.86
591.721	15705.76
592.08	16012.87
592.44	16327.66
592.799	16456.47
593.158	16707.54
593.517	16974.88
593.876	17351.59
594.235	17580.29
594.593	17868.87
594.952	18107.28
595.311	18324.67
595.67	18621.61
596.029	19085.33
596.387	19359.45
596.746	19687.8
597.104	19824.07
597.463	20085.08
597.822	20494.79
598.18	20696.36
598.538	20914.66
598.897	21292.51
599.255	21482.56
599.613	22056.1
599.972	22114.4
600.33	22421.74
600.688	22565.01
601.046	22946.92
601.404	23319.34
601.762	23550.52
602.12	23918.65
602.478	24159.1
602.836	24394.12
603.194	24477.28
603.552	24802.02
603.91	24955.01
604.268	25363.81
604.625	25520.87
604.983	25945.94
605.341	25946.85
605.698	26371.24
606.056	26714.06
606.413	26845.81
606.771	27134.39
607.128	27350.2
607.485	27446.47
607.843	27686.01
608.2	28099.33
608.557	28402.15
608.914	28441.02
609.272	28820.22
609.629	29020.21
609.986	29346.76
610.343	29405.96
610.7	29706.75
611.057	29808.21
611.414	30101.77
611.771	30359.16
612.127	30497.69
612.484	30765.7
612.841	31000.72
613.198	31099.03
613.554	31119.59
613.911	31615.4
614.267	31680.25
614.624	31707.6
614.98	31988.72
615.337	32312.1
615.693	32217.42
616.05	32258.54
616.406	32838.42
616.762	32723.62
617.118	32909.6
617.475	33078.86
617.831	33196.6
618.187	33328.12
618.543	33578.51
618.899	33799.07
619.255	33955.67
619.611	33954.77
619.967	34217.36
620.323	34286.29
620.678	34318.15
621.034	34356.57
621.39	34541.2
621.746	34483.8
622.101	35067.74
622.457	34774.86
622.812	34986.83
623.168	35015.76
623.523	35142.31
623.879	35328.97
624.234	35205.36
624.589	35509.31
624.945	35472.92
625.3	35612.81
625.655	35609.42
626.01	35868.62
626.365	35801.05
626.72	35620.94
627.075	35719.7
627.43	35939.8
627.785	35896.87
628.14	36067.71
628.495	36047.6
628.85	36182.74
629.205	36124.43
629.559	36516.51
629.914	36300.47
630.269	36401.49
630.623	36301.15
630.978	36360.36
631.332	36608.03
631.687	36529.39
632.041	36375.05
632.396	36569.62
632.75	36450.07
633.104	36535.04
633.459	36470.86
633.813	36559
634.167	36614.59
634.521	36481.26
634.875	36602.39
635.229	36509.51
635.583	36480.81
635.937	36582.27
636.291	36370.53
636.645	36546.34
636.999	36483.07
637.352	36641.71
637.706	36282.85
638.06	36717.86
638.413	36511.99
638.767	36480.81
639.121	36618.43
639.474	36484.65
639.828	36482.16
640.181	36641.03
640.534	36511.54
640.888	36479.22
641.241	36426.12
641.594	36603.51
641.947	36718.77
642.301	36376.63
642.654	36420.92
643.007	36511.54
643.36	36421.37
643.713	36431.99
644.066	36482.16
644.419	36224.32
644.771	36046.47
645.124	35822.52
645.477	35722.63
645.83	35478.35
646.182	35404
646.535	35360.16
646.888	35366.94
647.24	35269.09
647.593	35538.23
647.945	35428.4
648.298	35324.68
648.65	35122.65
649.002	35137.11
649.355	35339.59
649.707	35212.82
650.059	35369.88
650.411	35924.66
650.763	35922.63
651.115	36254.15
651.467	36177.54
651.819	36169.63
652.171	36070.2
652.523	36057.54
652.875	36080.82
653.227	35906.58
653.578	36102.29
653.93	36029.52
654.282	35842.41
654.633	35759.92
654.985	35738.23
655.337	35928.28
655.688	35850.09
656.039	35979.8
656.391	35643.77
656.742	35769.41
657.094	35819.81
657.445	35909.97
657.796	35820.26
658.147	35740.94
658.498	35800.6
658.849	35810.09
659.2	35729.64
659.551	35663.65
659.902	35847.83
660.253	35613.94
660.604	35794.72
660.955	35679.7
661.306	35836.98
661.656	35561.51
662.007	35599.25
662.358	35648.29
662.708	35657.78
663.059	35643.54
663.409	35485.58
663.76	35689.41
664.11	35737.78
664.461	35692.58
664.811	35704.1
665.161	35761.5
665.511	35565.12
665.862	35566.03
666.212	35739.81
666.562	35804.67
666.912	35612.81
667.262	35542.75
667.612	35651.45
667.962	35691.45
668.312	35460.49
668.662	35785.46
669.011	35486.03
669.361	35571.68
669.711	35535.97
670.06	35457.1
670.41	35473.15
670.76	35347.5
671.109	35557.67
671.459	35496.65
671.808	35375.3
672.157	35604.67
672.507	35253.27
672.856	35338.69
673.205	35499.36
673.554	35484.22
673.904	35299.59
674.253	35678.34
674.602	35344.11
674.951	34842.21
675.3	34791.13
675.649	35257.11
675.998	35235.42
676.346	35344.57
676.695	35462.53
677.044	35128.3
677.393	35275.19
677.741	35217.34
678.09	35113.38
678.438	35019.38
678.787	35107.28
679.135	35131.01
679.484	34851.47
679.832	34969.66
680.181	34777.35
680.529	35049.66
680.877	34853.5
681.225	34788.42
681.573	34935.08
681.922	34748.65
682.27	34717.01
682.618	34732.38
682.966	34539.39
683.314	34670.68
683.661	34506.85
684.009	34455.55
684.357	34352.05
684.705	34299.85
685.053	34411.71
685.4	34282.45
685.748	34146.63
686.095	34066.18
686.443	33944.83
686.79	33994.77
687.138	33920.42
687.485	34072.73
687.832	33933.53
688.18	33894.66
688.527	33752.06
688.874	33693.08
689.221	33636.14
689.568	33502.13
689.915	33440.21
690.262	33449.93
690.609	33261.68
690.956	33324.28
691.303	33180.78
691.65	33056.26
691.997	33127.9
692.344	32847.68
692.69	32931.3
693.037	32816.95
693.383	32670.06
693.73	32741.7
694.077	32605.43
694.423	32682.26
694.769	32511.65
695.116	32431.42
695.462	32297.41
695.808	32240.69
696.155	32304.19
696.501	32012.9
696.847	32042.73
697.193	31720.48
697.539	31878.44
697.885	31556.42
698.231	31564.55
698.577	31566.59
698.923	31535.85
699.269	31415.63
699.614	31215.41
699.96	31157.78
700.306	31182.41
700.651	31067.84
700.997	30990.56
701.342	30929.77
701.688	30884.8
702.033	30780.39
702.379	30861.75
702.724	30685.48
703.069	30760.28
703.415	30407.75
703.76	30483.68
704.105	30465.6
704.45	30343.79
704.795	30236
705.14	30118.94
705.485	30020.64
705.83	29918.04
706.175	30043.24
706.52	29975.67
706.865	29747.42
707.209	29860.64
707.554	29682.34
707.899	29774.32
708.243	29524.61
708.588	29511.27
708.932	29368.45
709.277	29355.34
709.621	29343.14
709.966	29293.2
710.31	29203.48
710.654	28862.02
710.998	29065.86
711.342	29028.8
711.687	28902.47
712.031	28881.46
712.375	28779.09
712.719	28681.01
713.063	28634.01
713.407	28758.52
713.75	28576.38
714.094	28649.15
714.438	28493.67
714.782	28429.72
715.125	28389.95
715.469	28347.69
715.812	28255.49
716.156	28072.89
716.499	28159.9
716.843	28207.13
717.186	28127.81
717.53	28079.22
717.873	28111.08
718.216	27952.67
718.559	27835.84
718.902	27685.11
719.246	27762.84
719.589	27678.1
719.932	27586.58
720.275	27612.56
720.617	27505.68
720.96	27384.1
721.303	27454.6
721.646	27448.73
721.989	27299.8
722.331	27399.46
722.674	27235.4
723.016	27166.93
723.359	27131
723.701	27300.93
724.044	27053.71
724.386	26955.41
724.729	26995.86
725.071	26822.76
725.413	26910.44
725.755	26895.07
726.097	26800.61
726.439	26733.72
726.782	26666.6
727.124	26848.29
727.465	26636.77
727.807	26683.55
728.149	26527.17
728.491	26438.81
728.833	26569.2
729.175	26544.12
729.516	26265.03
729.858	26363.78
730.199	26497.57
730.541	26448.75
730.882	26373.28
731.224	26393.61
731.565	26140.29
731.906	26135.32
732.248	26135.54
732.589	26025.26
732.93	25871.82
733.271	25898.26
733.612	26173.96
733.953	25941.65
734.294	25771.94
734.635	25773.74
734.976	25795.44
735.317	25550.47
735.658	25643.58
735.999	25673.63
736.339	25611.71
736.68	25715.89
737.021	25552.73
737.361	25487.65
737.702	25610.36
738.042	25576.69
738.383	25451.27
738.723	25518.61
739.063	25315.9
739.404	25472.73
739.744	25305.28
740.084	25376.92
740.424	25403.36
740.764	25191.84
741.104	25293.98
741.444	25163.14
741.784	25113.42
742.124	25134.21
742.464	25089.92
742.804	25029.13
743.143	25022.8
743.483	25001.79
743.823	24886.99
744.162	24879.53
744.502	24923.14
744.841	24777.61
745.181	24966.08
745.52	24770.61
745.86	24808.8
746.199	24752.53
746.538	24732.19
746.877	24694.45
747.216	24804.05
747.556	24522.93
747.895	24525.41
748.234	24437.06
748.573	24425.08
748.911	24533.1
749.25	24355.93
749.589	24378.98
749.928	24385.53
750.267	24322.48
750.605	24229.38
750.944	24192.99
751.283	24144.86
751.621	24201.58
751.96	24022.15
752.298	24010.4
752.636	24148.02
752.975	23899.44
753.313	23882.95
753.651	23972.21
753.989	23828.71
754.327	23812.89
754.666	23655.61
755.004	23596.85
755.342	23663.29
755.679	23775.83
756.017	23531.09
756.355	23602.73
756.693	23546.46
757.031	23469.4
757.368	23358.89
757.706	23290.42
758.044	23284.54
758.381	23257.88
758.719	23183.75
759.056	23251.32
759.394	23148.5
759.731	23100.37
760.068	22940.37
760.405	22918.23
760.743	22823.09
