Data from hue_300_FLMS001491_00013.txt Node
Date: Tue Feb 07 15:50:21 GMT 2017
User: dcchb
Spectrometer: FLMS00149
Trigger mode: 0
Integration Time (sec): 2.000000E-2
Scans to average: 10
Electric dark correction enabled: true
Nonlinearity correction enabled: false
Boxcar width: 0
XAxis mode: Wavelengths
Number of Pixels in Spectrum: 2048
>>>>>Begin Spectral Data<<<<<
341.393	-7.33
341.776	-7.33
342.16	-7.33
342.543	-45.07
342.927	-81.9
343.31	-65.63
343.693	-68.35
344.077	-85.29
344.46	-60.44
344.843	-50.49
345.226	-41.91
345.61	-32.19
345.993	-20.44
346.376	7.36
346.759	11.88
347.142	39.9
347.525	38.32
347.908	43.74
348.291	63.18
348.674	106.79
349.057	113.57
349.44	101.59
349.823	132.55
350.206	160.57
350.588	185.21
350.971	183.4
351.354	199.44
351.737	232.21
352.119	219.56
352.502	246.67
352.884	264.75
353.267	276.5
353.65	280.35
354.032	279.22
354.414	273.34
354.797	294.36
355.179	309.05
355.562	323.96
355.944	333
356.326	334.36
356.709	312.66
357.091	327.12
357.473	328.48
357.855	310.63
358.238	321.02
358.62	336.39
359.002	323.73
359.384	313.11
359.766	321.93
360.148	314.7
360.53	323.73
360.912	323.51
361.294	335.03
361.676	341.36
362.057	314.47
362.439	303.4
362.821	318.76
363.203	316.95
363.584	305.2
363.966	311.98
364.348	314.92
364.729	320.12
365.111	306.11
365.493	277.63
365.874	298.88
366.256	295.94
366.637	307.69
367.019	287.35
367.4	307.92
367.781	323.96
368.163	312.89
368.544	301.59
368.925	291.42
369.306	297.29
369.688	298.88
370.069	297.52
370.45	302.04
370.831	293.45
371.212	303.85
371.593	313.11
371.974	316.5
372.355	293.9
372.736	303.17
373.117	320.12
373.498	325.99
373.879	315.37
374.26	292.1
374.641	304.98
375.021	318.54
375.402	328.93
375.783	310.85
376.163	308.82
376.544	326.67
376.925	337.29
377.305	318.31
377.686	337.97
378.066	290.74
378.447	317.18
378.827	318.99
379.208	320.57
379.588	309.27
379.968	316.73
380.349	307.46
380.729	313.34
381.109	324.19
381.489	327.8
381.87	326.45
382.25	318.31
382.63	326.9
383.01	305.88
383.39	334.13
383.77	323.96
384.15	317.41
384.53	344.3
384.91	322.83
385.29	333
385.67	325.09
386.049	352.21
386.429	340.01
386.809	350.17
387.189	352.21
387.568	344.07
387.948	323.51
388.328	344.98
388.707	341.81
389.087	339.55
389.466	351.98
389.846	343.62
390.225	330.97
390.605	342.27
390.984	362.15
391.363	359.67
391.743	357.18
392.122	358.31
392.501	352.43
392.881	356.05
393.26	362.38
393.639	368.7
394.018	367.8
394.397	354.47
394.776	345.65
395.155	380.91
395.534	376.16
395.913	370.29
396.292	365.32
396.671	372.55
397.05	377.97
397.429	384.52
397.808	357.86
398.186	379.78
398.565	364.86
398.944	368.25
399.323	403.73
399.701	371.42
400.08	389.72
400.458	385.88
400.837	389.72
401.215	399.44
401.594	413.22
401.972	403.28
402.351	410.06
402.729	391.3
403.107	409.61
403.486	418.2
403.864	402.38
404.242	418.87
404.62	419.78
404.999	408.7
405.377	424.07
405.755	433.34
406.133	431.53
406.511	433.56
406.889	449.15
407.267	449.38
407.645	457.52
408.023	462.71
408.401	456.84
408.779	465.43
409.156	461.81
409.534	488.93
409.912	478.08
410.29	490.51
410.667	488.93
411.045	477.18
411.422	504.52
411.8	516.72
412.178	507.46
412.555	525.54
412.933	525.54
413.31	549.27
413.687	568.47
414.065	543.84
414.442	557.63
414.819	545.2
415.197	552.88
415.574	558.08
415.951	593.11
416.328	591.3
416.705	606.44
417.082	598.3
417.46	598.98
417.837	609.83
418.214	644.63
418.591	630.39
418.967	678.98
419.344	659.54
419.721	639.66
420.098	670.17
420.475	674.01
420.852	697.74
421.228	686.44
421.605	693.22
421.982	688.92
422.358	720.79
422.735	724.4
423.111	725.31
423.488	757.62
423.864	733.22
424.241	729.15
424.617	745.87
424.994	758.07
425.37	766.89
425.746	781.12
426.123	775.93
426.499	817.96
426.875	808.47
427.251	791.07
427.627	838.07
428.003	840.11
428.379	831.07
428.756	866.55
429.132	862.25
429.507	879.2
429.883	887.11
430.259	907
430.635	899.99
431.011	911.74
431.387	922.81
431.763	952.64
432.138	955.81
432.514	968.01
432.89	974.11
433.265	985.86
433.641	1001.91
434.016	993.55
434.392	1030.38
434.767	1031.96
435.143	1009.59
435.518	1049.37
435.894	1070.61
436.269	1034.68
436.644	1081.45
437.02	1074.9
437.395	1069.03
437.77	1119.42
438.145	1114.45
438.52	1123.71
438.895	1118.29
439.271	1165.07
439.646	1166.2
440.021	1156.03
440.395	1185.86
440.77	1152.64
441.145	1160.1
441.52	1187.67
441.895	1176.59
442.27	1200.1
442.645	1183.6
443.019	1217.5
443.394	1210.72
443.769	1219.08
444.143	1230.15
444.518	1240.55
444.892	1241.22
445.267	1217.5
445.641	1243.48
446.016	1273.31
446.39	1243.71
446.764	1262.01
447.139	1242.35
447.513	1263.37
447.887	1271.05
448.262	1286.19
448.636	1288.23
449.01	1268.34
449.384	1303.14
449.758	1319.41
450.132	1290.49
450.506	1306.99
450.88	1299.08
451.254	1299.75
451.628	1326.42
452.002	1353.09
452.376	1333.43
452.75	1302.69
453.123	1363.26
453.497	1352.41
453.871	1375.68
454.244	1346.53
454.618	1384.05
454.992	1377.27
455.365	1391.95
455.739	1400.54
456.112	1394.44
456.486	1426.98
456.859	1439.19
457.232	1483.48
457.606	1475.12
457.979	1453.2
458.352	1478.96
458.725	1495
459.099	1497.04
459.472	1521.67
459.845	1504.72
460.218	1521.67
460.591	1538.84
460.964	1553.76
461.337	1554.66
461.71	1582.46
462.083	1575.45
462.456	1578.84
462.829	1607.32
463.201	1619.29
463.574	1628.78
463.947	1633.3
464.32	1643.47
464.692	1659.52
465.065	1639.63
465.438	1673.76
465.81	1704.26
466.183	1698.61
466.555	1738.39
466.928	1729.8
467.3	1713.08
467.672	1733.19
468.045	1779.29
468.417	1781.55
468.789	1779.06
469.161	1784.26
469.534	1834.2
469.906	1825.39
470.278	1835.11
470.65	1844.37
471.022	1893.86
471.394	1894.77
471.766	1918.95
472.138	1943.35
472.51	1928.44
472.882	1946.29
473.253	1991.94
473.625	2011.83
473.997	2041.2
474.369	2025.16
474.74	2038.49
475.112	2065.38
475.484	2118.49
475.855	2100.18
476.227	2120.98
476.598	2156.68
476.97	2162.1
477.341	2160.07
477.713	2205.94
478.084	2230.8
478.455	2266.96
478.827	2266.06
479.198	2301.31
479.569	2285.26
479.94	2342.66
480.311	2370.01
480.682	2382.66
481.053	2459.5
481.424	2427.86
481.795	2456.33
482.166	2518.03
482.537	2483.45
482.908	2519.83
483.279	2550.79
483.65	2570.23
484.021	2616.33
484.391	2640.06
484.762	2644.8
485.133	2664.92
485.503	2643.9
485.874	2681.19
486.244	2720.96
486.615	2774.07
486.985	2785.14
487.356	2829.88
487.726	2798.92
488.097	2876.21
488.467	2845.25
488.837	2910.11
489.207	2898.81
489.578	2970.9
489.948	2958.69
490.318	3004.12
490.688	3006.15
491.058	3036.21
491.428	3013.16
491.798	3075.75
492.168	3118.92
492.538	3071.46
492.908	3143.1
493.278	3156.88
493.648	3190.78
494.017	3210.21
494.387	3224
494.757	3224.45
495.126	3223.09
495.496	3260.61
495.866	3276.88
496.235	3286.59
496.605	3305.35
496.974	3325.69
497.344	3351.9
497.713	3374.05
498.082	3378.34
498.452	3407.5
498.821	3386.7
499.19	3436.65
499.559	3420.6
499.928	3451.79
500.298	3418.79
500.667	3460.83
501.036	3455.86
501.405	3450.43
501.774	3488.85
502.143	3508.06
502.512	3513.48
502.88	3503.99
503.249	3488.17
503.618	3536.31
503.987	3565.68
504.356	3557.32
504.724	3605.46
505.093	3571.56
505.462	3572.24
505.83	3612.69
506.199	3589.41
506.567	3653.36
506.936	3656.98
507.304	3653.36
507.672	3668.28
508.041	3699.01
508.409	3683.87
508.777	3681.39
509.145	3758.67
509.514	3700.82
509.882	3727.94
510.25	3716.41
510.618	3743.53
510.986	3757.99
511.354	3786.69
511.722	3764.32
512.09	3792.34
512.458	3798.9
512.826	3833.25
513.193	3820.14
513.561	3816.52
513.929	3859.01
514.297	3889.52
514.664	3897.65
515.032	3866.69
515.4	3879.57
515.767	3881.16
516.135	3871.66
516.502	3901.27
516.869	3906.47
517.237	3935.39
517.604	3915.28
517.972	3939.46
518.339	3927.93
518.706	3927.48
519.073	3945.11
519.44	3946.01
519.808	4014.94
520.175	3968.84
520.542	3986.91
520.909	4004.77
521.276	4011.1
521.643	4071.43
522.009	4108.49
522.376	4049.51
522.743	4083.86
523.11	4089.96
523.477	4127.93
523.843	4137.65
524.21	4163.18
524.577	4136.52
524.943	4191.2
525.31	4167.25
525.676	4212.9
526.043	4254.48
526.409	4238.89
526.776	4277.08
527.142	4263.29
527.508	4322.73
527.874	4294.03
528.241	4374.48
528.607	4362.72
528.973	4397.07
529.339	4361.82
529.705	4439.33
530.071	4460.8
530.437	4494.02
530.803	4495.6
531.169	4496.28
531.535	4458.99
531.901	4523.85
532.267	4542.83
532.632	4538.76
532.998	4561.59
533.364	4582.15
533.73	4578.99
534.095	4611.98
534.461	4677.74
534.826	4663.06
535.192	4693.56
535.557	4695.82
535.923	4720.68
536.288	4716.84
536.653	4711.19
537.019	4758.87
537.384	4780.57
537.749	4755.93
538.114	4819.89
538.479	4811.07
538.845	4811.53
539.21	4877.96
539.575	4842.26
539.94	4915.03
540.305	4916.61
540.67	4884.29
541.034	4940.34
541.399	4989.83
541.764	4976.72
542.129	5015.81
542.494	4985.98
542.858	5031.86
543.223	5023.5
543.587	5072.54
543.952	5074.57
544.316	5149.6
544.681	5129.03
545.045	5134.23
545.41	5124.96
545.774	5203.15
546.138	5189.14
546.503	5196.6
546.867	5168.8
547.231	5295.58
547.595	5305.3
547.959	5294.45
548.324	5320.89
548.688	5299.87
549.052	5331.96
549.416	5362.7
549.779	5332.19
550.143	5385.75
550.507	5416.71
550.871	5446.76
551.235	5381.68
551.599	5496.25
551.962	5490.83
552.326	5486.54
552.689	5482.47
553.053	5484.73
553.417	5511.17
553.78	5550.26
554.143	5570.83
554.507	5597.95
554.87	5567.89
555.234	5572.18
555.597	5587.55
555.96	5633.88
556.323	5653.76
556.686	5611.73
557.05	5700.32
557.413	5666.19
557.776	5709.58
558.139	5696.7
558.502	5753.42
558.865	5755.23
559.228	5802.01
559.59	5808.34
559.953	5842.91
560.316	5852.18
560.679	5801.78
561.041	5897.6
561.404	5902.12
561.767	5897.83
562.129	5895.79
562.492	5952.96
562.854	5961.55
563.217	5962
563.579	5953.42
563.941	6018.05
564.304	6027.77
564.666	6053.98
565.028	6018.05
565.39	6024.15
565.753	6097.37
566.115	6096.69
566.477	6134.2
566.839	6105.73
567.201	6157.71
567.563	6190.47
567.925	6217.36
568.287	6237.25
568.648	6237.03
569.01	6310.02
569.372	6292.62
569.734	6307.08
570.095	6410.35
570.457	6391.6
570.819	6394.99
571.18	6428.21
571.542	6470.47
571.903	6555.43
572.265	6547.53
572.626	6585.94
572.987	6584.81
573.349	6644.47
573.71	6701.42
574.071	6739.38
574.432	6779.38
574.794	6845.82
575.155	6887.63
575.516	6884.69
575.877	6984.35
576.238	7009.21
576.599	7144.8
576.96	7169.2
577.32	7225.02
577.681	7295.75
578.042	7423.66
578.403	7448.07
578.763	7489.87
579.124	7639.47
579.485	7676.08
579.845	7740.04
580.206	7891.45
580.566	8036.3
580.927	8093.93
581.287	8255.05
581.648	8316.97
582.008	8558.55
582.368	8690.29
582.728	8831.76
583.089	8911.98
583.449	9047.12
583.809	9275.14
584.169	9435.36
584.529	9613.66
584.889	9824.95
585.249	9948.11
585.609	10163.02
585.969	10341.55
586.329	10588.1
586.688	10734.08
587.048	10959.61
587.408	11124.13
587.768	11391.24
588.127	11649.76
588.487	11897.22
588.846	12164.78
589.206	12437.09
589.565	12633.02
589.925	13043.4
590.284	13193.45
590.643	13473.22
591.003	13847.9
591.362	14064.16
591.721	14308
592.08	14595.45
592.44	14965.84
592.799	15205.38
593.158	15461.19
593.517	15681.3
593.876	15990.22
594.235	16232.47
594.593	16637.66
594.952	16982.96
595.311	17128.72
595.67	17441.93
596.029	17844.63
596.387	18221.79
596.746	18524.61
597.104	18669.47
597.463	19049.57
597.822	19389.45
598.18	19539.27
598.538	19876.21
598.897	20353.94
599.255	20476.65
599.613	21009.74
599.972	21141.27
600.33	21487.47
600.688	21692.44
601.046	22158.87
601.404	22417.16
601.762	22585.97
602.12	22964.27
602.478	23195
602.836	23519.73
603.194	23637.02
603.552	23960.4
603.91	24143.45
604.268	24474.74
604.625	24704.34
604.983	24984.78
605.341	25168.5
605.698	25636.74
606.056	25830.18
606.413	26023.85
606.771	26405.31
607.128	26487.11
607.485	26682.82
607.843	26935.01
608.2	27309.47
608.557	27521.89
608.914	27689.12
609.272	28056.79
609.629	28261.53
609.986	28468.08
610.343	28481.64
610.7	29009.53
611.057	29073.49
611.414	29285.91
611.771	29384.67
612.127	29796.63
612.484	29777.42
612.841	30093.57
613.198	30208.15
613.554	30424.64
613.911	30693.78
614.267	30813.1
614.624	31026.43
614.98	31227.1
615.337	31421.22
615.693	31520.65
616.05	31650.14
616.406	31939.85
616.762	32010.81
617.118	31971.49
617.475	32256.68
617.831	32392.72
618.187	32486.05
618.543	32691.24
618.899	32969.43
619.255	32957.23
619.611	33088.97
619.967	33483.09
620.323	33400.15
620.678	33327.84
621.034	33459.81
621.39	33570.32
621.746	33709.98
622.101	34170.3
622.457	34026.13
622.812	34166.91
623.168	34386.79
623.523	34334.37
623.879	34486.45
624.234	34381.82
624.589	34619.1
624.945	34632.44
625.3	34713.79
625.655	34803.28
626.01	34952.65
626.365	34973.44
626.72	35218.64
627.075	35071.07
627.43	35010.73
627.785	35096.38
628.14	35247.56
628.495	35282.14
628.85	35405.98
629.205	35210.73
629.559	35485.07
629.914	35360.55
630.269	35638.74
630.623	35441.46
630.978	35513.32
631.332	35665.63
631.687	35771.84
632.041	35588.8
632.396	35756.02
632.75	35529.14
633.104	35691.62
633.459	35590.83
633.813	35604.39
634.167	35592.64
634.521	35685.52
634.875	35849.13
635.229	35827.21
635.583	35730.04
635.937	35576.37
636.291	35739.07
636.645	35747.89
636.999	35821.33
637.352	35776.81
637.706	35642.35
638.06	35945.85
638.413	35802.35
638.767	35648.91
639.121	35685.29
639.474	35620.89
639.828	35704.05
640.181	35736.59
640.534	35788.11
640.888	35735.46
641.241	35474.22
641.594	35586.31
641.947	35786.3
642.301	35627.44
642.654	35697.49
643.007	35675.12
643.36	35675.35
643.713	35551.06
644.066	35783.59
644.419	35594.9
644.771	35323.49
645.124	34992.88
645.477	35123.5
645.83	34806.67
646.182	34722.6
646.535	34646.22
646.888	34778.65
647.24	34571.2
647.593	34838.99
647.945	34630.4
648.298	34595.83
648.65	34399
649.002	34317.19
649.355	34742.94
649.707	34646.22
650.059	34686.22
650.411	35056.83
650.763	35111.97
651.115	35383.15
651.467	35361.91
651.819	35533.2
652.171	35348.35
652.523	35311.97
652.875	35184.96
653.227	35180.67
653.578	35422.25
653.93	35394.9
654.282	35312.19
654.633	35100.22
654.985	35340.67
655.337	35252.31
655.688	35158.98
656.039	35421.79
656.391	35187.22
656.742	35105.19
657.094	35243.72
657.445	35208.24
657.796	35233.32
658.147	35191.29
658.498	35166.43
658.849	35275.13
659.2	35047.79
659.551	35037.4
659.902	35231.74
660.253	35046.66
660.604	35222.03
660.955	35038.75
661.306	35060.45
661.656	35065.19
662.007	35057.28
662.358	35139.32
662.708	35094.35
663.059	35088.7
663.409	35025.65
663.76	35047.12
664.11	35109.71
664.461	35019.32
664.811	35147.23
665.161	35094.12
665.511	35006.44
665.862	35047.34
666.212	35149.26
666.562	35156.49
666.912	34900.23
667.262	35029.04
667.612	34972.77
667.962	35050.28
668.312	34977.96
668.662	35199.65
669.011	35027.68
669.361	35022.03
669.711	34995.82
670.06	34938.19
670.41	34969.83
670.76	34905.65
671.109	35070.17
671.459	34893.45
671.808	34797.63
672.157	35005.31
672.507	34700.46
672.856	34808.03
673.205	34870.4
673.554	34903.62
673.904	34740.91
674.253	35033.78
674.602	34789.04
674.951	34370.75
675.3	34234.03
675.649	34767.57
675.998	34643.28
676.346	34684.86
676.695	34742.26
677.044	34422.95
677.393	34658.2
677.741	34646.9
678.09	34653.45
678.438	34581.14
678.787	34531.2
679.135	34585.88
679.484	34439
679.832	34467.24
680.181	34218.89
680.529	34445.32
680.877	34251.2
681.225	34285.1
681.573	34479.45
681.922	34201.04
682.27	34089.85
682.618	34072
682.966	34058.67
683.314	34152.22
683.661	33892.12
684.009	33823.19
684.357	33822.51
684.705	33835.85
685.053	33855.96
685.4	33672.91
685.748	33547.72
686.095	33630.2
686.443	33465.01
686.79	33459.36
687.138	33327.84
687.485	33370.32
687.832	33301.4
688.18	33348.85
688.527	33241.74
688.874	33131.23
689.221	33154.28
689.568	32913.16
689.915	32878.81
690.262	32891.69
690.609	32884.23
690.956	32822.31
691.303	32638.36
691.65	32562.43
691.997	32621.87
692.344	32427.98
692.69	32300.07
693.037	32337.81
693.383	32047.87
693.73	32167.64
694.077	32109.11
694.423	32035.22
694.769	31965.84
695.116	31817.37
695.462	31885.62
695.808	31784.38
696.155	31700.76
696.501	31575.12
696.847	31433.65
697.193	31263.49
697.539	31371.28
697.885	31195.24
698.231	31050.16
698.577	30998.63
698.923	31155.24
699.269	30899.65
699.614	30772.43
699.96	30743.05
700.306	30719.55
700.651	30634.12
700.997	30427.35
701.342	30479.78
701.688	30387.12
702.033	30310.74
702.379	30289.27
702.724	30267.13
703.069	30230.29
703.415	29962.5
703.76	29930.64
704.105	29837.99
704.45	29871.88
704.795	29557.09
705.14	29558.22
705.485	29715.73
705.83	29489.52
706.175	29517.32
706.52	29398.45
706.865	29272.58
707.209	29318.45
707.554	29280.71
707.899	29229.87
708.243	29040.72
708.588	28998.01
708.932	28874.62
709.277	28878.69
709.621	28774.51
709.966	28617
710.31	28778.81
710.654	28594.18
710.998	28593.27
711.342	28542.88
711.687	28367.29
712.031	28310.57
712.375	28288.87
712.719	28270.12
713.063	28298.82
713.407	28221.98
713.75	28093.63
714.094	28164.36
714.438	28043.68
714.782	28128.65
715.125	27897.92
715.469	27975.21
715.812	27721.21
716.156	27564.83
716.499	27811.37
716.843	27690.92
717.186	27542.23
717.53	27607.54
717.873	27754.43
718.216	27485.05
718.559	27493.42
718.902	27213.87
719.246	27318.73
719.589	27206.42
719.932	27076.48
720.275	27198.51
720.617	27123.03
720.96	27022.69
721.303	27027.89
721.646	27153.54
721.989	26817.73
722.331	26946.09
722.674	26798.29
723.016	26933.88
723.359	26838.52
723.701	26853.21
724.044	26643.72
724.386	26470.84
724.729	26548.58
725.071	26581.58
725.413	26495.48
725.755	26517.62
726.097	26293.9
726.439	26228.14
726.782	26309.04
727.124	26314.46
727.465	26250.28
727.807	26091.19
728.149	26149.27
728.491	26030.18
728.833	26198.53
729.175	26156.95
729.516	25951.76
729.858	25909.95
730.199	25842.61
730.541	26020.69
730.882	25939.33
731.224	25965.32
731.565	25739.56
731.906	25791.31
732.248	25811.43
732.589	25659.79
732.93	25471.77
733.271	25633.13
733.612	25611.88
733.953	25699.11
734.294	25539.57
734.635	25425.67
734.976	25482.85
735.317	25404.66
735.658	25375.05
735.999	25468.38
736.339	25374.6
736.68	25347.26
737.021	25277.43
737.361	25191.56
737.702	25290.99
738.042	25192.46
738.383	25152.91
738.723	25332.57
739.063	25198.56
739.404	25266.58
739.744	25089.41
740.084	24965.12
740.424	24954.95
740.764	25013.48
741.104	25108.17
741.444	24965.35
741.784	24888.06
742.124	24892.13
742.464	24786.59
742.804	24772.13
743.143	24776.88
743.483	24745.24
743.823	24705.24
744.162	24631.57
744.502	24644.22
744.841	24610.55
745.181	24627.95
745.52	24501.63
745.86	24687.61
746.199	24545.92
746.538	24525.81
746.877	24566.03
747.216	24515.64
747.556	24503.66
747.895	24553.38
748.234	24409.43
748.573	24368.07
748.911	24430.67
749.25	24303.89
749.589	24237.68
749.928	24275.87
750.267	24293.95
750.605	24256.21
750.944	24213.05
751.283	24072.71
751.621	24248.76
751.96	24188.64
752.298	23997.46
752.636	24046.95
752.975	23891.7
753.313	23915.66
753.651	24047.63
753.989	23857.8
754.327	23748.66
754.666	23738.26
755.004	23751.37
755.342	23858.48
755.679	23867.97
756.017	23716.11
756.355	23773.74
756.693	23611.94
757.031	23751.59
757.368	23494.88
757.706	23525.84
758.044	23453.97
758.381	23512.28
758.719	23484.93
759.056	23465.5
759.394	23377.59
759.731	23200.2
