Data from hue_38_FLMS001491_00028.txt Node
Date: Tue Feb 07 17:31:17 GMT 2017
User: dcchb
Spectrometer: FLMS00149
Trigger mode: 0
Integration Time (sec): 2.000000E-2
Scans to average: 10
Electric dark correction enabled: true
Nonlinearity correction enabled: false
Boxcar width: 0
XAxis mode: Wavelengths
Number of Pixels in Spectrum: 2048
>>>>>Begin Spectral Data<<<<<
341.393	-28.28
341.776	-28.28
342.16	-28.28
342.543	-59.01
342.927	-73.25
343.31	-45.45
343.693	-73.02
344.077	-60.82
344.46	-69.86
344.843	-64.43
345.226	-46.81
345.61	-42.29
345.993	-13.36
346.376	-3.87
346.759	13.53
347.142	23.02
347.525	51.27
347.908	52.63
348.291	65.05
348.674	98.5
349.057	115.9
349.44	111.61
349.823	131.49
350.206	146.63
350.588	206.07
350.971	199.51
351.354	237.71
351.737	239.51
352.119	246.97
352.502	261.66
352.884	266.41
353.267	286.29
353.65	312.51
354.032	317.93
354.414	302.56
354.797	310.7
355.179	314.99
355.562	327.65
355.944	345.05
356.326	335.33
356.709	317.93
357.091	333.52
357.473	315.67
357.855	331.49
358.238	354.09
358.62	349.57
359.002	336.01
359.384	330.81
359.766	333.52
360.148	347.76
360.53	367.19
360.912	335.1
361.294	337.14
361.676	348.66
362.057	308.21
362.439	342.34
362.821	317.03
363.203	331.94
363.584	323.58
363.966	339.85
364.348	330.13
364.729	332.39
365.111	307.76
365.493	334.43
365.874	329
366.256	309.79
366.637	322.22
367.019	315.67
367.4	326.97
367.781	323.58
368.163	336.23
368.544	322.45
368.925	310.02
369.306	310.02
369.688	320.87
370.069	354.09
370.45	299.62
370.831	319.51
371.212	312.51
371.593	307.76
371.974	334.43
372.355	336.69
372.736	316.57
373.117	297.82
373.498	303.01
373.879	348.89
374.26	319.51
374.641	322.68
375.021	314.77
375.402	323.58
375.783	337.36
376.163	332.39
376.544	337.59
376.925	334.65
377.305	312.96
377.686	320.64
378.066	333.97
378.447	342.56
378.827	333.75
379.208	333.3
379.588	330.58
379.968	339.62
380.349	335.1
380.729	328.55
381.109	340.3
381.489	337.36
381.87	338.04
382.25	342.56
382.63	343.24
383.01	356.57
383.39	335.78
383.77	340.98
384.15	349.34
384.53	345.95
384.91	369.91
385.29	345.95
385.67	341.88
386.049	373.3
386.429	358.38
386.809	342.56
387.189	379.4
387.568	369.23
387.948	350.25
388.328	354.09
388.707	361.77
389.087	366.06
389.466	352.5
389.846	371.26
390.225	365.84
390.605	376.69
390.984	378.49
391.363	382.11
391.743	378.04
392.122	363.13
392.501	362.22
392.881	395.44
393.26	370.36
393.639	379.17
394.018	368.1
394.397	386.85
394.776	382.79
395.155	393.18
395.534	372.84
395.913	382.11
396.292	390.7
396.671	397.02
397.05	408.1
397.429	373.07
397.808	404.93
398.186	417.36
398.565	390.02
398.944	396.35
399.323	405.16
399.701	395.67
400.08	407.87
400.458	405.16
400.837	420.98
401.215	410.81
401.594	394.76
401.972	404.48
402.351	400.87
402.729	417.14
403.107	416.91
403.486	400.87
403.864	425.05
404.242	413.07
404.62	411.71
404.999	404.93
405.377	434.31
405.755	444.93
406.133	427.53
406.511	427.08
406.889	411.26
407.267	455.33
407.645	449
408.023	442.45
408.401	463.24
408.779	449
409.156	458.94
409.534	446.97
409.912	453.52
410.29	458.26
410.667	474.76
411.045	455.55
411.422	449.23
411.8	472.95
412.178	460.07
412.555	477.7
412.933	506.85
413.31	502.11
413.687	504.14
414.065	490.81
414.442	496
414.819	482.9
415.197	491.26
415.574	495.33
415.951	501.2
416.328	504.14
416.705	510.69
417.082	508.21
417.46	508.88
417.837	517.7
418.214	515.89
418.591	516.12
418.967	531.94
419.344	530.13
419.721	529.45
420.098	533.97
420.475	549.79
420.852	543.91
421.228	538.49
421.605	530.35
421.982	571.26
422.358	552.27
422.735	547.75
423.111	559.28
423.488	555.21
423.864	556.79
424.241	565.83
424.617	541.88
424.994	581.43
425.37	571.71
425.746	555.89
426.123	578.49
426.499	553.86
426.875	593.18
427.251	600.18
427.627	621.42
428.003	597.92
428.379	603.8
428.756	617.81
429.132	626.62
429.507	640.18
429.883	623.01
430.259	640.86
430.635	622.78
431.011	632.72
431.387	642.67
431.763	667.52
432.138	638.83
432.514	668.88
432.89	653.06
433.265	704.13
433.641	684.93
434.016	665.94
434.392	682.44
434.767	696.45
435.143	705.49
435.518	699.84
435.894	714.53
436.269	742.1
436.644	762.21
437.02	761.31
437.395	747.97
437.77	723.57
438.145	738.94
438.52	761.53
438.895	739.39
439.271	755.66
439.646	745.94
440.021	751.36
440.395	770.12
440.77	780.29
441.145	789.78
441.52	813.96
441.895	793.62
442.27	779.61
442.645	799.27
443.019	794.53
443.394	783.23
443.769	808.09
444.143	806.5
444.518	833.17
444.892	832.72
445.267	851.02
445.641	853.96
446.016	835.66
446.39	855.99
446.764	845.37
447.139	833.62
447.513	859.38
447.887	878.59
448.262	871.81
448.636	878.37
449.01	876.56
449.384	900.06
449.758	880.17
450.132	919.27
450.506	908.87
450.88	928.31
451.254	912.72
451.628	940.74
452.002	952.26
452.376	923.79
452.75	934.64
453.123	955.88
453.497	982.09
453.871	980.51
454.244	987.97
454.618	979.16
454.992	990.45
455.365	1019.61
455.739	1035.42
456.112	1034.52
456.486	1035.42
456.859	1048.31
457.232	1069.32
457.606	1086.04
457.979	1079.04
458.352	1105.93
458.725	1133.5
459.099	1115.87
459.472	1128.53
459.845	1137.12
460.218	1178.47
460.591	1157
460.964	1190.45
461.337	1198.36
461.71	1184.8
462.083	1230.22
462.456	1216.89
462.829	1229.77
463.201	1268.86
463.574	1267.96
463.947	1286.27
464.32	1287.17
464.692	1317.23
465.065	1317.9
465.438	1353.38
465.81	1385.47
466.183	1361.52
466.555	1416.66
466.928	1428.86
467.3	1450.33
467.672	1422.08
468.045	1474.51
468.417	1492.81
468.789	1505.69
469.161	1531
469.534	1554.96
469.906	1579.59
470.278	1616.88
470.65	1609.65
471.022	1641.06
471.394	1687.61
471.766	1709.08
472.138	1719.47
472.51	1761.73
472.882	1792.24
473.253	1814.84
473.625	1826.36
473.997	1898
474.369	1949.3
474.74	1965.34
475.112	2004.66
475.484	2095.74
475.855	2113.59
476.227	2132.57
476.598	2179.58
476.97	2206.69
477.341	2287.6
477.713	2309.06
478.084	2324.88
478.455	2419.12
478.827	2485.56
479.198	2569.17
479.569	2588.83
479.94	2660.01
480.311	2708.6
480.682	2817.3
481.053	2866.56
481.424	2961.48
481.795	2979.1
482.166	3042.38
482.537	3144.3
482.908	3257.74
483.279	3300.45
483.65	3344.74
484.021	3468.13
484.391	3561.69
484.762	3593.55
485.133	3681
485.503	3755.13
485.874	3867.44
486.244	3940.66
486.615	4062.46
486.985	4168.45
487.356	4276.47
487.726	4355.11
488.097	4471.94
488.467	4569.34
488.837	4662.9
489.207	4758.94
489.578	4839.62
489.948	4927.53
490.318	5062.21
490.688	5151.93
491.058	5240.51
491.428	5389.89
491.798	5494.52
492.168	5615.64
492.538	5614.51
492.908	5774.28
493.278	5855.41
493.648	5969.76
494.017	6085.01
494.387	6111.9
494.757	6247.72
495.126	6375.62
495.496	6474.6
495.866	6540.82
496.235	6634.37
496.605	6755.73
496.974	6816.74
497.344	6930.19
497.713	7003.4
498.082	7148.71
498.452	7268.26
498.821	7284.07
499.19	7370.17
499.559	7501.02
499.928	7550.73
500.298	7627.57
500.667	7746.43
501.036	7807.45
501.405	7945.53
501.774	7956.15
502.143	8087.44
502.512	8108.23
502.88	8247.66
503.249	8290.15
503.618	8397.94
503.987	8425.06
504.356	8520.43
504.724	8594.77
505.093	8665.51
505.462	8728.33
505.83	8823.92
506.199	8940.75
506.567	9057.13
506.936	9083.8
507.304	9223.91
507.672	9243.34
508.041	9286.28
508.409	9390.46
508.777	9532.15
509.145	9571.92
509.514	9564.47
509.882	9744.12
510.25	9729.43
510.618	9768.53
510.986	9885.59
511.354	9926.49
511.722	10093.04
512.09	10189.08
512.458	10091.01
512.826	10289.87
513.193	10329.42
513.561	10399.47
513.929	10454.16
514.297	10587.49
514.664	10669.07
515.032	10720.37
515.4	10806.47
515.767	10799.01
516.135	10880.82
516.502	10817.31
516.869	11031.77
517.237	11100.02
517.604	11065.67
517.972	11213.01
518.339	11272.9
518.706	11271.54
519.073	11399.22
519.44	11392.89
519.808	11560.57
520.175	11540.01
520.542	11641.93
520.909	11709.49
521.276	11802.15
521.643	11886.66
522.009	11929.15
522.376	12024.74
522.743	12063.84
523.11	12242.59
523.477	12255.02
523.843	12361.68
524.21	12493.88
524.577	12535.01
524.943	12643.93
525.31	12675.57
525.676	12815.91
526.043	12853.19
526.409	12967.31
526.776	13061.32
527.142	13036.24
527.508	13145.84
527.874	13262
528.241	13360.07
528.607	13394.2
528.973	13563.91
529.339	13554.19
529.705	13658.82
530.071	13767.52
530.437	13838.25
530.803	13869.21
531.169	13988.3
531.535	13919.61
531.901	13968.64
532.267	14059.04
532.632	14174.06
532.998	14271.69
533.364	14339.71
533.73	14343.55
534.095	14518.69
534.461	14551
534.826	14613.15
535.192	14560.72
535.557	14765.46
535.923	14780.37
536.288	14805.91
536.653	14801.39
537.019	14980.59
537.384	14978.11
537.749	15093.81
538.114	15095.17
538.479	15068.05
538.845	15193.7
539.21	15228.05
539.575	15256.29
539.94	15351.66
540.305	15455.84
540.67	15481.82
541.034	15531.31
541.399	15579
541.764	15602.95
542.129	15672.33
542.494	15778.54
542.858	15885.66
543.223	15872.32
543.587	16007.23
543.952	15935.15
544.316	16109.38
544.681	16177.63
545.045	16135.82
545.41	16299.88
545.774	16240.22
546.138	16348.92
546.503	16452.19
546.867	16442.25
547.231	16534
547.595	16522.02
547.959	16689.7
548.324	16647.9
548.688	16740.1
549.052	16799.53
549.416	16819.42
549.779	16932.18
550.143	16969.7
550.507	17111.84
550.871	17122.69
551.235	17184.15
551.599	17217.82
551.962	17233.87
552.326	17313.87
552.689	17425.73
553.053	17340.31
553.417	17414.66
553.78	17666.85
554.143	17457.59
554.507	17678.83
554.87	17747.08
555.234	17876.11
555.597	17827.3
555.96	17870.69
556.323	17879.5
556.686	18001.76
557.05	18168.31
557.413	18187.52
557.776	18212.15
558.139	18410.79
558.502	18260.06
558.865	18421.63
559.228	18484.91
559.59	18629.54
559.953	18680.38
560.316	18811.91
560.679	18866.14
561.041	18971.22
561.404	19032.01
561.767	19095.97
562.129	19057.55
562.492	19155.63
562.854	19191.33
563.217	19223.2
563.579	19351.78
563.941	19439.01
564.304	19434.49
564.666	19640.36
565.028	19704.31
565.39	19645.56
565.753	19822.73
566.115	19896.85
566.477	19960.58
566.839	19944.31
567.201	20197.18
567.563	20081.7
567.925	20353.33
568.287	20258.87
568.648	20310.85
569.01	20506.1
569.372	20595.81
569.734	20494.35
570.095	20707.9
570.457	20780.89
570.819	20829.48
571.18	20934.56
571.542	21005.3
571.903	21098.85
572.265	21092.75
572.626	21247.32
572.987	21390.82
573.349	21379.07
573.71	21556.92
574.071	21494.32
574.432	21652.06
574.794	21824.71
575.155	21914.88
575.516	21979.28
575.877	22093.18
576.238	22210.91
576.599	22363.45
576.96	22426.27
577.32	22492.04
577.681	22610.68
578.042	22835.53
578.403	22889.77
578.763	22872.14
579.124	23113.94
579.485	23303.77
579.845	23405.68
580.206	23527.26
580.566	23687.48
580.927	23752.34
581.287	24067.14
581.648	24111.2
582.008	24391.42
582.368	24368.82
582.728	24719.77
583.089	24755.03
583.449	24927.45
583.809	25055.81
584.169	25418.29
584.529	25452.64
584.889	25730.14
585.249	25855.34
585.609	26001.77
585.969	26345.95
586.329	26394.53
586.688	26573.28
587.048	26700.96
587.408	26934.18
587.768	27128.75
588.127	27278.35
588.487	27536.65
588.846	27888.73
589.206	27867.26
589.565	28048.5
589.925	28388.6
590.284	28703.4
590.643	28808.71
591.003	29054.12
591.362	29241.01
591.721	29457.73
592.08	29695.46
592.44	29880.54
592.799	30113.3
593.158	30360.98
593.517	30469.45
593.876	30797.35
594.235	30764.59
594.593	31040.51
594.952	31273.73
595.311	31446.15
595.67	31624.68
596.029	32049.3
596.387	32223.08
596.746	32481.83
597.104	32425.56
597.463	32714.59
597.822	32995.49
598.18	33023.96
598.538	33246.33
598.897	33602.25
599.255	33367.68
599.613	34096.02
599.972	33991.17
600.33	34289.92
600.688	34388.22
601.046	34631.38
601.404	34883.35
601.762	35030.92
602.12	35220.51
602.478	35301.19
602.836	35680.16
603.194	35606.49
603.552	35718.35
603.91	35779.6
604.268	36233.82
604.625	36150.89
604.983	36435.62
605.341	36449.63
605.698	36601.04
606.056	36849.4
606.413	36939.11
606.771	37156.96
607.128	37448.93
607.485	37252.1
607.843	37332.78
608.2	37776.15
608.557	37931.18
608.914	37977.73
609.272	38212.07
609.629	38221.11
609.986	38531.39
610.343	38564.38
610.7	38764.15
611.057	38723.25
611.414	38826.3
611.771	38983.58
612.127	39288.66
612.484	39184.7
612.841	39595.31
613.198	39424.47
613.554	39661.08
613.911	39851.58
614.267	39818.81
614.624	40017.68
614.98	40293.15
615.337	40354.62
615.693	40381.51
616.05	40413.6
616.406	40655.17
616.762	40653.59
617.118	40773.14
617.475	40766.81
617.831	40989.4
618.187	41118.89
618.543	41094.03
618.899	41413.12
619.255	41260.81
619.611	41360.24
619.967	41631.65
620.323	41727.46
620.678	41530.18
621.034	41569.05
621.39	41570.18
621.746	41721.13
622.101	42272.31
622.457	41923.16
622.812	42042.48
623.168	42168.81
623.523	42183.04
623.879	42236.15
624.234	42095.36
624.589	42350.27
624.945	42378.07
625.3	42461.91
625.655	42444.73
626.01	42554.56
626.365	42469.14
626.72	42516.82
627.075	42536.48
627.43	42615.57
627.785	42428.69
628.14	42664.61
628.495	42561.79
628.85	42503.26
629.205	42552.3
629.559	42914.1
629.914	42659.87
630.269	42742.58
630.623	42602.47
630.978	42721.79
631.332	42841.56
631.687	42868.45
632.041	42729.7
632.396	42846.53
632.75	42628.23
633.104	42851.5
633.459	42783.71
633.813	42627.1
634.167	42687.89
634.521	42675.91
634.875	42835.68
635.229	42899.86
635.583	42609.25
635.937	42676.36
636.291	42543.26
636.645	42652.18
636.999	42547.1
637.352	42766.3
637.706	42282.25
638.06	42755.68
638.413	42497.84
638.767	42422.13
639.121	42546.42
639.474	42176.04
639.828	42402.47
640.181	42393.66
640.534	42472.98
640.888	42407.9
641.241	42287.9
641.594	42341.91
641.947	42512.53
642.301	42381.23
642.654	42388.46
643.007	42373.32
643.36	42191.4
643.713	42293.1
644.066	42461.91
644.419	42187.11
644.771	41973.33
645.124	41569.95
645.477	41577.64
645.83	41348.04
646.182	41125.44
646.535	41061.49
646.888	41131.77
647.24	40897.65
647.593	41102.17
647.945	41029.63
648.298	40866.02
648.65	40755.28
649.002	40603.42
649.355	40911.21
649.707	40925.45
650.059	41058.33
650.411	41550.29
650.763	41500.12
651.115	41910.06
651.467	41644.3
651.819	41915.03
652.171	41589.39
652.523	41453.35
652.875	41569.05
653.227	41553.23
653.578	41774.24
653.93	41583.96
654.282	41424.19
654.633	41513
654.985	41410.18
655.337	41459.9
655.688	41583.74
656.039	41723.85
656.391	41361.6
656.742	41431.42
657.094	41391.65
657.445	41499.45
657.796	41469.16
658.147	41361.37
658.498	41349.84
658.849	41363.4
659.2	41389.39
659.551	41308.49
659.902	41374.7
660.253	41280.24
660.604	41512.55
660.955	41216.74
661.306	41345.55
661.656	41279.56
662.007	41329.96
662.358	41325.66
662.708	41272.11
663.059	41264.65
663.409	40966.58
663.76	41351.88
664.11	41263.97
664.461	41220.36
664.811	41206.35
665.161	41144.88
665.511	41233.69
665.862	41096.52
666.212	41314.37
666.562	41434.59
666.912	41308.49
667.262	41212
667.612	41276.85
667.962	41218.77
668.312	41193.46
668.662	41530.18
669.011	41241.83
669.361	41125.22
669.711	41026.69
670.06	41014.26
670.41	41072.34
670.76	40896.98
671.109	40981.95
671.459	40905.56
671.808	40934.49
672.157	41037.54
672.507	40763.42
672.856	40944.43
673.205	40939.01
673.554	41029.18
673.904	40827.15
674.253	41234.59
674.602	40898.11
674.951	40480.72
675.3	40152.81
675.649	40866.69
675.998	40758
676.346	40895.62
676.695	40856.07
677.044	40635.97
677.393	40724.55
677.741	40642.07
678.09	40586.7
678.438	40547.83
678.787	40601.84
679.135	40664.89
679.484	40329.53
679.832	40596.19
680.181	40276.43
680.529	40354.39
680.877	40353.94
681.225	40254.05
681.573	40469.87
681.922	40134.28
682.27	40160.95
682.618	40224.45
682.966	39969.54
683.314	40132.7
683.661	39952.82
684.009	39793.28
684.357	39710.11
684.705	39684.13
685.053	39736.33
685.4	39608.87
685.748	39449.1
686.095	39519.16
686.443	39372.27
686.79	39314.42
687.138	39481.65
687.485	39303.8
687.832	39150.58
688.18	39284.59
688.527	39048.66
688.874	39090.47
689.221	39050.7
689.568	38919.85
689.915	38819.97
690.262	38767.09
690.609	38824.71
690.956	38591.95
691.303	38381.11
691.65	38418.62
691.997	38273.09
692.344	38153.54
692.69	38228.35
693.037	38094.56
693.383	37842.82
693.73	37949.71
694.077	37709.26
694.423	37704.07
694.769	37781.8
695.116	37452.55
695.462	37465.65
695.808	37353.79
696.155	37428.14
696.501	37095.27
696.847	37171.88
697.193	36796.07
697.539	37062.95
697.885	36822.51
698.231	36643.08
698.577	36733.47
698.923	36630.65
699.269	36557.65
699.614	36274.27
699.96	36187.95
700.306	36304.78
700.651	36031.34
700.997	36040.61
701.342	35909.08
701.688	35955.64
702.033	35732.14
702.379	35734.63
702.724	35615.53
703.069	35747.28
703.415	35218.25
703.76	35455.08
704.105	35470.23
704.45	35342.77
704.795	35172.83
705.14	35025.94
705.485	35031.14
705.83	34782.79
706.175	34935.78
706.52	34840.19
706.865	34795.67
707.209	34686.29
707.554	34536.92
707.899	34659.4
708.243	34374.66
708.588	34254.66
708.932	34060.55
709.277	34183.48
709.621	34198.39
709.966	33848.8
710.31	34049.7
710.654	33595.47
710.998	33769.48
711.342	33748.91
711.687	33673.89
712.031	33505.08
712.375	33395.7
712.719	33388.7
713.063	33374.91
713.407	33496.27
713.75	33237.97
714.094	33277.29
714.438	33092.89
714.782	33171.75
715.125	32887.47
715.469	33085.2
715.812	32720.02
716.156	32868.71
716.499	32737.42
716.843	32821.03
717.186	32619.23
717.53	32710.98
717.873	32741.03
718.216	32587.82
718.559	32398.22
718.902	32194.83
719.246	32395.96
719.589	32254.26
719.932	31969.3
720.275	32088.85
720.617	32114.61
720.96	31996.87
721.303	32002.29
721.646	31782.41
721.989	31726.14
722.331	31919.58
722.674	31784.45
723.016	31739.93
723.359	31646.6
723.701	31685.01
724.044	31561.63
724.386	31333.39
724.729	31575.41
725.071	31366.38
725.413	31400.05
725.755	31393.95
726.097	31289.77
726.439	31219.94
726.782	31180.17
727.124	31261.07
727.465	31045.26
727.807	30942.89
728.149	30929.1
728.491	30963.9
728.833	30952.38
729.175	30850.01
729.516	30679.62
729.858	30747.41
730.199	30702.89
730.541	30637.81
730.882	30652.05
731.224	30640.75
731.565	30547.87
731.906	30399.4
732.248	30392.39
732.589	30360.08
732.93	30311.94
733.271	30310.14
733.612	30305.62
733.953	30255
734.294	30103.36
734.635	30073.76
734.976	30087.77
735.317	29951.95
735.658	30018.17
735.999	29958.73
736.339	29917.6
736.68	29955.57
737.021	29848.9
737.361	29755.57
737.702	29975.68
738.042	29834.22
738.383	29730.94
738.723	29724.84
739.063	29642.36
739.404	29637.38
739.744	29597.39
740.084	29492.08
740.424	29469.03
740.764	29367.11
741.104	29517.84
741.444	29305.19
741.784	29282.37
742.124	29389.71
742.464	29273.1
742.804	29158.3
743.143	29179.09
743.483	29238.07
743.823	28964.86
744.162	28913.11
744.502	29063.39
744.841	28910.4
745.181	29025.2
745.52	28933.9
745.86	28945.65
746.199	28793.11
746.538	28802.38
746.877	28674.7
747.216	28777.75
747.556	28640.57
747.895	28653.23
748.234	28650.97
748.573	28488.94
748.911	28440.35
749.25	28371.66
749.589	28344.09
749.928	28383.63
750.267	28406
750.605	28262.51
750.944	28250.53
751.283	27970.54
751.621	28095.05
751.96	27926.47
752.298	27948.16
752.636	27902.74
752.975	27747.04
753.313	27826.36
753.651	27883.98
753.989	27588.62
754.327	27637.21
754.666	27449.42
755.004	27559.25
755.342	27611.9
755.679	27592.01
756.017	27295.07
756.355	27464.33
756.693	27265.47
757.031	27256.2
757.368	27168.97
