Data from hue_70_FLMS001491_15.txt Node
Date: Mon Feb 06 15:20:11 GMT 2017
User: dcchb
Spectrometer: FLMS00149
Trigger mode: 0
Integration Time (sec): 2.000000E-2
Scans to average: 10
Electric dark correction enabled: true
Nonlinearity correction enabled: false
Boxcar width: 0
XAxis mode: Wavelengths
Number of Pixels in Spectrum: 2048
>>>>>Begin Spectral Data<<<<<
341.393	-1.96
341.776	-1.96
342.16	-1.96
342.543	-47.84
342.927	-66.14
343.31	-58.68
343.693	-72.7
344.077	-67.05
344.46	-64.33
344.843	-56.43
345.226	-39.02
345.61	-28.18
345.993	-26.14
346.376	-12.13
346.759	-4.45
347.142	23.35
347.525	41.2
347.908	64.02
348.291	91.59
348.674	89.33
349.057	119.62
349.44	141.99
349.823	162.55
350.206	146.51
350.588	179.27
350.971	196.45
351.354	245.94
351.737	219.05
352.119	244.13
352.502	261.31
352.884	257.46
353.267	282.1
353.65	298.82
354.032	300.63
354.414	309.22
354.797	307.63
355.179	343.34
355.562	343.79
355.944	315.54
356.326	321.64
356.709	337.69
357.091	351.47
357.473	358.93
357.855	350.57
358.238	343.11
358.62	360.06
359.002	327.52
359.384	340.4
359.766	339.04
360.148	344.92
360.53	331.59
360.912	331.81
361.294	320.51
361.676	328.65
362.057	338.14
362.439	332.94
362.821	317.35
363.203	349.67
363.584	294.07
363.966	325.26
364.348	316.67
364.729	324.13
365.111	315.77
365.493	325.71
365.874	310.34
366.256	313.06
366.637	312.15
367.019	330.23
367.4	311.47
367.781	313.28
368.163	296.33
368.544	313.51
368.925	303.11
369.306	314.19
369.688	328.65
370.069	328.42
370.45	302.89
370.831	302.21
371.212	300.18
371.593	297.69
371.974	321.42
372.355	301.31
372.736	316.45
373.117	325.71
373.498	314.19
373.879	323.23
374.26	308.99
374.641	319.16
375.021	306.96
375.402	329.55
375.783	339.72
376.163	333.4
376.544	323.23
376.925	344.69
377.305	313.06
377.686	323
378.066	323.9
378.447	348.54
378.827	325.03
379.208	327.07
379.588	313.51
379.968	324.36
380.349	316.67
380.729	341.08
381.109	323.45
381.489	332.49
381.87	308.99
382.25	314.64
382.63	335.43
383.01	351.25
383.39	350.34
383.77	333.85
384.15	345.6
384.53	347.86
384.91	334.98
385.29	344.47
385.67	340.4
386.049	339.72
386.429	337.69
386.809	356.45
387.189	357.8
387.568	344.92
387.948	341.08
388.328	346.95
388.707	357.58
389.087	348.99
389.466	362.55
389.846	348.08
390.225	337.24
390.605	346.05
390.984	349.21
391.363	355.09
391.743	353.51
392.122	341.98
392.501	351.02
392.881	353.73
393.26	390.79
393.639	374.52
394.018	344.24
394.397	368.2
394.776	358.03
395.155	356.45
395.534	360.74
395.913	369.78
396.292	379.27
396.671	371.59
397.05	360.74
397.429	343.34
397.808	364.13
398.186	387.86
398.565	396.44
398.944	375.88
399.323	357.8
399.701	374.52
400.08	378.59
400.458	385.6
400.837	381.08
401.215	386.28
401.594	382.43
401.972	367.97
402.351	376.11
402.729	365.71
403.107	371.36
403.486	415.43
403.864	412.94
404.242	391.47
404.62	396.67
404.999	404.58
405.377	398.7
405.755	383.56
406.133	393.96
406.511	433.96
406.889	390.34
407.267	410
407.645	407.52
408.023	398.03
408.401	416.78
408.779	411.13
409.156	403.9
409.534	432.15
409.912	431.25
410.29	446.16
410.667	430.12
411.045	417.23
411.422	420.17
411.8	433.05
412.178	431.02
412.555	433.28
412.933	458.14
413.31	445.48
413.687	451.58
414.065	435.77
414.442	436.9
414.819	459.72
415.197	438.93
415.574	446.84
415.951	445.48
416.328	481.41
416.705	462.43
417.082	462.43
417.46	460.62
417.837	474.18
418.214	459.49
418.591	453.62
418.967	477.57
419.344	471.92
419.721	455.88
420.098	480.74
420.475	499.27
420.852	479.15
421.228	511.02
421.605	485.48
421.982	490.68
422.358	490.23
422.735	507.18
423.111	491.81
423.488	500.85
423.864	494.52
424.241	504.24
424.617	504.92
424.994	510.11
425.37	501.53
425.746	534.29
426.123	524.8
426.499	526.84
426.875	538.14
427.251	513.73
427.627	549.43
428.003	534.75
428.379	525.71
428.756	521.41
429.132	540.4
429.507	554.63
429.883	540.4
430.259	548.53
430.635	592.15
431.011	584.91
431.387	577.91
431.763	575.65
432.138	590.34
432.514	586.04
432.89	562.32
433.265	589.66
433.641	586.72
434.016	612.03
434.392	617.23
434.767	610.22
435.143	589.21
435.518	610
435.894	639.6
436.269	621.75
436.644	631.24
437.02	621.52
437.395	629.88
437.77	632.37
438.145	650.9
438.52	637.34
438.895	652.71
439.271	633.5
439.646	676.66
440.021	702.2
440.395	667.62
440.77	661.3
441.145	646.61
441.52	671.47
441.895	682.76
442.27	661.75
442.645	675.76
443.019	670.34
443.394	679.15
443.769	699.26
444.143	686.61
444.518	715.53
444.892	698.81
445.267	692.03
445.641	743.1
446.016	697.23
446.39	708.3
446.764	718.02
447.139	728.19
447.513	722.54
447.887	714.63
448.262	729.77
448.636	748.3
449.01	745.36
449.384	748.98
449.758	737.9
450.132	766.38
450.506	741.97
450.88	769.54
451.254	769.54
451.628	776.32
452.002	786.49
452.376	767.06
452.75	780.84
453.123	828.52
453.497	822.2
453.871	823.55
454.244	807.06
454.618	851.57
454.992	835.08
455.365	825.13
455.739	868.97
456.112	856.77
456.486	868.07
456.859	880.05
457.232	888.63
457.606	894.74
457.979	899.03
458.352	915.07
458.725	904.23
459.099	934.74
459.472	960.5
459.845	944.68
460.218	976.54
460.591	978.8
460.964	959.14
461.337	967.28
461.71	1016.09
462.083	1009.54
462.456	1007.28
462.829	1012.47
463.201	1030.78
463.574	1062.19
463.947	1045.24
464.32	1057.67
464.692	1099.25
465.065	1079.59
465.438	1106.71
465.81	1109.65
466.183	1111.91
466.555	1175.41
466.928	1174.28
467.3	1181.06
467.672	1199.81
468.045	1239.13
468.417	1238.23
468.789	1283.43
469.161	1296.31
469.534	1304.67
469.906	1337.21
470.278	1339.47
470.65	1337.66
471.022	1372.24
471.394	1405.23
471.766	1455.17
472.138	1475.96
472.51	1513.93
472.882	1537.21
473.253	1556.64
473.625	1581.27
473.997	1624.43
474.369	1648.16
474.74	1652.46
475.112	1718.44
475.484	1774.94
475.855	1822.4
476.227	1831.21
476.598	1936.97
476.97	1935.39
477.341	2009.74
477.713	2058.32
478.084	2069.17
478.455	2151.65
478.827	2184.87
479.198	2302.16
479.569	2325.66
479.94	2395.94
480.311	2444.07
480.682	2534.47
481.053	2627.57
481.424	2687.68
481.795	2736.72
482.166	2835.25
482.537	2923.61
482.908	3018.97
483.279	3071.18
483.65	3196.6
484.021	3299.42
484.391	3363.82
484.762	3465.06
485.133	3505.06
485.503	3633.42
485.874	3750.25
486.244	3839.52
486.615	3970.59
486.985	4059.62
487.356	4164.25
487.726	4297.81
488.097	4451.93
488.467	4520.18
488.837	4646.28
489.207	4783.9
489.578	4884.91
489.948	5010.79
490.318	5144.57
490.688	5249.65
491.058	5425.24
491.428	5485.12
491.798	5640.6
492.168	5804.89
492.538	5910.2
492.908	6005.79
493.278	6223.64
493.648	6289.4
494.017	6450.07
494.387	6543.18
494.757	6714.47
495.126	6922.6
495.496	7001.24
495.866	7090.51
496.235	7212.08
496.605	7407.56
496.974	7530.72
497.344	7696.37
497.713	7781.11
498.082	7947.21
498.452	8040.54
498.821	8218.16
499.19	8250.7
499.559	8421.32
499.928	8544.03
500.298	8626.28
500.667	8833.96
501.036	8920.51
501.405	9046.39
501.774	9086.84
502.143	9192.6
502.512	9350.79
502.88	9546.26
503.249	9546.26
503.618	9695.86
503.987	9863.77
504.356	9905.57
504.724	10054.04
505.093	10076.19
505.462	10227.37
505.83	10287.48
506.199	10453.81
506.567	10619.68
506.936	10700.35
507.304	10833.01
507.672	10942.83
508.041	11063.73
508.409	11112.55
508.777	11200.68
509.145	11376.49
509.514	11421.47
509.882	11507.34
510.25	11515.25
510.618	11686.77
510.986	11779.42
511.354	11902.36
511.722	12029.36
512.09	12153.2
512.458	12240.65
512.826	12380.99
513.193	12411.04
513.561	12510.93
513.929	12626.86
514.297	12783.24
514.664	12861.65
515.032	12910.24
515.4	13004.47
515.767	13067.75
516.135	13166.73
516.502	13067.98
516.869	13354.07
517.237	13438.36
517.604	13371.24
517.972	13646.94
518.339	13723.55
518.706	13707.28
519.073	13775.53
519.44	13893.26
519.808	14058.01
520.175	14019.14
520.542	14217.32
520.909	14339.13
521.276	14319.02
521.643	14437.21
522.009	14594.94
522.376	14602.85
522.743	14669.06
523.11	14914.93
523.477	14970.75
523.843	15012.11
524.21	15185.89
524.577	15335.49
524.943	15378.88
525.31	15393.56
525.676	15428.37
526.043	15669.72
526.409	15687.34
526.776	15790.62
527.142	15813.21
527.508	15979.99
527.874	15908.8
528.241	16065.18
528.607	16131.62
528.973	16227.44
529.339	16225.41
529.705	16396.25
530.071	16377.04
530.437	16529.81
530.803	16491.39
531.169	16638.28
531.535	16646.86
531.901	16690.25
532.267	16756.01
532.632	16777.93
532.998	16812.51
533.364	16992.84
533.73	16883.02
534.095	17156.46
534.461	17094.31
534.826	17121.2
535.192	17222.89
535.557	17207.08
535.923	17274.87
536.288	17318.26
536.653	17341.76
537.019	17280.07
537.384	17338.15
537.749	17432.15
538.114	17433.28
538.479	17402.32
538.845	17416.34
539.21	17456.79
539.575	17420.63
539.94	17468.09
540.305	17508.99
540.67	17514.64
541.034	17584.47
541.399	17586.5
541.764	17704.24
542.129	17643.9
542.494	17663.56
542.858	17803.44
543.223	17693.62
543.587	17740.85
543.952	17756.44
544.316	17751.47
544.681	17760.51
545.045	17816.78
545.41	17889.32
545.774	17884.8
546.138	17900.62
546.503	17908.3
546.867	17914.18
547.231	17958.92
547.595	17944.68
547.959	18048.18
548.324	17995.3
548.688	17989.65
549.052	18094.74
549.416	18055.42
549.779	18107.84
550.143	18061.74
550.507	18111.01
550.871	18177.9
551.235	18122.53
551.599	18222.42
551.962	18295.63
552.326	18319.14
552.689	18301.74
553.053	18309.42
553.417	18369.31
553.78	18434.84
554.143	18445.46
554.507	18522.97
554.87	18468.74
555.234	18603.42
555.597	18449.98
555.96	18510.54
556.323	18567.04
556.686	18541.73
557.05	18612.01
557.413	18678
557.776	18687.26
558.139	18783.31
558.502	18769.75
558.865	18822.17
559.228	18878.9
559.59	18992.34
559.953	18895.17
560.316	19206.8
560.679	19066.46
561.041	19178.1
561.404	19260.13
561.767	19340.81
562.129	19272.33
562.492	19451.76
562.854	19362.73
563.217	19415.83
563.579	19381.48
563.941	19620.12
564.304	19453.8
564.666	19667.8
565.028	19759.33
565.39	19742.15
565.753	19860.34
566.115	19935.82
566.477	19953.44
566.839	19971.3
567.201	20096.49
567.563	20031.41
567.925	20125.42
568.287	20089.26
568.648	20235.02
569.01	20231.86
569.372	20282.48
569.734	20329.03
570.095	20413.32
570.457	20545.97
570.819	20572.86
571.18	20569.7
571.542	20623.94
571.903	20623.03
572.265	20737.6
572.626	20813.31
572.987	20836.13
573.349	20904.38
573.71	20940.54
574.071	21029.35
574.432	21026.18
574.794	21071.38
575.155	21059.18
575.516	21011.72
575.877	21217.14
576.238	21147.99
576.599	21216.01
576.96	21211.49
577.32	21163.58
577.681	21335.1
578.042	21339.4
578.403	21317.48
578.763	21357.93
579.124	21397.93
579.485	21486.74
579.845	21491.48
580.206	21300.08
580.566	21473.86
580.927	21548.66
581.287	21561.99
581.648	21428.43
582.008	21653.96
582.368	21634.53
582.728	21611.48
583.089	21464.82
583.449	21514.08
583.809	21568.54
584.169	21671.14
584.529	21532.16
584.889	21694.19
585.249	21556.79
585.609	21484.93
585.969	21707.97
586.329	21625.04
586.688	21579.84
587.048	21548.2
587.408	21655.77
587.768	21599.73
588.127	21559.05
588.487	21520.18
588.846	21586.17
589.206	21512.05
589.565	21520.63
589.925	21695.77
590.284	21587.07
590.643	21597.24
591.003	21554.53
591.362	21672.95
591.721	21653.74
592.08	21536.91
592.44	21581.42
592.799	21678.14
593.158	21605.38
593.517	21707.75
593.876	21677.47
594.235	21711.59
594.593	21651.48
594.952	21617.36
595.311	21652.83
595.67	21627.98
596.029	21691.7
596.387	21753.17
596.746	21720.18
597.104	21643.8
597.463	21681.76
597.822	21765.15
598.18	21618.49
598.538	21596.56
598.897	21798.14
599.255	21674.98
599.613	21790.68
599.972	21748.2
600.33	21870
600.688	21755.43
601.046	21741.65
601.404	21884.47
601.762	21845.6
602.12	21943
602.478	21951.36
602.836	21933.96
603.194	21802.44
603.552	22031.13
603.91	21787.75
604.268	21928.53
604.625	21880.17
604.983	22008.08
605.341	21908.2
605.698	21970.34
606.056	22048.3
606.413	21904.81
606.771	21990
607.128	22201.52
607.485	22020.51
607.843	21998.81
608.2	22077
608.557	22196.55
608.914	22117.68
609.272	22267.96
609.629	22272.71
609.986	22385.24
610.343	22272.03
610.7	22430.44
611.057	22388.18
611.414	22347.28
611.771	22365.36
612.127	22465.92
612.484	22562.64
612.841	22454.4
613.198	22564.9
613.554	22553.83
613.911	22629.53
614.267	22745.01
614.624	22569.65
614.98	22706.37
615.337	22821.17
615.693	22665.01
616.05	22700.72
616.406	22724.67
616.762	22812.58
617.118	22799.7
617.475	22803.31
617.831	22819.81
618.187	22874.95
618.543	22908.85
618.899	23060.93
619.255	23066.36
619.611	23065.68
619.967	22973.03
620.323	23029.75
620.678	23007.38
621.034	22981.16
621.39	23016.64
621.746	22986.36
622.101	23390.42
622.457	23104.55
622.812	23122.63
623.168	23360.59
623.523	23227.48
623.879	23240.36
624.234	23177.99
624.589	23254.37
624.945	23231.55
625.3	23246.47
625.655	23204.43
626.01	23261.15
626.365	23394.03
626.72	23193.36
627.075	23294.15
627.43	23200.36
627.785	23148.16
628.14	23238.78
628.495	23301.15
628.85	23244.21
629.205	23107.71
629.559	23299.57
629.914	23213.25
630.269	23235.84
630.623	23159.46
630.978	23064.32
631.332	23252.79
631.687	23261.15
632.041	23160.14
632.396	23265.22
632.75	23067.26
633.104	23114.27
633.459	23054.15
633.813	23052.8
634.167	23065.45
634.521	23033.82
634.875	23012.8
635.229	23002.63
635.583	22907.49
635.937	22888.73
636.291	22881.28
636.645	22867.49
636.999	22847.38
637.352	22970.09
637.706	22859.81
638.06	22836.76
638.413	22749.75
638.767	22870.2
639.121	22793.37
639.474	22741.17
639.828	22720.38
640.181	22815.52
640.534	22730.77
640.888	22692.58
641.241	22552.25
641.594	22623.66
641.947	22720.38
642.301	22584.79
642.654	22656.88
643.007	22596.09
643.36	22603.09
643.713	22535.3
644.066	22756.31
644.419	22579.59
644.771	22300.73
645.124	22196.78
645.477	22117.46
645.83	21949.55
646.182	21939.15
646.535	21879.27
646.888	21877.01
647.24	21827.29
647.593	21995.65
647.945	21939.38
648.298	21745.49
648.65	21713.62
649.002	21776.9
649.355	21843.11
649.707	21715.43
650.059	21912.71
650.411	22168.75
650.763	22149.09
651.115	22472.02
651.467	22240.84
651.819	22189.09
652.171	22240.39
652.523	22226.83
652.875	22195.65
653.227	22092.82
653.578	22361.06
653.93	22098.02
654.282	22131.92
654.633	22199.03
654.985	22204.91
655.337	22200.39
655.688	22264.8
656.039	22249.88
656.391	22058.7
656.742	22159.26
657.094	22129.66
657.445	22206.49
657.796	22185.93
658.147	22179.15
658.498	22134.4
658.849	22303.44
659.2	22157.45
659.551	21980.74
659.902	22185.02
660.253	22174.85
660.604	22143.9
660.955	22124.01
661.306	22150
661.656	22116.55
662.007	22131.69
662.358	22240.16
662.708	22126.27
663.059	22094.18
663.409	21997.46
663.76	22281.29
664.11	22143.44
664.461	22184.57
664.811	22162.65
665.161	22129.21
665.511	22127.4
665.862	22146.61
666.212	22164.69
666.562	22198.81
666.912	22172.14
667.262	22143.22
667.612	22062.77
667.962	22117.23
668.312	22140.96
668.662	22237.68
669.011	22089.43
669.361	22101.41
669.711	22026.16
670.06	22059.83
670.41	22037.23
670.76	22008.53
671.109	22079.49
671.459	22056.89
671.808	22038.36
672.157	22042.88
672.507	22005.14
672.856	21844.69
673.205	22088.76
673.554	22073.39
673.904	21923.79
674.253	22018.02
674.602	22074.29
674.951	21621.87
675.3	21561.54
675.649	21894.41
675.998	21862.09
676.346	21904.13
676.695	21942.77
677.044	21679.27
677.393	21890.57
677.741	21837.01
678.09	21762.21
678.438	21706.62
678.787	21721.76
679.135	21851.47
679.484	21771.25
679.832	21627.07
680.181	21572.61
680.529	21638.15
680.877	21524.7
681.225	21532.61
681.573	21723.34
681.922	21490.8
682.27	21553.85
682.618	21443.12
682.966	21322.45
683.314	21484.25
683.661	21361.54
684.009	21347.76
684.357	21168.78
684.705	21205.61
685.053	21186.41
685.4	21082
685.748	21116.58
686.095	21051.27
686.443	20978.05
686.79	20986.86
687.138	20929.69
687.485	20814.21
687.832	20805.4
688.18	20852.18
688.527	20784.83
688.874	20741.9
689.221	20690.83
689.568	20626.87
689.915	20512.98
690.262	20572.64
690.609	20467.56
690.956	20306.43
691.303	20354.56
691.65	20298.29
691.997	20209.26
692.344	20107.11
692.69	20177.62
693.037	20185.3
693.383	20033.44
693.73	20011.3
694.077	19851.75
694.423	19864.41
694.769	19788.48
695.116	19772.88
695.462	19801.81
695.808	19762.94
696.155	19727.91
696.501	19507.13
696.847	19409.28
697.193	19287.93
697.539	19422.16
697.885	19277.08
698.231	19202.5
698.577	19255.61
698.923	19172.22
699.269	19097.65
699.614	18952.79
699.96	19004.54
700.306	18920.7
700.651	18893.59
700.997	18826.69
701.342	18686.58
701.688	18616.98
702.033	18674.83
702.379	18658.11
702.724	18483.88
703.069	18535.4
703.415	18371.79
703.76	18363.2
704.105	18340.38
704.45	18363.66
704.795	18224.9
705.14	18094.51
705.485	18139.48
705.83	17943.55
706.175	18002.08
706.52	17920.96
706.865	17850
707.209	17886.15
707.554	17778.13
707.899	17807.29
708.243	17836.89
708.588	17708.76
708.932	17609.1
709.277	17565.26
709.621	17531.81
709.966	17406.62
710.31	17514.86
710.654	17369.78
710.998	17370.69
711.342	17397.58
711.687	17331.37
712.031	17375.43
712.375	17193.29
712.719	17213.18
713.063	17106.51
713.407	17211.6
713.75	17198.04
714.094	17075.55
714.438	16995.33
714.782	17040.3
715.125	16854.77
715.469	16933.18
715.812	16822.23
716.156	16646.19
716.499	16784.04
716.843	16857.93
717.186	16697.26
717.53	16749.46
717.873	16773.64
718.216	16653.87
718.559	16574.32
718.902	16459.07
719.246	16567.32
719.589	16540.43
719.932	16400.09
720.275	16430.6
720.617	16519.41
720.96	16436.47
721.303	16416.59
721.646	16493.87
721.989	16256.59
722.331	16351.28
722.674	16414.33
723.016	16315.35
723.359	16318.06
723.701	16295.46
724.044	16227.89
724.386	16096.82
724.729	16230.6
725.071	16064.96
725.413	16175.24
725.755	16167.33
726.097	16037.84
726.439	16117.61
726.782	16028.35
727.124	16108.57
727.465	15944.74
727.807	16016.6
728.149	15973.66
728.491	15943.83
728.833	15994.23
729.175	15869.26
729.516	15861.35
729.858	15845.3
730.199	15863.61
730.541	15870.84
730.882	15838.52
731.224	15899.77
731.565	15787.45
731.906	15776.15
732.248	15827.68
732.589	15697.96
732.93	15650.51
733.271	15792.2
733.612	15694.12
733.953	15627.91
734.294	15646.44
734.635	15655.03
734.976	15769.37
735.317	15646.66
735.658	15629.72
735.999	15715.36
736.339	15652.31
736.68	15612.77
737.021	15618.42
737.361	15592.65
737.702	15707
738.042	15597.4
738.383	15518.31
738.723	15682.37
739.063	15623.84
739.404	15705.42
739.744	15606.21
740.084	15577.06
740.424	15624.07
740.764	15559.21
741.104	15580.45
741.444	15615.03
741.784	15550.62
742.124	15671.3
742.464	15599.21
742.804	15636.95
743.143	15524.18
743.483	15621.58
743.823	15502.71
744.162	15640.56
744.502	15647.79
744.841	15558.08
745.181	15718.75
745.52	15636.95
745.86	15712.88
746.199	15714.69
746.538	15675.36
746.877	15750.16
747.216	15805.08
747.556	15757.62
747.895	15847.34
748.234	15863.16
748.573	15807.79
748.911	15976.15
749.25	15961.68
749.589	15976.15
749.928	16048.01
750.267	16117.61
750.605	15987.22
750.944	16071.29
751.283	16231.96
751.621	16257.5
751.96	16268.12
752.298	16245.75
752.636	16369.36
752.975	16370.71
753.313	16373.65
753.651	16491.39
753.989	16462.01
754.327	16508.34
754.666	16572.29
755.004	16663.14
755.342	16762.12
755.679	16899.74
756.017	16793.3
756.355	17106.97
756.693	16966.86
757.031	17140.18
