Data from hue_40_FLMS001491_41.txt Node
Date: Mon Feb 06 15:07:56 GMT 2017
User: dcchb
Spectrometer: FLMS00149
Trigger mode: 0
Integration Time (sec): 2.000000E-2
Scans to average: 10
Electric dark correction enabled: true
Nonlinearity correction enabled: false
Boxcar width: 0
XAxis mode: Wavelengths
Number of Pixels in Spectrum: 2048
>>>>>Begin Spectral Data<<<<<
341.393	-24.26
341.776	-24.26
342.16	-24.26
342.543	-54.77
342.927	-84.83
343.31	-60.42
343.693	-62.91
344.077	-64.04
344.46	-58.16
344.843	-62.46
345.226	-40.54
345.61	-15.23
345.993	-39.63
346.376	0.59
346.759	-7.99
347.142	22.51
347.525	45.11
347.908	61.83
348.291	90.53
348.674	88.95
349.057	101.83
349.44	133.25
349.823	145.9
350.206	169.85
350.588	186.35
350.971	205.11
351.354	232
351.737	244.2
352.119	270.42
352.502	276.74
352.884	272.22
353.267	286.24
353.65	275.84
354.032	297.08
354.414	311.32
354.797	307.48
355.179	333.69
355.562	330.3
355.944	333.92
356.326	334.37
356.709	334.37
357.091	322.39
357.473	333.01
357.855	342.96
358.238	370.75
358.62	351.54
359.002	361.04
359.384	332.34
359.766	337.53
360.148	340.47
360.53	344.31
360.912	327.36
361.294	354.48
361.676	369.4
362.057	341.83
362.439	332.34
362.821	330.75
363.203	343.18
363.584	343.64
363.966	338.66
364.348	338.44
364.729	314.48
365.111	333.24
365.493	335.27
365.874	317.87
366.256	326.46
366.637	317.87
367.019	331.43
367.4	335.5
367.781	340.47
368.163	330.98
368.544	321.26
368.925	325.78
369.306	314.48
369.688	310.19
370.069	320.81
370.45	335.5
370.831	340.92
371.212	330.75
371.593	326.46
371.974	307.93
372.355	334.82
372.736	325.78
373.117	319.91
373.498	319.68
373.879	316.52
374.26	335.27
374.641	306.57
375.021	312.68
375.402	332.79
375.783	307.93
376.163	318.32
376.544	317.42
376.925	323.97
377.305	339.79
377.686	355.61
378.066	328.04
378.447	348.15
378.827	341.6
379.208	325.56
379.588	352.67
379.968	340.02
380.349	331.43
380.729	339.12
381.109	355.61
381.489	341.15
381.87	354.26
382.25	336.63
382.63	344.99
383.01	319.23
383.39	344.76
383.77	346.12
384.15	347.25
384.53	357.87
384.91	344.09
385.29	348.83
385.67	353.35
386.049	350.19
386.429	335.95
386.809	348.83
387.189	354.48
387.568	363.75
387.948	354.03
388.328	367.82
388.707	362.17
389.087	355.39
389.466	358.78
389.846	364.2
390.225	369.17
390.605	369.4
390.984	354.26
391.363	370.53
391.743	375.27
392.122	351.54
392.501	388.83
392.881	357.65
393.26	370.08
393.639	363.3
394.018	365.33
394.397	368.72
394.776	377.31
395.155	385.67
395.534	389.06
395.913	370.08
396.292	392.67
396.671	409.4
397.05	393.58
397.429	383.86
397.808	384.31
398.186	382.28
398.565	383.18
398.944	375.05
399.323	398.77
399.701	398.32
400.08	410.98
400.458	384.76
400.837	392.22
401.215	381.15
401.594	389.28
401.972	398.55
402.351	404.2
402.729	408.72
403.107	403.75
403.486	397.87
403.864	419.57
404.242	427.25
404.62	392.67
404.999	405.55
405.377	423.18
405.755	431.09
406.133	420.7
406.511	415.95
406.889	424.31
407.267	423.41
407.645	436.06
408.023	429.28
408.401	429.28
408.779	432.22
409.156	441.03
409.534	427.25
409.912	450.75
410.29	472.45
410.667	418.66
411.045	444.42
411.422	434.25
411.8	455.72
412.178	468.83
412.555	463.41
412.933	474.48
413.31	443.07
413.687	465.21
414.065	477.87
414.442	474.48
414.819	472.45
415.197	497.76
415.574	514.03
415.951	483.97
416.328	494.59
416.705	475.61
417.082	494.37
417.46	506.34
417.837	498.43
418.214	491.43
418.591	509.73
418.967	519.45
419.344	496.85
419.721	503.4
420.098	526.23
420.475	506.79
420.852	517.87
421.228	512.44
421.605	551.54
421.982	520.81
422.358	537.3
422.735	531.88
423.111	529.39
423.488	536.17
423.864	544.53
424.241	547.25
424.617	549.28
424.994	569.17
425.37	568.71
425.746	555.61
426.123	556.28
426.499	555.38
426.875	576.62
427.251	585.66
427.627	589.05
428.003	570.52
428.379	565.55
428.756	593.12
429.132	599.9
429.507	584.31
429.883	617.07
430.259	593.35
430.635	627.47
431.011	603.74
431.387	644.64
431.763	631.76
432.138	616.62
432.514	627.7
432.89	645.1
433.265	657.53
433.641	644.42
434.016	688.03
434.392	686
434.767	681.48
435.143	644.42
435.518	657.3
435.894	696.85
436.269	705.89
436.644	689.61
437.02	711.08
437.395	683.51
437.77	698.65
438.145	700.24
438.52	708.15
438.895	716.28
439.271	716.73
439.646	728.94
440.021	723.51
440.395	740.23
440.77	730.29
441.145	749.73
441.52	763.74
441.895	759.9
442.27	746.34
442.645	758.54
443.019	766.67
443.394	763.74
443.769	783.17
444.143	744.98
444.518	755.38
444.892	780.01
445.267	788.6
445.641	787.69
446.016	806.9
446.39	815.04
446.764	816.62
447.139	799.22
447.513	794.02
447.887	820.01
448.262	839.44
448.636	812.32
449.01	817.75
449.384	862.04
449.758	833.57
450.132	878.54
450.506	845.99
450.88	851.87
451.254	871.53
451.628	891.64
452.002	874.02
452.376	887.8
452.75	881.25
453.123	897.29
453.497	913.79
453.871	896.16
454.244	931.42
454.618	943.62
454.992	945.65
455.365	919.89
455.739	942.72
456.112	959.89
456.486	988.59
456.859	974.35
457.232	992.66
457.606	1000.79
457.979	1010.28
458.352	1020.45
458.725	1048.93
459.099	1040.34
459.472	1068.36
459.845	1059.1
460.218	1069.94
460.591	1089.83
460.964	1079.89
461.337	1113.56
461.71	1107.23
462.083	1140
462.456	1121.24
462.829	1129.6
463.201	1159.21
463.574	1163.27
463.947	1199.66
464.32	1203.5
464.692	1218.19
465.065	1227.68
465.438	1243.27
465.81	1274.23
466.183	1285.76
466.555	1289.82
466.928	1330.95
467.3	1302.03
467.672	1361.01
468.045	1349.94
468.417	1370.73
468.789	1392.42
469.161	1391.29
469.534	1463.38
469.906	1487.33
470.278	1476.71
470.65	1505.64
471.022	1557.39
471.394	1563.26
471.766	1562.59
472.138	1596.48
472.51	1646.65
472.882	1678.52
473.253	1709.93
473.625	1737.95
473.997	1788.12
474.369	1816.36
474.74	1823.37
475.112	1866.98
475.484	1913.76
475.855	1957.38
476.227	1982.01
476.598	2010.94
476.97	2077.15
477.341	2122.8
477.713	2169.58
478.084	2241.89
478.455	2296.13
478.827	2338.38
479.198	2390.59
479.569	2449.12
479.94	2549.68
480.311	2561.2
480.682	2654.31
481.053	2736.11
481.424	2805.04
481.795	2881.42
482.166	2932.72
482.537	2957.58
482.908	3110.12
483.279	3189.89
483.65	3240.06
484.021	3362.09
484.391	3406.83
484.762	3490.67
485.133	3575.19
485.503	3608.41
485.874	3725.24
486.244	3842.53
486.615	3961.84
486.985	4041.39
487.356	4169.52
487.726	4276.41
488.097	4367.71
488.467	4404.32
488.837	4565.44
489.207	4651.54
489.578	4748.72
489.948	4874.82
490.318	4946
490.688	5077.3
491.058	5202.72
491.428	5328.36
491.798	5406.1
492.168	5597.06
492.538	5595.02
492.908	5757.05
493.278	5838.86
493.648	5934
494.017	6045.18
494.387	6222.58
494.757	6252.63
495.126	6396.58
495.496	6453.53
495.866	6532.85
496.235	6697.37
496.605	6780.3
496.974	6856.68
497.344	6939.17
497.713	7053.52
498.082	7125.15
498.452	7256.22
498.821	7355.43
499.19	7478.59
499.559	7558.81
499.928	7660.28
500.298	7746.15
500.667	7903.21
501.036	7921.06
501.405	8011.23
501.774	8088.06
502.143	8261.84
502.512	8212.35
502.88	8392.69
503.249	8434.5
503.618	8551.78
503.987	8590.65
504.356	8726.92
504.724	8738.89
505.093	8814.15
505.462	8930.98
505.83	8923.52
506.199	9118.09
506.567	9179.33
506.936	9269.5
507.304	9400.12
507.672	9511.98
508.041	9486.67
508.409	9601.7
508.777	9796.49
509.145	9793.78
509.514	9827.45
509.882	9889.6
510.25	10035.13
510.618	10000.78
510.986	10097.5
511.354	10258.85
511.722	10273.32
512.09	10417.49
512.458	10365.52
512.826	10582.01
513.193	10568.22
513.561	10701.1
513.929	10766.19
514.297	10873.3
514.664	10884.6
515.032	10984.03
515.4	11017.25
515.767	11048.89
516.135	11163.01
516.502	11145.16
516.869	11337.02
517.237	11416.56
517.604	11355.55
517.972	11563.23
518.339	11635.54
518.706	11637.58
519.073	11712.38
519.44	11794.63
519.808	12010.22
520.175	11885.93
520.542	12111.46
520.909	12129.99
521.276	12124.34
521.643	12287.05
522.009	12291.57
522.376	12398.46
522.743	12429.19
523.11	12580.6
523.477	12715.06
523.843	12724.55
524.21	12849.97
524.577	13036.63
524.943	13009.29
525.31	13084.99
525.676	13252.45
526.043	13318.89
526.409	13338.77
526.776	13471.88
527.142	13491.31
527.508	13661.25
527.874	13814.24
528.241	13864.18
528.607	13847.01
528.973	13994.35
529.339	13968.81
529.705	14066.89
530.071	14237.73
530.437	14221.46
530.803	14327.22
531.169	14455.58
531.535	14383.72
531.901	14437.5
532.267	14565.63
532.632	14623.26
532.998	14760.88
533.364	14854.89
533.73	14898.51
534.095	14886.53
534.461	14991.16
534.826	15073.42
535.192	15122.23
535.557	15274.54
535.923	15298.95
536.288	15320.42
536.653	15351.15
537.019	15379.85
537.384	15457.59
537.749	15586.85
538.114	15717.47
538.479	15632.72
538.845	15792.72
539.21	15788.2
539.575	15891.7
539.94	15865.94
540.305	16001.3
540.67	16018.7
541.034	16090.79
541.399	16173.73
541.764	16198.13
542.129	16185.48
542.494	16263.89
542.858	16348.19
543.223	16297.79
543.587	16518.12
543.952	16410.11
544.316	16659.36
544.681	16513.83
545.045	16770.32
545.41	16828.4
545.774	16874.5
546.138	16886.02
546.503	16983.42
546.867	16944.55
547.231	17105.45
547.595	17142.74
547.959	17190.2
548.324	17147.49
548.688	17229.52
549.052	17346.35
549.416	17328.27
549.779	17401.27
550.143	17547.93
550.507	17672.22
550.871	17640.81
551.235	17557.42
551.599	17843.97
551.962	17916.05
552.326	17880.35
552.689	17976.84
553.053	17975.71
553.417	17962.61
553.78	18270.4
554.143	18060.68
554.507	18206.67
554.87	18298.87
555.234	18554
555.597	18412.54
555.96	18497.51
556.323	18603.95
556.686	18591.74
557.05	18666.09
557.413	18707.9
557.776	18800.1
558.139	18950.15
558.502	18990.83
558.865	19017.95
559.228	19164.38
559.59	19232.18
559.953	19251.16
560.316	19506.75
560.679	19526.86
561.041	19564.37
561.404	19586.52
561.767	19754.42
562.129	19679.17
562.492	19892.95
562.854	19807.53
563.217	19887.75
563.579	19968.66
563.941	20100.63
564.304	20166.62
564.666	20258.37
565.028	20247.74
565.39	20372.49
565.753	20522.99
566.115	20549.43
566.477	20618.36
566.839	20619.26
567.201	20778.35
567.563	20847.95
567.925	20932.47
568.287	20981.96
568.648	21040.04
569.01	21230.77
569.372	21299.69
569.734	21297.43
570.095	21496.07
570.457	21393.48
570.819	21582.62
571.18	21499.01
571.542	21732.23
571.903	21829.4
572.265	21915.05
572.626	22020.35
572.987	22110.52
573.349	22123.63
573.71	22244.75
574.071	22409.72
574.432	22454.69
574.794	22525.65
575.155	22579.21
575.516	22701.47
575.877	22751.63
576.238	22855.36
576.599	23030.5
576.96	23065.75
577.32	23125.86
577.681	23348
578.042	23492.86
578.403	23595.23
578.763	23686.3
579.124	23773.75
579.485	24033.63
579.845	24087.19
580.206	24143.01
580.566	24445.83
580.927	24435.66
581.287	24736.44
581.648	24673.62
582.008	24977.11
582.368	25018.47
582.728	25166.26
583.089	25329.64
583.449	25413.26
583.809	25635.63
584.169	25919.91
584.529	25946.13
584.889	26407.58
585.249	26332.33
585.609	26306.12
585.969	26800.34
586.329	26809.15
586.688	27127.34
587.048	27192.42
587.408	27285.3
587.768	27521.68
588.127	27698.85
588.487	27872.85
588.846	28116.01
589.206	28246.63
589.565	28409.34
589.925	28759.61
590.284	28789.44
590.643	29007.29
591.003	29356.66
591.362	29576.09
591.721	29708.06
592.08	29940.6
592.44	30165.68
592.799	30333.35
593.158	30428.95
593.517	30616.06
593.876	30912.77
594.235	30930.85
594.593	31213.78
594.952	31372.65
595.311	31492.42
595.67	31736.48
596.029	32059.64
596.387	32335.11
596.746	32428.22
597.104	32454.88
597.463	32663.69
597.822	32904.59
598.18	32933.51
598.538	33249.89
598.897	33416.66
599.255	33433.16
599.613	33987.72
599.972	33959.47
600.33	34175.74
600.688	34113.37
601.046	34480.36
601.404	34677.87
601.762	34683.07
602.12	35062.04
602.478	35163.28
602.836	35251.42
603.194	35170.97
603.552	35454.8
603.91	35488.93
604.268	35950.16
604.625	35901.8
604.983	35977.27
605.341	36081.9
605.698	36400.54
606.056	36509.92
606.413	36570.93
606.771	36774.77
607.128	36885.73
607.485	36905.16
607.843	37033.29
608.2	37324.36
608.557	37511.92
608.914	37430.8
609.272	37693.16
609.629	37986.26
609.986	38152.36
610.343	37984.23
610.7	38303.54
611.057	38321.39
611.414	38474.16
611.771	38614.04
612.127	38795.51
612.484	38789.63
612.841	39020.36
613.198	38889.29
613.554	38964.77
613.911	39284.76
614.267	39343.29
614.624	39280.46
614.98	39352.55
615.337	39651.75
615.693	39589.16
616.05	39644.07
616.406	39881.35
616.762	39841.13
617.118	39892.43
617.475	39909.83
617.831	40233.43
618.187	40218.29
618.543	40315.01
618.899	40683.82
619.255	40468.68
619.611	40549.13
619.967	40909.35
620.323	40859.18
620.678	40724.49
621.034	40681.33
621.39	40685.4
621.746	40764.27
622.101	41314.08
622.457	40942.12
622.812	41171.04
623.168	41230.02
623.523	41342.33
623.879	41448.99
624.234	41109.57
624.589	41501.2
624.945	41446.96
625.3	41570.12
625.655	41497.36
626.01	41587.75
626.365	41667.52
626.72	41650.8
627.075	41550.24
627.43	41603.12
627.785	41658.71
628.14	41699.38
628.495	41708.42
628.85	41489.9
629.205	41618.71
629.559	41781.64
629.914	41812.83
630.269	41845.37
630.623	41698.93
630.978	41728.31
631.332	42020.96
631.687	41899.6
632.041	41738.03
632.396	41793.62
632.75	41693.73
633.104	41790.68
633.459	41588.88
633.813	41754.3
634.167	41598.37
634.521	41594.75
634.875	41771.7
635.229	41622.32
635.583	41468.2
635.937	41516.79
636.291	41371.71
636.645	41560.4
636.999	41544.59
637.352	41580.97
637.706	41414.87
638.06	41582.1
638.413	41419.17
638.767	41347.75
639.121	41495.32
639.474	41156.57
639.828	41314.99
640.181	41152.96
640.534	41388.21
640.888	41269.34
641.241	41113.18
641.594	41189.57
641.947	41271.6
642.301	41184.6
642.654	41232.73
643.007	41213.97
643.36	41174.2
643.713	41034.99
644.066	41266.63
644.419	41045.84
644.771	40868.45
645.124	40390.94
645.477	40287.44
645.83	40168.12
646.182	39976.94
646.535	40043.61
646.888	39991.41
647.24	39693.11
647.593	40002.48
647.945	39932.88
648.298	39711.87
648.65	39747.34
649.002	39626.67
649.355	39683.84
649.707	39698.08
650.059	39795.25
650.411	40237.5
650.763	40237.05
651.115	40682.91
651.467	40477.95
651.819	40596.81
652.171	40261.23
652.523	40287.22
652.875	40324.73
653.227	39997.73
653.578	40566.08
653.93	40390.04
654.282	40216.26
654.633	40235.02
654.985	40101.23
655.337	40217.84
655.688	40174.68
656.039	40278.63
656.391	40110.95
656.742	40051.74
657.094	40127.9
657.445	40165.41
657.796	40044.29
658.147	39995.02
658.498	40053.1
658.849	40030.28
659.2	39960.22
659.551	40035.25
659.902	40138.29
660.253	40016.26
660.604	40172.64
660.955	39857.62
661.306	40149.59
661.656	40008.35
662.007	40115.02
662.358	39896.72
662.708	39965.19
663.059	39865.99
663.409	39751.19
663.76	39916.61
664.11	39825.76
664.461	40005.42
664.811	39941.01
665.161	39873.67
665.511	39873.22
665.862	39910.96
666.212	40003.38
666.562	39967.9
666.912	39926.32
667.262	39777.85
667.612	39810.17
667.962	39802.94
668.312	39846.33
668.662	39993.67
669.011	39800.68
669.361	39768.36
669.711	39693.33
670.06	39658.08
670.41	39600.23
670.76	39448.14
671.109	39682.71
671.459	39567.24
671.808	39487.92
672.157	39682.49
672.507	39387.58
672.856	39452.21
673.205	39417.64
673.554	39605.65
673.904	39265.55
674.253	39640.91
674.602	39514.13
674.951	38894.94
675.3	38735.85
675.649	39377.18
675.998	39234.59
676.346	39198.21
676.695	39409.73
677.044	39189.39
677.393	39326.79
677.741	39237.3
678.09	39205.89
678.438	39094.93
678.787	39291.09
679.135	39176.96
679.484	38979.46
679.832	39157.76
680.181	38980.13
680.529	38932
680.877	39009.29
681.225	38854.49
681.573	39088.38
681.922	38885.45
682.27	38679.12
682.618	38739.91
682.966	38603.19
683.314	38770.65
683.661	38463.08
684.009	38450.2
684.357	38303.31
684.705	38354.39
685.053	38337.89
685.4	38252.92
685.748	38030.1
686.095	38019.03
686.443	37971.57
686.79	37990.55
687.138	38011.57
687.485	37934.96
687.832	37903.55
688.18	37899.71
688.527	37690.68
688.874	37590.57
689.221	37673.27
689.568	37551.24
689.915	37491.58
690.262	37322.55
690.609	37201.65
690.956	37032.16
691.303	37057.92
691.65	36883.47
691.997	36962.79
692.344	36809.34
692.69	36834.65
693.037	36743.81
693.383	36469.92
693.73	36487.09
694.077	36281.45
694.423	36389.47
694.769	36114.67
695.116	36147.89
695.462	36130.94
695.808	35891.85
696.155	36050.04
696.501	35809.6
696.847	35757.39
697.193	35586.78
697.539	35669.71
697.885	35395.37
698.231	35339.55
698.577	35333.22
698.923	35305.2
699.269	35118.31
699.614	34914.7
699.96	34856.17
700.306	35037.41
700.651	34735.27
700.997	34750.87
701.342	34722.84
701.688	34578.22
702.033	34512.23
702.379	34406.92
702.724	34338
703.069	34354.04
703.415	33925.58
703.76	33980.94
704.105	33950.89
704.45	33858.46
704.795	33642.65
705.14	33615.3
705.485	33650.33
705.83	33404.91
706.175	33523.1
706.52	33392.94
706.865	33331.02
707.209	33145.48
707.554	33188.65
707.899	33106.16
708.243	33028.88
708.588	32933.51
708.932	32735.1
709.277	32808.54
709.621	32783.01
709.966	32541.66
710.31	32711.37
710.654	32248.33
710.998	32435.45
711.342	32495.11
711.687	32409.68
712.031	32127.88
712.375	32108.45
712.719	32212.4
713.063	32061.9
713.407	32116.36
713.75	31927.89
714.094	31835.01
714.438	31762.7
714.782	31803.37
715.125	31635.47
715.469	31608.12
715.812	31480.9
716.156	31336.94
716.499	31320.45
716.843	31410.61
717.186	31360.22
717.53	31350.73
717.873	31382.82
718.216	31160.45
718.559	31135.14
718.902	30961.81
719.246	31033.45
719.589	30856.96
719.932	30848.37
720.275	30801.82
720.617	30684.53
720.96	30691.09
721.303	30652.22
721.646	30622.61
721.989	30415.84
722.331	30562.73
722.674	30389.17
723.016	30480.24
723.359	30364.31
723.701	30418.1
724.044	30145.56
724.386	30066.92
724.729	30238.67
725.071	29952.8
725.413	30066.02
725.755	30115.96
726.097	29934.27
726.439	29779.02
726.782	29725.91
727.124	29874.38
727.465	29791.45
727.807	29799.36
728.149	29743.31
728.491	29622.87
728.833	29721.39
729.175	29574.05
729.516	29518.91
729.858	29405.02
730.199	29478.46
730.541	29433.27
730.882	29362.98
731.224	29394.17
731.565	29217.23
731.906	29165.02
732.248	29147.4
732.589	29090.22
732.93	28968.87
733.271	28976.78
733.612	28973.39
733.953	28925.93
734.294	28841.42
734.635	28878.7
734.976	28820.85
735.317	28627.41
735.658	28649.78
735.999	28615.43
736.339	28602.1
736.68	28606.17
737.021	28420.18
737.361	28388.55
737.702	28530.69
738.042	28301.54
738.383	28486.62
738.723	28500.86
739.063	28272.39
739.404	28279.62
739.744	28232.62
740.084	28200.98
740.424	28175.22
740.764	28057.93
741.104	28203.92
741.444	27920.76
741.784	27872.18
742.124	27869.01
742.464	27912.85
742.804	27974.77
743.143	27770.03
743.483	27793.99
743.823	27641.45
744.162	27729.36
744.502	27564.61
744.841	27463.15
745.181	27649.13
745.52	27536.37
745.86	27519.87
746.199	27507.21
746.538	27405.3
746.877	27526.65
747.216	27425.63
747.556	27279.42
747.895	27309.71
748.234	27215.47
748.573	27175.25
748.911	27135.7
749.25	27149.26
749.589	26972.54
749.928	26949.26
750.267	26966.21
750.605	26825.2
750.944	26889.83
751.283	26735.03
751.621	26805.76
751.96	26637.41
752.298	26478.77
752.636	26653.23
752.975	26561.02
753.313	26484.64
753.651	26534.58
753.989	26284.65
754.327	26253.46
754.666	26079.68
755.004	26224.31
755.342	26276.96
755.679	26094.82
756.017	26081.04
756.355	26040.13
756.693	25826.58
757.031	25952.23
