Data from hue_330_FLMS001491_61.txt Node
Date: Mon Feb 06 15:45:43 GMT 2017
User: dcchb
Spectrometer: FLMS00149
Trigger mode: 0
Integration Time (sec): 2.000000E-2
Scans to average: 10
Electric dark correction enabled: true
Nonlinearity correction enabled: false
Boxcar width: 0
XAxis mode: Wavelengths
Number of Pixels in Spectrum: 2048
>>>>>Begin Spectral Data<<<<<
341.393	-29.63
341.776	-29.63
342.16	-29.63
342.543	-52
342.927	-68.28
343.31	-68.5
343.693	-52.68
344.077	-62.85
344.46	-60.14
344.843	-66.47
345.226	-42.29
345.61	-34.15
345.993	-25.79
346.376	8.56
346.759	5.62
347.142	39.97
347.525	25.73
347.908	54.66
348.291	60.08
348.674	111.16
349.057	107.09
349.44	105.05
349.823	150.7
350.206	165.17
350.588	189.8
350.971	203.13
351.354	216.92
351.737	249.46
352.119	246.07
352.502	262.11
352.884	295.33
353.267	295.33
353.65	304.37
354.032	282.22
354.414	306.86
354.797	319.29
355.179	319.96
355.562	327.42
355.944	330.36
356.326	335.1
356.709	331.49
357.091	343.92
357.473	356.12
357.855	331.04
358.238	348.66
358.62	330.58
359.002	344.14
359.384	340.3
359.766	341.43
360.148	350.25
360.53	346.18
360.912	342.56
361.294	331.94
361.676	342.56
362.057	346.86
362.439	342.11
362.821	326.52
363.203	309.57
363.584	322.45
363.966	318.38
364.348	317.48
364.729	317.03
365.111	309.57
365.493	316.35
365.874	333.3
366.256	322.22
366.637	322.45
367.019	318.83
367.4	324.48
367.781	328.78
368.163	335.33
368.544	291.72
368.925	316.8
369.306	324.26
369.688	317.03
370.069	310.47
370.45	312.96
370.831	288.55
371.212	295.78
371.593	296.24
371.974	312.51
372.355	317.25
372.736	312.51
373.117	309.57
373.498	295.33
373.879	297.14
374.26	295.56
374.641	344.82
375.021	309.34
375.402	299.62
375.783	339.85
376.163	310.92
376.544	313.41
376.925	311.6
377.305	323.81
377.686	315.22
378.066	336.69
378.447	334.88
378.827	337.14
379.208	324.48
379.588	319.74
379.968	329
380.349	321.32
380.729	321.09
381.109	338.95
381.489	340.08
381.87	330.13
382.25	347.08
382.63	330.36
383.01	337.36
383.39	331.26
383.77	330.36
384.15	347.99
384.53	329.68
384.91	326.97
385.29	325.61
385.67	339.17
386.049	352.05
386.429	330.58
386.809	340.08
387.189	357.25
387.568	321.77
387.948	354.99
388.328	340.3
388.707	351.6
389.087	351.6
389.466	326.74
389.846	359.06
390.225	359.28
390.605	352.5
390.984	354.09
391.363	367.87
391.743	352.05
392.122	363.35
392.501	355.89
392.881	363.13
393.26	360.41
393.639	385.72
394.018	362
394.397	373.07
394.776	381.88
395.155	367.87
395.534	358.61
395.913	371.71
396.292	372.84
396.671	393.41
397.05	393.18
397.429	404.71
397.808	390.92
398.186	378.49
398.565	377.36
398.944	374.65
399.323	390.92
399.701	371.04
400.08	395.44
400.458	387.53
400.837	391.15
401.215	399.28
401.594	391.15
401.972	393.18
402.351	394.76
402.729	392.28
403.107	391.6
403.486	414.42
403.864	413.97
404.242	415.1
404.62	409.45
404.999	413.07
405.377	429.56
405.755	414.2
406.133	417.36
406.511	416.01
406.889	413.29
407.267	427.08
407.645	454.88
408.023	438.83
408.401	434.76
408.779	445.38
409.156	449.9
409.534	466.17
409.912	453.75
410.29	469.34
410.667	468.21
411.045	482.9
411.422	446.29
411.8	471.15
412.178	470.02
412.555	478.15
412.933	470.47
413.31	493.97
413.687	518.38
414.065	516.79
414.442	525.38
414.819	539.17
415.197	525.16
415.574	540.3
415.951	532.39
416.328	533.97
416.705	544.59
417.082	569.9
417.46	549.79
417.837	565.15
418.214	586.85
418.591	552.73
418.967	582.33
419.344	568.77
419.721	586.17
420.098	587.3
420.475	584.14
420.852	621.65
421.228	621.65
421.605	612.39
421.982	620.97
422.358	627.53
422.735	629.79
423.111	627.75
423.488	638.83
423.864	633.63
424.241	668.88
424.617	644.25
424.994	660.97
425.37	655.32
425.746	677.92
426.123	672.27
426.499	674.08
426.875	698.94
427.251	683.34
427.627	700.52
428.003	694.19
428.379	709.11
428.756	728.54
429.132	724.7
429.507	766.51
429.883	748.65
430.259	768.99
430.635	765.6
431.011	762.66
431.387	773.74
431.763	772.38
432.138	780.29
432.514	793.62
432.89	804.02
433.265	808.76
433.641	809.44
434.016	789.78
434.392	849.21
434.767	861.64
435.143	818.71
435.518	875.2
435.894	886.5
436.269	874.75
436.644	906.16
437.02	870.01
437.395	892.83
437.77	885.37
438.145	896.45
438.52	898.48
438.895	930.57
439.271	903.9
439.646	923.11
440.021	950.91
440.395	953.17
440.77	945.03
441.145	951.81
441.52	954.07
441.895	983
442.27	989.55
442.645	956.1
443.019	985.03
443.394	981.64
443.769	1013.05
444.143	998.82
444.518	996.1
444.892	1024.8
445.267	1013.05
445.641	1025.48
446.016	1010.57
446.39	1039.72
446.764	1037.01
447.139	1032.71
447.513	1042.43
447.887	1046.5
448.262	1036.78
448.636	1067.51
449.01	1051.02
449.384	1046.27
449.758	1073.84
450.132	1094.63
450.506	1096.21
450.88	1076.78
451.254	1083.56
451.628	1094.86
452.002	1081.53
452.376	1109.77
452.75	1090.56
453.123	1119.04
453.497	1124.24
453.871	1129.43
454.244	1142.31
454.618	1113.16
454.992	1166.72
455.365	1157.91
455.739	1194.52
456.112	1165.14
456.486	1168.3
456.859	1197.45
457.232	1225.7
457.606	1191.8
457.979	1228.87
458.352	1234.97
458.725	1230
459.099	1235.42
459.472	1242.65
459.845	1276.32
460.218	1277.9
460.591	1286.27
460.964	1298.69
461.337	1298.92
461.71	1308.86
462.083	1330.56
462.456	1352.48
462.829	1341.63
463.201	1337.11
463.574	1349.77
463.947	1355.42
464.32	1411.23
464.692	1401.06
465.065	1400.84
465.438	1400.61
465.81	1442.65
466.183	1449.65
466.555	1460.05
466.928	1468.18
467.3	1484
467.672	1482.87
468.045	1513.83
468.417	1520.38
468.789	1488.97
469.161	1550.44
469.534	1534.62
469.906	1576.43
470.278	1610.55
470.65	1603.77
471.022	1655.75
471.394	1660.27
471.766	1644.67
472.138	1673.83
472.51	1712.02
472.882	1723.09
473.253	1723.99
473.625	1759.25
473.997	1748.17
474.369	1757.21
474.74	1769.19
475.112	1804.9
475.484	1852.13
475.855	1866.82
476.227	1821.39
476.598	1918.79
476.97	1950.88
477.341	1938.45
477.713	1952.24
478.084	1992.46
478.455	2040.14
478.827	2048.28
479.198	2074.72
479.569	2117.88
479.94	2161.04
480.311	2131.89
480.682	2161.04
481.053	2227.48
481.424	2225
481.795	2282.62
482.166	2321.04
482.537	2319.68
482.908	2337.99
483.279	2367.59
483.65	2378.67
484.021	2433.81
484.391	2471.09
484.762	2442.62
485.133	2473.13
485.503	2530.98
485.874	2550.87
486.244	2565.33
486.615	2627.25
486.985	2622.05
487.356	2679.22
487.726	2691.43
488.097	2757.19
488.467	2742.72
488.837	2781.14
489.207	2829.73
489.578	2816.17
489.948	2861.37
490.318	2901.59
490.688	2903.62
491.058	2982.72
491.428	2968.03
491.798	2970.97
492.168	3074.24
492.538	3038.08
492.908	3083.96
493.278	3109.95
493.648	3143.62
494.017	3166.22
494.387	3226.55
494.757	3197.18
495.126	3232.2
495.496	3207.57
495.866	3258.19
496.235	3281.69
496.605	3278.3
496.974	3298.19
497.344	3329.83
497.713	3324.86
498.082	3385.87
498.452	3407.34
498.821	3431.97
499.19	3422.48
499.559	3458.86
499.928	3457.51
500.298	3419.32
500.667	3509.48
501.036	3499.54
501.405	3482.82
501.774	3547.68
502.143	3534.79
502.512	3567.34
502.88	3610.05
503.249	3567.79
503.618	3624.74
503.987	3609.37
504.356	3659.31
504.724	3642.59
505.093	3626.32
505.462	3661.12
505.83	3667.22
506.199	3714.22
506.567	3707.22
506.936	3705.19
507.304	3748.12
507.672	3744.05
508.041	3764.62
508.409	3789.25
508.777	3833.09
509.145	3837.16
509.514	3853.66
509.882	3807.56
510.25	3829.48
510.618	3825.86
510.986	3857.95
511.354	3895.01
511.722	3926.65
512.09	3968
512.458	3950.38
512.826	3929.59
513.193	3925.07
513.561	3953.77
513.929	4002.35
514.297	3981.56
514.664	3995.35
515.032	3974.56
515.4	4038.74
515.767	4041.22
516.135	4072.86
516.502	4039.19
516.869	4080.32
517.237	4074.21
517.604	4072.86
517.972	4080.99
518.339	4130.03
518.706	4132.52
519.073	4156.92
519.44	4064.95
519.808	4177.49
520.175	4165.96
520.542	4184.04
520.909	4199.41
521.276	4208.67
521.643	4221.1
522.009	4225.85
522.376	4274.21
522.743	4256.13
523.11	4305.17
523.477	4313.76
523.843	4343.13
524.21	4363.47
524.577	4354.21
524.943	4350.37
525.31	4421.1
525.676	4475.56
526.043	4467.88
526.409	4490.93
526.776	4465.39
527.142	4504.26
527.508	4520.98
527.874	4590.81
528.241	4560.76
528.607	4600.75
528.973	4635.56
529.339	4633.75
529.705	4624.93
530.071	4699.74
530.437	4689.11
530.803	4733.18
531.169	4742.67
531.535	4767.53
531.901	4784.25
532.267	4782.67
532.632	4823.12
532.998	4828.77
533.364	4834.42
533.73	4854.76
534.095	4900.63
534.461	4919.84
534.826	4937.02
535.192	4954.64
535.557	4948.77
535.923	5002.1
536.288	4992.38
536.653	4988.09
537.019	5010.46
537.384	5006.17
537.749	5048.2
538.114	5068.77
538.479	5095.66
538.845	5137.24
539.21	5132.04
539.575	5172.04
539.94	5190.34
540.305	5227.63
540.67	5245.48
541.034	5247.07
541.399	5282.77
541.764	5255.43
542.129	5315.99
542.494	5330.91
542.858	5348.08
543.223	5372.26
543.587	5361.64
543.952	5403.67
544.316	5414.74
544.681	5438.02
545.045	5428.76
545.41	5504.23
545.774	5541.97
546.138	5520.73
546.503	5515.31
546.867	5570.45
547.231	5651.35
547.595	5602.54
547.959	5654.29
548.324	5619.49
548.688	5625.36
549.052	5692.7
549.416	5713.27
549.779	5731.35
550.143	5720.73
550.507	5802.08
550.871	5769.76
551.235	5802.08
551.599	5853.38
551.962	5841.63
552.326	5858.35
552.689	5898.12
553.053	5868.52
553.417	5916.2
553.78	5945.13
554.143	5972.92
554.507	5945.8
554.87	5951.91
555.234	6002.53
555.597	6018.8
555.96	6035.75
556.323	6061.96
556.686	6014.05
557.05	6089.76
557.413	6087.72
557.776	6067.83
558.139	6121.39
558.502	6159.58
558.865	6134.5
559.228	6191.45
559.59	6236.42
559.953	6209.07
560.316	6322.29
560.679	6274.16
561.041	6340.37
561.404	6286.36
561.767	6372.23
562.129	6327.49
562.492	6402.29
562.854	6355.51
563.217	6385.57
563.579	6422.18
563.941	6450.2
564.304	6407.26
564.666	6471.44
565.028	6516.18
565.39	6554.83
565.753	6550.76
566.115	6541.72
566.477	6589.18
566.839	6594.37
567.201	6639.8
567.563	6626.69
567.925	6705.78
568.287	6675.28
568.648	6739.91
569.01	6757.08
569.372	6793.24
569.734	6771.32
570.095	6861.94
570.457	6910.3
570.819	6882.05
571.18	6905.78
571.542	6954.82
571.903	6970.86
572.265	6995.04
572.626	7054.25
572.987	7087.24
573.349	7115.49
573.71	7232.1
574.071	7219.89
574.432	7277.07
574.794	7319.33
575.155	7384.18
575.516	7386.44
575.877	7465.31
576.238	7519.1
576.599	7571.07
576.96	7615.36
577.32	7706.89
577.681	7790.28
578.042	7894.91
578.403	7869.6
578.763	8006.54
579.124	8158.85
579.485	8218.74
579.845	8280.66
580.206	8425.74
580.566	8468
580.927	8527.43
581.287	8727.65
581.648	8794.99
582.008	9034.99
582.368	9104.59
582.728	9223.68
583.089	9373.96
583.449	9520.17
583.809	9667.51
584.169	9883.33
584.529	9978.69
584.889	10222.53
585.249	10380.94
585.609	10579.13
585.969	10789.07
586.329	10916.29
586.688	11167.81
587.048	11255.27
587.408	11581.36
587.768	11744.97
588.127	11946.1
588.487	12173.44
588.846	12516.7
589.206	12606.19
589.565	12904.72
589.925	13299.96
590.284	13403.46
590.643	13691.59
591.003	13933.16
591.362	14286.38
591.721	14462.87
592.08	14755.29
592.44	15022.18
592.799	15332
593.158	15531.77
593.517	15771.53
593.876	16125.42
594.235	16336.49
594.593	16661.45
594.952	16963.37
595.311	17214.21
595.67	17559.74
596.029	17917.47
596.387	18239.49
596.746	18502.76
597.104	18786.6
597.463	19017.78
597.822	19401.95
598.18	19608.95
598.538	19838.55
598.897	20337.06
599.255	20413.67
599.613	20889.59
599.972	21126.2
600.33	21429.92
600.688	21643.7
601.046	22011.6
601.404	22331.14
601.762	22586.72
602.12	22881.86
602.478	23140.61
602.836	23447.94
603.194	23501.73
603.552	23824.66
603.91	23975.39
604.268	24412.21
604.625	24542.83
604.983	24939.88
605.341	24903.72
605.698	25468
606.056	25660.99
606.413	25814.43
606.771	26072.05
607.128	26357.02
607.485	26422.55
607.843	26778.93
608.2	27132.14
608.557	27358.12
608.914	27347.05
609.272	27812.57
609.629	27997.2
609.986	28314.93
610.343	28480.13
610.7	28772.32
611.057	28978.42
611.414	29151.52
611.771	29264.74
612.127	29546.54
612.484	29733.43
612.841	29924.61
613.198	29997.6
613.554	30223.36
613.911	30647.98
614.267	30687.98
614.624	30654.31
614.98	31050.91
615.337	31320.96
615.693	31388.52
616.05	31521.4
616.406	31765.92
616.762	31741.51
617.118	31899.92
617.475	32037.1
617.831	32230.76
618.187	32527.48
618.543	32553.24
618.899	32867.81
619.255	32839.11
619.611	33037.97
619.967	33195.03
620.323	33418.53
620.678	33360
621.034	33343.28
621.39	33438.19
621.746	33566.32
622.101	34059.42
622.457	33868.23
622.812	34008.8
623.168	34246.98
623.523	34255.57
623.879	34478.16
624.234	34305.74
624.589	34503.47
624.945	34572.85
625.3	34723.58
625.655	34660.08
626.01	34847.19
626.365	34954.53
626.72	34914.08
627.075	34906.4
627.43	35049.22
627.785	35028.2
628.14	35152.04
628.495	35337.57
628.85	35371.7
629.205	35254.86
629.559	35540.05
629.914	35389.55
630.269	35417.12
630.623	35440.85
630.978	35365.82
631.332	35618.92
631.687	35730.78
632.041	35604.46
632.396	35658.92
632.75	35541.86
633.104	35811.69
633.459	35479.94
633.813	35674.97
634.167	35604.46
634.521	35686.72
634.875	35766.71
635.229	35733.04
635.583	35564.46
635.937	35730.33
636.291	35685.81
636.645	35726.49
636.999	35600.17
637.352	35849.88
637.706	35698.24
638.06	35770.33
638.413	35767.84
638.767	35708.64
639.121	35732.59
639.474	35619.15
639.828	35644.68
640.181	35834.28
640.534	35776.21
640.888	35629.09
641.241	35589.54
641.594	35587.96
641.947	35782.31
642.301	35540.51
642.654	35716.09
643.007	35658.47
643.36	35511.58
643.713	35590.22
644.066	35787.28
644.419	35520.17
644.771	35291.25
645.124	34996.57
645.477	34993.18
645.83	34895.1
646.182	34687.2
646.535	34678.83
646.888	34736.46
647.24	34592.96
647.593	34787.53
647.945	34562.23
648.298	34520.87
648.65	34453.08
649.002	34511.38
649.355	34507.76
649.707	34405.85
650.059	34678.16
650.411	35061.87
650.763	35075.21
651.115	35358.14
651.467	35300.51
651.819	35293.51
652.171	35292.6
652.523	35288.31
652.875	35268.87
653.227	35014.64
653.578	35328.99
653.93	35135.09
654.282	35060.97
654.633	35049.9
654.985	35109.33
655.337	35147.3
655.688	35070.46
656.039	35192.49
656.391	34950.01
656.742	34988.2
657.094	35127.18
657.445	34988.2
657.796	35161.53
658.147	34868.66
658.498	34930.58
658.849	35118.82
659.2	35020.07
659.551	34945.04
659.902	35105.49
660.253	34893.97
660.604	35095.77
660.955	34913.4
661.306	34923.8
661.656	34904.82
662.007	34919.96
662.358	34849
662.708	34884.48
663.059	34941.88
663.409	34736.01
663.76	34975.78
664.11	34921.77
664.461	35020.97
664.811	34892.39
665.161	34819.62
665.511	34813.29
665.862	34865.5
666.212	34990.01
666.562	34950.24
666.912	34964.48
667.262	34741.66
667.612	34922.67
667.962	34759.74
668.312	34665.5
668.662	34986.62
669.011	34964.48
669.361	34799.73
669.711	34725.16
670.06	34734.65
670.41	34650.36
670.76	34662.34
671.109	34890.35
671.459	34871.82
671.808	34783.92
672.157	34790.24
672.507	34541.66
672.856	34713.64
673.205	34591.83
673.554	34759.51
673.904	34606.97
674.253	34724.03
674.602	34643.58
674.951	34127.21
675.3	33969.7
675.649	34424.83
675.998	34523.58
676.346	34458.95
676.695	34549.12
677.044	34319.97
677.393	34351.84
677.741	34518.61
678.09	34461.66
678.438	34270.26
678.787	34409.24
679.135	34411.27
679.484	34177.15
679.832	34270.94
680.181	34141.22
680.529	34153.88
680.877	34212.41
681.225	34029.36
681.573	34344.83
681.922	34025.52
682.27	34000.66
682.618	34111.39
682.966	33865.3
683.314	33886.99
683.661	33788.46
684.009	33543.72
684.357	33593.21
684.705	33575.81
685.053	33595.92
685.4	33570.84
685.748	33293.33
686.095	33508.47
686.443	33345.54
686.79	33319.55
687.138	33225.76
687.485	33229.38
687.832	33217.4
688.18	33254.46
688.527	33082.72
688.874	32953.46
689.221	32896.96
689.568	32781.71
689.915	32819.67
690.262	32870.75
690.609	32721.15
690.956	32621.26
691.303	32619.91
691.65	32509.17
691.997	32489.06
692.344	32419.68
692.69	32284.55
693.037	32289.97
693.383	31963.43
693.73	32070.77
694.077	32093.37
694.423	32047.04
694.769	31944.22
695.116	31765.01
695.462	31733.37
695.808	31638.69
696.155	31715.52
696.501	31351.01
696.847	31489.31
697.193	31235.76
697.539	31331.13
697.885	31213.16
698.231	31017.46
698.577	31076.67
698.923	30977.69
699.269	30781.99
699.614	30778.15
699.96	30702.44
700.306	30725.94
700.651	30604.59
700.997	30389.91
701.342	30363.47
701.688	30294.32
702.033	30356.69
702.379	30273.07
702.724	30110.59
703.069	30243.7
703.415	29841.45
703.76	29871.5
704.105	29933.2
704.45	29929.35
704.795	29625.18
705.14	29549.03
705.485	29537.27
705.83	29414.79
706.175	29398.07
706.52	29368.69
706.865	29199.2
707.209	29232.42
707.554	29098.87
707.899	29195.59
708.243	29046.89
708.588	28921.47
708.932	28811.42
709.277	28751.08
709.621	28709.5
709.966	28516.28
710.31	28813
710.654	28509.5
710.998	28481.48
711.342	28461.14
711.687	28373.01
712.031	28228.61
712.375	28270.87
712.719	28257.31
713.063	28254.37
713.407	28237.65
713.75	28040.82
714.094	28030.42
714.438	27902.97
714.782	28017.54
715.125	27842.4
715.469	27809.41
715.812	27724.21
716.156	27614.39
716.499	27584.33
716.843	27773.48
717.186	27535.07
717.53	27498.46
717.873	27619.13
718.216	27540.72
718.559	27375.52
718.902	27148.86
719.246	27285.13
719.589	27141.18
719.932	27069.54
720.275	27069.54
720.617	27008.53
720.96	26942.77
721.303	27002.65
721.646	26928.76
721.989	26776.44
722.331	26813.96
722.674	26749.55
723.016	26815.09
723.359	26740.51
723.701	26692.83
724.044	26510.01
724.386	26443.12
724.729	26702.77
725.071	26624.36
725.413	26559.05
725.755	26444.25
726.097	26290.81
726.439	26319.05
726.782	26203.35
727.124	26468.2
727.465	26206.06
727.807	26181.88
728.149	26221.88
728.491	26036.58
728.833	26042.22
729.175	25929.01
729.516	25940.08
729.858	25843.59
730.199	25966.07
730.541	25860.31
730.882	25728.79
731.224	25848.56
731.565	25644.5
731.906	25750.71
732.248	25671.16
732.589	25696.92
732.93	25522.69
733.271	25628.22
733.612	25525.18
733.953	25512.52
734.294	25404.95
734.635	25391.62
734.976	25520.2
735.317	25321.11
735.658	25264.39
735.999	25294.22
736.339	25151.4
736.68	25379.64
737.021	25207.22
737.361	25105.07
737.702	25107.56
738.042	25116.83
738.383	24998.64
738.723	25066.43
739.063	24941.46
739.404	25040.44
739.744	24907.57
740.084	24858.08
740.424	24850.62
740.764	24721.58
741.104	24875.25
741.444	24698.31
741.784	24630.74
742.124	24695.14
742.464	24633
742.804	24565.88
743.143	24558.65
743.483	24562.04
743.823	24348.48
744.162	24450.85
744.502	24483.17
744.841	24310.52
745.181	24369.5
745.52	24150.3
745.86	24331.76
746.199	24271.42
746.538	24134.48
746.877	24253.12
747.216	24228.71
747.556	24171.31
747.895	24015.61
748.234	24000.47
748.573	23978.55
748.911	23970.41
749.25	23913.92
749.589	23898.33
749.928	23849.51
750.267	23777.2
750.605	23777.43
750.944	23721.38
751.283	23560.48
751.621	23736.07
751.96	23500.14
752.298	23460.6
752.636	23559.13
752.975	23362.3
753.313	23384.67
753.651	23405.01
753.989	23179.93
754.327	23255.86
754.666	23105.13
755.004	23206.37
755.342	23122.75
755.679	23141.06
756.017	22987.16
756.355	23087.73
756.693	22901.74
757.031	22901.29
757.368	22865.59
757.706	22714.18
758.044	22705.14
758.381	22669.43
758.719	22582.2
759.056	22556.44
759.394	22493.62
759.731	22263.34
760.068	22324.58
760.405	22223.57
