Data from hue_320_FLMS001491_31.txt Node
Date: Mon Feb 06 15:47:06 GMT 2017
User: dcchb
Spectrometer: FLMS00149
Trigger mode: 0
Integration Time (sec): 2.000000E-2
Scans to average: 10
Electric dark correction enabled: true
Nonlinearity correction enabled: false
Boxcar width: 0
XAxis mode: Wavelengths
Number of Pixels in Spectrum: 2048
>>>>>Begin Spectral Data<<<<<
341.393	-14.08
341.776	-14.08
342.16	-14.08
342.543	-84.36
342.927	-71.93
343.31	-63.12
343.693	-72.84
344.077	-57.92
344.46	-65.83
344.843	-34.19
345.226	-54.08
345.61	-17.7
345.993	-15.44
346.376	-2.33
346.759	-9.11
347.142	28.4
347.525	39.02
347.908	56.65
348.291	59.36
348.674	92.58
349.057	116.54
349.44	113.15
349.823	147.72
350.206	168.06
350.588	189.75
350.971	200.6
351.354	208.51
351.737	239.7
352.119	238.12
352.502	255.52
352.884	253.26
353.267	267.04
353.65	283.76
354.032	314.5
354.414	296.42
354.797	310.88
355.179	320.15
355.562	340.49
355.944	347.49
356.326	339.81
356.709	349.75
357.091	332.58
357.473	337.55
357.855	349.98
358.238	348.17
358.62	357.21
359.002	335.29
359.384	328.73
359.766	346.13
360.148	354.27
360.53	343.2
360.912	331.45
361.294	349.98
361.676	338.23
362.057	328.51
362.439	323.54
362.821	327.83
363.203	321.05
363.584	340.71
363.966	311.79
364.348	330.09
364.729	313.14
365.111	321.73
365.493	312.92
365.874	311.56
366.256	322.18
366.637	314.05
367.019	308.62
367.4	305.46
367.781	326.93
368.163	315.85
368.544	330.09
368.925	303.42
369.306	309.98
369.688	318.57
370.069	315.63
370.45	332.12
370.831	309.98
371.212	328.73
371.593	314.95
371.974	306.14
372.355	328.51
372.736	305.23
373.117	302.07
373.498	291.22
373.879	292.13
374.26	323.08
374.641	310.2
375.021	307.72
375.402	334.38
375.783	316.08
376.163	304.1
376.544	339.13
376.925	314.5
377.305	321.05
377.686	306.59
378.066	322.18
378.447	330.54
378.827	305.23
379.208	330.09
379.588	310.66
379.968	322.41
380.349	338
380.729	351.56
381.109	342.52
381.489	312.92
381.87	340.26
382.25	335.97
382.63	333.48
383.01	341.39
383.39	339.81
383.77	331.45
384.15	325.57
384.53	354.95
384.91	338.9
385.29	365.12
385.67	329.86
386.049	316.08
386.429	330.99
386.809	342.29
387.189	340.94
387.568	364.67
387.948	349.52
388.328	360.37
388.707	348.85
389.087	361.5
389.466	365.57
389.846	369.19
390.225	356.76
390.605	354.72
390.984	361.95
391.363	366.02
391.743	366.93
392.122	359.24
392.501	387.49
392.881	362.41
393.26	378.68
393.639	382.29
394.018	370.54
394.397	362.41
394.776	362.41
395.155	362.41
395.534	368.96
395.913	384.55
396.292	387.49
396.671	371.67
397.05	371.22
397.429	393.14
397.808	376.42
398.186	392.91
398.565	394.5
398.944	403.31
399.323	391.11
399.701	389.98
400.08	396.53
400.458	393.82
400.837	413.93
401.215	399.69
401.594	396.08
401.972	391.33
402.351	415.06
402.729	410.99
403.107	425.91
403.486	401.05
403.864	405.79
404.242	431.33
404.62	435.17
404.999	412.35
405.377	425.23
405.755	421.61
406.133	414.38
406.511	440.37
406.889	411.44
407.267	433.36
407.645	462.97
408.023	480.59
408.401	467.04
408.779	458
409.156	458.45
409.534	465.68
409.912	480.14
410.29	481.95
410.667	466.13
411.045	490.54
411.422	477.66
411.8	500.48
412.178	512.01
412.555	513.14
412.933	477.66
413.31	516.53
413.687	524.21
414.065	529.86
414.442	539.12
414.819	541.84
415.197	561.72
415.574	541.61
415.951	539.8
416.328	575.06
416.705	583.42
417.082	562.4
417.46	565.56
417.837	587.26
418.214	580.03
418.591	570.08
418.967	603.98
419.344	611.21
419.721	619.57
420.098	611.21
420.475	619.57
420.852	648.95
421.228	647.14
421.605	664.54
421.982	652.57
422.358	654.83
422.735	662.28
423.111	670.42
423.488	679.23
423.864	684.21
424.241	685.56
424.617	695.5
424.994	690.08
425.37	693.92
425.746	714.26
426.123	714.94
426.499	714.26
426.875	737.31
427.251	755.84
427.627	760.81
428.003	775.05
428.379	775.73
428.756	779.12
429.132	782.96
429.507	798.55
429.883	785.9
430.259	808.72
430.635	820.47
431.011	808.72
431.387	808.5
431.763	815.95
432.138	844.65
432.514	852.34
432.89	870.64
433.265	876.52
433.641	880.81
434.016	890.75
434.392	879.68
434.767	928.94
435.143	929.85
435.518	952.22
435.894	923.97
436.269	939.11
436.644	955.16
437.02	972.11
437.395	944.09
437.77	981.15
438.145	987.7
438.52	1004.87
438.895	1010.98
439.271	1003.29
439.646	1004.2
440.021	1011.65
440.395	1007.36
440.77	1036.06
441.145	1042.39
441.52	1056.62
441.895	1040.13
442.27	1065.66
442.645	1058.21
443.019	1067.92
443.394	1081.48
443.769	1109.05
444.143	1087.58
444.518	1107.24
444.892	1091.88
445.267	1095.95
445.641	1103.4
446.016	1110.86
446.39	1122.61
446.764	1151.54
447.139	1128.71
447.513	1137.98
447.887	1151.09
448.262	1131.65
448.636	1123.29
449.01	1150.18
449.384	1143.63
449.758	1133.23
450.132	1172.55
450.506	1173.23
450.88	1168.26
451.254	1143.4
451.628	1164.42
452.002	1184.53
452.376	1204.42
452.75	1201.48
453.123	1221.37
453.497	1213.91
453.871	1198.99
454.244	1278.31
454.618	1229.95
454.992	1283.06
455.365	1243.74
455.739	1278.31
456.112	1278.77
456.486	1314.25
456.859	1324.64
457.232	1311.76
457.606	1337.3
457.979	1326.67
458.352	1352.21
458.725	1351.76
459.099	1341.82
459.472	1344.07
459.845	1392.44
460.218	1401.7
460.591	1411.64
460.964	1381.36
461.337	1416.39
461.71	1432.89
462.083	1434.47
462.456	1468.59
462.829	1485.09
463.201	1486.67
463.574	1468.82
463.947	1492.55
464.32	1510.85
464.692	1546.78
465.065	1525.76
465.438	1535.03
465.81	1573.45
466.183	1551.08
466.555	1581.81
466.928	1620.45
467.3	1625.2
467.672	1598.31
468.045	1660.22
468.417	1643.73
468.789	1681.69
469.161	1689.38
469.534	1690.28
469.906	1716.27
470.278	1738.64
470.65	1766.21
471.022	1741.35
471.394	1785.65
471.766	1795.14
472.138	1811.41
472.51	1846.21
472.882	1834.46
473.253	1883.27
473.625	1896.38
473.997	1950.39
474.369	1921.91
474.74	1944.74
475.112	1977.96
475.484	2010.05
475.855	2019.76
476.227	2019.99
476.598	2060.67
476.97	2045.98
477.341	2116.94
477.713	2143.83
478.084	2120.1
478.455	2199.42
478.827	2183.6
479.198	2234.9
479.569	2230.61
479.94	2289.36
480.311	2315.12
480.682	2372.07
481.053	2410.04
481.424	2440.32
481.795	2412.75
482.166	2441
482.537	2449.13
482.908	2521.67
483.279	2539.3
483.65	2562.35
484.021	2616.13
484.391	2640.09
484.762	2650.48
485.133	2664.04
485.503	2689.58
485.874	2717.82
486.244	2760.31
486.615	2803.02
486.985	2814.09
487.356	2830.82
487.726	2885.96
488.097	2903.58
488.467	2908.78
488.837	2956.91
489.207	3027.42
489.578	3018.38
489.948	3076.23
490.318	3077.81
490.688	3070.13
491.058	3150.36
491.428	3201.2
491.798	3198.94
492.168	3229.45
492.538	3257.47
492.908	3287.3
493.278	3330.69
493.648	3299.73
494.017	3347.41
494.387	3374.08
494.757	3407.07
495.126	3436
495.496	3417.92
495.866	3426.73
496.235	3486.17
496.605	3482.78
496.974	3543.11
497.344	3541.76
497.713	3574.98
498.082	3586.95
498.452	3658.14
498.821	3617.01
499.19	3571.59
499.559	3676.89
499.928	3645.71
500.298	3715.76
500.667	3688.42
501.036	3681.19
501.405	3732.03
501.774	3749.89
502.143	3760.96
502.512	3809.32
502.88	3830.79
503.249	3790.79
503.618	3797.12
503.987	3797.8
504.356	3863.1
504.724	3890.9
505.093	3858.36
505.462	3866.27
505.83	3886.61
506.199	3919.6
506.567	3943.33
506.936	3958.92
507.304	3984.68
507.672	3988.98
508.041	4025.59
508.409	3993.27
508.777	4027.85
509.145	4061.74
509.514	4045.25
509.882	4088.64
510.25	4098.35
510.618	4130.67
510.986	4124.34
511.354	4136.54
511.722	4160.95
512.09	4177.67
512.458	4149.2
512.826	4224.45
513.193	4136.54
513.561	4208.41
513.929	4264.68
514.297	4321.17
514.664	4291.34
515.032	4258.57
515.4	4278.91
515.767	4314.62
516.135	4299.48
516.502	4277.11
516.869	4329.53
517.237	4311.45
517.604	4325.92
517.972	4378.12
518.339	4394.62
518.706	4406.82
519.073	4396.42
519.44	4382.19
519.808	4413.15
520.175	4442.98
520.542	4527.04
520.909	4489.3
521.276	4451.56
521.643	4488.17
522.009	4507.16
522.376	4546.7
522.743	4620.82
523.11	4605.01
523.477	4630.32
523.843	4632.12
524.21	4634.38
524.577	4644.55
524.943	4688.85
525.31	4673.25
525.676	4735.4
526.043	4794.38
526.409	4777.88
526.776	4774.27
527.142	4838.67
527.508	4859.46
527.874	4866.92
528.241	4889.52
528.607	4881.61
528.973	4951.21
529.339	5018.78
529.705	5012
530.071	5016.75
530.437	5060.59
530.803	5044.32
531.169	5133.35
531.535	5085.67
531.901	5148.49
532.267	5135.84
532.632	5153.69
532.998	5157.76
533.364	5141.26
533.73	5243.41
534.095	5273.46
534.461	5310.98
534.826	5283.18
535.192	5350.98
535.557	5343.52
535.923	5325.21
536.288	5385.1
536.653	5398.43
537.019	5431.2
537.384	5418.77
537.749	5479.11
538.114	5463.51
538.479	5475.04
538.845	5479.56
539.21	5468.49
539.575	5576.73
539.94	5594.36
540.305	5624.64
540.67	5586.68
541.034	5630.97
541.399	5673.23
541.764	5678.42
542.129	5684.98
542.494	5692.89
542.858	5709.38
543.223	5775.14
543.587	5824.18
543.952	5830.51
544.316	5842.94
544.681	5841.58
545.045	5912.99
545.41	5913.45
545.774	5924.29
546.138	5972.2
546.503	5974.91
546.867	5988.7
547.231	6017.62
547.595	6016.27
547.959	6088.13
548.324	6055.36
548.688	6069.6
549.052	6098.07
549.416	6176.94
549.779	6151.86
550.143	6137.62
550.507	6189.6
550.871	6247.45
551.235	6270.05
551.599	6272.31
551.962	6290.16
552.326	6294.23
552.689	6335.58
553.053	6299.88
553.417	6311.4
553.78	6419.87
554.143	6390.04
554.507	6439.76
554.87	6433.21
555.234	6459.42
555.597	6433.66
555.96	6487.67
556.323	6499.65
556.686	6543.26
557.05	6557.27
557.413	6513.88
557.776	6622.35
558.139	6578.74
558.502	6637.72
558.865	6633.43
559.228	6637.27
559.59	6709.13
559.953	6734.22
560.316	6757.27
560.679	6747.1
561.041	6775.34
561.404	6828.9
561.767	6814.21
562.129	6789.81
562.492	6889.92
562.854	6869.35
563.217	6838.62
563.579	6941.22
563.941	6956.58
564.304	6942.35
564.666	7018.05
565.028	7066.18
565.39	7100.31
565.753	7081.1
566.115	7109.8
566.477	7144.83
566.839	7141.89
567.201	7202
567.563	7180.53
567.925	7244.26
568.287	7291.94
568.648	7229.34
569.01	7359.06
569.372	7361.09
569.734	7347.08
570.095	7404.71
570.457	7463.01
570.819	7427.76
571.18	7446.74
571.542	7540.07
571.903	7568.32
572.265	7578.04
572.626	7632.5
572.987	7610.58
573.349	7710.91
573.71	7769.22
574.071	7779.16
574.432	7828.88
574.794	7945.94
575.155	7960.62
575.516	7960.17
575.877	8029.55
576.238	8151.81
576.599	8129.66
576.96	8286.49
577.32	8313.61
577.681	8379.82
578.042	8503.89
578.403	8528.52
578.763	8713.37
579.124	8811.22
579.485	8847.15
579.845	8909.3
580.206	8989.52
580.566	9124.21
580.927	9210.53
581.287	9395.16
581.648	9484.88
582.008	9648.72
582.368	9736.85
582.728	9913.12
583.089	9944.07
583.449	10156.05
583.809	10331.18
584.169	10520.56
584.529	10702.7
584.889	10904.5
585.249	11040.32
585.609	11186.08
585.969	11419.52
586.329	11648.44
586.688	11800.98
587.048	12011.59
587.408	12177.91
587.768	12444.8
588.127	12681.18
588.487	13000.49
588.846	13195.97
589.206	13339.24
589.565	13661.72
589.925	13918.66
590.284	14227.13
590.643	14420.34
591.003	14779.65
591.362	15037.73
591.721	15304.16
592.08	15524.49
592.44	15781.66
592.799	16137.81
593.158	16313.85
593.517	16599.72
593.876	16934.63
594.235	17248.74
594.593	17568.28
594.952	17966.69
595.311	18159
595.67	18403.06
596.029	18963.5
596.387	19117.84
596.746	19436.48
597.104	19609.13
597.463	19958.5
597.822	20306.06
598.18	20414.76
598.538	20816.11
598.897	21169.77
599.255	21395.07
599.613	21834.38
599.972	22029.86
600.33	22410.87
600.688	22541.26
601.046	22977.4
601.404	23276.38
601.762	23397.96
602.12	23887.66
602.478	24073.65
602.836	24419.63
603.194	24538.27
603.552	24794.08
603.91	24932.61
604.268	25388.64
604.625	25484.01
604.983	25931
605.341	26056.42
605.698	26330.31
606.056	26647.36
606.413	26887.81
606.771	27164.19
607.128	27300.68
607.485	27513.56
607.843	27848.01
608.2	28174.56
608.557	28393.08
608.914	28526.18
609.272	28782.22
609.629	29101.54
609.986	29247.3
610.343	29376.56
610.7	29824.23
611.057	29848.64
611.414	30161.17
611.771	30252.47
612.127	30574.49
612.484	30743.08
612.841	31005.44
613.198	31085.21
613.554	31223.52
613.911	31579.44
614.267	31739.21
614.624	31840.22
614.98	32104.85
615.337	32332.64
615.693	32417.38
616.05	32505.29
616.406	32929.91
616.762	32825.28
617.118	32981.21
617.475	33157.93
617.831	33258.72
618.187	33362.89
618.543	33655.77
618.899	33947.51
619.255	34034.51
619.611	34046.04
619.967	34336.88
620.323	34480.83
620.678	34422.3
621.034	34496.42
621.39	34620.71
621.746	34665.46
622.101	35200.13
622.457	35031.32
622.812	35078.33
623.168	35338.89
623.523	35416.17
623.879	35452.78
624.234	35405.55
624.589	35638.77
624.945	35717.18
625.3	35709.27
625.655	35863.62
626.01	35920.79
626.365	36030.17
626.72	36170.05
627.075	36121.24
627.43	36155.81
627.785	36348.35
628.14	36316.26
628.495	36377.73
628.85	36429.03
629.205	36318.07
629.559	36574.11
629.914	36532.53
630.269	36523.26
630.623	36499.31
630.978	36496.37
631.332	36845.06
631.687	36848.68
632.041	36820.2
632.396	36935.91
632.75	36788.34
633.104	36910.82
633.459	36713.99
633.813	36638.06
634.167	36810.49
634.521	36937.49
634.875	36990.14
635.229	36997.6
635.583	36757.38
635.937	36795.8
636.291	36819.53
636.645	36872.63
636.999	36835.8
637.352	36939.52
637.706	36790.6
638.06	36930.26
638.413	37057.03
638.767	36786.98
639.121	37019.29
639.474	36650.94
639.828	36718.51
640.181	36907.66
640.534	36819.3
640.888	36684.16
641.241	36776.59
641.594	36796.7
641.947	36856.59
642.301	36778.62
642.654	36725.07
643.007	36774.78
643.36	36753.31
643.713	36803.71
644.066	36998.5
644.419	36628.8
644.771	36376.37
645.124	36147.68
645.477	36158.98
645.83	35995.59
646.182	35738.42
646.535	35749.72
646.888	35741.14
647.24	35659.56
647.593	35894.58
647.945	35770.97
648.298	35679.9
648.65	35570.75
649.002	35458.21
649.355	35663.85
649.707	35625.66
650.059	35802.83
650.411	36095.7
650.763	36168.24
651.115	36668.57
651.467	36471.96
651.819	36509.03
652.171	36382.25
652.523	36245.3
652.875	36330.73
653.227	36261.12
653.578	36577.05
653.93	36231.29
654.282	36255.25
654.633	36063.84
654.985	36161.24
655.337	36271.97
655.688	36229.26
656.039	36262.7
656.391	36162.59
656.742	36083.27
657.094	36258.41
657.445	36239.43
657.796	36181.58
658.147	36087.57
658.498	36070.85
658.849	36236.26
659.2	36187
659.551	35915.6
659.902	36072.65
660.253	36103.84
660.604	36250.73
660.955	35987.01
661.306	36020.9
661.656	36002.82
662.007	36029.94
662.358	36006.21
662.708	36059.77
663.059	35951.75
663.409	35815.71
663.76	36105.65
664.11	36048.02
664.461	36002.82
664.811	36030.62
665.161	36017.74
665.511	36051.41
665.862	35985.2
666.212	36202.14
666.562	36118.08
666.912	35982.94
667.262	36047.8
667.612	36048.47
667.962	36048.93
668.312	35877.86
668.662	36131.41
669.011	35944.75
669.361	35853.9
669.711	35883.51
670.06	35873.79
670.41	35819.33
670.76	35668.82
671.109	35965.99
671.459	35829.5
671.808	35705.88
672.157	35836.05
672.507	35617.3
672.856	35595.15
673.205	35704.75
673.554	35801.02
673.904	35694.13
674.253	35732.78
674.602	35726.67
674.951	35250.53
675.3	35119.68
675.649	35624.98
675.998	35568.94
676.346	35650.07
676.695	35721.93
677.044	35472.67
677.393	35477.41
677.741	35637.18
678.09	35442.61
678.438	35370.52
678.787	35563.97
679.135	35547.92
679.484	35292.33
679.832	35519.45
680.181	35124.43
680.529	35353.8
680.877	35236.97
681.225	35190.87
681.573	35331.66
681.922	35077.2
682.27	35057.99
682.618	35015.05
682.966	34943.64
683.314	35056.41
683.661	34974.38
684.009	34669.75
684.357	34615.52
684.705	34730.54
685.053	34741.39
685.4	34558.57
685.748	34471.34
686.095	34375.97
686.443	34391.12
686.79	34302.53
687.138	34407.39
687.485	34409.42
687.832	34135.75
688.18	34185.92
688.527	34115.87
688.874	34114.96
689.221	34053.95
689.568	33852.15
689.915	33921.07
690.262	33837.68
690.609	33803.33
690.956	33624.36
691.303	33664.81
691.65	33478.6
691.997	33528.09
692.344	33174.2
692.69	33223.01
693.037	33263.01
693.383	32938.72
693.73	33211.71
694.077	32916.58
694.423	32942.79
694.769	32937.37
695.116	32716.36
695.462	32657.83
695.808	32698.05
696.155	32538.28
696.501	32290.83
696.847	32407.89
697.193	32194.34
697.539	32255.58
697.885	32124.73
698.231	32027.34
698.577	32035.25
698.923	32002.25
699.269	31823.73
699.614	31703.28
699.96	31595.48
700.306	31689.49
700.651	31530.4
700.997	31403.17
701.342	31405.43
701.688	31324.76
702.033	31258.54
702.379	31150.07
702.724	31104.87
703.069	31246.11
703.415	30831.21
703.76	30817.88
704.105	30853.13
704.45	30730.19
704.795	30537.21
705.14	30548.96
705.485	30486.36
705.83	30402.29
706.175	30406.36
706.52	30314.84
706.865	30294.73
707.209	30290.66
707.554	29993.04
707.899	30179.7
708.243	29932.7
708.588	29975.64
708.932	29715.76
709.277	29730
709.621	29802.76
709.966	29458.36
710.31	29647.96
710.654	29385.82
710.998	29374.07
711.342	29511.7
711.687	29312.15
712.031	29266.5
712.375	29044.36
712.719	29067.87
713.063	29130.91
713.407	29184.25
713.75	28970.47
714.094	28912.62
714.438	28753.75
714.782	28783.58
715.125	28643.92
715.469	28663.13
715.812	28570.7
716.156	28416.81
716.499	28470.14
716.843	28504.04
717.186	28363.48
717.53	28494.1
717.873	28465.17
718.216	28337.72
718.559	28164.61
718.902	28070.6
719.246	28113.31
719.589	28023.83
719.932	27993.54
720.275	27971.17
720.617	28004.39
720.96	27839.2
721.303	27873.55
721.646	27793.32
721.989	27508.81
722.331	27766.43
722.674	27585.19
723.016	27677.39
723.359	27655.02
723.701	27671.07
724.044	27387.01
724.386	27208.71
724.729	27478.75
725.071	27324.18
725.413	27287.57
725.755	27347.23
726.097	27152.89
726.439	27122.61
726.782	27044.64
727.124	27152.66
727.465	26968.71
727.807	27013.91
728.149	27005.55
728.491	26915.83
728.833	26899.34
729.175	26851.88
729.516	26752.9
729.858	26701.37
730.199	26713.35
730.541	26580.7
730.882	26626.57
731.224	26755.61
731.565	26475.62
731.906	26585.45
732.248	26611.66
732.589	26473.13
732.93	26304.32
733.271	26361.5
733.612	26302.74
733.953	26355.17
734.294	26180.94
734.635	26246.47
734.976	26306.58
735.317	26100.26
735.658	26129.86
735.999	26124.67
736.339	25985.23
736.68	26046.02
737.021	25911.11
737.361	25922.64
737.702	25978
738.042	25853.94
738.383	25884.45
738.723	25885.35
739.063	25642.19
739.404	25837.67
739.744	25665.7
740.084	25587.05
740.424	25717.9
740.764	25586.6
741.104	25608.52
741.444	25459.15
741.784	25466.38
742.124	25512.93
742.464	25389.09
742.804	25375.53
743.143	25244.24
743.483	25324.01
743.823	25135.99
744.162	25117.91
744.502	25233.16
744.841	25085.37
745.181	25271.58
745.52	25178.48
745.86	25060.51
746.199	25024.13
746.538	24942.1
746.877	25015.32
747.216	25072.04
747.556	24898.03
747.895	24814.42
748.234	24760.63
748.573	24815.55
748.911	24769.9
749.25	24672.5
749.589	24646.06
749.928	24590.24
750.267	24679.28
750.605	24592.28
750.944	24544.14
751.283	24409.91
751.621	24488.33
751.96	24441.55
752.298	24371.49
752.636	24441.55
752.975	24182.12
753.313	24056.47
753.651	24231.61
753.989	24072.29
754.327	24038.85
754.666	23929.47
755.004	24025.06
755.342	23925.18
755.679	23843.6
756.017	23754.79
756.355	23871.39
756.693	23797.95
757.031	23770.38
757.368	23625.07
757.706	23578.74
758.044	23480.67
758.381	23572.42
758.719	23488.8
759.056	23424.17
759.394	23324.74
759.731	23195.03
