Data from hue_150_FLMS001491_00073.txt Node
Date: Tue Feb 07 16:54:30 GMT 2017
User: dcchb
Spectrometer: FLMS00149
Trigger mode: 0
Integration Time (sec): 2.000000E-2
Scans to average: 10
Electric dark correction enabled: true
Nonlinearity correction enabled: false
Boxcar width: 0
XAxis mode: Wavelengths
Number of Pixels in Spectrum: 2048
>>>>>Begin Spectral Data<<<<<
341.393	-11.85
341.776	-11.85
342.16	-11.85
342.543	-64.96
342.927	-62.02
343.31	-66.09
343.693	-69.02
344.077	-64.73
344.46	-75.58
344.843	-54.56
345.226	-43.71
345.61	-43.04
345.993	-35.58
346.376	5.1
346.759	6.23
347.142	39.9
347.525	55.72
347.908	44.65
348.291	89.16
348.674	86.23
349.057	125.32
349.44	114.93
349.823	159.67
350.206	179.78
350.588	187.92
350.971	222.04
351.354	232.44
351.737	242.38
352.119	265.2
352.502	264.75
352.884	278.76
353.267	292.77
353.65	277.63
354.032	277.86
354.414	297.29
354.797	296.39
355.179	318.54
355.562	321.7
355.944	325.77
356.326	343.39
356.709	318.99
357.091	340.46
357.473	338.65
357.855	335.71
358.238	335.03
358.62	332.32
359.002	338.2
359.384	339.78
359.766	319.67
360.148	352.66
360.53	316.95
360.912	328.25
361.294	331.87
361.676	350.17
362.057	339.55
362.439	327.12
362.821	333.45
363.203	320.12
363.584	323.96
363.966	316.73
364.348	317.18
364.729	307.24
365.111	298.2
365.493	316.5
365.874	334.13
366.256	306.33
366.637	312.21
367.019	318.54
367.4	294.36
367.781	304.3
368.163	294.13
368.544	325.77
368.925	302.49
369.306	329.84
369.688	305.88
370.069	328.25
370.45	325.32
370.831	313.34
371.212	322.6
371.593	316.28
371.974	309.95
372.355	314.02
372.736	325.99
373.117	321.7
373.498	314.02
373.879	325.99
374.26	328.71
374.641	306.33
375.021	323.73
375.402	310.63
375.783	317.86
376.163	322.38
376.544	315.83
376.925	325.54
377.305	313.57
377.686	330.29
378.066	321.7
378.447	328.03
378.827	297.75
379.208	336.39
379.588	339.1
379.968	340.68
380.349	350.4
380.729	337.97
381.109	319.67
381.489	337.07
381.87	333.9
382.25	360.57
382.63	347.24
383.01	324.86
383.39	330.29
383.77	336.16
384.15	333.68
384.53	339.33
384.91	348.14
385.29	359.67
385.67	343.17
386.049	362.38
386.429	355.82
386.809	355.15
387.189	352.43
387.568	353.11
387.948	340.01
388.328	364.19
388.707	360.57
389.087	340.01
389.466	367.58
389.846	352.66
390.225	361.02
390.605	371.19
390.984	373.9
391.363	361.02
391.743	372.77
392.122	383.39
392.501	368.48
392.881	365.99
393.26	378.87
393.639	381.13
394.018	368.48
394.397	379.33
394.776	400.57
395.155	382.49
395.534	370.96
395.913	366.9
396.292	381.59
396.671	391.76
397.05	382.49
397.429	379.55
397.808	396.95
398.186	390.63
398.565	397.86
398.944	398.53
399.323	398.99
399.701	399.44
400.08	389.27
400.458	403.96
400.837	418.2
401.215	403.05
401.594	387.69
401.972	409.83
402.351	409.16
402.729	435.14
403.107	411.19
403.486	429.27
403.864	423.17
404.242	431.75
404.62	406.22
404.999	425.65
405.377	432.66
405.755	425.43
406.133	442.15
406.511	432.88
406.889	414.13
407.267	411.42
407.645	434.01
408.023	452.09
408.401	438.08
408.779	442.38
409.156	450.28
409.534	446.22
409.912	451.87
410.29	450.28
410.667	471.98
411.045	452.32
411.422	481.24
411.8	462.49
412.178	467.01
412.555	478.31
412.933	477.63
413.31	485.54
413.687	476.72
414.065	482.37
414.442	474.24
414.819	491.41
415.197	501.13
415.574	491.64
415.951	506.33
416.328	498.42
416.705	497.52
417.082	504.07
417.46	514.24
417.837	536.38
418.214	540
418.591	537.29
418.967	519.21
419.344	554.01
419.721	511.3
420.098	513.79
420.475	545.65
420.852	560.11
421.228	535.25
421.605	522.83
421.982	540.23
422.358	553.78
422.735	538.64
423.111	561.47
423.488	563.73
423.864	559.66
424.241	572.09
424.617	572.09
424.994	594.69
425.37	571.64
425.746	596.95
426.123	627.68
426.499	579.09
426.875	610.51
427.251	608.7
427.627	613.22
428.003	600.34
428.379	606.89
428.756	615.25
429.132	631.3
429.507	637.85
429.883	641.01
430.259	642.14
430.635	646.21
431.011	671.52
431.387	671.52
431.763	653.9
432.138	678.08
432.514	702.03
432.89	716.94
433.265	703.84
433.641	706.78
434.016	704.52
434.392	699.09
434.767	737.73
435.143	721.24
435.518	739.77
435.894	737.28
436.269	736.38
436.644	729.37
437.02	763.95
437.395	778.86
437.77	743.61
438.145	779.54
438.52	780.45
438.895	785.64
439.271	772.54
439.646	798.52
440.021	816.6
440.395	782.03
440.77	798.75
441.145	810.5
441.52	857.28
441.895	830.39
442.27	850.27
442.645	828.13
443.019	844.85
443.394	849.6
443.769	868.58
444.143	860.44
444.518	893.66
444.892	850.5
445.267	866.77
445.641	890.73
446.016	873.32
446.39	878.75
446.764	904.51
447.139	915.13
447.513	930.27
447.887	931.4
448.262	928.01
448.636	933.21
449.01	924.85
449.384	945.64
449.758	954.68
450.132	983.83
450.506	968.46
450.88	973.21
451.254	966.2
451.628	986.32
452.002	977.73
452.376	1007.11
452.75	1009.82
453.123	1020.89
453.497	1037.61
453.871	1025.18
454.244	1046.43
454.618	1054.56
454.992	1064.05
455.365	1077.61
455.739	1104.05
456.112	1129.59
456.486	1124.17
456.859	1143.6
457.232	1171.17
457.606	1150.15
457.979	1172.07
458.352	1176.59
458.725	1201.9
459.099	1221.56
459.472	1228.8
459.845	1222.69
460.218	1246.87
460.591	1252.07
460.964	1265.86
461.337	1324.84
461.71	1322.13
462.083	1339.98
462.456	1351.96
462.829	1371.84
463.201	1358.06
463.574	1387.44
463.947	1384.95
464.32	1484.16
464.692	1452.07
465.065	1497.94
465.438	1478.28
465.81	1530.48
466.183	1523.48
466.555	1575.9
466.928	1565.74
467.3	1577.49
467.672	1618.62
468.045	1667.65
468.417	1678.95
468.789	1702.23
469.161	1748.33
469.534	1747.88
469.906	1807.76
470.278	1828.1
470.65	1853.86
471.022	1863.35
471.394	1915.78
471.766	1967.53
472.138	2009.79
472.51	2033.29
472.882	2077.13
473.253	2108.77
473.625	2182.44
473.997	2200.75
474.369	2238.71
474.74	2276
475.112	2333.4
475.484	2374.75
475.855	2423.57
476.227	2485.94
476.598	2547.86
476.97	2614.97
477.341	2686.16
477.713	2740.39
478.084	2799.6
478.455	2902.65
478.827	2969.54
479.198	3027.17
479.569	3073.72
479.94	3196.88
480.311	3270.78
480.682	3397.78
481.053	3493.37
481.424	3602.07
481.795	3588.96
482.166	3751.44
482.537	3779.91
482.908	3953.24
483.279	4057.42
483.65	4137.65
484.021	4275.27
484.391	4321.37
484.762	4437.3
485.133	4516.62
485.503	4650.63
485.874	4751.87
486.244	4872.77
486.615	4982.82
486.985	5147.34
487.356	5311.17
487.726	5383.94
488.097	5534.22
488.467	5673.42
488.837	5795.91
489.207	5904.83
489.578	6042.68
489.948	6135.33
490.318	6326.06
490.688	6394.08
491.058	6553.85
491.428	6690.8
491.798	6864.58
492.168	7035.87
492.538	7117
492.908	7259.82
493.278	7370.55
493.648	7518.57
494.017	7712.24
494.387	7734.84
494.757	7934.61
495.126	8056.19
495.496	8132.57
495.866	8252.57
496.235	8391.54
496.605	8501.6
496.974	8661.14
497.344	8742.27
497.713	8842.61
498.082	8974.13
498.452	9125.99
498.821	9145.65
499.19	9242.14
499.559	9422.48
499.928	9504.28
500.298	9566.43
500.667	9752.41
501.036	9782.47
501.405	9894.1
501.774	9909.47
502.143	10101.33
502.512	10075.57
502.88	10245.73
503.249	10250.93
503.618	10422.68
503.987	10417.93
504.356	10581.32
504.724	10615.89
505.093	10670.81
505.462	10751.71
505.83	10811.14
506.199	10915.55
506.567	11104.69
506.936	11133.39
507.304	11232.15
507.672	11185.6
508.041	11358.92
508.409	11454.74
508.777	11511.01
509.145	11562.31
509.514	11554.4
509.882	11667.16
510.25	11686.15
510.618	11815.86
510.986	11759.59
511.354	11924.56
511.722	11995.97
512.09	12006.37
512.458	12000.94
512.826	12128.62
513.193	12179.24
513.561	12131.11
513.929	12268.96
514.297	12327.49
514.664	12445.68
515.032	12410.87
515.4	12493.36
515.767	12533.81
516.135	12638.66
516.502	12495.17
516.869	12715.05
517.237	12753.92
517.604	12582.4
517.972	12800.69
518.339	12749.4
518.706	12746.01
519.073	12847.25
519.44	12912.33
519.808	13061.48
520.175	12976.28
520.542	13053.57
520.909	13106.22
521.276	12931.31
521.643	13087.01
522.009	13223.73
522.376	13250.63
522.743	13233.45
523.11	13285.88
523.477	13395.71
523.843	13379.89
524.21	13430.51
524.577	13535.36
524.943	13507.79
525.31	13525.87
525.676	13609.03
526.043	13642.71
526.409	13590.96
526.776	13697.62
527.142	13692.2
527.508	13697.85
527.874	13823.72
528.241	13849.25
528.607	13752.99
528.973	13826.43
529.339	13751.63
529.705	13854.9
530.071	13826.43
530.437	13914.34
530.803	13904.62
531.169	13871.4
531.535	13914.11
531.901	13863.04
532.267	13792.08
532.632	13850.84
532.998	13896.94
533.364	13858.52
533.73	13858.97
534.095	13884.06
534.461	13845.86
534.826	13875.24
535.192	13893.55
535.557	13823.04
535.923	13860.78
536.288	13847.9
536.653	13758.18
537.019	13769.03
537.384	13724.29
537.749	13743.95
538.114	13734.68
538.479	13593.22
538.845	13698.07
539.21	13638.19
539.575	13585.31
539.94	13571.07
540.305	13611.52
540.67	13538.53
541.034	13524.52
541.399	13544.86
541.764	13515.93
542.129	13455.14
542.494	13507.34
542.858	13443.62
543.223	13320.23
543.587	13400.45
543.952	13277.74
544.316	13223.06
544.681	13190.74
545.045	13210.85
545.41	13235.03
545.774	13211.98
546.138	13155.71
546.503	13064.42
546.867	13017.64
547.231	13190.29
547.595	13052.89
547.959	12972.22
548.324	12990.75
548.688	12867.59
549.052	12901.71
549.416	12926.79
549.779	12853.8
550.143	12777.19
550.507	12851.09
550.871	12745.33
551.235	12774.93
551.599	12771.77
551.962	12720.02
552.326	12703.75
552.689	12651.77
553.053	12668.49
553.417	12642.96
553.78	12697.42
554.143	12562.73
554.507	12590.53
554.87	12570.87
555.234	12696.29
555.597	12493.81
555.96	12515.96
556.323	12501.49
556.686	12468.27
557.05	12566.35
557.413	12494.71
557.776	12444.09
558.139	12565.67
558.502	12452.68
558.865	12385.56
559.228	12436.18
559.59	12448.61
559.953	12438.9
560.316	12501.04
560.679	12353.7
561.041	12486.8
561.404	12457.2
561.767	12479.57
562.129	12446.58
562.492	12612.45
562.854	12547.37
563.217	12519.57
563.579	12496.3
563.941	12536.29
564.304	12541.94
564.666	12592.34
565.028	12427.37
565.39	12610.19
565.753	12545.79
566.115	12573.81
566.477	12604.77
566.839	12581.49
567.201	12651.09
567.563	12666.23
567.925	12757.53
568.287	12790.75
568.648	12640.92
569.01	12626.46
569.372	12725.89
569.734	12679.57
570.095	12687.93
570.457	12787.14
570.819	12746.23
571.18	12728.38
571.542	12778.32
571.903	12794.82
572.265	12788.94
572.626	12802.95
572.987	12743.97
573.349	12847.47
573.71	12885.44
574.071	12868.72
574.432	12818.55
574.794	12895.38
575.155	12989.39
575.516	12776.06
575.877	12947.13
576.238	12852.9
576.599	12886.34
576.96	12921.14
577.32	12896.06
577.681	12903.29
578.042	12929.28
578.403	12953.91
578.763	12958.88
579.124	12884.76
579.485	12956.62
579.845	12940.8
580.206	12952.78
580.566	12946.23
580.927	12898.32
581.287	12990.07
581.648	12984.19
582.008	13015.6
582.368	12993.01
582.728	13026.9
583.089	12974.48
583.449	12904.42
583.809	12950.75
584.169	12958.2
584.529	12860.58
584.889	13049.28
585.249	12905.1
585.609	12769.96
585.969	12953.68
586.329	12815.84
586.688	12914.82
587.048	12858.55
587.408	12825.33
587.768	12791.43
588.127	12771.32
588.487	12746.68
588.846	12892.67
589.206	12733.8
589.565	12802.73
589.925	12817.42
590.284	12863.97
590.643	12828.72
591.003	12847.47
591.362	12826.23
591.721	12701.26
592.08	12799.11
592.44	12819.45
592.799	12683.86
593.158	12760.92
593.517	12768.6
593.876	12806.57
594.235	12744.2
594.593	12717.98
594.952	12712.11
595.311	12633.69
595.67	12736.29
596.029	12763.86
596.387	12702.84
596.746	12753.92
597.104	12711.88
597.463	12672.11
597.822	12703.52
598.18	12626.46
598.538	12633.92
598.897	12675.05
599.255	12578.78
599.613	12751.2
599.972	12672.11
600.33	12631.43
600.688	12694.03
601.046	12632.11
601.404	12629.85
601.762	12643.41
602.12	12724.99
602.478	12658.1
602.836	12709.62
603.194	12605.45
603.552	12693.58
603.91	12581.94
604.268	12679.34
604.625	12626.46
604.983	12740.81
605.341	12600.7
605.698	12579.68
606.056	12745.33
606.413	12639.34
606.771	12658.55
607.128	12692.22
607.485	12612.68
607.843	12560.25
608.2	12689.06
608.557	12681.38
608.914	12697.65
609.272	12722.96
609.629	12783.29
609.986	12797.08
610.343	12766.35
610.7	12808.38
611.057	12789.85
611.414	12831.43
611.771	12799.34
612.127	12843.18
612.484	12806.57
612.841	12880.24
613.198	12806.8
613.554	12803.86
613.911	12939.67
614.267	12874.82
614.624	12858.55
614.98	12908.26
615.337	12956.85
615.693	12930.41
616.05	12917.53
616.406	13042.72
616.762	12912.1
617.118	12917.53
617.475	12884.31
617.831	13014.7
618.187	12956.85
618.543	12996.85
618.899	13119.1
619.255	13017.41
619.611	13071.65
619.967	13074.81
620.323	13063.06
620.678	13046.79
621.034	13045.66
621.39	13023.74
621.746	12946.23
622.101	13128.37
622.457	13031.42
622.812	13036.17
623.168	13102.61
623.523	13095.6
623.879	13117.52
624.234	12959.56
624.589	13038.88
624.945	13017.41
625.3	13058.77
625.655	13002.05
626.01	13044.08
626.365	13030.52
626.72	13089.27
627.075	13037.75
627.43	13073.68
627.785	13016.06
628.14	13021.48
628.495	13010.63
628.85	12969.73
629.205	12984.42
629.559	13017.64
629.914	12929.73
630.269	12979.45
630.623	12883.18
630.978	12940.13
631.332	12965.89
631.687	13007.02
632.041	12967.47
632.396	12949.84
632.75	12890.64
633.104	12992.33
633.459	12872.56
633.813	12842.95
634.167	12901.48
634.521	12796.85
634.875	12814.48
635.229	12826.46
635.583	12682.05
635.937	12754.82
636.291	12715.27
636.645	12689.06
636.999	12689.28
637.352	12720.7
637.706	12585.11
638.06	12676.18
638.413	12647.03
638.767	12667.59
639.121	12631.89
639.474	12582.62
639.828	12553.02
640.181	12585.11
640.534	12591.89
640.888	12516.18
641.241	12485.9
641.594	12495.17
641.947	12488.61
642.301	12468.5
642.654	12533.81
643.007	12529.74
643.36	12428.5
643.713	12433.47
644.066	12475.96
644.419	12398.45
644.771	12359.8
645.124	12300.14
645.477	12319.13
645.83	12178.11
646.182	12088.17
646.535	12160.71
646.888	12117.55
647.24	12049.53
647.593	12100.6
647.945	12038.23
648.298	11958.68
648.65	11966.82
649.002	11955.07
649.355	12032.13
649.707	12036.65
650.059	12177.43
650.411	12268.28
650.763	12273.02
651.115	12343.76
651.467	12327.26
651.819	12321.84
652.171	12280.48
652.523	12267.6
652.875	12334.49
653.227	12224.89
653.578	12383.76
653.93	12270.76
654.282	12148.51
654.633	12227.38
654.985	12289.52
655.337	12317.77
655.688	12305.79
656.039	12326.36
656.391	12217.88
656.742	12291.1
657.094	12299.01
657.445	12375.39
657.796	12317.77
658.147	12297.2
658.498	12229.18
658.849	12399.12
659.2	12186.02
659.551	12211.56
659.902	12275.28
660.253	12292.91
660.604	12316.87
660.955	12257.21
661.306	12379.69
661.656	12307.37
662.007	12293.36
662.358	12349.41
662.708	12378.56
663.059	12336.53
663.409	12279.58
663.76	12323.42
664.11	12293.36
664.461	12362.29
664.811	12377.65
665.161	12343.76
665.511	12389.63
665.862	12339.46
666.212	12397.99
666.562	12373.36
666.912	12301.95
667.262	12276.19
667.612	12325.9
667.962	12298.56
668.312	12282.97
668.662	12406.81
669.011	12344.44
669.361	12355.73
669.711	12291.56
670.06	12357.99
670.41	12299.01
670.76	12299.01
671.109	12323.42
671.459	12316.41
671.808	12267.38
672.157	12261.73
672.507	12138.79
672.856	12200.94
673.205	12303.08
673.554	12316.64
673.904	12257.21
674.253	12265.79
674.602	12216.08
674.951	12068.06
675.3	12011.34
675.649	12141.73
675.998	12149.64
676.346	12136.08
676.695	12186.47
677.044	12065.12
677.393	12101.28
677.741	12160.03
678.09	12081.62
678.438	12115.97
678.787	12045.91
679.135	12083.43
679.484	11987.83
679.832	12075.74
680.181	11976.08
680.529	11972.02
680.877	11918.46
681.225	11861.96
681.573	11907.16
681.922	11833.49
682.27	11819.93
682.618	11791.91
682.966	11774.96
683.314	11769.31
683.661	11776.54
684.009	11645.7
684.357	11676.43
684.705	11641.18
685.053	11700.38
685.4	11646.83
685.748	11585.36
686.095	11622.42
686.443	11557.34
686.79	11584.68
687.138	11526.15
687.485	11542.2
687.832	11494.06
688.18	11543.55
688.527	11469.43
688.874	11387.4
689.221	11427.62
689.568	11382.2
689.915	11319.83
690.262	11357.79
690.609	11332.71
690.956	11173.84
691.303	11188.76
691.65	11145.82
691.997	11106.28
692.344	11092.26
692.69	11079.38
693.037	11049.33
693.383	10933.62
693.73	10960.74
694.077	10891.82
694.423	10870.8
694.769	10867.41
695.116	10807.98
695.462	10848.2
695.808	10732.05
696.155	10757.13
696.501	10673.07
696.847	10740.64
697.193	10619.28
697.539	10699.96
697.885	10547.65
698.231	10513.3
698.577	10527.53
698.923	10512.17
699.269	10327.99
699.614	10322.57
699.96	10289.12
700.306	10277.15
700.651	10184.94
700.997	10188.11
701.342	10108.79
701.688	10163.93
702.033	10070.6
702.379	10074.44
702.724	10004.84
703.069	10106.3
703.415	9931.17
703.76	9940.66
704.105	9955.57
704.45	9914.67
704.795	9895.23
705.14	9823.15
705.485	9827.89
705.83	9783.82
706.175	9790.6
706.52	9747.22
706.865	9719.87
707.209	9662.7
707.554	9633.77
707.899	9612.53
708.243	9556.94
708.588	9612.08
708.932	9530.27
709.277	9493.66
709.621	9519.2
709.966	9385.87
710.31	9443.72
710.654	9312.2
710.998	9355.14
711.342	9308.13
711.687	9294.35
712.031	9254.12
712.375	9267.68
712.719	9257.96
713.063	9190.17
713.407	9310.16
713.75	9198.3
714.094	9207.12
714.438	9105.88
714.782	9201.02
715.125	9081.7
715.469	9136.16
715.812	9098.87
716.156	8998.99
716.499	9066.78
716.843	9069.95
717.186	8940.91
717.53	9009.61
717.873	9056.61
718.216	9015.26
718.559	9027.91
718.902	8875.15
719.246	8922.38
719.589	8903.85
719.932	8880.8
720.275	8884.41
720.617	8871.76
720.96	8877.86
721.303	8860.69
721.646	8868.14
721.989	8733.68
722.331	8814.13
722.674	8812.1
723.016	8778.88
723.359	8794.7
723.701	8827.24
724.044	8747.02
724.386	8679.9
724.729	8767.35
725.071	8701.37
725.413	8737.52
725.755	8708.15
726.097	8676.96
726.439	8656.17
726.782	8688.71
727.124	8695.94
727.465	8678.77
727.807	8689.39
728.149	8651.88
728.491	8613.69
728.833	8723.06
729.175	8603.97
729.516	8597.19
729.858	8630.63
730.199	8640.13
730.541	8555.16
730.882	8599.9
731.224	8581.14
731.565	8574.36
731.906	8632.44
732.248	8596.06
732.589	8598.09
732.93	8556.74
733.271	8531.65
733.612	8549.28
733.953	8558.77
734.294	8630.18
734.635	8543.41
734.976	8508.15
735.317	8529.17
735.658	8503.41
735.999	8537.08
736.339	8615.49
736.68	8614.36
737.021	8563.97
737.361	8504.31
737.702	8581.37
738.042	8612.56
738.383	8583.18
738.723	8576.62
739.063	8546.8
739.404	8613.91
739.744	8603.52
740.084	8611.43
740.424	8595.61
740.764	8594.7
741.104	8669.96
741.444	8721.25
741.784	8627.02
742.124	8690.75
742.464	8670.41
742.804	8707.24
743.143	8771.42
743.483	8729.62
743.823	8789.73
744.162	8827.47
744.502	8775.04
744.841	8771.2
745.181	8898.2
745.52	8906.11
745.86	8885.77
746.199	8851.42
746.538	8975.71
746.877	9053.67
747.216	9097.29
747.556	9136.84
747.895	9121.24
748.234	9146.55
748.573	9163.73
748.911	9280.56
749.25	9314.23
749.589	9327.11
749.928	9457.96
750.267	9486.88
750.605	9579.54
750.944	9604.62
751.283	9666.31
751.621	9837.83
751.96	9788.8
752.298	9968.9
752.636	10058.17
752.975	10090.48
753.313	10232.63
753.651	10292.74
753.989	10359.85
754.327	10418.38
754.666	10512.17
755.004	10702.22
755.342	10857.24
755.679	10950.12
756.017	11066.5
756.355	11147.86
756.693	11291.36
757.031	11444.35
757.368	11569.09
757.706	11632.14
758.044	11876.43
758.381	11984.9
758.719	12144.21
