Data from hue_110_FLMS001491_00095.txt Node
Date: Tue Feb 07 17:02:04 GMT 2017
User: dcchb
Spectrometer: FLMS00149
Trigger mode: 0
Integration Time (sec): 2.000000E-2
Scans to average: 10
Electric dark correction enabled: true
Nonlinearity correction enabled: false
Boxcar width: 0
XAxis mode: Wavelengths
Number of Pixels in Spectrum: 2048
>>>>>Begin Spectral Data<<<<<
341.393	-14.79
341.776	-14.79
342.16	-14.79
342.543	-71.96
342.927	-78.51
343.31	-59.31
343.693	-71.28
344.077	-56.59
344.46	-66.99
344.843	-67.22
345.226	-36.93
345.61	-40.1
345.993	-10.72
346.376	-13.88
346.759	16.17
347.142	19.34
347.525	38.77
347.908	41.71
348.291	80.8
348.674	112.44
349.057	113.8
349.44	131.65
349.823	131.2
350.206	165.32
350.588	201.93
350.971	221.59
351.354	228.82
351.737	225.21
352.119	244.19
352.502	263.17
352.884	274.24
353.267	290.97
353.65	276.28
354.032	306.56
354.414	312.66
354.797	304.98
355.179	306.56
355.562	324.64
355.944	334.13
356.326	348.59
356.709	321.25
357.091	312.66
357.473	361.25
357.855	324.19
358.238	347.24
358.62	335.26
359.002	352.21
359.384	338.42
359.766	340.01
360.148	339.55
360.53	353.79
360.912	337.97
361.294	320.12
361.676	343.17
362.057	325.77
362.439	330.51
362.821	321.25
363.203	320.12
363.584	306.79
363.966	323.28
364.348	313.34
364.729	313.57
365.111	320.57
365.493	312.44
365.874	315.83
366.256	306.11
366.637	305.66
367.019	325.09
367.4	302.27
367.781	327.35
368.163	319.67
368.544	318.99
368.925	320.8
369.306	307.46
369.688	315.83
370.069	322.38
370.45	338.88
370.831	315.37
371.212	317.41
371.593	333.68
371.974	317.86
372.355	325.09
372.736	316.28
373.117	312.66
373.498	319.89
373.879	340.23
374.26	313.57
374.641	310.85
375.021	323.96
375.402	332.32
375.783	335.49
376.163	333
376.544	326.22
376.925	355.15
377.305	318.76
377.686	338.42
378.066	313.11
378.447	348.14
378.827	345.88
379.208	345.65
379.588	307.69
379.968	311.08
380.349	308.82
380.729	337.07
381.109	318.31
381.489	342.27
381.87	337.29
382.25	335.71
382.63	340.23
383.01	353.79
383.39	352.43
383.77	350.85
384.15	356.28
384.53	379.55
384.91	366.22
385.29	365.32
385.67	364.41
386.049	333.45
386.429	349.27
386.809	384.98
387.189	364.86
387.568	345.2
387.948	364.41
388.328	365.54
388.707	377.07
389.087	370.51
389.466	337.97
389.846	358.31
390.225	374.35
390.605	375.26
390.984	368.03
391.363	382.04
391.743	357.86
392.122	391.08
392.501	373
392.881	374.13
393.26	391.76
393.639	381.81
394.018	394.69
394.397	405.54
394.776	380.68
395.155	388.37
395.534	383.85
395.913	384.52
396.292	399.66
396.671	399.21
397.05	390.63
397.429	402.38
397.808	401.25
398.186	388.82
398.565	400.57
398.944	412.32
399.323	410.51
399.701	394.47
400.08	403.28
400.458	418.87
400.837	443.73
401.215	421.58
401.594	416.39
401.972	421.36
402.351	416.84
402.729	413.68
403.107	443.05
403.486	446.44
403.864	456.39
404.242	439.44
404.62	430.62
404.999	439.21
405.377	419.1
405.755	439.21
406.133	427.69
406.511	443.73
406.889	437.4
407.267	455.26
407.645	455.48
408.023	437.18
408.401	456.84
408.779	456.61
409.156	455.03
409.534	487.35
409.912	473.34
410.29	478.31
410.667	450.28
411.045	466.33
411.422	474.01
411.8	484.18
412.178	490.51
412.555	492.54
412.933	473.56
413.31	487.12
413.687	497.06
414.065	499.32
414.442	532.99
414.819	528.47
415.197	532.77
415.574	504.29
415.951	511.53
416.328	530.28
416.705	533.9
417.082	517.63
417.46	545.65
417.837	539.32
418.214	564.41
418.591	549.27
418.967	560.79
419.344	548.81
419.721	563.28
420.098	539.1
420.475	579.55
420.852	575.25
421.228	575.48
421.605	568.7
421.982	583.84
422.358	547.23
422.735	583.61
423.111	577.29
423.488	597.4
423.864	582.71
424.241	597.17
424.617	599.43
424.994	601.69
425.37	584.07
425.746	616.83
426.123	619.09
426.499	613.44
426.875	622.71
427.251	631.52
427.627	645.99
428.003	639.43
428.379	628.59
428.756	652.99
429.132	655.48
429.507	667.23
429.883	648.02
430.259	672.43
430.635	678.98
431.011	662.03
431.387	678.08
431.763	687.34
432.138	705.42
432.514	725.76
432.89	714.23
433.265	725.31
433.641	738.86
434.016	708.36
434.392	723.27
434.767	749.71
435.143	768.69
435.518	773.89
435.894	765.98
436.269	789.48
436.644	805.08
437.02	775.7
437.395	784.74
437.77	791.52
438.145	819.31
438.52	805.08
438.895	795.36
439.271	820.22
439.646	812.31
440.021	806.43
440.395	833.78
440.77	850.73
441.145	854.79
441.52	850.5
441.895	839.65
442.27	878.07
442.645	882.82
443.019	909.71
443.394	865.64
443.769	894.79
444.143	882.59
444.518	902.48
444.892	900.22
445.267	914.45
445.641	904.06
446.016	932.76
446.39	910.39
446.764	929.59
447.139	930.27
447.513	941.8
447.887	953.55
448.262	936.15
448.636	949.93
449.01	954.45
449.384	963.04
449.758	970.27
450.132	972.76
450.506	981.34
450.88	1018.86
451.254	990.16
451.628	1017.05
452.002	1007.56
452.376	1038.52
452.75	1041.46
453.123	1048.46
453.497	1045.52
453.871	1070.83
454.244	1108.12
454.618	1094.56
454.992	1095.69
455.365	1110.15
455.739	1128.69
456.112	1129.36
456.486	1151.51
456.859	1166.88
457.232	1180.89
457.606	1191.06
457.979	1208.46
458.352	1222.24
458.725	1194.22
459.099	1245.29
459.472	1245.74
459.845	1269.47
460.218	1288.91
460.591	1311.51
460.964	1331.84
461.337	1365.51
461.71	1345.63
462.083	1357.15
462.456	1383.37
462.829	1380.43
463.201	1430.37
463.574	1452.74
463.947	1469.47
464.32	1479.41
464.692	1519.64
465.065	1512.86
465.438	1534.78
465.81	1538.17
466.183	1533.87
466.555	1603.7
466.928	1621.55
467.3	1614.55
467.672	1659.07
468.045	1688.22
468.417	1724.83
468.789	1763.24
469.161	1766.18
469.534	1781.78
469.906	1838.27
470.278	1879.63
470.65	1896.12
471.022	1910.81
471.394	2005.27
471.766	2009.57
472.138	2005.27
472.51	2098.15
472.882	2142.22
473.253	2126.4
473.625	2201.65
473.997	2245.72
474.369	2270.35
474.74	2337.24
475.112	2395.54
475.484	2449.33
475.855	2495.43
476.227	2516.22
476.598	2633.5
476.97	2688.42
477.341	2767.51
477.713	2787.17
478.084	2843.22
478.455	2975.64
478.827	3001.4
479.198	3100.61
479.569	3141.97
479.94	3266.26
480.311	3327.72
480.682	3446.36
481.053	3543.08
481.424	3604.78
481.795	3668.51
482.166	3832.12
482.537	3878.44
482.908	3988.5
483.279	4084.09
483.65	4198.66
484.021	4328.83
484.391	4439.11
484.762	4519.33
485.133	4568.82
485.503	4715.71
485.874	4904.63
486.244	4993.44
486.615	5136.26
486.985	5221.01
487.356	5371.29
487.726	5472.3
488.097	5663.93
488.467	5756.81
488.837	5929.46
489.207	6065.96
489.578	6192.28
489.948	6288.78
490.318	6461.88
490.688	6547.3
491.058	6747.75
491.428	6815.32
491.798	6957.68
492.168	7168.53
492.538	7233.38
492.908	7396.09
493.278	7602.87
493.648	7672.92
494.017	7896.42
494.387	7941.16
494.757	8120.14
495.126	8239.68
495.496	8351.77
495.866	8447.36
496.235	8608.94
496.605	8736.85
496.974	8813
497.344	8910.63
497.713	9109.04
498.082	9213.67
498.452	9290.05
498.821	9426.32
499.19	9518.07
499.559	9658.86
499.928	9769.14
500.298	9915.12
500.667	9997.38
501.036	10058.85
501.405	10165.96
501.774	10209.58
502.143	10414.54
502.512	10417.03
502.88	10535.44
503.249	10627.19
503.618	10786.28
503.987	10777.47
504.356	10907.18
504.724	11012.49
505.093	11103.34
505.462	11138.82
505.83	11272.15
506.199	11354.4
506.567	11463.78
506.936	11489.32
507.304	11597.56
507.672	11681.85
508.041	11761.17
508.409	11861.06
508.777	12038.91
509.145	12093.59
509.514	12160.03
509.882	12192.8
510.25	12100.83
510.618	12296.3
510.986	12333.59
511.354	12393.47
511.722	12536.52
512.09	12638.89
512.458	12589.63
512.826	12751.88
513.193	12745.78
513.561	12767.25
513.929	12890.18
514.297	12979.67
514.664	13021.93
515.032	13104.87
515.4	13172.44
515.767	13301.02
516.135	13240
516.502	13186.45
516.869	13393
517.237	13390.51
517.604	13360.23
517.972	13477.74
518.339	13618.53
518.706	13505.76
519.073	13680.67
519.44	13654.46
519.808	13789.14
520.175	13689.71
520.542	13943.94
520.909	13927.44
521.276	13804.51
521.643	13987.33
522.009	13954.79
522.376	14082.92
522.743	14134.9
523.11	14171.73
523.477	14336.47
523.843	14295.8
524.21	14346.19
524.577	14374.66
524.943	14398.39
525.31	14446.07
525.676	14644.26
526.043	14585.05
526.409	14559.29
526.776	14705.05
527.142	14751.6
527.508	14754.09
527.874	14760.19
528.241	14877.7
528.607	14821.43
528.973	14903.92
529.339	14850.58
529.705	14860.08
530.071	14965.61
530.437	14994.31
530.803	15010.35
531.169	14989.34
531.535	14941.43
531.901	14927.42
532.267	14932.84
532.632	14991.82
532.998	15077.02
533.364	14973.97
533.73	15091.26
534.095	15204.93
534.461	15090.35
534.826	15062.78
535.192	15161.31
535.557	15201.76
535.923	15033.63
536.288	15106.4
536.653	15100.52
537.019	15030.47
537.384	14968.1
537.749	14894.2
538.114	15055.1
538.479	14898.94
538.845	15005.38
539.21	14936.68
539.575	14941.43
539.94	14898.27
540.305	14954.54
540.67	14898.72
541.034	14910.24
541.399	14841.09
541.764	14885.39
542.129	14789.57
542.494	14746.41
542.858	14821.66
543.223	14789.79
543.587	14803.81
543.952	14627.99
544.316	14735.11
544.681	14649.46
545.045	14651.72
545.41	14713.19
545.774	14646.52
546.138	14665.05
546.503	14515.23
546.867	14522.01
547.231	14540.08
547.595	14534.66
547.959	14565.85
548.324	14463.93
548.688	14409.69
549.052	14410.14
549.416	14449.69
549.779	14351.84
550.143	14384.61
550.507	14310.26
550.871	14320.88
551.235	14341.9
551.599	14352.97
551.962	14274.55
552.326	14287.44
552.689	14325.63
553.053	14172.86
553.417	14193.65
553.78	14349.58
554.143	14172.41
554.507	14270.26
554.87	14217.15
555.234	14309.36
555.597	14150.94
555.96	14245.85
556.323	14148.91
556.686	14119.08
557.05	14187.32
557.413	14186.42
557.776	14130.6
558.139	14275.01
558.502	14217.15
558.865	14134.9
559.228	14216.25
559.59	14190.94
559.953	14224.39
560.316	14289.02
560.679	14332.86
561.041	14250.83
561.404	14301.22
561.767	14290.6
562.129	14217.83
562.492	14378.51
562.854	14311.84
563.217	14202.01
563.579	14263.93
563.941	14352.74
564.304	14415.34
564.666	14472.51
565.028	14406.08
565.39	14468.67
565.753	14454.44
566.115	14418.51
566.477	14459.18
566.839	14490.59
567.201	14559.52
567.563	14555
567.925	14557.26
568.287	14524.72
568.648	14525.17
569.01	14569.24
569.372	14686.97
569.734	14598.16
570.095	14733.98
570.457	14752.06
570.819	14684.71
571.18	14647.65
571.542	14695.33
571.903	14698.05
572.265	14693.3
572.626	14769
572.987	14825.73
573.349	14824.82
573.71	14852.39
574.071	14926.29
574.432	14907.08
574.794	14940.98
575.155	14849.68
575.516	14849.23
575.877	14955.67
576.238	14929.68
576.599	14965.38
576.96	14909.57
577.32	14958.6
577.681	15044.7
578.042	15088.09
578.403	15057.58
578.763	15003.12
579.124	15036.34
579.485	14971.94
579.845	15057.36
580.206	15008.77
580.566	15019.17
580.927	14974.65
581.287	15043.12
581.648	14940.3
582.008	15112.95
582.368	14988.43
582.728	15069.79
583.089	14983.24
583.449	15019.62
583.809	15032.05
584.169	14966.74
584.529	14920.19
584.889	15100.52
585.249	14950.02
585.609	14832.28
585.969	14962.22
586.329	14933.75
586.688	14921.99
587.048	14923.12
587.408	14820.08
587.768	14916.57
588.127	14871.37
588.487	14851.26
588.846	14818.49
589.206	14911.6
589.565	14783.47
589.925	14942.33
590.284	14905.27
590.643	14902.79
591.003	14821.21
591.362	14927.87
591.721	14847.65
592.08	14783.02
592.44	14882.22
592.799	14828.66
593.158	14871.37
593.517	14840.41
593.876	14744.82
594.235	14798.16
594.593	14798.38
594.952	14762.68
595.311	14717.03
595.67	14781.43
596.029	14844.03
596.387	14785.5
596.746	14848.32
597.104	14759.74
597.463	14766.52
597.822	14775.11
598.18	14729.46
598.538	14763.81
598.897	14762.9
599.255	14630.93
599.613	14895.78
599.972	14697.59
600.33	14743.02
600.688	14776.91
601.046	14768.55
601.404	14778.04
601.762	14806.52
602.12	14844.26
602.478	14831.15
602.836	14875.67
603.194	14757.71
603.552	14768.55
603.91	14705.96
604.268	14710.25
604.625	14769.68
604.983	14820.98
605.341	14752.06
605.698	14839.74
606.056	14791.83
606.413	14839.28
606.771	14808.55
607.128	14797.7
607.485	14765.61
607.843	14843.13
608.2	14884.03
608.557	14898.94
608.914	14880.41
609.272	14979.17
609.629	14927.64
609.986	14935.33
610.343	14914.54
610.7	14977.59
611.057	14928.55
611.414	14992.73
611.771	14933.07
612.127	15041.77
612.484	15022.56
612.841	15026.17
613.198	15015.33
613.554	14978.49
613.911	15013.07
614.267	15034.08
614.624	15029.56
614.98	15072.95
615.337	15042.22
615.693	15206.96
616.05	15095.55
616.406	15170.58
616.762	15095.78
617.118	15047.42
617.475	15181.2
617.831	15160.41
618.187	15181.42
618.543	15150.46
618.899	15331.93
619.255	15128.09
619.611	15201.54
619.967	15246.28
620.323	15270.91
620.678	15196.79
621.034	15258.93
621.39	15245.38
621.746	15263.23
622.101	15362.44
622.457	15254.64
622.812	15338.03
623.168	15406.5
623.523	15216.45
623.879	15345.03
624.234	15252.38
624.589	15316.56
624.945	15261.65
625.3	15410.34
625.655	15318.82
626.01	15249.44
626.365	15327.41
626.72	15272.49
627.075	15246.51
627.43	15345.49
627.785	15198.37
628.14	15334.19
628.495	15195.66
628.85	15205.38
629.205	15235.43
629.559	15266.39
629.914	15107.3
630.269	15194.76
630.623	15198.37
630.978	15116.11
631.332	15159.95
631.687	15198.37
632.041	15119.5
632.396	15160.41
632.75	15095.78
633.104	15079.5
633.459	15056.23
633.813	15001.54
634.167	15034.31
634.521	15100.3
634.875	15044.7
635.229	14985.27
635.583	14926.97
635.937	14902.11
636.291	14929.45
636.645	14954.31
636.999	14941.66
637.352	14933.97
637.706	14771.49
638.06	14957.7
638.413	14881.54
638.767	14814.2
639.121	14783.24
639.474	14764.26
639.828	14791.6
640.181	14786.4
640.534	14785.05
640.888	14781.21
641.241	14681.77
641.594	14679.06
641.947	14724.94
642.301	14637.03
642.654	14667.76
643.007	14653.75
643.36	14645.17
643.713	14634.32
644.066	14701.66
644.419	14577.37
644.771	14494.21
645.124	14412.63
645.477	14457.15
645.83	14315.23
646.182	14286.53
646.535	14197.72
646.888	14321.78
647.24	14141.68
647.593	14237.72
647.945	14120.21
648.298	14121.56
648.65	14100.77
649.002	14020.55
649.355	14153.43
649.707	14060.77
650.059	14143.26
650.411	14358.39
650.763	14317.04
651.115	14481.78
651.467	14493.53
651.819	14419.86
652.171	14390.48
652.523	14471.84
652.875	14406.53
653.227	14309.58
653.578	14486.3
653.93	14415.79
654.282	14409.01
654.633	14366.76
654.985	14411.95
655.337	14365.4
655.688	14427.54
656.039	14473.42
656.391	14363.82
656.742	14352.74
657.094	14434.1
657.445	14454.44
657.796	14369.92
658.147	14427.32
658.498	14372.86
658.849	14360.65
659.2	14341.22
659.551	14449.46
659.902	14445.62
660.253	14491.72
660.604	14416.47
660.955	14377.83
661.306	14449.69
661.656	14275.01
662.007	14432.97
662.358	14413.76
662.708	14471.61
663.059	14371.73
663.409	14354.55
663.76	14412.18
664.11	14456.7
664.461	14495.57
664.811	14443.82
665.161	14445.85
665.511	14477.26
665.862	14475.9
666.212	14526.75
666.562	14425.96
666.912	14427.32
667.262	14489.24
667.612	14572.63
667.962	14537.37
668.312	14521.55
668.662	14611.95
669.011	14532.4
669.361	14541.89
669.711	14507.99
670.06	14463.93
670.41	14507.54
670.76	14364.5
671.109	14437.94
671.459	14430.93
671.808	14346.19
672.157	14404.49
672.507	14301.45
672.856	14304.61
673.205	14355.46
673.554	14382.8
673.904	14350.71
674.253	14416.47
674.602	14297.15
674.951	14146.87
675.3	14133.99
675.649	14238.85
675.998	14251.96
676.346	14329.92
676.695	14248.57
677.044	14175.35
677.393	14302.8
677.741	14239.75
678.09	14215.57
678.438	14181.9
678.787	14207.66
679.135	14178.74
679.484	14081.56
679.832	14201.11
680.181	14038.63
680.529	14131.96
680.877	13928.8
681.225	13974.67
681.573	14066.42
681.922	13890.16
682.27	13988.91
682.618	13957.5
682.966	13934
683.314	14024.39
683.661	13865.53
684.009	13785.08
684.357	13730.39
684.705	13724.06
685.053	13705.76
685.4	13708.69
685.748	13668.69
686.095	13538.75
686.443	13567.45
686.79	13644.06
687.138	13567
687.485	13629.6
687.832	13489.26
688.18	13537.4
688.527	13397.29
688.874	13448.81
689.221	13375.82
689.568	13306.9
689.915	13405.42
690.262	13313.9
690.609	13246.11
690.956	13195.71
691.303	13228.71
691.65	13147.8
691.997	13091.31
692.344	12969.5
692.69	13003.63
693.037	12986.68
693.383	12915.95
693.73	12943.97
694.077	12856.74
694.423	12837.76
694.769	12804.31
695.116	12739.23
695.462	12746.46
695.808	12722.5
696.155	12716.85
696.501	12603.19
696.847	12503.75
697.193	12418.56
697.539	12469.18
697.885	12411.78
698.231	12367.26
698.577	12376.07
698.923	12380.37
699.269	12326.58
699.614	12208.39
699.96	12159.36
700.306	12138.34
700.651	12107.38
700.997	11977.21
701.342	11976.54
701.688	11993.94
702.033	11951.68
702.379	11892.92
702.724	11826.93
703.069	11807.05
703.415	11680.95
703.76	11781.06
704.105	11701.29
704.45	11652.02
704.795	11608.18
705.14	11617.9
705.485	11579.94
705.83	11447.51
706.175	11527.28
706.52	11433.5
706.865	11374.97
707.209	11362.77
707.554	11326.16
707.899	11351.24
708.243	11273.5
708.588	11203.22
708.932	11147.63
709.277	11174.3
709.621	11207.97
709.966	11136.78
710.31	11084.58
710.654	11007.52
710.998	11057.24
711.342	11046.62
711.687	11006.17
712.031	10973.62
712.375	10898.37
712.719	10917.81
713.063	10887.98
713.407	10938.14
713.75	10786.74
714.094	10847.07
714.438	10757.81
714.782	10795.1
715.125	10693.63
715.469	10766.85
715.812	10632.16
716.156	10679.39
716.499	10713.52
716.843	10628.1
717.186	10549
717.53	10634.2
717.873	10596.46
718.216	10539.51
718.559	10564.6
718.902	10497.25
719.246	10495.44
719.589	10463.81
719.932	10441.21
720.275	10443.69
720.617	10443.24
720.96	10404.6
721.303	10432.17
721.646	10463.58
721.989	10350.36
722.331	10385.84
722.674	10348.78
723.016	10317.37
723.359	10390.36
723.701	10407.54
724.044	10267.65
724.386	10316.47
724.729	10261.55
725.071	10332.06
725.413	10271.27
725.755	10306.52
726.097	10198.5
726.439	10131.39
726.782	10214.55
727.124	10246.86
727.465	10218.84
727.807	10227.65
728.149	10138.17
728.491	10144.27
728.833	10169.35
729.175	10165.96
729.516	10182.23
729.858	10096.13
730.199	10218.39
730.541	10205.28
730.882	10122.12
731.224	10234.66
731.565	10140.2
731.906	10059.07
732.248	10172.29
732.589	10142.23
732.93	10068.79
733.271	10135
733.612	10133.19
733.953	10091.16
734.294	10073.99
734.635	10044.38
734.976	10094.78
735.317	10071.95
735.658	10028.79
735.999	10027.21
736.339	10069.24
736.68	10158.5
737.021	10175
737.361	10053.87
737.702	10124.38
738.042	10067.43
738.383	10125.51
738.723	10133.42
739.063	10083.25
739.404	10127.32
739.744	10211.61
740.084	10143.59
740.424	10142.69
740.764	10083.93
741.104	10123.93
741.444	10129.58
741.784	10169.58
742.124	10170.26
742.464	10191.72
742.804	10194.21
743.143	10223.59
743.483	10305.84
743.823	10291.61
744.162	10254.55
744.502	10376.13
744.841	10311.49
745.181	10424.71
745.52	10431.72
745.86	10488.44
746.199	10398.72
746.538	10509
746.877	10611.15
747.216	10651.82
747.556	10665.61
747.895	10740.41
748.234	10684.14
748.573	10756.91
748.911	10826.28
749.25	10945.38
749.589	10955.77
749.928	11047.07
750.267	11155.99
750.605	11174.3
750.944	11248.19
751.283	11274.86
751.621	11394.63
751.96	11463.78
752.298	11518.69
752.636	11685.24
752.975	11707.62
753.313	11792.36
753.651	12026.03
753.989	11989.19
754.327	12016.53
754.666	12067.83
755.004	12300.82
755.342	12418.11
755.679	12503.75
756.017	12667.59
