Data from hue_240_FLMS001491_00077.txt Node
Date: Tue Feb 07 16:35:56 GMT 2017
User: dcchb
Spectrometer: FLMS00149
Trigger mode: 0
Integration Time (sec): 2.000000E-2
Scans to average: 10
Electric dark correction enabled: true
Nonlinearity correction enabled: false
Boxcar width: 0
XAxis mode: Wavelengths
Number of Pixels in Spectrum: 2048
>>>>>Begin Spectral Data<<<<<
341.393	-12.41
341.776	-12.41
342.16	-12.41
342.543	-74.56
342.927	-76.37
343.31	-70.49
343.693	-69.81
344.077	-63.94
344.46	-79.98
344.843	-49.93
345.226	-35.47
345.61	-39.08
345.993	6.12
346.376	4.53
346.759	9.05
347.142	30.07
347.525	56.96
347.908	36.17
348.291	62.84
348.674	94.7
349.057	108.26
349.44	133.34
349.823	145.77
350.206	158.88
350.588	181.03
350.971	189.16
351.354	226
351.737	217.64
352.119	230.74
352.502	229.84
352.884	258.09
353.267	279.33
353.65	291.08
354.032	284.53
354.414	307.35
354.797	297.63
355.179	309.38
355.562	305.99
355.944	331.3
356.326	345.32
356.709	343.28
357.091	355.94
357.473	321.59
357.855	341.7
358.238	311.87
358.62	328.59
359.002	321.14
359.384	320.91
359.766	324.3
360.148	316.84
360.53	316.84
360.912	312.1
361.294	327.46
361.676	327.46
362.057	301.7
362.439	332.89
362.821	309.61
363.203	332.89
363.584	306.9
363.966	332.21
364.348	318.42
364.729	300.8
365.111	320.68
365.493	313
365.874	324.75
366.256	318.88
366.637	313
367.019	294.47
367.4	326.56
367.781	301.02
368.163	296.28
368.544	299.44
368.925	302.83
369.306	313.68
369.688	279.1
370.069	310.74
370.45	320.91
370.831	304.64
371.212	331.08
371.593	316.39
371.974	300.35
372.355	301.93
372.736	301.93
373.117	287.69
373.498	298.99
373.879	315.94
374.26	304.64
374.641	306.45
375.021	290.18
375.402	305.99
375.783	301.48
376.163	317.07
376.544	309.61
376.925	329.95
377.305	332.21
377.686	314.81
378.066	331.76
378.447	326.56
378.827	320.46
379.208	332.43
379.588	319.55
379.968	306.9
380.349	328.82
380.729	315.71
381.109	311.42
381.489	334.92
381.87	341.93
382.25	338.08
382.63	323.85
383.01	323.85
383.39	323.17
383.77	313.68
384.15	335.37
384.53	344.64
384.91	346.67
385.29	329.95
385.67	327.46
386.049	342.38
386.429	334.92
386.809	363.17
387.189	340.12
387.568	343.28
387.948	339.21
388.328	346.67
388.707	340.8
389.087	350.51
389.466	365.2
389.846	353.23
390.225	361.59
390.605	343.51
390.984	367.69
391.363	353.9
391.743	357.07
392.122	370.4
392.501	362.72
392.881	365.88
393.26	378.76
393.639	363.85
394.018	381.92
394.397	380.8
394.776	372.43
395.155	376.5
395.534	399.55
395.913	385.31
396.292	390.96
396.671	397.07
397.05	384.41
397.429	369.27
397.808	385.99
398.186	396.16
398.565	404.3
398.944	375.15
399.323	398.65
399.701	404.07
400.08	385.99
400.458	421.7
400.837	390.74
401.215	405.65
401.594	396.16
401.972	421.92
402.351	419.66
402.729	427.35
403.107	428.48
403.486	405.88
403.864	426.9
404.242	437.74
404.62	427.12
404.999	444.07
405.377	437.06
405.755	414.47
406.133	425.09
406.511	441.13
406.889	453.11
407.267	444.3
407.645	458.08
408.023	473
408.401	472.32
408.779	446.56
409.156	475.26
409.534	485.65
409.912	470.74
410.29	501.7
410.667	515.71
411.045	524.75
411.422	507.35
411.8	520.9
412.178	501.7
412.555	545.76
412.933	531.07
413.31	518.42
413.687	542.15
414.065	561.81
414.442	555.03
414.819	567.68
415.197	562.03
415.574	562.03
415.951	567.91
416.328	588.02
416.705	596.16
417.082	603.61
417.46	612.43
417.837	633.9
418.214	639.77
418.591	619.43
418.967	625.31
419.344	628.92
419.721	644.29
420.098	639.77
420.475	648.58
420.852	660.34
421.228	663.73
421.605	663.05
421.982	690.62
422.358	685.65
422.735	705.98
423.111	715.25
423.488	720.22
423.864	704.4
424.241	742.82
424.617	764.51
424.994	731.97
425.37	751.63
425.746	758.86
426.123	772.65
426.499	790.05
426.875	789.82
427.251	820.33
427.627	817.17
428.003	828.47
428.379	837.05
428.756	826.89
429.132	866.21
429.507	826.66
429.883	877.73
430.259	877.73
430.635	878.86
431.011	866.43
431.387	888.35
431.763	908.24
432.138	943.94
432.514	916.6
432.89	945.07
433.265	979.88
433.641	980.55
434.016	976.03
434.392	1025.07
434.767	1042.7
435.143	1035.24
435.518	1035.24
435.894	1056.26
436.269	1071.85
436.644	1107.78
437.02	1117.05
437.395	1096.26
437.77	1162.92
438.145	1168.12
438.52	1154.11
438.895	1181.23
439.271	1201.79
439.646	1233.65
440.021	1242.47
440.395	1266.65
440.77	1248.12
441.145	1264.84
441.52	1301.45
441.895	1285.63
442.27	1279.75
442.645	1302.58
443.019	1307.32
443.394	1312.07
443.769	1347.1
444.143	1331.96
444.518	1339.19
444.892	1357.94
445.267	1357.04
445.641	1378.96
446.016	1402.46
446.39	1422.8
446.764	1440.43
447.139	1412.18
447.513	1439.3
447.887	1446.3
448.262	1451.5
448.636	1465.51
449.01	1463.48
449.384	1501.67
449.758	1493.31
450.132	1497.38
450.506	1481.11
450.88	1551.39
451.254	1550.26
451.628	1556.36
452.002	1576.24
452.376	1583.93
452.75	1615.34
453.123	1594.55
453.497	1637.26
453.871	1649.69
454.244	1675.68
454.618	1690.59
454.992	1680.42
455.365	1678.84
455.739	1724.49
456.112	1726.97
456.486	1726.52
456.859	1773.07
457.232	1790.7
457.606	1787.99
457.979	1786.86
458.352	1841.32
458.725	1893.07
459.099	1896.24
459.472	1876.12
459.845	1913.41
460.218	2002.22
460.591	1983.92
460.964	1981.2
461.337	2002.9
461.71	2050.58
462.083	2043.35
462.456	2072.5
462.829	2067.76
463.201	2121.09
463.574	2117.02
463.947	2188.88
464.32	2200.63
464.692	2196.79
465.065	2193.63
465.438	2229.11
465.81	2258.03
466.183	2315.21
466.555	2368.31
466.928	2384.36
467.3	2354.3
467.672	2414.41
468.045	2457.8
468.417	2421.42
468.789	2454.41
469.161	2506.61
469.534	2513.17
469.906	2552.49
470.278	2594.07
470.65	2626.39
471.022	2648.98
471.394	2666.61
471.766	2716.1
472.138	2739.38
472.51	2817.57
472.882	2835.42
473.253	2853.5
473.625	2921.97
473.997	2968.3
474.369	2914.29
474.74	3002.42
475.112	3043.78
475.484	3067.73
475.855	3130.33
476.227	3128.29
476.598	3218.69
476.97	3244.45
477.341	3279.48
477.713	3307.05
478.084	3349.53
478.455	3434.27
478.827	3505.68
479.198	3582.97
479.569	3543.2
479.94	3634.95
480.311	3687.15
480.682	3761.72
481.053	3819.12
481.424	3856.41
481.795	3875.62
482.166	3938.89
482.537	3963.98
482.908	4059.12
483.279	4093.01
483.65	4192.22
484.021	4225.89
484.391	4264.31
484.762	4248.49
485.133	4321.48
485.503	4342.72
485.874	4464.76
486.244	4453
486.615	4559.67
486.985	4586.79
487.356	4721.47
487.726	4718.08
488.097	4818.42
488.467	4829.49
488.837	4925.76
489.207	4928.47
489.578	5043.72
489.948	5034.91
490.318	5109.48
490.688	5108.13
491.058	5173.66
491.428	5233.32
491.798	5268.58
492.168	5364.84
492.538	5316.48
492.908	5394.45
493.278	5500.21
493.648	5504.28
494.017	5615.01
494.387	5601.67
494.757	5698.4
495.126	5674.89
495.496	5730.94
495.866	5815.23
496.235	5789.47
496.605	5847.54
496.974	5872.63
497.344	5866.75
497.713	5866.98
498.082	6001.44
498.452	5974.32
498.821	6033.08
499.19	6065.84
499.559	6121.44
499.928	6140.87
500.298	6174.32
500.667	6200.08
501.036	6228.78
501.405	6254.54
501.774	6230.58
502.143	6273.3
502.512	6296.12
502.88	6340.41
503.249	6320.07
503.618	6377.7
503.987	6384.71
504.356	6424.03
504.724	6503.8
505.093	6470.35
505.462	6500.63
505.83	6493.85
506.199	6547.64
506.567	6651.59
506.936	6645.04
507.304	6680.74
507.672	6693.85
508.041	6687.52
508.409	6722.1
508.777	6767.75
509.145	6870.12
509.514	6804.13
509.882	6840.74
510.25	6811.81
510.618	6835.54
510.986	6891.58
511.354	6981.75
511.722	6997.57
512.09	6936.78
512.458	6960.28
512.826	7041.64
513.193	6985.82
513.561	7015.65
513.929	7031.69
514.297	7080.05
514.664	7139.71
515.032	7146.27
515.4	7162.54
515.767	7201.41
516.135	7211.58
516.502	7153.95
516.869	7245.7
517.237	7275.76
517.604	7271.01
517.972	7295.42
518.339	7293.83
518.706	7311.23
519.073	7355.07
519.44	7342.65
519.808	7421.51
520.175	7393.72
520.542	7420.61
520.909	7398.01
521.276	7413.83
521.643	7515.07
522.009	7529.31
522.376	7542.64
522.743	7558.91
523.11	7634.84
523.477	7676.42
523.843	7648.85
524.21	7720.72
524.577	7692.47
524.943	7773.37
525.31	7749.87
525.676	7738.57
526.043	7763.88
526.409	7822.18
526.776	7861.95
527.142	7940.6
527.508	7918.9
527.874	7865.12
528.241	7917.77
528.607	7961.16
528.973	7905.79
529.339	7898.34
529.705	8008.39
530.071	8011.33
530.437	7997.09
530.803	8039.58
531.169	8092.23
531.535	7975.85
531.901	8031.44
532.267	7994.83
532.632	8097.2
532.998	8071.44
533.364	8073.7
533.73	8107.82
534.095	8109.18
534.461	8134.94
534.826	8149.4
535.192	8132.23
535.557	8167.03
535.923	8123.19
536.288	8111.67
536.653	8172.68
537.019	8060.37
537.384	8087.03
537.749	8125.22
538.114	8128.84
538.479	8164.55
538.845	8118.22
539.21	8102.4
539.575	8115.51
539.94	8078.9
540.305	8084.1
540.67	8099.46
541.034	8141.04
541.399	8152.34
541.764	8070.99
542.129	8098.56
542.494	8055.62
542.858	8106.92
543.223	8078.9
543.587	8106.92
543.952	8091.55
544.316	8086.81
544.681	8109.86
545.045	8073.47
545.41	8068.73
545.774	8091.1
546.138	8106.24
546.503	8074.6
546.867	8069.63
547.231	8092.23
547.595	8082.74
547.959	8052.23
548.324	8034.83
548.688	7989.63
549.052	8066.92
549.416	8101.95
549.779	8076.19
550.143	7988.96
550.507	8104.21
550.871	8119.35
551.235	8001.39
551.599	8109.41
551.962	8030.54
552.326	8058.79
552.689	8051.55
553.053	8029.63
553.417	7985.34
553.78	8110.76
554.143	8036.64
554.507	8108.73
554.87	8103.53
555.234	8129.97
555.597	8098.33
555.96	8058.79
556.323	8116.41
556.686	8079.35
557.05	8155.51
557.413	8106.69
557.776	8165.45
558.139	8168.61
558.502	8139.01
558.865	8178.56
559.228	8166.81
559.59	8188.95
559.953	8153.25
560.316	8175.62
560.679	8238.89
561.041	8269.18
561.404	8296.52
561.767	8282.28
562.129	8235.5
562.492	8345.11
562.854	8260.14
563.217	8272.56
563.579	8270.98
563.941	8402.51
564.304	8327.03
564.666	8441.37
565.028	8407.93
565.39	8484.54
565.753	8459.68
566.115	8522.73
566.477	8497.64
566.839	8505.55
567.201	8520.92
567.563	8572.22
567.925	8614.48
568.287	8517.53
568.648	8613.8
569.01	8605.21
569.372	8686.11
569.734	8656.06
570.095	8704.64
570.457	8689.28
570.819	8725.66
571.18	8767.69
571.542	8723.4
571.903	8730.63
572.265	8770.63
572.626	8820.57
572.987	8866.22
573.349	8822.16
573.71	8915.26
574.071	8929.95
574.432	8889.72
574.794	8986.22
575.155	8944.41
575.516	8957.97
575.877	9002.72
576.238	8987.57
576.599	9037.97
576.96	9066.22
577.32	9018.08
577.681	9045.43
578.042	9063.73
578.403	9108.93
578.763	9140.11
579.124	9135.37
579.485	9167.46
579.845	9222.37
580.206	9203.16
580.566	9234.57
580.927	9187.57
581.287	9276.15
581.648	9213.56
582.008	9247.23
582.368	9304.85
582.728	9336.72
583.089	9308.7
583.449	9299.2
583.809	9380.33
584.169	9410.16
584.529	9360.22
584.889	9424.63
585.249	9327
585.609	9295.36
585.969	9383.04
586.329	9277.96
586.688	9443.61
587.048	9399.77
587.408	9374
587.768	9395.47
588.127	9372.42
588.487	9427.79
588.846	9500.78
589.206	9425.53
589.565	9434.12
589.925	9502.14
590.284	9396.15
590.643	9538.07
591.003	9509.82
591.362	9564.73
591.721	9526.32
592.08	9574.23
592.44	9581.68
592.799	9544.17
593.158	9497.62
593.517	9584.62
593.876	9561.34
594.235	9613.55
594.593	9550.95
594.952	9567.67
595.311	9497.39
595.67	9561.57
596.029	9609.93
596.387	9637.73
596.746	9667.56
597.104	9648.35
597.463	9526.54
597.822	9630.95
598.18	9654.45
598.538	9644.96
598.897	9704.17
599.255	9638.63
599.613	9735.35
599.972	9718.4
600.33	9643.83
600.688	9703.94
601.046	9719.31
601.404	9758.18
601.762	9779.64
602.12	9774.9
602.478	9815.12
602.836	9789.59
603.194	9629.59
603.552	9763.15
603.91	9729.7
604.268	9787.55
604.625	9658.29
604.983	9780.1
605.341	9702.36
605.698	9795.46
606.056	9797.04
606.413	9824.39
606.771	9879.53
607.128	9792.75
607.485	9804.05
607.843	9783.49
608.2	9891.51
608.557	9863.48
608.914	9874.1
609.272	9896.7
609.629	9908.23
609.986	9957.27
610.343	9886.76
610.7	9949.58
611.057	9953.88
611.414	9873.2
611.771	9888.34
612.127	9976.47
612.484	10007.89
612.841	10002.24
613.198	9948
613.554	9966.08
613.911	9971.5
614.267	10049.92
614.624	9977.6
614.98	10002.24
615.337	10017.38
615.693	10165.4
616.05	10037.49
616.406	10009.02
616.762	9990.03
617.118	10005.85
617.475	10040.43
617.831	10027.32
618.187	10110.93
618.543	10069.13
618.899	10169.01
619.255	10095.57
619.611	10172.18
619.967	10144.38
620.323	10105.51
620.678	10100.54
621.034	10119.52
621.39	10093.08
621.746	10029.13
622.101	10157.71
622.457	10080.43
622.812	10118.62
623.168	10164.27
623.523	10065.96
623.879	10239.74
624.234	10220.08
624.589	10138.96
624.945	10067.09
625.3	10126.98
625.655	10099.86
626.01	10153.19
626.365	10120.65
626.72	10206.98
627.075	10062.57
627.43	10086.53
627.785	10099.86
628.14	10079.3
628.495	10130.14
628.85	10110.93
629.205	10069.13
629.559	10105.51
629.914	10023.48
630.269	10054.89
630.623	9981.67
630.978	10023.03
631.332	10014.67
631.687	10027.77
632.041	10040.2
632.396	10042.01
632.75	9965.4
633.104	10053.99
633.459	10042.01
633.813	9929.47
634.167	9905.74
634.521	9933.76
634.875	9967.44
635.229	9884.27
635.583	9863.26
635.937	9893.54
636.291	9859.42
636.645	9858.51
636.999	9826.87
637.352	9806.99
637.706	9786.65
638.06	9814.67
638.413	9833.88
638.767	9781.9
639.121	9813.09
639.474	9736.26
639.828	9795.91
640.181	9793.43
640.534	9776.03
640.888	9741.45
641.241	9730.83
641.594	9674.56
641.947	9779.19
642.301	9704.84
642.654	9659.42
643.007	9637.05
643.36	9689.7
643.713	9659.65
644.066	9690.15
644.419	9679.53
644.771	9599.99
645.124	9486.77
645.477	9494.91
645.83	9409.48
646.182	9425.98
646.535	9355.47
646.888	9370.39
647.24	9300.11
647.593	9368.81
647.945	9290.84
648.298	9315.02
648.65	9237.06
649.002	9276.38
649.355	9306.66
649.707	9248.81
650.059	9360.45
650.411	9501.01
650.763	9465.75
651.115	9493.32
651.467	9534.9
651.819	9542.59
652.171	9565.19
652.523	9510.27
652.875	9569.03
653.227	9442.7
653.578	9531.74
653.93	9468.92
654.282	9491.97
654.633	9481.12
654.985	9515.47
655.337	9491.06
655.688	9460.56
656.039	9530.61
656.391	9454.91
656.742	9477.28
657.094	9455.36
657.445	9530.61
657.796	9499.43
658.147	9415.81
658.498	9443.38
658.849	9414.46
659.2	9463.72
659.551	9433.89
659.902	9413.1
660.253	9454
660.604	9490.16
660.955	9400.9
661.306	9412.42
661.656	9400.67
662.007	9391.41
662.358	9442.48
662.708	9422.59
663.059	9509.37
663.409	9408.35
663.76	9472.53
664.11	9469.14
664.461	9430.27
664.811	9429.14
665.161	9487
665.511	9416.72
665.862	9446.77
666.212	9509.82
666.562	9461.01
666.912	9409.94
667.262	9413.1
667.612	9458.3
667.962	9473.89
668.312	9438.18
668.662	9461.01
669.011	9485.87
669.361	9410.84
669.711	9419.88
670.06	9397.96
670.41	9378.07
670.76	9310.5
671.109	9439.99
671.459	9472.99
671.808	9420.33
672.157	9354.12
672.507	9324.97
672.856	9351.41
673.205	9381.01
673.554	9370.16
673.904	9282.26
674.253	9281.58
674.602	9333.78
674.951	9185.31
675.3	9169.49
675.649	9283.61
675.998	9330.62
676.346	9323.61
676.695	9326.55
677.044	9182.37
677.393	9290.62
677.741	9259.21
678.09	9238.87
678.438	9258.53
678.787	9150.96
679.135	9203.39
679.484	9204.29
679.832	9205.2
680.181	9070.74
680.529	9181.92
680.877	9146.67
681.225	9158.19
681.573	9145.54
681.922	9045.65
682.27	9101.02
682.618	9070.28
682.966	9095.37
683.314	8971.08
683.661	9059.89
684.009	8935.82
684.357	8965.65
684.705	8986.9
685.053	9045.2
685.4	8956.61
685.748	8892.89
686.095	8879.78
686.443	8855.15
686.79	8806.34
687.138	8869.84
687.485	8857.63
687.832	8724.98
688.18	8792.78
688.527	8692.44
688.874	8754.81
689.221	8718.65
689.568	8644.53
689.915	8654.02
690.262	8661.71
690.609	8604.08
690.956	8611.99
691.303	8522.28
691.65	8535.38
691.997	8492.45
692.344	8423.52
692.69	8483.86
693.037	8443.18
693.383	8401.6
693.73	8374.03
694.077	8362.05
694.423	8355.27
694.769	8344.2
695.116	8259.46
695.462	8255.16
695.808	8244.09
696.155	8277.54
696.501	8172.45
696.847	8162.06
697.193	8115.05
697.539	8171.1
697.885	8111.44
698.231	8039.8
698.577	8086.13
698.923	7990.99
699.269	7965.91
699.614	7958.45
699.96	7951.22
700.306	7973.59
700.651	7861.05
700.997	7817.89
701.342	7833.48
701.688	7779.47
702.033	7821.05
702.379	7754.84
702.724	7760.26
703.069	7731.56
703.415	7704.44
703.76	7649.98
704.105	7650.43
704.45	7688.63
704.795	7591.9
705.14	7561.85
705.485	7508.07
705.83	7440.5
706.175	7499.03
706.52	7497.44
706.865	7472.59
707.209	7486.6
707.554	7370.67
707.899	7494.05
708.243	7452.25
708.588	7333.15
708.932	7334.51
709.277	7314.4
709.621	7285.25
709.966	7279.82
710.31	7252.48
710.654	7206.6
710.998	7260.61
711.342	7188.98
711.687	7190.11
712.031	7173.61
712.375	7117.79
712.719	7119.83
713.063	7203.21
713.407	7215.64
713.75	7132.03
714.094	7122.76
714.438	7082.77
714.782	7068.08
715.125	7012.03
715.469	7087.06
715.812	7009.1
716.156	6992.37
716.499	7008.64
716.843	6975.2
717.186	6952.15
717.53	7033.05
717.873	7015.87
718.216	6949.89
718.559	6880.96
718.902	6899.95
719.246	6954.18
719.589	6863.34
719.932	6864.69
720.275	6853.85
720.617	6821.76
720.96	6862.88
721.303	6835.09
721.646	6906.5
721.989	6832.83
722.331	6838.03
722.674	6800.74
723.016	6829.89
723.359	6846.16
723.701	6850.23
724.044	6815.43
724.386	6759.61
724.729	6782.66
725.071	6823.34
725.413	6710.8
725.755	6714.87
726.097	6737.24
726.439	6709.67
726.782	6699.27
727.124	6749.67
727.465	6694.98
727.807	6750.57
728.149	6718.03
728.491	6664.7
728.833	6685.71
729.175	6666.73
729.516	6703.79
729.858	6629.67
730.199	6617.69
730.541	6669.44
730.882	6646.62
731.224	6670.8
731.565	6692.72
731.906	6695.66
732.248	6639.61
732.589	6667.64
732.93	6633.96
733.271	6619.5
733.612	6622.89
733.953	6601.2
734.294	6599.84
734.635	6545.6
734.976	6606.62
735.317	6613.4
735.658	6601.42
735.999	6633.51
736.339	6542.44
736.68	6581.76
737.021	6590.8
737.361	6567.53
737.702	6631.48
738.042	6571.59
738.383	6621.99
738.723	6653.17
739.063	6585.38
739.404	6582.21
739.744	6596.45
740.084	6640.97
740.424	6647.3
740.764	6609.33
741.104	6725.26
741.444	6588.09
741.784	6625.15
742.124	6675.54
742.464	6676.45
742.804	6690.01
743.143	6701.98
743.483	6662.21
743.823	6683.68
744.162	6726.39
744.502	6693.4
744.841	6724.58
745.181	6765.94
745.52	6742.21
745.86	6771.14
746.199	6769.1
746.538	6822.66
746.877	6845.03
747.216	6910.79
747.556	6925.93
747.895	6929.1
748.234	6922.54
748.573	6929.78
748.911	6969.77
749.25	7061.52
749.589	7067.85
749.928	7081.64
750.267	7150.79
750.605	7157.57
750.944	7210.45
751.283	7241.86
751.621	7283.44
751.96	7301.07
752.298	7414.28
752.636	7435.07
752.975	7470.55
753.313	7458.8
753.651	7582.64
753.989	7630.1
754.327	7705.35
754.666	7800.26
755.004	7901.05
755.342	7920.26
755.679	7995.28
756.017	8106.69
756.355	8177.88
756.693	8233.24
757.031	8292.9
757.368	8362.51
757.706	8436.63
758.044	8475.05
758.381	8676.4
758.719	8740.35
759.056	8845.21
759.394	8917.97
759.731	8945.99
760.068	9068.02
760.405	9142.82
760.743	9194.12
761.08	9391.18
761.417	9389.15
761.754	9565.64
762.091	9606.77
762.428	9706.2
762.765	9805.63
763.102	9881.11
763.438	10013.76
763.775	10011.5
764.112	10146.87
764.449	10235.68
764.785	10300.08
765.122	10375.79
765.458	10431.83
765.795	10493.98
766.131	10623.46
766.467	10720.18
766.804	10740.75
767.14	10813.74
767.476	10963.34
767.812	10912.95
768.148	11079.5
768.485	11081.76
