Data from hue_260_FLMS001491_00024.txt Node
Date: Tue Feb 07 15:58:46 GMT 2017
User: dcchb
Spectrometer: FLMS00149
Trigger mode: 0
Integration Time (sec): 2.000000E-2
Scans to average: 10
Electric dark correction enabled: true
Nonlinearity correction enabled: false
Boxcar width: 0
XAxis mode: Wavelengths
Number of Pixels in Spectrum: 2048
>>>>>Begin Spectral Data<<<<<
341.393	-15.96
341.776	-15.96
342.16	-15.96
342.543	-62.74
342.927	-62.74
343.31	-76.98
343.693	-76.75
344.077	-73.59
344.46	-54.6
344.843	-46.02
345.226	-28.16
345.61	-33.13
345.993	-15.73
346.376	-6.92
346.759	17.03
347.142	22.01
347.525	50.25
347.908	63.36
348.291	77.6
348.674	77.14
349.057	104.49
349.44	136.58
349.823	133.19
350.206	149.91
350.588	183.13
350.971	192.85
351.354	233.3
351.737	226.97
352.119	236.01
352.502	254.54
352.884	255.67
353.267	274.43
353.65	289.57
354.032	301.32
354.414	302.45
354.797	302.45
355.179	311.04
355.562	311.26
355.944	338.38
356.326	322.56
356.709	316.46
357.091	337.03
357.473	321.43
357.855	337.93
358.238	342.22
358.62	329.34
359.002	334.09
359.384	333.64
359.766	339.28
360.148	353.97
360.53	336.57
360.912	311.94
361.294	307.2
361.676	329.12
362.057	344.71
362.439	330.92
362.821	325.5
363.203	312.17
363.584	331.15
363.966	312.62
364.348	317.59
364.729	304.94
365.111	297.7
365.493	295.22
365.874	305.84
366.256	318.49
366.637	288.21
367.019	313.97
367.4	321.21
367.781	308.33
368.163	309.23
368.544	315.1
368.925	294.09
369.306	304.94
369.688	301.77
370.069	297.25
370.45	296.8
370.831	289.12
371.212	291.15
371.593	307.87
371.974	310.81
372.355	309.46
372.736	317.36
373.117	318.72
373.498	305.16
373.879	308.1
374.26	318.27
374.641	311.94
375.021	303.58
375.402	312.84
375.783	308.78
376.163	303.13
376.544	338.38
376.925	333.41
377.305	329.34
377.686	307.65
378.066	323.47
378.447	334.99
378.827	316.91
379.208	327.76
379.588	331.15
379.968	317.59
380.349	320.98
380.729	346.06
381.109	321.88
381.489	322.56
381.87	338.38
382.25	321.66
382.63	317.36
383.01	326.4
383.39	324.6
383.77	347.65
384.15	320.98
384.53	327.76
384.91	341.09
385.29	323.92
385.67	356.23
386.049	349.45
386.429	328.66
386.809	358.72
387.189	362.79
387.568	346.06
387.948	344.71
388.328	346.97
388.707	352.62
389.087	351.26
389.466	364.59
389.846	337.48
390.225	366.63
390.605	363.69
390.984	370.47
391.363	365.95
391.743	374.09
392.122	362.56
392.501	365.27
392.881	368.89
393.26	380.87
393.639	365.05
394.018	386.06
394.397	374.99
394.776	381.77
395.155	414.31
395.534	374.09
395.913	371.37
396.292	388.78
396.671	372.96
397.05	392.16
397.429	389.91
397.808	382
398.186	380.87
398.565	386.97
398.944	405.05
399.323	392.84
399.701	394.42
400.08	423.12
400.458	407.98
400.837	409.34
401.215	425.16
401.594	425.16
401.972	404.82
402.351	417.7
402.729	417.7
403.107	429.45
403.486	449.11
403.864	433.07
404.242	417.25
404.62	463.58
404.999	454.99
405.377	444.82
405.755	444.59
406.133	464.25
406.511	488.21
406.889	479.85
407.267	477.36
407.645	459.51
408.023	481.2
408.401	490.47
408.779	507.87
409.156	485.04
409.534	506.96
409.912	506.74
410.29	509
410.667	531.37
411.045	508.77
411.422	534.99
411.8	522.78
412.178	540.18
412.555	530.24
412.933	570.92
413.31	573.85
413.687	583.57
414.065	570.01
414.442	606.85
414.819	584.48
415.197	603.46
415.574	600.75
415.951	604.59
416.328	622.44
416.705	612.05
417.082	626.96
417.46	636.68
417.837	649.33
418.214	653.85
418.591	668.09
418.967	658.15
419.344	692.27
419.721	699.05
420.098	675.77
420.475	689.56
420.852	694.98
421.228	705.83
421.605	724.81
421.982	749.9
422.358	753.06
422.735	760.74
423.111	764.81
423.488	760.74
423.864	778.14
424.241	803.45
424.617	806.39
424.994	826.28
425.37	823.34
425.746	837.35
426.123	852.72
426.499	841.42
426.875	866.28
427.251	905.6
427.627	880.06
428.003	895.2
428.379	908.08
428.756	931.59
429.132	943.79
429.507	934.52
429.883	941.08
430.259	977.01
430.635	971.13
431.011	987.86
431.387	990.34
431.763	1020.17
432.138	1006.84
432.514	1029.89
432.89	1061.3
433.265	1068.76
433.641	1079.38
434.016	1099.04
434.392	1130.22
434.767	1160.28
435.143	1154.86
435.518	1164.8
435.894	1208.87
436.269	1225.36
436.644	1222.88
437.02	1247.96
437.395	1268.53
437.77	1267.17
438.145	1288.19
438.52	1314.17
438.895	1321.63
439.271	1344
439.646	1358.92
440.021	1402.76
440.395	1397.11
440.77	1391.01
441.145	1400.27
441.52	1446.37
441.895	1442.98
442.27	1463.78
442.645	1466.71
443.019	1515.53
443.394	1505.81
443.769	1510.78
444.143	1495.86
444.518	1545.81
444.892	1520.72
445.267	1554.62
445.641	1546.48
446.016	1552.59
446.39	1542.19
446.764	1633.49
447.139	1598.46
447.513	1613.38
447.887	1617.22
448.262	1644.56
448.636	1658.57
449.01	1643.88
449.384	1703.32
449.758	1682.3
450.132	1719.36
450.506	1713.26
450.88	1728.4
451.254	1739.93
451.628	1732.92
452.002	1731.34
452.376	1800.94
452.75	1798.68
453.123	1811.56
453.497	1836.42
453.871	1850.21
454.244	1880.49
454.618	1894.95
454.992	1899.47
455.365	1879.13
455.739	1969.07
456.112	1964.78
456.486	1975.63
456.859	1996.87
457.232	2016.75
457.606	2052.91
457.979	2050.43
458.352	2080.93
458.725	2113.48
459.099	2105.34
459.472	2156.64
459.845	2189.63
460.218	2193.25
460.591	2252.23
460.964	2214.49
461.337	2253.81
461.71	2310.31
462.083	2303.75
462.456	2341.04
462.829	2321.15
463.201	2371.1
463.574	2379.23
463.947	2453.81
464.32	2481.15
464.692	2466.23
465.065	2504.2
465.438	2528.38
465.81	2548.72
466.183	2592.33
466.555	2632.78
466.928	2643.18
467.3	2628.04
467.672	2661.94
468.045	2750.52
468.417	2733.35
468.789	2755.04
469.161	2809.5
469.534	2866.9
469.906	2900.12
470.278	2933.57
470.65	2931.99
471.022	2979.44
471.394	3060.8
471.766	3069.16
472.138	3099.44
472.51	3136.5
472.882	3181.7
473.253	3211.98
473.625	3259.89
473.997	3327.68
474.369	3291.75
474.74	3337.85
475.112	3424.63
475.484	3444.51
475.855	3506.21
476.227	3551.86
476.598	3619.42
476.97	3595.02
477.341	3730.83
477.713	3771.06
478.084	3764.05
478.455	3884.05
478.827	3899.64
479.198	4005.18
479.569	3975.8
479.94	4067.1
480.311	4105.06
480.682	4184.61
481.053	4248.56
481.424	4302.8
481.795	4356.58
482.166	4380.53
482.537	4411.95
482.908	4491.49
483.279	4535.33
483.65	4622.79
484.021	4733.75
484.391	4742.33
484.762	4801.77
485.133	4821.88
485.503	4895.78
485.874	4969.22
486.244	4996.56
486.615	5078.82
486.985	5180.74
487.356	5218.25
487.726	5234.3
488.097	5337.12
488.467	5317.91
488.837	5435.87
489.207	5493.5
489.578	5609.2
489.948	5527.85
490.318	5674.96
490.688	5662.53
491.058	5758.35
491.428	5793.15
491.798	5861.4
492.168	5947.5
492.538	5972.36
492.908	6063.65
493.278	6122.41
493.648	6099.13
494.017	6206.25
494.387	6193.59
494.757	6209.64
495.126	6308.17
495.496	6300.26
495.866	6346.58
496.235	6384.55
496.605	6435.85
496.974	6477.2
497.344	6502.06
497.713	6502.74
498.082	6573.7
498.452	6621.15
498.821	6664.32
499.19	6679.68
499.559	6693.02
499.928	6751.55
500.298	6750.42
500.667	6824.09
501.036	6789.28
501.405	6841.03
501.774	6868.38
502.143	6936.63
502.512	6904.08
502.88	6959.22
503.249	6994.48
503.618	7047.13
503.987	7020.47
504.356	7072.89
504.724	7091.42
505.093	7112.21
505.462	7106.34
505.83	7151.99
506.199	7167.13
506.567	7251.65
506.936	7276.05
507.304	7324.86
507.672	7294.36
508.041	7384.75
508.409	7371.87
508.777	7422.26
509.145	7416.61
509.514	7389.49
509.882	7495.93
510.25	7450.74
510.618	7586.1
510.986	7490.96
511.354	7527.57
511.722	7577.06
512.09	7596.5
512.458	7560.34
512.826	7639.21
513.193	7626.1
513.561	7657.74
513.929	7742.71
514.297	7732.99
514.664	7775.93
515.032	7784.96
515.4	7764.4
515.767	7815.25
516.135	7837.84
516.502	7801.91
516.869	7918.07
517.237	7908.35
517.604	7934.34
517.972	7930.27
518.339	7998.29
518.706	7894.11
519.073	7964.62
519.44	8000.78
519.808	8020.21
520.175	8015.47
520.542	8118.06
520.909	8085.07
521.276	8081.45
521.643	8137.5
522.009	8154.45
522.376	8148.35
522.743	8229.25
523.11	8264.05
523.477	8226.99
523.843	8336.59
524.21	8317.15
524.577	8311.28
524.943	8337.27
525.31	8320.77
525.676	8422.91
526.043	8427.89
526.409	8414.33
526.776	8394.89
527.142	8466.3
527.508	8492.74
527.874	8520.54
528.241	8522.12
528.607	8476.92
528.973	8542.91
529.339	8534.55
529.705	8594.21
530.071	8656.81
530.437	8550.37
530.803	8591.05
531.169	8672.63
531.535	8616.36
531.901	8605.28
532.267	8640.54
532.632	8647.77
532.998	8649.12
533.364	8675.11
533.73	8709.91
534.095	8693.42
534.461	8702.68
534.826	8690.93
535.192	8684.15
535.557	8687.54
535.923	8709.91
536.288	8704.26
536.653	8746.52
537.019	8698.84
537.384	8637.37
537.749	8703.81
538.114	8695
538.479	8694.55
538.845	8718.05
539.21	8595.56
539.575	8704.94
539.94	8735.45
540.305	8713.53
540.67	8579.52
541.034	8646.64
541.399	8681.21
541.764	8683.02
542.129	8685.51
542.494	8669.24
542.858	8581.55
543.223	8564.15
543.587	8643.7
543.952	8611.38
544.316	8647.32
544.681	8636.47
545.045	8638.73
545.41	8586.07
545.774	8614.77
546.138	8621.1
546.503	8651.83
546.867	8527.54
547.231	8622.23
547.595	8575.68
547.959	8608.45
548.324	8580.2
548.688	8584.94
549.052	8568.67
549.416	8575
549.779	8522.35
550.143	8568.9
550.507	8597.15
550.871	8529.35
551.235	8569.58
551.599	8544.27
551.962	8530.93
552.326	8566.64
552.689	8562.57
553.053	8501.78
553.417	8521.67
553.78	8595.56
554.143	8561.22
554.507	8562.8
554.87	8508.34
555.234	8620.2
555.597	8556.47
555.96	8600.54
556.323	8614.1
556.686	8531.16
557.05	8551.27
557.413	8519.86
557.776	8601.67
558.139	8613.87
558.502	8614.55
558.865	8602.12
559.228	8631.04
559.59	8643.47
559.953	8686.18
560.316	8688.44
560.679	8639.63
561.041	8684.38
561.404	8697.48
561.767	8756.01
562.129	8740.87
562.492	8771.38
562.854	8785.84
563.217	8739.97
563.579	8711.72
563.941	8839.63
564.304	8803.24
564.666	8880.3
565.028	8878.95
565.39	8869.68
565.753	8839.17
566.115	8927.08
566.477	8922.56
566.839	8929.12
567.201	8983.35
567.563	8908.33
567.925	9097.7
568.287	9044.82
568.648	8997.14
569.01	9091.37
569.372	9047.08
569.734	9049.11
570.095	9164.59
570.457	9182.89
570.819	9201.65
571.18	9169.11
571.542	9228.32
571.903	9164.59
572.265	9244.14
572.626	9315.55
572.987	9226.06
573.349	9311.03
573.71	9386.5
574.071	9357.8
574.432	9401.42
574.794	9453.85
575.155	9445.94
575.516	9424.24
575.877	9433.06
576.238	9477.35
576.599	9534.07
576.96	9522.55
577.32	9507.18
577.681	9555.09
578.042	9551.92
578.403	9584.69
578.763	9596.44
579.124	9623.79
579.485	9657.46
579.845	9654.52
580.206	9687.51
580.566	9711.92
580.927	9725.93
581.287	9753.5
581.648	9660.85
582.008	9774.52
582.368	9796.44
582.728	9803.67
583.089	9870.56
583.449	9833.27
583.809	9907.62
584.169	9861.75
584.529	9914.85
584.889	10004.79
585.249	9913.04
585.609	9934.51
585.969	9980.84
586.329	9939.94
586.688	9955.3
587.048	10002.99
587.408	10013.83
587.768	9997.34
588.127	10024.68
588.487	10031.23
588.846	10106.49
589.206	10006.6
589.565	10099.71
589.925	10115.3
590.284	10104.68
590.643	10228.97
591.003	10226.03
591.362	10170.89
591.721	10254.73
592.08	10237.78
592.44	10254.5
592.799	10239.36
593.158	10386.03
593.517	10287.95
593.876	10265.13
594.235	10280.72
594.593	10249.31
594.952	10318.91
595.311	10259.93
595.67	10323.43
596.029	10416.08
596.387	10450.66
596.746	10348.97
597.104	10379.92
597.463	10377.89
597.822	10419.92
598.18	10378.12
598.538	10423.77
598.897	10420.6
599.255	10299.7
599.613	10488.4
599.972	10422.41
600.33	10437.78
600.688	10400.72
601.046	10476.65
601.404	10496.98
601.762	10484.33
602.12	10510.99
602.478	10493.14
602.836	10565.68
603.194	10563.42
603.552	10512.35
603.91	10463.54
604.268	10565.68
604.625	10546.93
604.983	10567.04
605.341	10514.16
605.698	10535.85
606.056	10607.26
606.413	10574.5
606.771	10636.87
607.128	10581.28
607.485	10603.65
607.843	10535.85
608.2	10576.3
608.557	10665.57
608.914	10656.08
609.272	10680.48
609.629	10685.91
609.986	10726.58
610.343	10645
610.7	10770.42
611.057	10723.87
611.414	10722.29
611.771	10737.43
612.127	10866.69
612.484	10827.14
612.841	10799.8
613.198	10707.15
613.554	10741.27
613.911	10810.2
614.267	10831.66
614.624	10782.85
614.98	10824.43
615.337	10914.83
615.693	10897.2
616.05	10787.15
616.406	10888.84
616.762	10863.08
617.118	10885.45
617.475	10869.4
617.831	10885.67
618.187	10906.24
618.543	10949.85
618.899	10959.8
619.255	10975.16
619.611	10959.8
619.967	10928.61
620.323	11015.84
620.678	10961.15
621.034	10953.02
621.39	10960.25
621.746	10901.94
622.101	10986.24
622.457	10982.39
622.812	10994.37
623.168	11006.8
623.523	10990.08
623.879	11059
624.234	10930.64
624.589	10970.42
624.945	10935.62
625.3	11024.43
625.655	10981.94
626.01	10891.1
626.365	10949.4
626.72	10917.76
627.075	10960.93
627.43	10955.28
627.785	10849.52
628.14	10908.72
628.495	10895.17
628.85	10899.69
629.205	10928.16
629.559	10947.59
629.914	10872.79
630.269	10859.01
630.623	10857.43
630.978	10860.14
631.332	10884.77
631.687	10855.84
632.041	10904.88
632.396	10777.88
632.75	10849.97
633.104	10855.62
633.459	10788.28
633.813	10728.62
634.167	10759.12
634.521	10710.31
634.875	10770.2
635.229	10703.98
635.583	10722.51
635.937	10706.47
636.291	10673.25
636.645	10668.28
636.999	10660.14
637.352	10685
637.706	10595.29
638.06	10653.82
638.413	10588.05
638.767	10599.58
639.121	10593.25
639.474	10558.68
639.828	10528.17
640.181	10632.8
640.534	10563.42
640.888	10568.39
641.241	10543.08
641.594	10503.09
641.947	10466.93
642.301	10497.21
642.654	10516.87
643.007	10409.75
643.36	10555.29
643.713	10456.31
644.066	10483.42
644.419	10419.25
644.771	10405.91
645.124	10303.99
645.477	10274.39
645.83	10130.44
646.182	10114.85
646.535	10128.86
646.888	10085.7
647.24	10049.09
647.593	10125.02
647.945	10111.23
648.298	10069.65
648.65	10127.73
649.002	9987.84
649.355	10100.84
649.707	10052.93
650.059	10197.1
650.411	10245.01
650.763	10241.4
651.115	10329.98
651.467	10384.44
651.819	10280.94
652.171	10349.64
652.523	10317.78
652.875	10238.01
653.227	10256.76
653.578	10318.23
653.93	10306.48
654.282	10223.09
654.633	10256.99
654.985	10335.86
655.337	10255.41
655.688	10319.59
656.039	10275.75
656.391	10238.91
656.742	10231.68
657.094	10180.61
657.445	10305.58
657.796	10232.13
658.147	10244.34
658.498	10282.75
658.849	10276.88
659.2	10259.02
659.551	10197.56
659.902	10273.03
660.253	10282.98
660.604	10248.85
660.955	10253.15
661.306	10306.25
661.656	10244.56
662.007	10350.77
662.358	10318.68
662.708	10286.37
663.059	10286.14
663.409	10262.64
663.76	10311.68
664.11	10288.85
664.461	10259.02
664.811	10257.67
665.161	10282.98
665.511	10260.61
665.862	10272.36
666.212	10362.07
666.562	10384.9
666.912	10338.12
667.262	10314.16
667.612	10354.84
667.962	10253.83
668.312	10312.81
668.662	10403.88
669.011	10330.43
669.361	10292.47
669.711	10274.62
670.06	10298.8
670.41	10352.13
670.76	10242.98
671.109	10289.98
671.459	10232.13
671.808	10278.68
672.157	10266.48
672.507	10184.45
672.856	10244.79
673.205	10217.9
673.554	10199.36
673.904	10153.94
674.253	10245.69
674.602	10215.64
674.951	10080.27
675.3	9996.88
675.649	10166.37
675.998	10122.3
676.346	10137.9
676.695	10195.75
677.044	10081.63
677.393	10125.02
677.741	10145.35
678.09	10087.05
678.438	10102.42
678.787	10014.96
679.135	10047.96
679.484	10019.71
679.832	10095.19
680.181	9985.13
680.529	10053.61
680.877	9931.35
681.225	9951.46
681.573	9993.95
681.922	9923.21
682.27	9921.18
682.618	9855.64
682.966	9824.23
683.314	9875.08
683.661	9869.2
684.009	9794.18
684.357	9807.74
684.705	9800.05
685.053	9719.83
685.4	9782.2
685.748	9659.04
686.095	9683.45
686.443	9643
686.79	9663.79
687.138	9688.42
687.485	9620.85
687.832	9687.51
688.18	9541.98
688.527	9457.24
688.874	9551.7
689.221	9434.41
689.568	9442.55
689.915	9432.61
690.262	9420.4
690.609	9388.31
690.956	9331.82
691.303	9338.14
691.65	9258.82
691.997	9302.44
692.344	9294.76
692.69	9171.6
693.037	9197.36
693.383	9128.88
693.73	9136.34
694.077	9096.79
694.423	9095.66
694.769	9051.15
695.116	9005.95
695.462	9084.37
695.808	9032.62
696.155	8987.87
696.501	8862.45
696.847	8941.32
697.193	8820.87
697.539	8915.78
697.885	8787.65
698.231	8799.4
698.577	8742.91
698.923	8802.11
699.269	8693.42
699.614	8659.74
699.96	8636.69
700.306	8647.99
700.651	8558.28
700.997	8538.17
701.342	8509.69
701.688	8500.88
702.033	8406.87
702.379	8497.26
702.724	8390.37
703.069	8389.02
703.415	8297.27
703.76	8313.99
704.105	8333.42
704.45	8293.2
704.795	8175.01
705.14	8157.61
705.485	8164.39
705.83	8123.04
706.175	8110.83
706.52	8072.19
706.865	8100.44
707.209	8076.26
707.554	8072.64
707.899	8045.75
708.243	7928.24
708.588	7895.02
708.932	7937.96
709.277	7927.11
709.621	7956.26
709.966	7881.69
710.31	7913.77
710.654	7765.08
710.998	7815.7
711.342	7847.11
711.687	7702.03
712.031	7741.35
712.375	7719.88
712.719	7690.73
713.063	7702.93
713.407	7696.61
713.75	7700
714.094	7671.3
714.438	7568.25
714.782	7641.24
715.125	7628.36
715.469	7572.77
715.812	7608.7
716.156	7500
716.499	7522.82
716.843	7603.73
717.186	7508.81
717.53	7545.88
717.873	7522.37
718.216	7518.98
718.559	7485.99
718.902	7402.6
719.246	7454.58
719.589	7443.28
719.932	7417.97
720.275	7334.13
720.617	7302.94
720.96	7375.48
721.303	7390.4
721.646	7363.96
721.989	7302.04
722.331	7382.04
722.674	7307.01
723.016	7283.51
723.359	7337.29
723.701	7372.09
724.044	7208.71
724.386	7253.23
724.729	7282.83
725.071	7210.29
725.413	7236.5
725.755	7203.29
726.097	7237.18
726.439	7223.85
726.782	7226.79
727.124	7256.17
727.465	7196.73
727.807	7236.28
728.149	7198.31
728.491	7253.23
728.833	7174.81
729.175	7194.02
729.516	7191.08
729.858	7165.32
730.199	7207.58
730.541	7175.49
730.882	7165.55
731.224	7167.35
731.565	7133.23
731.906	7167.81
732.248	7187.01
732.589	7146.34
732.93	7138.88
733.271	7144.3
733.612	7175.72
733.953	7100.91
734.294	7069.28
734.635	7090.97
734.976	7080.58
735.317	7088.71
735.658	7114.93
735.999	7150.18
736.339	7109.5
736.68	7201.48
737.021	7184.75
737.361	7084.64
737.702	7159.67
738.042	7126.45
738.383	7134.59
738.723	7136.62
739.063	7151.31
739.404	7237.86
739.744	7229.5
740.084	7137.52
740.424	7191.76
740.764	7148.6
741.104	7144.3
741.444	7149.28
741.784	7201.7
742.124	7236.73
742.464	7220.69
742.804	7182.72
743.143	7214.81
743.483	7277.63
743.823	7231.53
744.162	7253
744.502	7333
744.841	7330.97
745.181	7354.69
745.52	7385.65
745.86	7411.19
746.199	7449.83
746.538	7462.04
746.877	7518.76
747.216	7513.33
747.556	7520.11
747.895	7570.51
748.234	7581.35
748.573	7660
748.911	7699.77
749.25	7753.78
749.589	7735.25
749.928	7880.56
750.267	7995.35
750.605	7993.32
750.944	8017.05
751.283	8068.57
751.621	8151.06
751.96	8185.41
752.298	8298.62
752.636	8370.03
752.975	8337.27
753.313	8462.46
753.651	8576.81
753.989	8630.82
754.327	8696.81
754.666	8752.17
755.004	8887.76
755.342	9065.38
755.679	9091.15
756.017	9150.35
756.355	9287.07
756.693	9385.83
757.031	9512.83
757.368	9570
757.706	9693.62
758.044	9739.49
758.381	10011.12
758.719	10094.28
759.056	10196.88
759.394	10228.74
759.731	10343.77
760.068	10524.33
760.405	10722.97
760.743	10733.14
761.08	10934.71
761.417	10950.98
761.754	11117.76
762.091	11237.3
762.428	11346
762.765	11462.16
763.102	11655.37
763.438	11751.64
763.775	11853.56
764.112	12017.4
764.449	12187.79
