Data from hue_70_FLMS001491_36.txt Node
Date: Mon Feb 06 15:20:46 GMT 2017
User: dcchb
Spectrometer: FLMS00149
Trigger mode: 0
Integration Time (sec): 2.000000E-2
Scans to average: 10
Electric dark correction enabled: true
Nonlinearity correction enabled: false
Boxcar width: 0
XAxis mode: Wavelengths
Number of Pixels in Spectrum: 2048
>>>>>Begin Spectral Data<<<<<
341.393	-6.92
341.776	-6.92
342.16	-6.92
342.543	-62.29
342.927	-79.69
343.31	-73.59
343.693	-62.51
344.077	-53.7
344.46	-53.25
344.843	-48.28
345.226	-37.2
345.61	-38.11
345.993	-33.36
346.376	-6.02
346.759	-3.98
347.142	36.92
347.525	31.04
347.908	73.3
348.291	83.02
348.674	80.76
349.057	104.94
349.44	133.41
349.823	137.48
350.206	157.14
350.588	197.37
350.971	204.83
351.354	209.8
351.737	231.27
352.119	240.53
352.502	260.42
352.884	251.15
353.267	292.05
353.65	283.02
354.032	306.97
354.414	307.65
354.797	303.13
355.179	290.7
355.562	320.08
355.944	324.37
356.326	321.21
356.709	321.21
357.091	338.38
357.473	331.15
357.855	349.45
358.238	317.36
358.62	330.02
359.002	351.71
359.384	344.71
359.766	325.05
360.148	337.48
360.53	324.37
360.912	360.08
361.294	356.91
361.676	335.67
362.057	314.88
362.439	328.21
362.821	306.07
363.203	321.43
363.584	328.44
363.966	301.09
364.348	297.25
364.729	312.39
365.111	325.95
365.493	332.51
365.874	301.77
366.256	308.33
366.637	302
367.019	320.98
367.4	314.88
367.781	310.13
368.163	307.2
368.544	293.86
368.925	307.65
369.306	305.16
369.688	298.61
370.069	301.32
370.45	304.94
370.831	328.66
371.212	291.15
371.593	315.56
371.974	295.22
372.355	322.56
372.736	307.42
373.117	308.33
373.498	294.54
373.879	327.99
374.26	304.26
374.641	304.94
375.021	306.07
375.402	287.53
375.783	315.56
376.163	320.75
376.544	313.3
376.925	326.4
377.305	309.23
377.686	315.56
378.066	304.26
378.447	335.22
378.827	317.82
379.208	311.49
379.588	314.65
379.968	316.01
380.349	326.63
380.729	332.73
381.109	327.99
381.489	344.26
381.87	336.57
382.25	330.47
382.63	334.31
383.01	317.59
383.39	325.05
383.77	313.52
384.15	334.09
384.53	354.43
384.91	326.63
385.29	349.23
385.67	337.25
386.049	347.42
386.429	338.83
386.809	345.39
387.189	333.86
387.568	337.48
387.948	333.64
388.328	346.06
388.707	344.93
389.087	347.87
389.466	368.44
389.846	346.97
390.225	337.7
390.605	349.45
390.984	362.79
391.363	351.04
391.743	350.13
392.122	369.11
392.501	345.84
392.881	363.24
393.26	366.85
393.639	349.91
394.018	357.82
394.397	397.59
394.776	355.1
395.155	370.92
395.534	358.27
395.913	387.65
396.292	395.78
396.671	366.85
397.05	374.31
397.429	378.83
397.808	358.04
398.186	360.75
398.565	368.89
398.944	356.01
399.323	370.47
399.701	363.47
400.08	382
400.458	366.4
400.837	388.32
401.215	391.26
401.594	380.41
401.972	385.39
402.351	388.55
402.729	391.71
403.107	369.79
403.486	395.78
403.864	400.75
404.242	399.4
404.62	416.57
404.999	379.96
405.377	429
405.755	402.33
406.133	415.44
406.511	403.92
406.889	393.07
407.267	404.14
407.645	422.67
408.023	403.46
408.401	421.32
408.779	394.88
409.156	404.37
409.534	419.96
409.912	421.99
410.29	439.4
410.667	427.42
411.045	421.99
411.422	424.93
411.8	456.34
412.178	463.58
412.555	437.14
412.933	464.48
413.31	455.44
413.687	452.5
414.065	443.01
414.442	439.85
414.819	441.66
415.197	466.51
415.574	445.04
415.951	455.21
416.328	459.06
416.705	452.73
417.082	462.45
417.46	439.17
417.837	493.86
418.214	483.01
418.591	472.84
418.967	471.94
419.344	490.69
419.721	497.92
420.098	501.09
420.475	482.56
420.852	492.05
421.228	488.43
421.605	478.94
421.982	505.61
422.358	506.74
422.735	499.96
423.111	511.94
423.488	509.68
423.864	512.61
424.241	507.87
424.617	537.47
424.994	510.58
425.37	502.9
425.746	544.93
426.123	533.63
426.499	516.23
426.875	524.82
427.251	537.92
427.627	523.23
428.003	541.09
428.379	565.95
428.756	549.45
429.132	555.32
429.507	556.68
429.883	564.36
430.259	592.84
430.635	564.14
431.011	586.74
431.387	586.96
431.763	596.23
432.138	579.73
432.514	595.1
432.89	574.53
433.265	587.19
433.641	625.38
434.016	606.17
434.392	612.27
434.767	638.71
435.143	606.17
435.518	621.09
435.894	634.64
436.269	639.84
436.644	645.27
437.02	660.63
437.395	641.42
437.77	651.37
438.145	680.97
438.52	669.22
438.895	662.21
439.271	683.46
439.646	679.16
440.021	680.97
440.395	678.03
440.77	685.94
441.145	711.7
441.52	711.48
441.895	689.11
442.27	702.21
442.645	688.43
443.019	680.29
443.394	726.17
443.769	730.01
444.143	712.61
444.518	740.4
444.892	729.56
445.267	725.04
445.641	709.22
446.016	719.61
446.39	736.11
446.764	753.06
447.139	765.94
447.513	763
447.887	780.4
448.262	761.19
448.636	757.8
449.01	752.83
449.384	765.94
449.758	765.04
450.132	800.29
450.506	784.02
450.88	791.25
451.254	817.24
451.628	798.48
452.002	803.91
452.376	814.53
452.75	840.74
453.123	826.5
453.497	835.77
453.871	834.19
454.244	868.08
454.618	871.93
454.992	862.21
455.365	898.59
455.739	877.8
456.112	901.3
456.486	885.49
456.859	907.18
457.232	914.19
457.606	913.51
457.979	932.72
458.352	963.9
458.725	933.17
459.099	960.74
459.472	966.39
459.845	981.53
460.218	1005.48
460.591	1019.49
460.964	1028.31
461.337	1050.23
461.71	1036.22
462.083	1035.09
462.456	1064.24
462.829	1095.42
463.201	1129.32
463.574	1082.54
463.947	1085.03
464.32	1094.29
464.692	1142.88
465.065	1139.72
465.438	1148.98
465.81	1201.64
466.183	1202.31
466.555	1206.15
466.928	1226.27
467.3	1239.6
467.672	1266.94
468.045	1293.38
468.417	1308.75
468.789	1311.24
469.161	1327.96
469.534	1386.49
469.906	1391.01
470.278	1404.57
470.65	1421.29
471.022	1462.87
471.394	1507.84
471.766	1493.38
472.138	1573.15
472.51	1557.11
472.882	1595.97
473.253	1635.07
473.625	1676.65
473.997	1681.62
474.369	1740.15
474.74	1775.86
475.112	1812.92
475.484	1837.32
475.855	1919.13
476.227	1927.27
476.598	2009.3
476.97	2037.77
477.341	2070.54
477.713	2123.64
478.084	2212.91
478.455	2242.74
478.827	2286.8
479.198	2373.13
479.569	2423.07
479.94	2537.87
480.311	2602.28
480.682	2636.17
481.053	2698.54
481.424	2795.27
481.795	2865.55
482.166	2935.6
482.537	3021.02
482.908	3099.21
483.279	3193.22
483.65	3291.98
484.021	3395.48
484.391	3516.15
484.762	3561.57
485.133	3628.01
485.503	3781.45
485.874	3884.95
486.244	3986.87
486.615	4140.77
486.985	4203.59
487.356	4359.29
487.726	4455.79
488.097	4583.92
488.467	4645.16
488.837	4866.4
489.207	4977.58
489.578	5046.05
489.948	5173.73
490.318	5337.8
490.688	5421.86
491.058	5637.68
491.428	5730.78
491.798	5819.14
492.168	6041.51
492.538	6119.7
492.908	6265.68
493.278	6443.76
493.648	6558.33
494.017	6684.65
494.387	6861.6
494.757	6977.75
495.126	7093.91
495.496	7156.28
495.866	7280.12
496.235	7514.01
496.605	7657.28
496.974	7704.74
497.344	7909.71
497.713	8018.63
498.082	8192.19
498.452	8261.79
498.821	8411.61
499.19	8573.42
499.559	8741.1
499.928	8813.19
500.298	8963.46
500.667	9065.61
501.036	9141.77
501.405	9329.78
501.774	9377.01
502.143	9572.49
502.512	9636.44
502.88	9766.83
503.249	9893.16
503.618	10042.53
503.987	10209.76
504.356	10237.1
504.724	10309.87
505.093	10471.22
505.462	10527.27
505.83	10650.65
506.199	10816.52
506.567	11014.71
506.936	11045.67
507.304	11182.16
507.672	11248.15
508.041	11383.29
508.409	11454.92
508.777	11611.76
509.145	11748.25
509.514	11893.11
509.882	11938.98
510.25	12012.65
510.618	12123.16
510.986	12197.73
511.354	12425.07
511.722	12423.71
512.09	12641.33
512.458	12656.25
512.826	12862.12
513.193	12892.4
513.561	12931.95
513.929	13046.3
514.297	13227.99
514.664	13274.76
515.032	13461.2
515.4	13548.43
515.767	13621.87
516.135	13606.73
516.502	13625.04
516.869	13858.25
517.237	13886.73
517.604	13959.49
517.972	14112.93
518.339	14184.8
518.706	14214.63
519.073	14319.26
519.44	14476.54
519.808	14626.37
520.175	14608.97
520.542	14740.49
520.909	14779.58
521.276	14831.33
521.643	15036.75
522.009	15083.53
522.376	15240.36
522.743	15329.4
523.11	15434.93
523.477	15610.75
523.843	15561.94
524.21	15806.45
524.577	15822.04
524.943	15959.21
525.31	16043.05
525.676	16169.83
526.043	16232.43
526.409	16257.28
526.776	16410.95
527.142	16469.71
527.508	16485.53
527.874	16627.22
528.241	16754.22
528.607	16684.17
528.973	16887.1
529.339	16839.64
529.705	17070.37
530.071	17180.65
530.437	17253.64
530.803	17242.12
531.169	17372.28
531.535	17285.51
531.901	17326.18
532.267	17478.72
532.632	17492.51
532.998	17611.6
533.364	17615.44
533.73	17696.34
534.095	17944.02
534.461	17860.18
534.826	17956.67
535.192	17885.94
535.557	18049.1
535.923	18010.46
536.288	18103.56
536.653	18122.55
537.019	17985.37
537.384	18122.77
537.749	18217.46
538.114	18196.22
538.479	18252.49
538.845	18322.09
539.21	18240.28
539.575	18326.38
539.94	18346.95
540.305	18496.77
540.67	18474.85
541.034	18455.19
541.399	18520.73
541.764	18484.34
542.129	18480.5
542.494	18564.12
542.858	18558.92
543.223	18551.01
543.587	18653.38
543.952	18609.09
544.316	18678.01
544.681	18656.32
545.045	18748.97
545.41	18813.6
545.774	18820.15
546.138	18766.6
546.503	18889.76
546.867	18690.21
547.231	18974.5
547.595	18885.92
547.959	18970.66
548.324	18958.68
548.688	18909.42
549.052	18961.39
549.416	18976.53
549.779	19036.19
550.143	18927.27
550.507	19126.14
550.871	19121.62
551.235	19108.51
551.599	19298.11
551.962	19174.04
552.326	19236.42
552.689	19330.65
553.053	19201.39
553.417	19228.28
553.78	19473.92
554.143	19285.68
554.507	19389.41
554.87	19472.12
555.234	19536.07
555.597	19551.21
555.96	19542.17
556.323	19639.12
556.686	19582.17
557.05	19636.63
557.413	19652.9
557.776	19691.77
558.139	19844.08
558.502	19842.5
558.865	19897.64
559.228	19960.46
559.59	20066.45
559.953	19935.15
560.316	20251.98
560.679	20192.77
561.041	20184.86
561.404	20366.33
561.767	20434.12
562.129	20280.68
562.492	20524.74
562.854	20446.78
563.217	20509.6
563.579	20574.23
563.941	20657.39
564.304	20717.51
564.666	20811.29
565.028	20865.75
565.39	20842.02
565.753	20948.69
566.115	21065.07
566.477	21096.48
566.839	21109.59
567.201	21194.56
567.563	21212.18
567.925	21384.61
568.287	21378.28
568.648	21442.68
569.01	21561.1
569.372	21616.92
569.734	21357.94
570.095	21602.91
570.457	21775.78
570.819	21718.61
571.18	21618.95
571.542	21768.1
571.903	21891.71
572.265	21942.33
572.626	22048.77
572.987	22044.93
573.349	21971.48
573.71	22136.23
574.071	22219.39
574.432	22239.27
574.794	22285.83
575.155	22346.62
575.516	22264.13
575.877	22389.1
576.238	22306.84
576.599	22411.02
576.96	22433.39
577.32	22542.09
577.681	22565.82
578.042	22505.26
578.403	22596.55
578.763	22538.02
579.124	22710.9
579.485	22655.53
579.845	22722.88
580.206	22619.15
580.566	22634.74
580.927	22704.35
581.287	22907.51
581.648	22715.42
582.008	22872.48
582.368	22811.24
582.728	22922.65
583.089	22822.99
583.449	22756.32
583.809	22785.93
584.169	22819.15
584.529	22703.44
584.889	22996.32
585.249	22868.18
585.609	22742.54
585.969	22900.5
586.329	22743.89
586.688	22888.07
587.048	22869.31
587.408	22791.35
587.768	22800.16
588.127	22841.29
588.487	22851.69
588.846	22956.09
589.206	22803.33
589.565	22737.11
589.925	22941.18
590.284	22772.14
590.643	22850.56
591.003	22905.25
591.362	22909.31
591.721	22902.99
592.08	22847.85
592.44	22908.18
592.799	22838.35
593.158	22863.21
593.517	22935.53
593.876	22867.96
594.235	22955.64
594.593	22897.79
594.952	22941.18
595.311	22864.79
595.67	22888.07
596.029	23029.31
596.387	23029.54
596.746	22993.6
597.104	23015.3
597.463	22949.09
597.822	23019.37
598.18	22962.42
598.538	22867.05
598.897	22990.67
599.255	22722.2
599.613	23126.93
599.972	22966.49
600.33	23183.66
600.688	23046.94
601.046	23117.44
601.404	23114.96
601.762	23087.39
602.12	23195.41
602.478	23156.09
602.836	23217.78
603.194	23121.51
603.552	23157.89
603.91	23104.34
604.268	23310.21
604.625	23194.5
604.983	23267.95
605.341	23098.46
605.698	23274.73
606.056	23371.9
606.413	23332.35
606.771	23388.4
607.128	23398.79
607.485	23408.96
607.843	23286.25
608.2	23476.3
608.557	23482.63
608.914	23512.46
609.272	23529.18
609.629	23631.55
609.986	23636.53
610.343	23618.22
610.7	23766.69
611.057	23690.31
611.414	23702.29
611.771	23775.5
612.127	23803.3
612.484	23829.29
612.841	23926.01
613.198	23835.39
613.554	23860.25
613.911	23945.44
614.267	23945.67
614.624	23881.04
614.98	24010.75
615.337	24121.48
615.693	23944.09
616.05	24000.81
616.406	24146.57
616.762	24089.39
617.118	24105.44
617.475	24193.8
617.831	24152.67
618.187	24238.32
618.543	24236.06
618.899	24408.26
619.255	24447.13
619.611	24347.47
619.967	24366.68
620.323	24500.46
620.678	24345.43
621.034	24284.87
621.39	24248.94
621.746	24351.31
622.101	24568.7
622.457	24430.4
622.812	24469.5
623.168	24431.31
623.523	24526.9
623.879	24580.46
624.234	24419.33
624.589	24514.69
624.945	24526.45
625.3	24497.97
625.655	24512.21
626.01	24428.14
626.365	24654.35
626.72	24510.63
627.075	24578.2
627.43	24511.98
627.785	24476.5
628.14	24619.32
628.495	24561.25
628.85	24469.27
629.205	24458.2
629.559	24580
629.914	24492.77
630.269	24572.09
630.623	24411.65
630.978	24471.53
631.332	24504.3
631.687	24552.21
632.041	24511.08
632.396	24474.7
632.75	24378.2
633.104	24346.34
633.459	24255.27
633.813	24280.58
634.167	24409.61
634.521	24317.19
634.875	24326.45
635.229	24339.56
635.583	24194.7
635.937	24214.82
636.291	24192.67
636.645	24313.34
636.999	24157.64
637.352	24180.69
637.706	24004.65
638.06	24160.58
638.413	24099.34
638.767	24048.49
639.121	24127.13
639.474	23974.82
639.828	24016.63
640.181	24085.33
640.534	23982.51
640.888	24004.43
641.241	23872.9
641.594	24023.63
641.947	24008.72
642.301	23960.36
642.654	23913.13
643.007	23985.67
643.36	23904.77
643.713	23811.66
644.066	23836.52
644.419	23811.44
644.771	23631.55
645.124	23438.56
645.477	23329.41
645.83	23258.23
646.182	23127.84
646.535	23159.48
646.888	23205.12
647.24	22961.29
647.593	23136.65
647.945	23122.19
648.298	22969.2
648.65	22903.66
649.002	22875.19
649.355	23024.34
649.707	22863.21
650.059	22981.18
650.411	23316.53
650.763	23341.17
651.115	23547.26
651.467	23636.07
651.819	23567.15
652.171	23505.91
652.523	23396.98
652.875	23342.75
653.227	23302.52
653.578	23473.59
653.93	23375.74
654.282	23317.66
654.633	23297.55
654.985	23357.66
655.337	23404.67
655.688	23356.31
656.039	23408.73
656.391	23271.79
656.742	23328.74
657.094	23331.22
657.445	23319.7
657.796	23437.66
658.147	23425.01
658.498	23273.6
658.849	23420.03
659.2	23304.56
659.551	23227.72
659.902	23364.89
660.253	23389.07
660.604	23374.39
660.955	23211
661.306	23205.8
661.656	23300.94
662.007	23345.01
662.358	23356.76
662.708	23426.59
663.059	23273.6
663.409	23105.24
663.76	23389.53
664.11	23196.54
664.461	23333.48
664.811	23323.77
665.161	23301.39
665.511	23219.14
665.862	23249.19
666.212	23363.31
666.562	23381.39
666.912	23239.25
667.262	23263.2
667.612	23375.52
667.962	23303.2
668.312	23260.49
668.662	23403.76
669.011	23330.54
669.361	23147.5
669.711	23220.27
670.06	23167.16
670.41	23258.46
670.76	23240.38
671.109	23211.23
671.459	23200.6
671.808	23161.96
672.157	23181.17
672.507	22992.93
672.856	23047.39
673.205	23145.01
673.554	23154.05
673.904	23080.38
674.253	23187.95
674.602	23057.33
674.951	22710.45
675.3	22584.12
675.649	22989.31
675.998	22906.83
676.346	22985.24
676.695	23020.5
677.044	22960.16
677.393	22842.65
677.741	22991.12
678.09	22910.67
678.438	22826.15
678.787	22910.67
679.135	22900.5
679.484	22824.34
679.832	22818.92
680.181	22654.4
680.529	22776.44
680.877	22712.93
681.225	22635.42
681.573	22789.77
681.922	22607.17
682.27	22528.98
682.618	22587.06
682.966	22545.25
683.314	22645.82
683.661	22476.78
684.009	22282.89
684.357	22297.58
684.705	22316.56
685.053	22293.74
685.4	22262.32
685.748	22047.41
686.095	22205.15
686.443	22056.68
686.79	22015.78
687.138	22073.85
687.485	21974.87
687.832	21878.83
688.18	21842.45
688.527	21831.38
688.874	21742.11
689.221	21764.03
689.568	21680.64
689.915	21549.35
690.262	21601.78
690.609	21479.52
690.956	21371.73
691.303	21412.18
691.65	21318.85
691.997	21280.88
692.344	21113.2
692.69	21150.04
693.037	21108
693.383	20928.35
693.73	21144.16
694.077	20936.26
694.423	20959.76
694.769	20847.45
695.116	20807.45
695.462	20812.87
695.808	20734.68
696.155	20762.93
696.501	20480.9
696.847	20555.48
697.193	20371.98
697.539	20449.26
697.885	20267.35
698.231	20167.46
698.577	20153
698.923	20065.55
699.269	20049.73
699.614	19942.84
699.96	19840.92
700.306	19923.18
700.651	19750.07
700.997	19701.49
701.342	19637.31
701.688	19643.18
702.033	19522.74
702.379	19587.37
702.724	19347.6
703.069	19539.23
703.415	19260.14
703.76	19232.57
704.105	19280.93
704.45	19229.86
704.795	19130.2
705.14	19051.11
705.485	19150.77
705.83	18989.87
706.175	18938.34
706.52	18892.7
706.865	18863.77
707.209	18872.13
707.554	18744.22
707.899	18787.16
708.243	18621.97
708.588	18502.2
708.932	18395.53
709.277	18446.61
709.621	18494.06
709.966	18308.76
710.31	18415.65
710.654	18170
710.998	18308.53
711.342	18247.74
711.687	18157.35
712.031	18090.23
712.375	18005.49
712.719	18138.36
713.063	17984.02
713.407	17985.15
713.75	18017.24
714.094	17884.59
714.438	17826.28
714.782	17818.37
715.125	17838.26
715.469	17783.57
715.812	17710.81
716.156	17604.14
716.499	17544.03
716.843	17678.04
717.186	17593.97
717.53	17643.24
717.873	17638.04
718.216	17580.87
718.559	17481.66
718.902	17339.74
719.246	17406.86
719.589	17310.14
719.932	17328.67
720.275	17269.01
720.617	17357.14
720.96	17239.63
721.303	17171.38
721.646	17275.79
721.989	17146.75
722.331	17168.67
722.674	17071.27
723.016	17133.65
723.359	17104.49
723.701	17122.57
724.044	16925.97
724.386	16923.48
724.729	16980.43
725.071	16892.75
725.413	16918.06
725.755	16902.92
726.097	16822.69
726.439	16727.1
726.782	16849.59
727.124	16919.87
727.465	16775.69
727.807	16798.51
728.149	16733.88
728.491	16737.5
728.833	16746.99
729.175	16742.47
729.516	16700.21
729.858	16613.66
730.199	16676.26
730.541	16613.66
730.882	16539.99
731.224	16667.22
731.565	16513.55
731.906	16530.27
732.248	16652.3
732.589	16514.45
732.93	16441.91
733.271	16445.3
733.612	16505.19
733.953	16544.73
734.294	16473.55
734.635	16430.16
734.976	16501.35
735.317	16412.99
735.658	16424.96
735.999	16456.6
736.339	16452.76
736.68	16545.41
737.021	16422.25
737.361	16283.27
737.702	16504.51
738.042	16354.91
738.383	16387.22
738.723	16349.71
739.063	16308.81
739.404	16323.27
739.744	16322.14
740.084	16268.81
740.424	16317.85
740.764	16352.42
741.104	16395.13
741.444	16271.3
741.784	16274.91
742.124	16265.65
742.464	16277.4
742.804	16275.59
743.143	16286.66
743.483	16342.48
743.823	16295.02
744.162	16287.57
744.502	16342.48
744.841	16286.44
745.181	16373.44
745.52	16322.14
745.86	16436.94
746.199	16405.53
746.538	16413.44
746.877	16458.41
747.216	16543.6
747.556	16433.1
747.895	16524.17
748.234	16526.43
748.573	16522.59
748.911	16563.04
749.25	16593.09
749.589	16558.29
749.928	16689.36
750.267	16620.21
750.605	16752.64
750.944	16878.96
751.283	16766.42
751.621	16868.57
751.96	16772.3
752.298	16932.75
752.636	17012.74
752.975	16994.67
753.313	16984.72
753.651	17226.07
753.989	17203.02
754.327	17186.53
754.666	17131.39
755.004	17339.29
755.342	17333.87
755.679	17386.07
756.017	17438.5
756.355	17576.8
756.693	17649.34
757.031	17686.63
