Data from hue_160_FLMS001491_00001.txt Node
Date: Tue Feb 07 16:50:39 GMT 2017
User: dcchb
Spectrometer: FLMS00149
Trigger mode: 0
Integration Time (sec): 2.000000E-2
Scans to average: 10
Electric dark correction enabled: true
Nonlinearity correction enabled: false
Boxcar width: 0
XAxis mode: Wavelengths
Number of Pixels in Spectrum: 2048
>>>>>Begin Spectral Data<<<<<
341.393	-10.45
341.776	-10.45
342.16	-10.45
342.543	-57.23
342.927	-39.38
343.31	-94.07
343.693	-77.79
344.077	-51.58
344.46	-66.5
344.843	-45.48
345.226	-31.02
345.61	-45.03
345.993	-20.39
346.376	7.17
346.759	15.99
347.142	22.54
347.525	48.76
347.908	62.09
348.291	66.16
348.674	105.93
349.057	103.22
349.44	115.65
349.823	147.28
350.206	169.43
350.588	197.23
350.971	226.38
351.354	203.78
351.737	239.26
352.119	237.23
352.502	255.53
352.884	272.25
353.267	271.57
353.65	306.38
354.032	331.23
354.414	325.81
354.797	321.29
355.179	325.13
355.562	342.76
355.944	319.71
356.326	319.26
356.709	330.33
357.091	336.66
357.473	346.83
357.855	347.5
358.238	346.6
358.62	344.34
359.002	338.92
359.384	344.12
359.766	336.43
360.148	336.43
360.53	350.89
360.912	357.45
361.294	330.56
361.676	350.44
362.057	328.07
362.439	331.69
362.821	326.49
363.203	321.97
363.584	324
363.966	327.62
364.348	355.19
364.729	318.81
365.111	326.26
365.493	319.48
365.874	319.26
366.256	308.86
366.637	324.23
367.019	306.83
367.4	322.42
367.781	335.3
368.163	319.94
368.544	311.35
368.925	302.08
369.306	323.55
369.688	326.94
370.069	317.45
370.45	322.87
370.831	326.26
371.212	328.75
371.593	310.9
371.974	331.01
372.355	312.25
372.736	322.19
373.117	315.42
373.498	311.12
373.879	320.61
374.26	335.08
374.641	296.88
375.021	319.48
375.402	328.52
375.783	307.96
376.163	314.96
376.544	338.69
376.925	327.62
377.305	323.55
377.686	302.08
378.066	321.29
378.447	320.16
378.827	321.29
379.208	347.5
379.588	327.39
379.968	326.26
380.349	320.84
380.729	343.89
381.109	322.87
381.489	339.37
381.87	336.66
382.25	327.62
382.63	339.37
383.01	332.14
383.39	351.57
383.77	338.01
384.15	342.08
384.53	354.06
384.91	358.8
385.29	332.59
385.67	358.13
386.049	345.92
386.429	338.69
386.809	354.28
387.189	367.39
387.568	371.69
387.948	360.84
388.328	352.25
388.707	352.25
389.087	347.05
389.466	370.1
389.846	368.07
390.225	348.18
390.605	360.16
390.984	346.83
391.363	368.52
391.743	362.65
392.122	373.94
392.501	373.94
392.881	357.9
393.26	388.41
393.639	361.74
394.018	359.48
394.397	352.93
394.776	373.72
395.155	373.27
395.534	409.88
395.913	378.01
396.292	375.53
396.671	398.13
397.05	383.44
397.429	374.17
397.808	406.26
398.186	389.76
398.565	410.33
398.944	402.87
399.323	389.76
399.701	402.42
400.08	373.27
400.458	410.1
400.837	394.74
401.215	401.74
401.594	388.41
401.972	401.51
402.351	396.77
402.729	413.04
403.107	406.71
403.486	423.89
403.864	422.31
404.242	421.18
404.62	416.88
404.999	407.39
405.377	431.8
405.755	415.98
406.133	432.25
406.511	422.76
406.889	436.77
407.267	426.15
407.645	439.93
408.023	450.1
408.401	457.33
408.779	437.67
409.156	418.69
409.534	425.92
409.912	427.28
410.29	461.17
410.667	484.68
411.045	456.88
411.422	471.34
411.8	488.29
412.178	463.21
412.555	460.27
412.933	488.52
413.31	481.96
413.687	490.33
414.065	484.22
414.442	470.21
414.819	513.6
415.197	496.88
415.574	497.11
415.951	501.85
416.328	501.17
416.705	517.67
417.082	480.16
417.46	516.09
417.837	523.77
418.214	504.56
418.591	532.13
418.967	518.57
419.344	508.86
419.721	531.91
420.098	545.24
420.475	561.06
420.852	529.2
421.228	541.4
421.605	538.69
421.982	530.1
422.358	564.45
422.735	588.18
423.111	569.87
423.488	571
423.864	582.08
424.241	581.4
424.617	584.79
424.994	593.83
425.37	608.06
425.746	579.14
426.123	599.7
426.499	602.19
426.875	596.09
427.251	618.68
427.627	615.07
428.003	624.11
428.379	624.79
428.756	622.75
429.132	645.12
429.507	632.7
429.883	632.24
430.259	660.04
430.635	667.27
431.011	635.86
431.387	678.57
431.763	683.32
432.138	664.33
432.514	700.94
432.89	709.08
433.265	695.74
433.641	727.83
434.016	730.32
434.392	728.29
434.767	758.12
435.143	737.55
435.518	736.42
435.894	761.51
436.269	748.62
436.644	771
437.02	787.49
437.395	748.85
437.77	775.06
438.145	790.21
438.52	816.42
438.895	820.71
439.271	808.28
439.646	824.55
440.021	822.07
440.395	830.88
440.77	829.75
441.145	840.37
441.52	847.83
441.895	848.28
442.27	860.71
442.645	868.4
443.019	888.73
443.394	877.43
443.769	887.83
444.143	899.81
444.518	908.39
444.892	898.9
445.267	916.98
445.641	930.99
446.016	923.54
446.39	925.79
446.764	913.82
447.139	923.54
447.513	935.29
447.887	951.56
448.262	938.45
448.636	968.28
449.01	937.77
449.384	975.74
449.758	993.36
450.132	964.66
450.506	991.33
450.88	1006.47
451.254	1018.67
451.628	1003.08
452.002	1019.8
452.376	1048.05
452.75	1040.82
453.123	1043.98
453.497	1047.83
453.871	1069.07
454.244	1095.51
454.618	1094.15
454.992	1095.28
455.365	1116.07
455.739	1148.61
456.112	1156.52
456.486	1157.65
456.859	1170.31
457.232	1214.37
457.606	1172.79
457.979	1219.35
458.352	1225.67
458.725	1226.58
459.099	1252.57
459.472	1279.01
459.845	1253.02
460.218	1307.03
460.591	1321.26
460.964	1299.8
461.337	1367.14
461.71	1363.98
462.083	1394.26
462.456	1372.79
462.829	1396.52
463.201	1433.8
463.574	1416.86
463.947	1478.32
464.32	1500.47
464.692	1506.57
465.065	1516.97
465.438	1544.54
465.81	1566.46
466.183	1577.3
466.555	1625.44
466.928	1640.35
467.3	1671.76
467.672	1690.52
468.045	1726
468.417	1756.28
468.789	1758.99
469.161	1802.83
469.534	1820.23
469.906	1875.15
470.278	1910.63
470.65	1909.95
471.022	1946.78
471.394	2013.45
471.766	2057.74
472.138	2060.23
472.51	2123.73
472.882	2159.89
473.253	2184.74
473.625	2241.24
473.997	2298.19
474.369	2328.02
474.74	2388.36
475.112	2409.37
475.484	2466.55
475.855	2552.87
476.227	2595.13
476.598	2686.65
476.97	2742.47
477.341	2791.06
477.713	2843.71
478.084	2898.62
478.455	2987.89
478.827	3071.95
479.198	3151.05
479.569	3210.25
479.94	3299.07
480.311	3389.01
480.682	3451.83
481.053	3576.57
481.424	3641.43
481.795	3700.41
482.166	3841.42
482.537	3920.52
482.908	4024.24
483.279	4108.54
483.65	4245.71
484.021	4358.02
484.391	4409.09
484.762	4556.43
485.133	4621.74
485.503	4739.25
485.874	4891.57
486.244	4968.85
486.615	5107.61
486.985	5189.19
487.356	5372.46
487.726	5476.18
488.097	5616.97
488.467	5726.35
488.837	5852.44
489.207	5999.56
489.578	6170.63
489.948	6224.64
490.318	6379.66
490.688	6435.48
491.058	6631.63
491.428	6742.14
491.798	6837.73
492.168	7066.88
492.538	7146.65
492.908	7287.44
493.278	7410.37
493.648	7498.05
494.017	7663.47
494.387	7815.56
494.757	7910.92
495.126	8068.43
495.496	8082.67
495.866	8184.59
496.235	8370.34
496.605	8449.66
496.974	8544.8
497.344	8648.76
497.713	8788.19
498.082	8899.6
498.452	8998.35
498.821	9125.35
499.19	9196.09
499.559	9302.52
499.928	9352.69
500.298	9493.25
500.667	9650.09
501.036	9627.94
501.405	9824.54
501.774	9820.25
502.143	9886.01
502.512	10039.45
502.88	10092.79
503.249	10111.09
503.618	10268.37
503.987	10342.72
504.356	10460.46
504.724	10440.57
505.093	10511.98
505.462	10630.4
505.83	10709.49
506.199	10799.43
506.567	10921.24
506.936	10910.62
507.304	11082.36
507.672	11136.15
508.041	11147
508.409	11209.59
508.777	11330.95
509.145	11379.76
509.514	11379.76
509.882	11538.62
510.25	11504.05
510.618	11535.91
510.986	11603.03
511.354	11724.16
511.722	11767.77
512.09	11919.86
512.458	11823.59
512.826	11979.52
513.193	11983.36
513.561	11974.09
513.929	12066.29
514.297	12122.34
514.664	12135.22
515.032	12154.43
515.4	12256.57
515.767	12268.55
516.135	12345.61
516.502	12207.98
516.869	12400.3
517.237	12376.79
517.604	12423.12
517.972	12481.42
518.339	12499.28
518.706	12550.57
519.073	12515.32
519.44	12576.11
519.808	12596.45
520.175	12597.35
520.542	12809.32
520.909	12765.26
521.276	12759.38
521.643	12802.09
522.009	12841.87
522.376	12857.01
522.743	12930.68
523.11	13063.33
523.477	12979.72
523.843	13050.67
524.21	13101.75
524.577	13184.23
524.943	13117.34
525.31	13136.1
525.676	13289.76
526.043	13216.77
526.409	13217
526.776	13262.19
527.142	13265.36
527.508	13292.93
527.874	13296.77
528.241	13346.94
528.607	13358.91
528.973	13389.87
529.339	13343.32
529.705	13386.48
530.071	13433.71
530.437	13409.99
530.803	13556.65
531.169	13367.95
531.535	13343.77
531.901	13403.43
532.267	13411.79
532.632	13405.24
532.998	13353.26
533.364	13359.82
533.73	13286.83
534.095	13396.88
534.461	13352.13
534.826	13247.73
535.192	13348.29
535.557	13414.05
535.923	13261.52
536.288	13270.56
536.653	13227.39
537.019	13111.24
537.384	13142.87
537.749	13144.23
538.114	13199.82
538.479	13044.57
538.845	13100.62
539.21	12993.05
539.575	12998.47
539.94	12957.57
540.305	12981.98
540.67	12863.56
541.034	12874.41
541.399	12898.81
541.764	12841.41
542.129	12797.35
542.494	12755.09
542.858	12767.97
543.223	12729.1
543.587	12690.46
543.952	12701.53
544.316	12606.84
544.681	12549.9
545.045	12545.6
545.41	12701.98
545.774	12558.48
546.138	12445.49
546.503	12435.32
546.867	12356.68
547.231	12363.01
547.595	12307.19
547.959	12367.08
548.324	12305.16
548.688	12220.19
549.052	12214.09
549.416	12154.43
549.779	12099.74
550.143	12107.2
550.507	12174.76
550.871	12104.48
551.235	12012.51
551.599	12058.16
551.962	11987.65
552.326	11982.91
552.689	11991.27
553.053	11896.81
553.417	11921.44
553.78	11958.73
554.143	11908.33
554.507	11928.44
554.87	11836.92
555.234	11886.18
555.597	11785.85
555.96	11757.6
556.323	11802.35
556.686	11764.15
557.05	11805.73
557.413	11725.74
557.776	11680.99
558.139	11733.87
558.502	11678.96
558.865	11713.08
559.228	11727.54
559.59	11722.35
559.953	11693.2
560.316	11784.04
560.679	11739.97
561.041	11770.71
561.404	11674.44
561.767	11799.63
562.129	11773.65
562.492	11708.56
562.854	11734.78
563.217	11668.11
563.579	11685.96
563.941	11806.19
564.304	11802.57
564.666	11725.96
565.028	11769.58
565.39	11780.42
565.753	11781.1
566.115	11711.5
566.477	11737.04
566.839	11808.22
567.201	11790.59
567.563	11873.3
567.925	11834.89
568.287	11866.52
568.648	11828.56
569.01	11981.55
569.372	11907.88
569.734	11857.48
570.095	11837.37
570.457	11931.38
570.819	12028.1
571.18	11864.04
571.542	11931.61
571.903	11934.32
572.265	11918.27
572.626	11990.59
572.987	11937.93
573.349	11964.15
573.71	11961.89
574.071	12000.08
574.432	11997.59
574.794	12145.84
575.155	12002.57
575.516	11993.75
575.877	12015.67
576.238	12092.05
576.599	12064.49
576.96	12114.88
577.32	12045.73
577.681	12007.99
578.042	12047.76
578.403	12102.45
578.763	12084.6
579.124	12046.86
579.485	12160.53
579.845	12098.16
580.206	12208.66
580.566	12084.6
580.927	12062.23
581.287	12132.51
581.648	12006.41
582.008	12163.69
582.368	12097.93
582.728	12124.6
583.089	12097.25
583.449	12086.86
583.809	12086.18
584.169	12061.32
584.529	12072.85
584.889	12103.58
585.249	11977.93
585.609	11989.91
585.969	12022.23
586.329	11981.1
586.688	11983.81
587.048	11932.51
587.408	11905.62
587.768	11931.16
588.127	11929.8
588.487	11864.72
588.846	11989.23
589.206	11897.48
589.565	11924.83
589.925	11890.7
590.284	11873.08
590.643	11994.66
591.003	11958.27
591.362	11969.8
591.721	11840.31
592.08	11930.03
592.44	11882.34
592.799	11820.65
593.158	11789.92
593.517	11859.97
593.876	11828.56
594.235	11753.98
594.593	11789.01
594.952	11793.98
595.311	11761.22
595.67	11775.91
596.029	11871.5
596.387	11850.93
596.746	11863.13
597.104	11823.36
597.463	11811.84
597.822	11832.63
598.18	11769.35
598.538	11732.06
598.897	11823.81
599.255	11641.9
599.613	11894.32
599.972	11789.01
600.33	11834.21
600.688	11768.22
601.046	11718.73
601.404	11859.52
601.762	11806.19
602.12	11840.08
602.478	11829.01
602.836	11798.5
603.194	11760.31
603.552	11744.95
603.91	11746.98
604.268	11751.95
604.625	11717.38
604.983	11800.76
605.341	11820.2
605.698	11825.17
606.056	11829.24
606.413	11718.96
606.771	11833.76
607.128	11823.14
607.485	11735.45
607.843	11729.58
608.2	11823.81
608.557	11796.47
608.914	11815.23
609.272	11859.29
609.629	11814.1
609.986	11944.49
610.343	11825.62
610.7	11939.29
611.057	11809.35
611.414	11833.53
611.771	11848.9
612.127	11887.09
612.484	11929.8
612.841	11926.64
613.198	11922.12
613.554	11854.55
613.911	11965.5
614.267	12033.75
614.624	11981.78
614.98	11967.54
615.337	12019.51
615.693	11916.47
616.05	11986.07
616.406	12030.59
616.762	11963.92
617.118	12004.6
617.475	11966.41
617.831	12087.54
618.187	12077.37
618.543	12081.66
618.899	12071.26
619.255	12085.05
619.611	12078.04
619.967	12155.78
620.323	12126.86
620.678	12077.59
621.034	12081.43
621.39	12081.89
621.746	12007.99
622.101	12201.88
622.457	12109.91
622.812	12086.86
623.168	12144.26
623.523	12056.12
623.879	12131.38
624.234	12114.88
624.589	12146.74
624.945	12072.17
625.3	12127.76
625.655	12128.44
626.01	12172.96
626.365	12087.99
626.72	12074.43
627.075	12083.47
627.43	12006.18
627.785	12127.76
628.14	12180.87
628.495	12108.33
628.85	12032.17
629.205	12019.51
629.559	12129.57
629.914	11958.5
630.269	12058.61
630.623	11916.01
630.978	11908.78
631.332	12000.31
631.687	11991.49
632.041	11937.93
632.396	11933.19
632.75	11929.35
633.104	11967.54
633.459	11882.12
633.813	11881.44
634.167	11922.57
634.521	11880.76
634.875	11889.57
635.229	11906.75
635.583	11873.3
635.937	11816.13
636.291	11803.25
636.645	11805.73
636.999	11828.11
637.352	11844.83
637.706	11751.72
638.06	11794.44
638.413	11720.77
638.767	11704.72
639.121	11704.27
639.474	11603.03
639.828	11649.35
640.181	11761.89
640.534	11699.52
640.888	11639.41
641.241	11544.72
641.594	11604.84
641.947	11682.8
642.301	11594.44
642.654	11619.75
643.007	11621.56
643.36	11577.04
643.713	11600.54
644.066	11601.67
644.419	11571.62
644.771	11450.94
645.124	11428.57
645.477	11311.74
645.83	11324.84
646.182	11293.21
646.535	11189.03
646.888	11212.76
647.24	11182.93
647.593	11281
647.945	11246.2
648.298	11133.66
648.65	11155.58
649.002	11172.08
649.355	11333.88
649.707	11146.09
650.059	11222.02
650.411	11373.43
650.763	11373.66
651.115	11494.78
651.467	11439.19
651.819	11377.05
652.171	11433.99
652.523	11386.08
652.875	11387.89
653.227	11388.8
653.578	11426.31
653.93	11459.53
654.282	11323.49
654.633	11384.28
654.985	11433.54
655.337	11373.66
655.688	11437.16
656.039	11407.78
656.391	11353.32
656.742	11437.16
657.094	11383.37
657.445	11497.72
657.796	11507.89
658.147	11423.82
658.498	11412.98
658.849	11423.37
659.2	11416.59
659.551	11426.99
659.902	11384.05
660.253	11460.89
660.604	11457.04
660.955	11428.12
661.306	11452.98
661.656	11403.03
662.007	11455.46
662.358	11438.06
662.708	11505.63
663.059	11394.22
663.409	11387.44
663.76	11421.34
664.11	11477.38
664.461	11487.78
664.811	11481.45
665.161	11504.27
665.511	11426.54
665.862	11434.67
666.212	11508.79
666.562	11505.4
666.912	11445.29
667.262	11488.23
667.612	11475.12
667.962	11511.28
668.312	11506.99
668.662	11549.02
669.011	11492.07
669.361	11459.53
669.711	11444.61
670.06	11466.53
670.41	11412.75
670.76	11369.14
671.109	11430.83
671.459	11386.76
671.808	11376.14
672.157	11408.68
672.507	11320.1
672.856	11355.13
673.205	11386.76
673.554	11336.59
673.904	11393.77
674.253	11392.19
674.602	11370.04
674.951	11263.83
675.3	11135.7
675.649	11386.54
675.998	11305.86
676.346	11258.4
676.695	11387.67
677.044	11231.06
677.393	11303.38
677.741	11218.63
678.09	11227.67
678.438	11212.08
678.787	11166.88
679.135	11186.09
679.484	11077.17
679.832	11252.3
680.181	11111.52
680.529	11134.57
680.877	11074
681.225	11119.65
681.573	11070.39
681.922	11090.05
682.27	11071.97
682.618	11001.24
682.966	11055.92
683.314	11085.3
683.661	10947.68
684.009	10909.94
684.357	10913.1
684.705	10867.45
685.053	10870.17
685.4	10932.76
685.748	10799.21
686.095	10807.12
686.443	10798.3
686.79	10753.33
687.138	10731.86
687.485	10766.89
687.832	10723.5
688.18	10684.63
688.527	10698.87
688.874	10596.95
689.221	10646.22
689.568	10537.52
689.915	10533
690.262	10505.66
690.609	10448.93
690.956	10458.43
691.303	10411.42
691.65	10427.92
691.997	10403.06
692.344	10313.8
692.69	10318.09
693.037	10221.6
693.383	10189.28
693.73	10202.16
694.077	10167.36
694.423	10148.38
694.769	10081.94
695.116	10107.7
695.462	9996.74
695.808	10029.96
696.155	9978.44
696.501	9860.7
696.847	9894.6
697.193	9806.47
697.539	9858.22
697.885	9821.38
698.231	9770.76
698.577	9759.46
698.923	9734.83
699.269	9748.84
699.614	9622.29
699.96	9632.91
700.306	9539.81
700.651	9544.55
700.997	9505.68
701.342	9532.8
701.688	9472.01
702.033	9412.13
702.379	9401.96
702.724	9340.04
703.069	9355.18
703.415	9268.17
703.76	9285.8
704.105	9201.28
704.45	9177.56
704.795	9065.47
705.14	9128.74
705.485	9080.61
705.83	9091
706.175	9058.24
706.52	9030.21
706.865	9015.75
707.209	8939.82
707.554	8947.96
707.899	8941.18
708.243	8881.29
708.588	8862.99
708.932	8810.56
709.277	8819.15
709.621	8782.31
709.966	8739.15
710.31	8741.63
710.654	8706.83
710.998	8677.46
711.342	8727.62
711.687	8711.13
712.031	8644.69
712.375	8549.78
712.719	8609.43
713.063	8604.01
713.407	8623.9
713.75	8617.8
714.094	8567.4
714.438	8498.25
714.782	8521.08
715.125	8480.4
715.469	8507.97
715.812	8477.46
716.156	8404.47
716.499	8455.99
716.843	8380.74
717.186	8443.56
717.53	8390.46
717.873	8397.46
718.216	8367.86
718.559	8368.99
718.902	8322.66
719.246	8259.16
719.589	8228.43
719.932	8270.46
720.275	8249.9
720.617	8267.52
720.96	8188.43
721.303	8238.37
721.646	8195.66
721.989	8138.71
722.331	8275.66
722.674	8166.96
723.016	8228.88
723.359	8172.38
723.701	8123.8
724.044	8138.26
724.386	8161.76
724.729	8118.15
725.071	8181.65
725.413	8097.58
725.755	8157.47
726.097	8075.21
726.439	8071.6
726.782	8045.38
727.124	8083.12
727.465	8094.65
727.807	8031.37
728.149	7983.46
728.491	8068.43
728.833	8124.48
729.175	8010.35
729.516	8038.38
729.858	8039.51
730.199	8129.9
730.541	8086.06
730.882	8006.51
731.224	8074.31
731.565	8034.08
731.906	8031.82
732.248	8001.99
732.589	8030.69
732.93	7996.34
733.271	8052.84
733.612	8038.15
733.953	8010.58
734.294	8033.4
734.635	7977.13
734.976	8004.48
735.317	7997.7
735.658	7989.34
735.999	8013.52
736.339	8016.23
736.68	8075.21
737.021	8026.85
737.361	7973.75
737.702	8054.42
738.042	8038.15
738.383	8099.39
738.723	8006.29
739.063	8035.66
739.404	8103.91
739.744	8100.75
740.084	8057.58
740.424	8081.99
740.764	8087.87
741.104	8152.95
741.444	8114.98
741.784	8089.9
742.124	8161.76
742.464	8080.63
742.804	8188.43
743.143	8189.78
743.483	8215.09
743.823	8192.95
744.162	8340.29
744.502	8335.54
744.841	8253.96
745.181	8378.71
745.52	8332.15
745.86	8430.23
746.199	8500.06
746.538	8470.23
746.877	8578.93
747.216	8606.04
747.556	8630.68
747.895	8613.95
748.234	8685.36
748.573	8750.67
748.911	8760.62
749.25	8856.66
749.589	8880.16
749.928	8952.7
750.267	9061.17
750.605	9146.6
750.944	9116.09
751.283	9236.54
751.621	9397.89
751.96	9470.43
752.298	9477.43
752.636	9613.48
752.975	9676.07
753.313	9730.54
753.651	9892.56
753.989	10009.62
754.327	10060.47
754.666	10141.6
755.004	10328.49
755.342	10542.49
755.679	10464.3
756.017	10653.22
756.355	10784.74
756.693	10926.44
757.031	11058.18
757.368	11198.52
757.706	11311.28
758.044	11442.35
758.381	11649.81
758.719	11764.38
759.056	11880.99
