Data from hue_320_FLMS001491_36.txt Node
Date: Mon Feb 06 15:47:07 GMT 2017
User: dcchb
Spectrometer: FLMS00149
Trigger mode: 0
Integration Time (sec): 2.000000E-2
Scans to average: 10
Electric dark correction enabled: true
Nonlinearity correction enabled: false
Boxcar width: 0
XAxis mode: Wavelengths
Number of Pixels in Spectrum: 2048
>>>>>Begin Spectral Data<<<<<
341.393	2.27
341.776	2.27
342.16	2.27
342.543	-56.48
342.927	-61.68
343.31	-69.36
343.693	-59.42
344.077	-76.82
344.46	-60.1
344.843	-39.76
345.226	-53.09
345.61	-38.63
345.993	-22.58
346.376	-2.25
346.759	-8.8
347.142	24.65
347.525	40.92
347.908	56.51
348.291	86.34
348.674	113.01
349.057	109.39
349.44	141.48
349.823	126.34
350.206	173.34
350.588	195.94
350.971	189.16
351.354	237.97
351.737	236.84
352.119	244.08
352.502	245.43
352.884	275.71
353.267	277.07
353.65	279.78
354.032	291.53
354.414	299.44
354.797	310.06
355.179	327.92
355.562	301.48
355.944	332.21
356.326	340.34
356.709	334.92
357.091	333.56
357.473	336.5
357.855	344.19
358.238	336.28
358.62	339.89
359.002	327.69
359.384	340.12
359.766	315.26
360.148	321.81
360.53	321.81
360.912	351.64
361.294	328.37
361.676	310.29
362.057	331.08
362.439	323.4
362.821	357.97
363.203	326.56
363.584	333.11
363.966	332.21
364.348	314.81
364.729	316.39
365.111	319.33
365.493	317.97
365.874	306.45
366.256	320.91
366.637	307.58
367.019	299.22
367.4	321.81
367.781	327.69
368.163	302.83
368.544	310.29
368.925	329.95
369.306	333.11
369.688	300.57
370.069	301.48
370.45	337.18
370.831	307.58
371.212	309.16
371.593	319.78
371.974	310.06
372.355	291.31
372.736	319.33
373.117	298.99
373.498	330.4
373.879	310.74
374.26	296.73
374.641	302.38
375.021	313.9
375.402	299.89
375.783	329.27
376.163	324.98
376.544	315.71
376.925	321.81
377.305	310.29
377.686	332.43
378.066	329.5
378.447	334.24
378.827	323.4
379.208	310.97
379.588	345.54
379.968	342.6
380.349	322.72
380.729	330.4
381.109	341.93
381.489	331.3
381.87	357.07
382.25	347.8
382.63	336.5
383.01	342.38
383.39	337.41
383.77	339.21
384.15	334.92
384.53	364.3
384.91	335.6
385.29	320.01
385.67	329.5
386.049	366.78
386.429	358.2
386.809	346.45
387.189	349.16
387.568	348.71
387.948	378.08
388.328	371.08
388.707	347.8
389.087	357.52
389.466	360.23
389.846	366.33
390.225	378.54
390.605	356.84
390.984	378.76
391.363	375.15
391.743	372.66
392.122	357.74
392.501	376.05
392.881	362.94
393.26	363.17
393.639	372.21
394.018	358.65
394.397	372.21
394.776	369.27
395.155	405.88
395.534	382.15
395.913	375.82
396.292	411.08
396.671	369.27
397.05	369.04
397.429	362.94
397.808	393
398.186	391.19
398.565	382.83
398.944	412.21
399.323	387.35
399.701	414.92
400.08	408.36
400.458	427.57
400.837	403.85
401.215	390.06
401.594	407.91
401.972	403.62
402.351	409.95
402.729	401.13
403.107	403.17
403.486	421.7
403.864	421.92
404.242	418.99
404.62	435.71
404.999	405.88
405.377	415.6
405.755	421.7
406.133	422.6
406.511	424.18
406.889	427.8
407.267	457.4
407.645	454.24
408.023	445.43
408.401	454.69
408.779	458.08
409.156	456.5
409.534	466.44
409.912	478.65
410.29	480
410.667	470.28
411.045	492.43
411.422	495.59
411.8	484.75
412.178	498.76
412.555	492.88
412.933	497.4
413.31	524.75
413.687	508.48
414.065	526.78
414.442	524.07
414.819	546.67
415.197	547.34
415.574	547.12
415.951	556.38
416.328	583.73
416.705	590.06
417.082	571.3
417.46	591.64
417.837	589.6
418.214	592.99
418.591	609.94
418.967	618.3
419.344	633.67
419.721	618.75
420.098	634.8
420.475	621.24
420.852	646.55
421.228	644.29
421.605	644.52
421.982	651.75
422.358	669.6
422.735	672.99
423.111	653.56
423.488	683.84
423.864	691.3
424.241	693.33
424.617	690.17
424.994	705.31
425.37	698.07
425.746	712.76
426.123	722.93
426.499	709.83
426.875	740.79
427.251	740.33
427.627	747.79
428.003	750.28
428.379	771.97
428.756	764.29
429.132	781.01
429.507	782.59
429.883	771.97
430.259	807.68
430.635	799.77
431.011	813.78
431.387	817.85
431.763	843.38
432.138	809.94
432.514	855.36
432.89	862.59
433.265	877.05
433.641	891.74
434.016	882.02
434.392	890.16
434.767	919.54
435.143	903.72
435.518	939.2
435.894	947.11
436.269	946.66
436.644	949.82
437.02	959.08
437.395	952.08
437.77	959.54
438.145	971.97
438.52	991.85
438.895	1016.26
439.271	989.37
439.646	1015.13
440.021	1015.13
440.395	1034.11
440.77	1029.37
441.145	1074.34
441.52	1042.25
441.895	1073.43
442.27	1063.71
442.645	1054.22
443.019	1071.62
443.394	1080.89
443.769	1064.84
444.143	1097.61
444.518	1079.08
444.892	1104.62
445.267	1074.79
445.641	1111.17
446.016	1101
446.39	1111.85
446.764	1149.14
447.139	1087.9
447.513	1148.91
447.887	1105.07
448.262	1113.21
448.636	1140.55
449.01	1159.76
449.384	1145.97
449.758	1155.92
450.132	1146.2
450.506	1165.63
450.88	1187.78
451.254	1150.04
451.628	1190.27
452.002	1209.02
452.376	1177.38
452.75	1203.82
453.123	1203.37
453.497	1221.22
453.871	1241.34
454.244	1258.96
454.618	1250.83
454.992	1258.51
455.365	1250.38
455.739	1280.66
456.112	1281.34
456.486	1286.53
456.859	1292.18
457.232	1341.22
457.606	1315.23
457.979	1343.93
458.352	1335.35
458.725	1350.49
459.099	1350.94
459.472	1362.24
459.845	1371.28
460.218	1377.83
460.591	1402.01
460.964	1391.84
461.337	1397.04
461.71	1438.85
462.083	1428.9
462.456	1467.32
462.829	1441.78
463.201	1460.54
463.574	1464.61
463.947	1494.89
464.32	1495.57
464.692	1539.18
465.065	1558.84
465.438	1539.41
465.81	1564.72
466.183	1562.91
466.555	1584.38
466.928	1581.22
467.3	1594.1
467.672	1612.18
468.045	1616.92
468.417	1646.07
468.789	1667.09
469.161	1667.77
469.534	1696.69
469.906	1757.26
470.278	1728.1
470.65	1703.47
471.022	1782.11
471.394	1790.02
471.766	1786.86
472.138	1788.44
472.51	1822.79
472.882	1891.26
473.253	1862.56
473.625	1911.6
473.997	1905.05
474.369	1898.04
474.74	1902.79
475.112	1976.91
475.484	1968.55
475.855	2013.07
476.227	2057.59
476.598	2063.01
476.97	2076.34
477.341	2116.12
477.713	2131.71
478.084	2152.27
478.455	2160.41
478.827	2210.8
479.198	2247.86
479.569	2221.2
479.94	2298.26
480.311	2347.3
480.682	2345.72
481.053	2392.95
481.424	2416.45
481.795	2437.46
482.166	2452.83
482.537	2473.62
482.908	2521.08
483.279	2521.76
483.65	2539.83
484.021	2601.75
484.391	2622.77
484.762	2652.83
485.133	2675.42
485.503	2659.83
485.874	2732.82
486.244	2779.83
486.615	2778.92
486.985	2811.92
487.356	2876.32
487.726	2820.28
488.097	2918.81
488.467	2929.88
488.837	2955.42
489.207	2951.8
489.578	3054.17
489.948	3017.11
490.318	3092.36
490.688	3098.24
491.058	3110.21
491.428	3156.99
491.798	3181.85
492.168	3223.88
492.538	3244.22
492.908	3266.59
493.278	3328.51
493.648	3296.42
494.017	3355.18
494.387	3337.55
494.757	3414.61
495.126	3368.29
495.496	3418.68
495.866	3425.01
496.235	3483.76
496.605	3508.62
496.974	3493.03
497.344	3542.75
497.713	3548.62
498.082	3558.79
498.452	3577.55
498.821	3580.94
499.19	3612.35
499.559	3652.57
499.928	3630.43
500.298	3646.92
500.667	3680.6
501.036	3682.18
501.405	3712.01
501.774	3713.36
502.143	3727.15
502.512	3758.79
502.88	3758.56
503.249	3797.2
503.618	3840.37
503.987	3846.92
504.356	3872.91
504.724	3846.92
505.093	3829.52
505.462	3839.91
505.83	3891.44
506.199	3905.9
506.567	3949.97
506.936	3922.17
507.304	3952
507.672	3990.19
508.041	4038.33
508.409	3975.95
508.777	4042.62
509.145	4075.39
509.514	4003.3
509.882	4083.97
510.25	4044.65
510.618	4092.56
510.986	4099.57
511.354	4126.23
511.722	4148.61
512.09	4161.71
512.458	4155.84
512.826	4186.57
513.193	4142.73
513.561	4200.36
513.929	4224.99
514.297	4270.86
514.664	4203.29
515.032	4250.52
515.4	4301.6
515.767	4279.9
516.135	4293.46
516.502	4273.57
516.869	4344.53
517.237	4337.3
517.604	4316.74
517.972	4343.85
518.339	4356.28
518.706	4362.84
519.073	4380.46
519.44	4432.89
519.808	4400.58
520.175	4419.33
520.542	4475.38
520.909	4453
521.276	4412.33
521.643	4431.54
522.009	4505.88
522.376	4553.57
522.743	4539.1
523.11	4588.37
523.477	4591.76
523.843	4611.87
524.21	4624.75
524.577	4670.4
524.943	4665.43
525.31	4630.63
525.676	4760.57
526.043	4831.98
526.409	4750.4
526.776	4794.69
527.142	4844.41
527.508	4849.15
527.874	4855.48
528.241	4887.34
528.607	4864.29
528.973	4911.75
529.339	4901.13
529.705	4986.78
530.071	5015.7
530.437	5026.77
530.803	5029.71
531.169	5059.77
531.535	5060.22
531.901	5083.04
532.267	5086.43
532.632	5128.24
532.998	5123.95
533.364	5182.93
533.73	5194.91
534.095	5210.72
534.461	5275.58
534.826	5233.32
535.192	5290.27
535.557	5327.33
535.923	5304.73
536.288	5422.02
536.653	5380.66
537.019	5350.38
537.384	5430.38
537.749	5408.91
538.114	5454.11
538.479	5473.99
538.845	5482.58
539.21	5472.86
539.575	5501.11
539.94	5496.14
540.305	5542.69
540.67	5574.56
541.034	5575.01
541.399	5629.7
541.764	5609.36
542.129	5634.44
542.494	5691.84
542.858	5690.03
543.223	5696.36
543.587	5764.38
543.952	5760.99
544.316	5825.85
544.681	5843.7
545.045	5833.31
545.41	5847.54
545.774	5927.99
546.138	5921.21
546.503	5935.68
546.867	5927.32
547.231	6005.28
547.595	6009.57
547.959	6024.94
548.324	6055.9
548.688	6088.44
549.052	6080.76
549.416	6101.1
549.779	6118.5
550.143	6071.72
550.507	6165.28
550.871	6197.82
551.235	6128.44
551.599	6242.56
551.962	6230.13
552.326	6237.59
552.689	6280.98
553.053	6278.95
553.417	6314.65
553.78	6376.8
554.143	6351.49
554.507	6355.78
554.87	6463.57
555.234	6433.07
555.597	6433.29
555.96	6459.73
556.323	6450.69
556.686	6450.92
557.05	6531.82
557.413	6529.79
557.776	6506.96
558.139	6610.69
558.502	6583.57
558.865	6578.37
559.228	6575.66
559.59	6618.82
559.953	6667.86
560.316	6726.16
560.679	6703.34
561.041	6710.57
561.404	6812.04
561.767	6819.5
562.129	6751.02
562.492	6855.2
562.854	6872.38
563.217	6924.13
563.579	6902.88
563.941	6925.03
564.304	6929.32
564.666	7040.51
565.028	7049.77
565.39	6970
565.753	7033.28
566.115	7091.35
566.477	7079.83
566.839	7086.16
567.201	7114.86
567.563	7154.85
567.925	7219.49
568.287	7185.59
568.648	7182.42
569.01	7268.52
569.372	7345.13
569.734	7297.68
570.095	7350.33
570.457	7395.53
570.819	7427.84
571.18	7433.27
571.542	7465.58
571.903	7488.18
572.265	7498.12
572.626	7565.92
572.987	7608.63
573.349	7623.54
573.71	7722.52
574.071	7765.01
574.432	7835.51
574.794	7887.94
575.155	7930.88
575.516	7889.75
575.877	8033.93
576.238	8110.08
576.599	8119.8
576.96	8187.37
577.32	8241.38
577.681	8345.33
578.042	8408.15
578.403	8488.83
578.763	8575.38
579.124	8655.61
579.485	8783.29
579.845	8846.79
580.206	8942.15
580.566	9015.14
580.927	9188.93
581.287	9363.84
581.648	9435.7
582.008	9567.9
582.368	9597.28
582.728	9779.87
583.089	9971.5
583.449	10086.75
583.809	10206.98
584.169	10422.79
584.529	10544.14
584.889	10864.36
585.249	10972.38
585.609	11173.73
585.969	11341.18
586.329	11506.6
586.688	11785.69
587.048	11878.57
587.408	12196.3
587.768	12395.62
588.127	12616.41
588.487	12846.46
588.846	13175.03
589.206	13292.55
589.565	13601.46
589.925	13915.13
590.284	14072.41
590.643	14286.64
591.003	14668.78
591.362	14902.9
591.721	15198.03
592.08	15434.18
592.44	15729.54
592.799	16093.15
593.158	16229.42
593.517	16552.12
593.876	16895.62
594.235	17176.74
594.593	17420.8
594.952	17773.33
595.311	17984.85
595.67	18356.14
596.029	18673.87
596.387	19087.87
596.746	19298.04
597.104	19521.08
597.463	19826.39
597.822	20184.79
598.18	20356.99
598.538	20736.42
598.897	21147.93
599.255	21098.67
599.613	21716.96
599.972	21909.95
600.33	22214.35
600.688	22416.6
601.046	22809.81
601.404	23258.84
601.762	23358.95
602.12	23675.55
602.478	23944.47
602.836	24347.62
603.194	24282.99
603.552	24686.82
603.91	24875.74
604.268	25156.41
604.625	25377.2
604.983	25738.09
605.341	25834.14
605.698	26326.78
606.056	26491.97
606.413	26661.01
606.771	26984.39
607.128	27238.39
607.485	27392.74
607.843	27612.17
608.2	27954.99
608.557	28347.52
608.914	28342.55
609.272	28620.96
609.629	28915.64
609.986	29205.12
610.343	29209.42
610.7	29688.27
611.057	29851.21
611.414	29985.21
611.771	30180.46
612.127	30478.31
612.484	30565.54
612.841	30782.26
613.198	30905.87
613.554	31102.25
613.911	31376.59
614.267	31656.58
614.624	31659.07
614.98	31888.44
615.337	32238.49
615.693	32173.86
616.05	32366.62
616.406	32702.88
616.762	32671.92
617.118	32829.89
617.475	33017.68
617.831	33312.13
618.187	33396.88
618.543	33425.58
618.899	33623.08
619.255	33811.1
619.611	33917.99
619.967	34155.5
620.323	34130.87
620.678	34225.1
621.034	34325.67
621.39	34431.2
621.746	34557.52
622.101	34971.07
622.457	34758.65
622.812	34903.05
623.168	35097.4
623.523	35345.3
623.879	35403.15
624.234	35286.32
624.589	35420.33
624.945	35598.85
625.3	35636.59
625.655	35634.78
626.01	35840.88
626.365	35833.2
626.72	35913.42
627.075	35936.7
627.43	36013.98
627.785	36013.3
628.14	36107.09
628.495	36243.13
628.85	36220.08
629.205	36129.69
629.559	36464.14
629.914	36329.23
630.269	36419.4
630.623	36366.52
630.978	36442.45
631.332	36516.34
631.687	36768.31
632.041	36594.08
632.396	36713.4
632.75	36520.86
633.104	36778.48
633.459	36537.81
633.813	36663.91
634.167	36707.98
634.521	36691.93
634.875	36759.05
635.229	36593.18
635.583	36626.17
635.937	36645.15
636.291	36810.12
636.645	36697.81
636.999	36659.62
637.352	36858.03
637.706	36550.47
638.06	36900.51
638.413	36630.24
638.767	36639.05
639.121	36724.92
639.474	36587.3
639.828	36686.96
640.181	36612.61
640.534	36690.12
640.888	36590.46
641.241	36482.22
641.594	36569.45
641.947	36723.34
642.301	36556.12
642.654	36559.5
643.007	36566.51
643.36	36605.61
643.713	36564.25
644.066	36720.63
644.419	36468.21
644.771	36185.96
645.124	36069.35
645.477	35930.59
645.83	35788.68
646.182	35719.98
646.535	35555.92
646.888	35640.21
647.24	35400.89
647.593	35729.92
647.945	35670.94
648.298	35492.41
648.65	35454.45
649.002	35252.42
649.355	35481.79
649.707	35290.61
650.059	35649.25
650.411	36019.63
650.763	36045.85
651.115	36443.35
651.467	36288.78
651.819	36230.7
652.171	36104.6
652.523	36158.84
652.875	36179.18
653.227	36013.98
653.578	36285.84
653.93	36244.71
654.282	36009.69
654.633	36005.85
654.985	35998.39
655.337	36061.66
655.688	36033.64
656.039	36102.12
656.391	35905.96
656.742	35944.61
657.094	36086.75
657.445	36071.38
657.796	35900.31
658.147	35833.42
658.498	35911.61
658.849	36093.3
659.2	35873.87
659.551	35842.01
659.902	35990.93
660.253	36026.64
660.604	36089.69
660.955	35721.11
661.306	35913.87
661.656	35806.76
662.007	35826.87
662.358	35850.37
662.708	35752.97
663.059	35949.13
663.409	35624.39
663.76	36017.15
664.11	35842.24
664.461	35896.25
664.811	35860.09
665.161	35858.73
665.511	35701.9
665.862	35806.53
666.212	35979.18
666.562	36044.04
666.912	35936.24
667.262	35882.69
667.612	35880.65
667.962	35909.35
668.312	35681.11
668.662	35804.5
669.011	35682.24
669.361	35635.91
669.711	35730.83
670.06	35667.78
670.41	35659.87
670.76	35596.82
671.109	35764.27
671.459	35780.32
671.808	35717.49
672.157	35670.04
672.507	35425.52
672.856	35482.02
673.205	35649.47
673.554	35665.07
673.904	35680.43
674.253	35738.06
674.602	35573.09
674.951	35047.23
675.3	34839.78
675.649	35550.27
675.998	35494.45
676.346	35448.12
676.695	35550.27
677.044	35314.11
677.393	35320.44
677.741	35574.9
678.09	35441.12
678.438	35143.04
678.787	35424.17
679.135	35297.62
679.484	35026.66
679.832	35294.45
680.181	35079.54
680.529	35181.24
680.877	34983.95
681.225	35056.04
681.573	35277.5
681.922	35024.86
682.27	34829.38
682.618	34793.45
682.966	34888.59
683.314	34852.88
683.661	34744.86
684.009	34677.75
684.357	34512.33
684.705	34529.05
685.053	34535.15
685.4	34481.82
685.748	34286.8
686.095	34312.78
686.443	34214.26
686.79	34323.63
687.138	34242.28
687.485	34102.85
687.832	33974.71
688.18	34040.48
688.527	33964.54
688.874	33927.94
689.221	33985.79
689.568	33741.95
689.915	33706.25
690.262	33729.97
690.609	33602.29
690.956	33427.61
691.303	33332.02
691.65	33413.37
691.997	33385.8
692.344	33234.39
692.69	33158.92
693.037	33015.19
693.383	32885.25
693.73	33080.95
694.077	32779.49
694.423	32813.16
694.769	32760.06
695.116	32645.03
695.462	32530.01
695.808	32430.35
696.155	32430.57
696.501	32396.45
696.847	32341.08
697.193	32035.33
697.539	32194.87
697.885	31980.42
698.231	31965.5
698.577	31960.76
698.923	31785.85
699.269	31622.01
699.614	31569.81
699.96	31602.57
700.306	31520.77
700.651	31264.5
700.997	31319.42
701.342	31235.35
701.688	31203.26
702.033	31081.23
702.379	30993.78
702.724	31008.01
703.069	31064.96
703.415	30585.42
703.76	30758.08
704.105	30695.7
704.45	30678.98
704.795	30403.73
705.14	30366.9
705.485	30411.64
705.83	30237.41
706.175	30394.92
706.52	30213.01
706.865	29997.64
707.209	30039.22
707.554	29995.16
707.899	30098.43
708.243	29864.09
708.588	29740.7
708.932	29460.48
709.277	29569.41
709.621	29653.25
709.966	29508.39
710.31	29510.42
710.654	29200.83
710.998	29273.82
711.342	29148.4
711.687	29184.11
712.031	29120.83
712.375	28937.33
712.719	28946.6
713.063	28910.44
713.407	28976.2
713.75	28856.88
714.094	28754.51
714.438	28725.13
714.782	28806.26
715.125	28516.55
715.469	28606.95
715.812	28571.47
716.156	28233.62
716.499	28310.23
716.843	28339.38
717.186	28202.21
717.53	28371.47
717.873	28242.89
718.216	28202.44
718.559	28072.72
718.902	27930.81
719.246	28025.72
719.589	27846.06
719.932	27863.91
720.275	27945.49
720.617	27787.76
720.96	27718.38
721.303	27743.92
721.646	27768.1
721.989	27523.36
722.331	27698.04
722.674	27557.71
723.016	27553.19
723.359	27486.75
723.701	27561.1
724.044	27270.26
724.386	27178.06
724.729	27376.47
725.071	27186.19
725.413	27249.47
725.755	27198.4
726.097	27039.53
726.439	26950.72
726.782	26975.35
727.124	27126.08
727.465	26848.8
727.807	26896.48
728.149	26818.07
728.491	26744.85
728.833	26789.14
729.175	26685.87
729.516	26595.47
729.858	26703.49
730.199	26554.8
730.541	26654.45
730.882	26483.84
731.224	26562.93
731.565	26435.25
731.906	26464.18
732.248	26527.68
732.589	26240.91
732.93	26271.19
733.271	26218.31
733.612	26190.96
733.953	26209.72
734.294	26117.29
734.635	26095.6
734.976	26237.06
735.317	25950.07
735.658	26058.54
735.999	25947.13
736.339	25914.36
736.68	25929.28
737.021	25847.02
737.361	25744.42
737.702	25932.67
738.042	25784.65
738.383	25632.56
738.723	25764.08
739.063	25593.24
739.404	25742.61
739.744	25519.57
740.084	25503.3
740.424	25617.19
740.764	25462.85
741.104	25478.67
741.444	25263.76
741.784	25343.98
742.124	25415.17
742.464	25339.01
742.804	25307.6
743.143	25109.18
743.483	25287.03
743.823	25160.71
744.162	25082.97
744.502	25200.71
744.841	25027.38
745.181	25094.95
745.52	24921.62
745.86	25015.4
746.199	24900.38
746.538	24736.09
746.877	24804.79
747.216	24899.47
747.556	24889.53
747.895	24774.96
748.234	24718.91
748.573	24798.01
748.911	24644.11
749.25	24672.13
749.589	24581.97
749.928	24580.16
750.267	24588.29
750.605	24409.09
750.944	24428.52
751.283	24324.12
751.621	24512.14
751.96	24273.95
752.298	24283.44
752.636	24196.44
752.975	24092.94
753.313	24044.13
753.651	24217.68
753.989	24051.36
754.327	24051.13
754.666	23870.35
755.004	23913.51
755.342	23834.64
755.679	23737.7
756.017	23701.54
756.355	23697.47
756.693	23631.94
757.031	23658.38
757.368	23537.47
757.706	23453.41
758.044	23300.64
758.381	23424.03
758.719	23310.59
759.056	23333.41
759.394	23262.45
759.731	23023.82
