Data from hue_90_FLMS001491_47.txt Node
Date: Mon Feb 06 15:25:12 GMT 2017
User: dcchb
Spectrometer: FLMS00149
Trigger mode: 0
Integration Time (sec): 2.000000E-2
Scans to average: 10
Electric dark correction enabled: true
Nonlinearity correction enabled: false
Boxcar width: 0
XAxis mode: Wavelengths
Number of Pixels in Spectrum: 2048
>>>>>Begin Spectral Data<<<<<
341.393	8.12
341.776	8.12
342.16	8.12
342.543	-67.13
342.927	-60.58
343.31	-84.08
343.693	-88.15
344.077	-63.06
344.46	-70.07
344.843	-53.57
345.226	-61.71
345.61	-27.81
345.993	-13.8
346.376	8.8
346.759	19.87
347.142	28.91
347.525	38.18
347.908	61.45
348.291	80.89
348.674	97.38
349.057	126.76
349.44	110.94
349.823	150.49
350.206	168.79
350.588	199.08
350.971	204.05
351.354	232.52
351.737	249.24
352.119	242.01
352.502	259.64
352.884	245.4
353.267	277.72
353.65	275.68
354.032	295.8
354.414	321.79
354.797	295.12
355.179	310.26
355.562	320.66
355.944	328.56
356.326	316.81
356.709	332.63
357.091	348.45
357.473	358.17
357.855	340.09
358.238	342.8
358.62	329.02
359.002	343.93
359.384	325.63
359.766	360.65
360.148	342.12
360.53	343.48
360.912	355.23
361.294	314.33
361.676	324.05
362.057	336.02
362.439	325.63
362.821	336.93
363.203	318.62
363.584	313.2
363.966	322.01
364.348	315.91
364.729	328.79
365.111	304.38
365.493	342.58
365.874	328.79
366.256	309.36
366.637	319.75
367.019	321.11
367.4	314.33
367.781	294.67
368.163	326.76
368.544	330.82
368.925	316.14
369.306	326.3
369.688	325.18
370.069	325.4
370.45	316.59
370.831	318.17
371.212	304.38
371.593	288.11
371.974	315.68
372.355	334.44
372.736	296.93
373.117	331.5
373.498	320.43
373.879	322.69
374.26	314.1
374.641	310.03
375.021	298.06
375.402	341.67
375.783	323.14
376.163	312.52
376.544	338.28
376.925	341.9
377.305	314.78
377.686	330.37
378.066	337.38
378.447	338.28
378.827	350.94
379.208	340.09
379.588	343.25
379.968	347.55
380.349	331.5
380.729	334.21
381.109	339.19
381.489	327.21
381.87	331.28
382.25	345.74
382.63	346.42
383.01	348.45
383.39	350.03
383.77	363.37
384.15	337.6
384.53	357.04
384.91	354.1
385.29	347.77
385.67	338.51
386.049	322.46
386.429	354.33
386.809	352.07
387.189	361.33
387.568	340.32
387.948	343.03
388.328	356.36
388.707	362.46
389.087	373.31
389.466	375.34
389.846	343.71
390.225	362.69
390.605	364.04
390.984	369.92
391.363	368.79
391.743	371.28
392.122	365.4
392.501	389.58
392.881	381.22
393.26	369.47
393.639	369.47
394.018	385.51
394.397	419.41
394.776	382.12
395.155	400.88
395.534	369.24
395.913	391.39
396.292	383.25
396.671	385.96
397.05	397.72
397.429	389.13
397.808	374.21
398.186	396.13
398.565	425.51
398.944	399.07
399.323	408.56
399.701	408.79
400.08	397.26
400.458	395.91
400.837	387.77
401.215	413.53
401.594	395
401.972	401.11
402.351	417.38
402.729	409.24
403.107	427.09
403.486	421.67
403.864	412.18
404.242	414.66
404.62	436.13
404.999	404.04
405.377	428
405.755	440.65
406.133	420.31
406.511	435.45
406.889	455.79
407.267	427.09
407.645	453.08
408.023	450.6
408.401	434.78
408.779	441.56
409.156	425.51
409.534	452.4
409.912	471.84
410.29	441.78
410.667	463.02
411.045	462.57
411.422	486.07
411.8	479.3
412.178	449.47
412.555	475.68
412.933	484.94
413.31	486.75
413.687	487.43
414.065	479.07
414.442	490.37
414.819	486.98
415.197	496.92
415.574	496.7
415.951	512.51
416.328	504.61
416.705	513.42
417.082	493.76
417.46	501.89
417.837	503.48
418.214	517.94
418.591	495.79
418.967	530.37
419.344	547.99
419.721	522.01
420.098	513.87
420.475	541.44
420.852	565.85
421.228	529.46
421.605	554.32
421.982	544.6
422.358	553.64
422.735	560.42
423.111	554.1
423.488	580.08
423.864	576.69
424.241	554.77
424.617	576.24
424.994	559.07
425.37	579.63
425.746	593.87
426.123	589.8
426.499	594.55
426.875	596.81
427.251	612.17
427.627	584.15
428.003	605.17
428.379	609.46
428.756	640.2
429.132	623.25
429.507	625.28
429.883	632.51
430.259	650.82
430.635	647.43
431.011	655.11
431.387	642.68
431.763	667.31
432.138	654.88
432.514	679.06
432.89	657.37
433.265	669.35
433.641	669.35
434.016	690.59
434.392	695.11
434.767	691.04
435.143	686.75
435.518	694.43
435.894	706.41
436.269	712.96
436.644	738.95
437.02	740.31
437.395	742.57
437.77	760.64
438.145	762
438.52	771.04
438.895	766.52
439.271	771.94
439.646	782.79
440.021	763.81
440.395	769.46
440.77	764.49
441.145	804.48
441.52	791.83
441.895	784.37
442.27	791.6
442.645	797.71
443.019	814.43
443.394	804.71
443.769	801.09
444.143	804.94
444.518	857.36
444.892	824.6
445.267	826.63
445.641	860.75
446.016	859.62
446.39	862.79
446.764	856.91
447.139	883.13
447.513	858.27
447.887	872.73
448.262	862.34
448.636	875.22
449.01	900.98
449.384	887.65
449.758	892.39
450.132	921.09
450.506	901.43
450.88	911.15
451.254	942.11
451.628	929.23
452.002	958.83
452.376	935.1
452.75	943.46
453.123	961.77
453.497	959.06
453.871	983.69
454.244	987.3
454.618	1009.22
454.992	1013.97
455.365	1035.44
455.739	1010.58
456.112	1039.96
456.486	1065.72
456.859	1082.67
457.232	1058.72
457.606	1086.51
457.979	1109.56
458.352	1119.28
458.725	1133.29
459.099	1144.59
459.472	1150.01
459.845	1185.72
460.218	1195.66
460.591	1175.32
460.964	1184.36
461.337	1241.76
461.71	1232.5
462.083	1241.54
462.456	1239.05
462.829	1258.71
463.201	1288.54
463.574	1309.56
463.947	1315.21
464.32	1344.36
464.692	1352.72
465.065	1360.18
465.438	1390.46
465.81	1395.2
466.183	1406.28
466.555	1465.26
466.928	1445.6
467.3	1488.08
467.672	1479.72
468.045	1550.23
468.417	1568.76
468.789	1573.28
469.161	1566.5
469.534	1634.75
469.906	1654.41
470.278	1666.61
470.65	1686.72
471.022	1704.8
471.394	1772.59
471.766	1805.59
472.138	1806.04
472.51	1885.81
472.882	1935.53
473.253	1943.66
473.625	1976.88
473.997	2039.25
474.369	2072.7
474.74	2141.17
475.112	2195.41
475.484	2173.94
475.855	2260.72
476.227	2278.57
476.598	2351.34
476.97	2421.17
477.341	2512.01
477.713	2550.43
478.084	2568.73
478.455	2659.58
478.827	2721.72
479.198	2835.84
479.569	2863.41
479.94	2940.47
480.311	3033.58
480.682	3114.25
481.053	3209.62
481.424	3290.97
481.795	3409.84
482.166	3438.77
482.537	3544.07
482.908	3625.88
483.279	3732.09
483.65	3874.69
484.021	3982.03
484.391	4043.27
484.762	4102.25
485.133	4225.86
485.503	4336.82
485.874	4478.74
486.244	4587.66
486.615	4720.99
486.985	4794.44
487.356	4972.96
487.726	5061.1
488.097	5188.55
488.467	5304.93
488.837	5508.09
489.207	5591.48
489.578	5734.75
489.948	5790.12
490.318	5983.11
490.688	6054.52
491.058	6273.27
491.428	6394.85
491.798	6473.26
492.168	6660.15
492.538	6784.21
492.908	6924.32
493.278	7087.94
493.648	7143.07
494.017	7348.95
494.387	7399.34
494.757	7570.86
495.126	7731.08
495.496	7787.13
495.866	7934.01
496.235	8115.48
496.605	8167.68
496.974	8263.27
497.344	8437.05
497.713	8586.88
498.082	8653.32
498.452	8789.13
498.821	8836.14
499.19	8973.31
499.559	9120.65
499.928	9196.35
500.298	9263.47
500.667	9406.52
501.036	9477.7
501.405	9588.66
501.774	9635.44
502.143	9868.43
502.512	9902.55
502.88	9933.96
503.249	10041.98
503.618	10118.14
503.987	10184.8
504.356	10367.85
504.724	10339.15
505.093	10429.32
505.462	10538.69
505.83	10666.6
506.199	10692.13
506.567	10857.55
506.936	10855.52
507.304	11034.27
507.672	10980.71
508.041	11101.16
508.409	11192.91
508.777	11227.04
509.145	11256.87
509.514	11336.41
509.882	11431.78
510.25	11555.61
510.618	11566.91
510.986	11575.05
511.354	11757.87
511.722	11805.33
512.09	11901.14
512.458	11824.76
512.826	11989.73
513.193	11961.25
513.561	12076.05
513.929	12104.3
514.297	12226.78
514.664	12223.62
515.032	12246.44
515.4	12369.38
515.767	12410.73
516.135	12487.57
516.502	12368.93
516.869	12506.78
517.237	12553.55
517.604	12498.87
517.972	12644.17
518.339	12608.02
518.706	12715.13
519.073	12727.33
519.44	12655.7
519.808	12812.53
520.175	12784.51
520.542	12899.99
520.909	12942.92
521.276	12953.77
521.643	12972.3
522.009	13029.93
522.376	13090.94
522.743	13110.38
523.11	13191.28
523.477	13296.59
523.843	13274.67
524.21	13335.91
524.577	13387.2
524.943	13398.73
525.31	13404.38
525.676	13541.1
526.043	13501.1
526.409	13518.05
526.776	13572.28
527.142	13669.23
527.508	13611.61
527.874	13631.04
528.241	13687.08
528.607	13654.99
528.973	13793.3
529.339	13657.71
529.705	13737.93
530.071	13781.54
530.437	13777.93
530.803	13739.06
531.169	13771.38
531.535	13718.5
531.901	13765.27
532.267	13709.91
532.632	13883.24
532.998	13757.14
533.364	13729.12
533.73	13785.61
534.095	13841.2
534.461	13754.43
534.826	13770.92
535.192	13787.19
535.557	13695.9
535.923	13714.88
536.288	13736.8
536.653	13728.89
537.019	13637.14
537.384	13569.35
537.749	13612.96
538.114	13583.81
538.479	13577.03
538.845	13567.76
539.21	13546.07
539.575	13427.66
539.94	13499.29
540.305	13585.17
540.67	13397.37
541.034	13389.46
541.399	13455.23
541.764	13368.22
542.129	13354.21
542.494	13296.36
542.858	13329.13
543.223	13318.28
543.587	13378.84
543.952	13248
544.316	13203.03
544.681	13178.4
545.045	13072.18
545.41	13171.39
545.774	13096.82
546.138	13007.55
546.503	13071.28
546.867	12956.93
547.231	13018.17
547.595	12914.67
547.959	12918.29
548.324	12935.92
548.688	12785.19
549.052	12862.47
549.416	12832.87
549.779	12770.95
550.143	12823.6
550.507	12775.92
550.871	12779.54
551.235	12664.29
551.599	12691.4
551.962	12716.26
552.326	12613.44
552.689	12644.85
553.053	12573.67
553.417	12546.1
553.78	12612.76
554.143	12528.92
554.507	12542.71
554.87	12490.28
555.234	12564.4
555.597	12484.4
555.96	12454.57
556.323	12438.53
556.686	12497.06
557.05	12537.74
557.413	12424.97
557.776	12414.35
558.139	12482.82
558.502	12408.7
558.865	12476.04
559.228	12459.09
559.59	12461.58
559.953	12449.83
560.316	12506.1
560.679	12448.47
561.041	12462.71
561.404	12389.26
561.767	12506.78
562.129	12412.31
562.492	12527.79
562.854	12471.97
563.217	12453.22
563.579	12445.31
563.941	12457.51
564.304	12467.68
564.666	12563.27
565.028	12522.14
565.39	12511.3
565.753	12494.12
566.115	12615.93
566.477	12526.21
566.839	12597.85
567.201	12604.17
567.563	12622.03
567.925	12622.48
568.287	12577.28
568.648	12591.29
569.01	12667.45
569.372	12732.98
569.734	12678.07
570.095	12704.06
570.457	12743.83
570.819	12688.01
571.18	12779.08
571.542	12794.9
571.903	12729.59
572.265	12796.49
572.626	12763.49
572.987	12738.18
573.349	12791.29
573.71	12838.52
574.071	12853.66
574.432	12921.23
574.794	12952.64
575.155	12872.87
575.516	12813.21
575.877	12888.91
576.238	12847.78
576.599	12863.83
576.96	12801.23
577.32	12834.22
577.681	12867.9
578.042	12869.7
578.403	12862.47
578.763	12854.34
579.124	12886.43
579.485	12931.62
579.845	12909.02
580.206	12900.66
580.566	12831.96
580.927	12923.49
581.287	12936.37
581.648	12906.31
582.008	12959.42
582.368	12955.8
582.728	12843.26
583.089	12824.28
583.449	12824.96
583.809	12853.43
584.169	12815.24
584.529	12770.72
584.889	12876.94
585.249	12786.09
585.609	12823.6
585.969	12849.59
586.329	12726.66
586.688	12789.71
587.048	12803.27
587.408	12776.15
587.768	12782.47
588.127	12730.27
588.487	12757.39
588.846	12810.04
589.206	12719.2
589.565	12743.83
589.925	12732.53
590.284	12749.03
590.643	12755.58
591.003	12795.58
591.362	12754.23
591.721	12745.19
592.08	12766.2
592.44	12700.22
592.799	12707.45
593.158	12718.97
593.517	12646.88
593.876	12688.24
594.235	12604.63
594.593	12597.17
594.952	12663.38
595.311	12594.23
595.67	12680.78
596.029	12745.19
596.387	12603.27
596.746	12700.22
597.104	12550.39
597.463	12604.4
597.822	12596.94
598.18	12603.04
598.538	12529.37
598.897	12629.03
599.255	12505.65
599.613	12689.82
599.972	12578.64
600.33	12675.58
600.688	12523.27
601.046	12635.36
601.404	12611.63
601.762	12545.42
602.12	12574.12
602.478	12553.33
602.836	12591.29
603.194	12554.68
603.552	12504.97
603.91	12504.52
604.268	12510.39
604.625	12601.24
604.983	12604.85
605.341	12506.1
605.698	12631.29
606.056	12642.59
606.413	12602.59
606.771	12631.97
607.128	12519.66
607.485	12565.08
607.843	12570.73
608.2	12584.51
608.557	12686.88
608.914	12638.98
609.272	12639.43
609.629	12619.32
609.986	12673.78
610.343	12670.84
610.7	12720.33
611.057	12736.83
611.414	12643.27
611.771	12747.22
612.127	12772.08
612.484	12761.68
612.841	12838.97
613.198	12668.81
613.554	12782.25
613.911	12850.95
614.267	12692.76
614.624	12763.27
614.98	12856.6
615.337	12819.54
615.693	12805.75
616.05	12792.19
616.406	12860.89
616.762	12862.92
617.118	12863.6
617.475	12824.73
617.831	12819.08
618.187	12841.91
618.543	12934.56
618.899	12920.55
619.255	12906.77
619.611	12888.91
619.967	13020.66
620.323	12968.68
620.678	12948.35
621.034	12896.6
621.39	12896.6
621.746	12891.62
622.101	13017.04
622.457	12906.77
622.812	12933.21
623.168	13080.55
623.523	12976.82
623.879	12936.37
624.234	12879.42
624.589	12938.63
624.945	12942.92
625.3	13022.92
625.655	13008.01
626.01	12873.77
626.365	13006.2
626.72	12940.89
627.075	12907.44
627.43	12999.87
627.785	12882.58
628.14	12933.43
628.495	12929.59
628.85	12931.85
629.205	12888.01
629.559	12924.62
629.914	12875.81
630.269	12848.24
630.623	12829.03
630.978	12707.22
631.332	12924.84
631.687	12885.97
632.041	12827.22
632.396	12844.17
632.75	12711.29
633.104	12770.05
633.459	12726.66
633.813	12695.25
634.167	12762.59
634.521	12736.15
634.875	12716.26
635.229	12761.68
635.583	12686.21
635.937	12720.33
636.291	12603.27
636.645	12577.73
636.999	12597.39
637.352	12635.59
637.706	12644.17
638.06	12663.16
638.413	12651.18
638.767	12522.14
639.121	12601.91
639.474	12537.06
639.828	12470.84
640.181	12544.06
640.534	12460.45
640.888	12460.45
641.241	12417.74
641.594	12456.38
641.947	12416.16
642.301	12363.95
642.654	12403.95
643.007	12416.38
643.36	12442.82
643.713	12368.47
644.066	12399.89
644.419	12305.65
644.771	12203.51
645.124	12126.45
645.477	12126.22
645.83	12048.26
646.182	12078.09
646.535	11935.49
646.888	12074.47
647.24	11950.18
647.593	12035.6
647.945	11977.52
648.298	12006.68
648.65	11996.96
649.002	11979.11
649.355	11942.27
649.707	11947.24
650.059	11972.1
650.411	12138.42
650.763	12107.92
651.115	12309.49
651.467	12224.52
651.819	12282.37
652.171	12250.29
652.523	12268.59
652.875	12178.2
653.227	12088.26
653.578	12160.8
653.93	12294.35
654.282	12099.1
654.633	12133.9
654.985	12171.42
655.337	12252.09
655.688	12210.06
656.039	12245.54
656.391	12135.94
656.742	12247.57
657.094	12225.88
657.445	12219.33
657.796	12237.63
658.147	12205.31
658.498	12346.1
658.849	12186.56
659.2	12264.75
659.551	12279.89
659.902	12260.45
660.253	12210.06
660.604	12232.21
660.955	12249.38
661.306	12182.94
661.656	12189.5
662.007	12309.27
662.358	12300
662.708	12305.65
663.059	12296.84
663.409	12198.76
663.76	12273.11
664.11	12266.78
664.461	12323.28
664.811	12255.71
665.161	12278.76
665.511	12274.92
665.862	12295.93
666.212	12368.25
666.562	12231.08
666.912	12332.54
667.262	12279.66
667.612	12294.58
667.962	12301.13
668.312	12296.84
668.662	12306.33
669.011	12282.6
669.361	12309.04
669.711	12333.9
670.06	12153.79
670.41	12218.87
670.76	12224.52
671.109	12279.44
671.459	12328.7
671.808	12238.99
672.157	12304.97
672.507	12167.58
672.856	12201.92
673.205	12195.37
673.554	12241.92
673.904	12148.82
674.253	12246.44
674.602	12200.8
674.951	12084.19
675.3	11956.96
675.649	12102.04
675.998	12110.85
676.346	12086
676.695	12175.94
677.044	12147.46
677.393	12046.22
677.741	12063.85
678.09	12098.42
678.438	12082.38
678.787	12066.11
679.135	12000.12
679.484	11937.75
679.832	12046.45
680.181	11923.06
680.529	12001.48
680.877	11875.15
681.225	11867.02
681.573	11983.63
681.922	11775.04
682.27	11782.73
682.618	11897.98
682.966	11732.33
683.314	11817.75
683.661	11825.66
684.009	11721.49
684.357	11707.47
684.705	11646.69
685.053	11656.63
685.4	11697.76
685.748	11624.76
686.095	11575.73
686.443	11553.13
686.79	11541.6
687.138	11493.02
687.485	11514.49
687.832	11502.73
688.18	11532.34
688.527	11427.93
688.874	11365.56
689.221	11353.59
689.568	11307.94
689.915	11279.92
690.262	11265
690.609	11236.53
690.956	11128.96
691.303	11184.78
691.65	11054.61
691.997	11115.63
692.344	10981.39
692.69	10969.41
693.037	11061.16
693.383	10893.94
693.73	10943.43
694.077	10909.53
694.423	10879.25
694.769	10790.66
695.116	10805.35
695.462	10714.73
695.808	10674.51
696.155	10677.9
696.501	10623.21
696.847	10671.57
697.193	10573.04
697.539	10545.92
697.885	10500.95
698.231	10477.9
698.577	10434.97
698.923	10347.96
699.269	10319.04
699.614	10254.41
699.96	10305.7
700.306	10286.5
700.651	10243.56
700.997	10155.43
701.342	10142.32
701.688	10103.9
702.033	10078.59
702.379	10040.4
702.724	10020.29
703.069	9994.3
703.415	9910.69
703.76	9936.45
704.105	9846.73
704.45	9908.65
704.795	9802.67
705.14	9743.91
705.485	9734.19
705.83	9683.57
706.175	9740.07
706.52	9674.08
706.865	9600.86
707.209	9569.23
707.554	9571.49
707.899	9536.01
708.243	9456.91
708.588	9448.1
708.932	9469.12
709.277	9384.6
709.621	9472.28
709.966	9334.66
710.31	9420.76
710.654	9293.98
710.998	9313.64
711.342	9350.93
711.687	9260.99
712.031	9229.8
712.375	9196.58
712.719	9157.94
713.063	9196.58
713.407	9205.39
713.75	9163.81
714.094	9128.33
714.438	9049.69
714.782	9146.41
715.125	9127.43
715.469	9115
715.812	9065.28
716.156	8993.2
716.499	9020.31
716.843	8996.81
717.186	8873.2
717.53	8936.47
717.873	8973.76
718.216	8950.48
718.559	8908
718.902	8891.73
719.246	8891.5
719.589	8955.46
719.932	8837.95
720.275	8914.55
720.617	8856.93
720.96	8809.92
721.303	8816.48
721.646	8812.86
721.989	8799.53
722.331	8768.79
722.674	8729.25
723.016	8742.13
723.359	8709.59
723.701	8762.69
724.044	8638.18
724.386	8639.08
724.729	8689.7
725.071	8714.56
725.413	8733.77
725.755	8657.39
726.097	8616.71
726.439	8614.67
726.782	8628.69
727.124	8654.67
727.465	8577.39
727.807	8622.13
728.149	8601.34
728.491	8607.67
728.833	8578.29
729.175	8502.14
729.516	8592.3
729.858	8512.53
730.199	8616.26
730.541	8604.05
730.882	8586.43
731.224	8591.4
731.565	8580.1
731.906	8592.3
732.248	8546.88
732.589	8528.12
732.93	8548.69
733.271	8568.57
733.612	8641.34
733.953	8599.31
734.294	8553.21
734.635	8533.55
734.976	8505.75
735.317	8544.17
735.658	8519.99
735.999	8502.81
736.339	8556.6
736.68	8556.82
737.021	8544.85
737.361	8549.59
737.702	8600.21
738.042	8525.86
738.383	8628.23
738.723	8554.34
739.063	8605.86
739.404	8638.4
739.744	8604.28
740.084	8504.17
740.424	8612.41
740.764	8560.66
741.104	8704.62
741.444	8650.15
741.784	8679.98
742.124	8693.32
742.464	8667.78
742.804	8703.94
743.143	8698.51
743.483	8693.32
743.823	8737.61
744.162	8767.44
744.502	8762.24
744.841	8846.98
745.181	8919.53
745.52	8868.45
745.86	8943.03
746.199	8902.58
746.538	9006.3
746.877	9100.54
747.216	9157.94
747.556	9098.96
747.895	9177.82
748.234	9196.81
748.573	9234.77
748.911	9326.97
749.25	9342.57
749.589	9380.08
749.928	9507.98
750.267	9624.59
750.605	9672.73
750.944	9721.99
751.283	9782.1
751.621	9905.94
751.96	9891.03
752.298	10013.73
752.636	10051.47
752.975	10153.84
753.313	10197.46
753.651	10394.97
753.989	10449.43
754.327	10563.1
754.666	10622.08
755.004	10770.78
755.342	10876.99
755.679	11005.35
756.017	11160.6
756.355	11265.23
756.693	11405.11
757.031	11473.81
757.368	11666.8
757.706	11713.12
758.044	11893.68
758.381	12097.97
758.719	12128.25
759.056	12402.82
759.394	12483.73
