Data from hue_300_FLMS001491_00044.txt Node
Date: Tue Feb 07 15:50:46 GMT 2017
User: dcchb
Spectrometer: FLMS00149
Trigger mode: 0
Integration Time (sec): 2.000000E-2
Scans to average: 10
Electric dark correction enabled: true
Nonlinearity correction enabled: false
Boxcar width: 0
XAxis mode: Wavelengths
Number of Pixels in Spectrum: 2048
>>>>>Begin Spectral Data<<<<<
341.393	-20.11
341.776	-20.11
342.16	-20.11
342.543	-45.65
342.927	-60.79
343.31	-64.63
343.693	-65.53
344.077	-58.08
344.46	-62.82
344.843	-48.13
345.226	-35.48
345.61	-32.54
345.993	-19.66
346.376	-20.79
346.759	4.52
347.142	33.22
347.525	44.29
347.908	65.53
348.291	51.75
348.674	96.04
349.057	112.31
349.44	122.26
349.823	150.5
350.206	161.35
350.588	209.26
350.971	210.16
351.354	186.21
351.737	213.1
352.119	226.66
352.502	274.12
352.884	285.42
353.267	258.98
353.65	283.16
354.032	288.13
354.414	306.21
354.797	310.05
355.179	319.31
355.562	311.18
355.944	312.08
356.326	335.58
356.709	331.97
357.091	319.99
357.473	331.29
357.855	330.61
358.238	340.78
358.62	359.76
359.002	334
359.384	325.64
359.766	335.13
360.148	338.52
360.53	337.62
360.912	336.26
361.294	312.99
361.676	334
362.057	330.16
362.439	329.71
362.821	348.47
363.203	313.66
363.584	303.49
363.966	327.45
364.348	323.61
364.729	308.47
365.111	318.86
365.493	318.18
365.874	299.65
366.256	313.89
366.637	305.3
367.019	294.91
367.4	310.05
367.781	301.46
368.163	324.96
368.544	301.24
368.925	315.47
369.306	316.83
369.688	301.91
370.069	306.21
370.45	297.39
370.831	327.45
371.212	305.3
371.593	311.4
371.974	323.38
372.355	315.02
372.736	312.53
373.117	306.66
373.498	337.84
373.879	315.7
374.26	310.05
374.641	307.56
375.021	318.18
375.402	319.54
375.783	333.55
376.163	337.17
376.544	330.84
376.925	321.35
377.305	333.78
377.686	339.2
378.066	321.35
378.447	325.42
378.827	328.35
379.208	342.14
379.588	337.84
379.968	335.13
380.349	331.97
380.729	333.55
381.109	325.87
381.489	326.55
381.87	335.36
382.25	340.1
382.63	337.62
383.01	340.1
383.39	331.74
383.77	355.92
384.15	375.58
384.53	362.7
384.91	357.28
385.29	363.61
385.67	334.91
386.049	337.17
386.429	363.61
386.809	355.24
387.189	359.54
387.568	377.62
387.948	352.53
388.328	359.54
388.707	378.3
389.087	372.42
389.466	362.93
389.846	375.81
390.225	376.71
390.605	372.87
390.984	367.9
391.363	367.9
391.743	392.31
392.122	400.89
392.501	386.88
392.881	368.35
393.26	386.66
393.639	381.91
394.018	402.25
394.397	365.19
394.776	391.18
395.155	391.63
395.534	383.27
395.913	401.12
396.292	402.48
396.671	402.48
397.05	402.7
397.429	402.48
397.808	423.04
398.186	396.37
398.565	417.16
398.944	424.62
399.323	425.3
399.701	426.66
400.08	405.19
400.458	420.55
400.837	425.53
401.215	422.36
401.594	428.01
401.972	460.78
402.351	435.47
402.729	445.64
403.107	436.15
403.486	480.89
403.864	444.96
404.242	439.99
404.62	464.85
404.999	465.52
405.377	451.97
405.755	462.59
406.133	492.19
406.511	482.93
406.889	493.55
407.267	494
407.645	488.8
408.023	509.59
408.401	504.17
408.779	508.91
409.156	531.96
409.534	518.18
409.912	524.73
410.29	537.61
410.667	541.23
411.045	553.43
411.422	552.3
411.8	568.12
412.178	568.12
412.555	579.87
412.933	581.68
413.31	617.38
413.687	606.09
414.065	622.13
414.442	640.66
414.819	636.82
415.197	652.64
415.574	645.18
415.951	680.43
416.328	668.01
416.705	674.78
417.082	678.85
417.46	723.6
417.837	708.46
418.214	700.32
418.591	719.98
418.967	731.96
419.344	765.63
419.721	762.92
420.098	743.48
420.475	775.57
420.852	783.03
421.228	788
421.605	812.41
421.982	802.46
422.358	812.63
422.735	832.52
423.111	826.42
423.488	852.41
423.864	844.05
424.241	851.96
424.617	882.01
424.994	885.85
425.37	872.29
425.746	907.32
426.123	875.91
426.499	912.52
426.875	938.96
427.251	944.83
427.627	951.39
428.003	967.43
428.379	978.96
428.756	1011.27
429.132	995.68
429.507	1011.05
429.883	1009.24
430.259	1052.4
430.635	1055.34
431.011	1038.16
431.387	1067.32
431.763	1083.59
432.138	1114.09
432.514	1112.74
432.89	1129.01
433.265	1159.29
433.641	1138.28
434.016	1195.22
434.392	1202.45
434.767	1219.63
435.143	1219.63
435.518	1229.8
435.894	1264.83
436.269	1230.02
436.644	1279.06
437.02	1262.79
437.395	1267.76
437.77	1303.69
438.145	1316.12
438.52	1334.65
438.895	1335.33
439.271	1366.97
439.646	1385.5
440.021	1390.25
440.395	1384.14
440.77	1358.16
441.145	1369.46
441.52	1427.99
441.895	1400.19
442.27	1432.28
442.645	1416.46
443.019	1427.08
443.394	1427.08
443.769	1441.32
444.143	1436.57
444.518	1454.2
444.892	1467.76
445.267	1499.17
445.641	1463.01
446.016	1490.58
446.39	1475.89
446.764	1504.37
447.139	1484.93
447.513	1493.75
447.887	1533.07
448.262	1507.76
448.636	1524.71
449.01	1543.01
449.384	1538.72
449.758	1552.73
450.132	1555.89
450.506	1557.7
450.88	1571.48
451.254	1564.25
451.628	1571.94
452.002	1587.98
452.376	1620.97
452.75	1604.25
453.123	1655.1
453.497	1623.46
453.871	1639.73
454.244	1687.19
454.618	1661.88
454.992	1712.05
455.365	1700.29
455.739	1740.97
456.112	1732.84
456.486	1745.04
456.859	1713.4
457.232	1787.3
457.606	1780.74
457.979	1803.57
458.352	1822.78
458.725	1832.95
459.099	1825.49
459.472	1859.39
459.845	1887.41
460.218	1879.72
460.591	1910.01
460.964	1927.18
461.337	1965.6
461.71	1957.91
462.083	1952.94
462.456	1955.43
462.829	2001.53
463.201	2016.9
463.574	1995.2
463.947	2035.88
464.32	2063.45
464.692	2077.01
465.065	2084.24
465.438	2092.6
465.81	2125.37
466.183	2119.27
466.555	2147.74
466.928	2189.32
467.3	2164.46
467.672	2206.27
468.045	2244.46
468.417	2265.93
468.789	2255.99
469.161	2257.34
469.534	2304.35
469.906	2354.97
470.278	2338.24
470.65	2344.8
471.022	2417.11
471.394	2416.21
471.766	2456.66
472.138	2464.79
472.51	2495.08
472.882	2526.26
473.253	2559.25
473.625	2593.83
473.997	2643.77
474.369	2623.21
474.74	2653.26
475.112	2681.06
475.484	2735.07
475.855	2742.53
476.227	2744.56
476.598	2817.1
476.97	2820.94
477.341	2888.51
477.713	2919.92
478.084	2900.04
478.455	2967.83
478.827	2968.96
479.198	3052.12
479.569	3098.68
479.94	3076.98
480.311	3107.71
480.682	3189.52
481.053	3205.57
481.424	3243.53
481.795	3276.3
482.166	3327.14
482.537	3335.96
482.908	3396.97
483.279	3448.5
483.65	3480.59
484.021	3480.13
484.391	3546.57
484.762	3584.99
485.133	3597.19
485.503	3596.29
485.874	3676.29
486.244	3673.35
486.615	3749.96
486.985	3803.29
487.356	3820.01
487.726	3824.98
488.097	3916.51
488.467	3897.98
488.837	3995.15
489.207	4003.06
489.578	4062.72
489.948	4105.88
490.318	4104.52
490.688	4094.81
491.058	4163.73
491.428	4257.52
491.798	4228.82
492.168	4283.5
492.538	4342.71
492.908	4329.15
493.278	4386.1
493.648	4409.15
494.017	4416.38
494.387	4445.08
494.757	4549.26
495.126	4581.35
495.496	4529.15
495.866	4606.66
496.235	4628.58
496.605	4608.69
496.974	4668.8
497.344	4711.74
497.713	4711.29
498.082	4715.13
498.452	4781.8
498.821	4789.7
499.19	4776.15
499.559	4803.94
499.928	4854.11
500.298	4828.12
500.667	4880.32
501.036	4925.29
501.405	4918.06
501.774	4938.85
502.143	4982.24
502.512	4983.82
502.88	5068.12
503.249	5053.65
503.618	5033.31
503.987	5077.61
504.356	5078.74
504.724	5139.07
505.093	5114.44
505.462	5122.35
505.83	5106.53
506.199	5186.76
506.567	5268.79
506.936	5239.64
507.304	5303.59
507.672	5286.41
508.041	5287.09
508.409	5373.64
508.777	5348.33
509.145	5374.77
509.514	5356.92
509.882	5360.31
510.25	5391.27
510.618	5456.58
510.986	5455.45
511.354	5500.19
511.722	5589.46
512.09	5549.91
512.458	5527.54
512.826	5598.72
513.193	5583.13
513.561	5593.98
513.929	5647.99
514.297	5631.72
514.664	5666.07
515.032	5747.65
515.4	5744.03
515.767	5773.63
516.135	5735.22
516.502	5738.38
516.869	5780.86
517.237	5767.31
517.604	5841.88
517.972	5865.61
518.339	5787.87
518.706	5803.24
519.073	5863.35
519.44	5866.29
519.808	5937.25
520.175	5921.88
520.542	5981.76
520.909	5996.23
521.276	5971.82
521.643	6043.46
522.009	6047.98
522.376	6101.99
522.743	6119.16
523.11	6098.37
523.477	6200.51
523.843	6195.77
524.21	6259.27
524.577	6294.52
524.943	6311.47
525.31	6306.5
525.676	6425.82
526.043	6411.58
526.409	6432.37
526.776	6491.58
527.142	6492.71
527.508	6523.67
527.874	6562.09
528.241	6605.02
528.607	6594.18
528.973	6676.43
529.339	6692.25
529.705	6743.78
530.071	6763.66
530.437	6826.26
530.803	6803.44
531.169	6849.09
531.535	6845.24
531.901	6939.03
532.267	6891.34
532.632	6938.8
532.998	6944.68
533.364	7025.8
533.73	6995.52
534.095	7110.32
534.461	7108.51
534.826	7178.57
535.192	7127.04
535.557	7191.45
535.923	7214.5
536.288	7269.41
536.653	7288.17
537.019	7183.77
537.384	7271.9
537.749	7417.88
538.114	7349.64
538.479	7346.25
538.845	7426.47
539.21	7430.09
539.575	7439.13
539.94	7471.22
540.305	7586.69
540.67	7511.89
541.034	7569.97
541.399	7636.41
541.764	7671.66
542.129	7746.69
542.494	7741.94
542.858	7726.58
543.223	7732.9
543.587	7789.17
543.952	7860.58
544.316	7839.57
544.681	7877.08
545.045	7905.1
545.41	7905.78
545.774	8014.48
546.138	7924.99
546.503	8050.41
546.867	8045.21
547.231	8140.58
547.595	8157.07
547.959	8233.68
548.324	8173.8
548.688	8182.16
549.052	8246.56
549.416	8220.57
549.779	8282.72
550.143	8306.9
550.507	8336.96
550.871	8355.49
551.235	8378.99
551.599	8417.86
551.962	8479.78
552.326	8423.06
552.689	8532.66
553.053	8472.55
553.417	8529.49
553.78	8577.18
554.143	8542.37
554.507	8573.56
554.87	8632.77
555.234	8741.69
555.597	8668.02
555.96	8661.24
556.323	8673.67
556.686	8741.92
557.05	8767.68
557.413	8794.8
557.776	8796.15
558.139	8904.62
558.502	8902.82
558.865	8895.36
559.228	8964.28
559.59	8934.23
559.953	9009.71
560.316	9039.31
560.679	8992.98
561.041	9116.82
561.404	9052.42
561.767	9150.49
562.129	9150.95
562.492	9229.59
562.854	9218.51
563.217	9251.06
563.579	9311.62
563.941	9307.1
564.304	9352.97
564.666	9297.38
565.028	9316.37
565.39	9396.14
565.753	9478.85
566.115	9538.05
566.477	9527.66
566.839	9594.32
567.201	9617.6
567.563	9605.62
567.925	9684.04
568.287	9703.47
568.648	9738.28
569.01	9804.71
569.372	9846.29
569.734	9822.57
570.095	9880.87
570.457	9925.84
570.819	9920.64
571.18	9955.9
571.542	10037.25
571.903	10058.72
572.265	10147.08
572.626	10186.85
572.987	10208.55
573.349	10332.84
573.71	10333.74
574.071	10370.35
574.432	10471.36
574.794	10585.03
575.155	10540.97
575.516	10583.68
575.877	10718.81
576.238	10780.96
576.599	10883.78
576.96	10945.93
577.32	11046.26
577.681	11111.12
578.042	11182.08
578.403	11288.52
578.763	11451.22
579.124	11523.54
579.485	11668.39
579.845	11792.68
580.206	11815.96
580.566	11996.75
580.927	12206.23
581.287	12249.85
581.648	12407.58
582.008	12625.88
582.368	12774.81
582.728	12959.43
583.089	12996.72
583.449	13187
583.809	13362.13
584.169	13642.81
584.529	13673.09
584.889	14028.56
585.249	14146.29
585.609	14393.52
585.969	14650.01
586.329	14889.78
586.688	15095.2
587.048	15351.91
587.408	15519.59
587.768	15833.26
588.127	16061.27
588.487	16324.54
588.846	16638.88
589.206	16797.98
589.565	17094.01
589.925	17415.14
590.284	17673.21
590.643	17912.98
591.003	18263.02
591.362	18627.53
591.721	18925.83
592.08	19169.67
592.44	19480.17
592.799	19852.59
593.158	20113.6
593.517	20410.54
593.876	20663.64
594.235	20917.64
594.593	21310.63
594.952	21543.61
595.311	21843.95
595.67	22136.59
596.029	22476.25
596.387	22885.95
596.746	23198.49
597.104	23482.55
597.463	23576.78
597.822	24041.85
598.18	24419.7
598.538	24575.85
598.897	24986.24
599.255	25149.62
599.613	25728.82
599.972	25899.66
600.33	26173.78
600.688	26317.5
601.046	26864.83
601.404	27088.1
601.762	27310.47
602.12	27706.16
602.478	28017.79
602.836	28203.33
603.194	28363.55
603.552	28721.05
603.91	28900.48
604.268	29293.24
604.625	29400.81
604.983	29734.36
605.341	29940.91
605.698	30423.38
606.056	30586.77
606.413	30753.54
606.771	31037.83
607.128	31331.83
607.485	31449.79
607.843	31653.63
608.2	31933.85
608.557	32307.4
608.914	32386.04
609.272	32713.49
609.629	32976.53
609.986	33322.51
610.343	33270.31
610.7	33685.44
611.057	33724.31
611.414	33987.58
611.771	34277.52
612.127	34564.74
612.484	34526.32
612.841	34845.86
613.198	34886.09
613.554	35166.53
613.911	35500.31
614.267	35619.18
614.624	35798.83
614.98	35905.5
615.337	36206.51
615.693	36382.77
616.05	36364.47
616.406	36775.53
616.762	36784.57
617.118	36997.22
617.475	37018.24
617.831	37289.64
618.187	37480.82
618.543	37511.78
618.899	37941.83
619.255	37929.17
619.611	37950.41
619.967	38025.21
620.323	38316.96
620.678	38138.66
621.034	38297.07
621.39	38416.62
621.746	38433.11
622.101	38876.94
622.457	38768.47
622.812	39018.18
623.168	39043.04
623.523	39199.2
623.879	39413.65
624.234	39118.29
624.589	39365.52
624.945	39468.57
625.3	39639.86
625.655	39630.14
626.01	39649.35
626.365	39831.5
626.72	39933.64
627.075	39785.39
627.43	40090.7
627.785	40037.82
628.14	40192.62
628.495	40103.8
628.85	40220.86
629.205	40239.39
629.559	40406.17
629.914	40250.02
630.269	40379.05
630.623	40468.09
630.978	40287.3
631.332	40523.91
631.687	40655.43
632.041	40472.16
632.396	40557.8
632.75	40509.67
633.104	40607.07
633.459	40443.23
633.813	40476.45
634.167	40502.66
634.521	40614.53
634.875	40590.8
635.229	40671.02
635.583	40431.48
635.937	40562.78
636.291	40441.2
636.645	40522.55
636.999	40524.58
637.352	40686.61
637.706	40497.01
638.06	40609.78
638.413	40550.12
638.767	40338.37
639.121	40602.32
639.474	40261.09
639.828	40414.08
640.181	40555.09
640.534	40515.54
640.888	40484.81
641.241	40247.53
641.594	40355.1
641.947	40461.53
642.301	40406.85
642.654	40525.71
643.007	40491.14
643.36	40427.64
643.713	40292.95
644.066	40338.83
644.419	40289.11
644.771	40062.68
645.124	39628.11
645.477	39721.44
645.83	39361.68
646.182	39169.82
646.535	39195.58
646.888	39232.41
647.24	38978.41
647.593	39390.15
647.945	39295.69
648.298	39024.28
648.65	38984.74
649.002	39031.74
649.355	39238.52
649.707	39137.05
650.059	39415.01
650.411	39711.95
650.763	39805.06
651.115	40057.93
651.467	40094.99
651.819	40032.17
652.171	39861.55
652.523	39979.06
652.875	39927.99
653.227	39794.89
653.578	40074.65
653.93	39963.02
654.282	39846.18
654.633	39787.2
654.985	39840.31
655.337	40030.13
655.688	39903.36
656.039	40013.41
656.391	39725.28
656.742	39642.57
657.094	39787.2
657.445	39963.02
657.796	39730.25
658.147	39666.75
658.498	39796.24
658.849	39739.52
659.2	39757.15
659.551	39619.3
659.902	39671.73
660.253	39608.9
660.604	39827.2
660.955	39621.11
661.306	39731.38
661.656	39614.78
662.007	39688.9
662.358	39773.64
662.708	39572.29
663.059	39523.71
663.409	39426.99
663.76	39756.92
664.11	39712.4
664.461	39692.74
664.811	39790.59
665.161	39648.45
665.511	39529.13
665.862	39615.68
666.212	39640.77
666.562	39791.95
666.912	39587.43
667.262	39608.9
667.612	39666.53
667.962	39697.26
668.312	39563.93
668.662	39864.49
669.011	39784.49
669.361	39473.99
669.711	39489.81
670.06	39631.95
670.41	39429.7
670.76	39390.6
671.109	39436.03
671.459	39511.28
671.808	39422.24
672.157	39549.47
672.507	39184.05
672.856	39210.72
673.205	39252.53
673.554	39309.93
673.904	39244.84
674.253	39425.4
674.602	39321.45
674.951	38757.85
675.3	38535.94
675.649	39232.64
675.998	39134.34
676.346	39134.11
676.695	39339.76
677.044	38955.13
677.393	38951.97
677.741	39282.13
678.09	38956.04
678.438	38934.57
678.787	39047.56
679.135	39024.06
679.484	38759.43
679.832	38924.85
680.181	38612.54
680.529	38832.2
680.877	38621.58
681.225	38733.9
681.573	38970.73
681.922	38646.67
682.27	38504.3
682.618	38355.6
682.966	38419.1
683.314	38469.04
683.661	38311.54
684.009	38230.41
684.357	38155.61
684.705	38085.33
685.053	38141.14
685.4	38049.17
685.748	37892.56
686.095	37923.97
686.443	37772.34
686.79	37644.21
687.138	37829.97
687.485	37854.37
687.832	37677.65
688.18	37831.55
688.527	37474.95
688.874	37446.7
689.221	37429.98
689.568	37333.71
689.915	37256.2
690.262	37222.3
690.609	37046.71
690.956	36908.63
691.303	36875.41
691.65	36705.02
691.997	36732.14
692.344	36683.78
692.69	36675.65
693.037	36607.4
693.383	36279.72
693.73	36471.36
694.077	36262.55
694.423	36274.3
694.769	36138.03
695.116	35923.12
695.462	35987.08
695.808	35817.82
696.155	36101.65
696.501	35732.62
696.847	35682.68
697.193	35387.09
697.539	35617.59
697.885	35278.62
698.231	35232.75
698.577	35275.68
698.923	35169.7
699.269	34991.85
699.614	34722.7
699.96	34777.16
700.306	34722.93
700.651	34670.5
700.997	34534.46
701.342	34657.39
701.688	34501.92
702.033	34348.7
702.379	34395.48
702.724	34189.61
703.069	34209.27
703.415	33917.75
703.76	33920.24
704.105	33781.48
704.45	33810.86
704.795	33682.05
705.14	33464.43
705.485	33484.09
705.83	33360.93
706.175	33553.92
706.52	33373.81
706.865	33140.6
707.209	33153.03
707.554	33069.41
707.899	32973.37
708.243	32899.02
708.588	32878.01
708.932	32554.4
709.277	32561.63
709.621	32663.32
709.966	32531.12
710.31	32587.84
710.654	32121.64
710.998	32166.16
711.342	32290.9
711.687	32103.56
712.031	32094.52
712.375	31896.34
712.719	31895.66
713.063	31870.12
713.407	32075.54
713.75	31775.21
714.094	31855.66
714.438	31677.36
714.782	31750.35
715.125	31545.84
715.469	31502.67
715.812	31352.17
716.156	31255.68
716.499	31428.1
716.843	31389.91
717.186	31146.98
717.53	31313.07
717.873	31353.07
718.216	31156.69
718.559	31008
718.902	30873.99
719.246	30954.89
719.589	30902.24
719.932	30795.35
720.275	30801.68
720.617	30863.37
720.96	30663.6
721.303	30664.5
721.646	30688.68
721.989	30414.79
722.331	30584.28
722.674	30375.25
723.016	30485.53
723.359	30401.69
723.701	30354.23
724.044	30124.18
724.386	30057.97
724.729	30164.63
725.071	30010.96
725.413	30034.92
725.755	30044.86
726.097	29779.33
726.439	29684.42
726.782	29813.45
727.124	30012.54
727.465	29829.5
727.807	29756.28
728.149	29723.29
728.491	29568.49
728.833	29714.92
729.175	29406.23
729.516	29572.56
729.858	29367.82
730.199	29480.81
730.541	29329.4
730.882	29292.11
731.224	29367.82
731.565	29083.53
731.906	29181.61
732.248	29195.16
732.589	29079.91
732.93	28872.69
733.271	28945.91
733.612	28990.88
733.953	29021.16
734.294	28934.61
734.635	28841.05
734.976	28871.78
735.317	28616.65
735.658	28734.84
735.999	28718.79
736.339	28761.28
736.68	28696.19
737.021	28654.39
737.361	28512.47
737.702	28658.46
738.042	28618.68
738.383	28536.2
738.723	28573.03
739.063	28356.54
739.404	28433.15
739.744	28460.04
740.084	28291.91
740.424	28270.9
740.764	28276.32
741.104	28358.8
741.444	28132.14
741.784	28064.57
742.124	28245.59
742.464	28001.98
742.804	27949.55
743.143	27857.12
743.483	27923.33
743.823	27825.48
744.162	27924.69
744.502	27953.62
744.841	27775.54
745.181	27799.04
745.52	27747.74
745.86	27925.14
746.199	27679.95
746.538	27685.83
746.877	27792.94
747.216	27774.41
747.556	27623.91
747.895	27676.33
748.234	27448.77
748.573	27463.46
748.911	27466.62
749.25	27433.4
749.589	27429.79
749.928	27438.15
750.267	27529.22
750.605	27340.75
750.944	27335.1
751.283	27223.69
751.621	27265.27
751.96	27158.38
752.298	27117.93
752.636	27091.04
752.975	27054.2
753.313	26840.65
753.651	27067.31
753.989	27015.11
754.327	27068.21
754.666	26729.47
755.004	26832.06
755.342	26902.12
755.679	26702.57
756.017	26670.26
756.355	26699.64
756.693	26523.37
757.031	26623.93
757.368	26488.12
757.706	26471.85
758.044	26470.49
758.381	26431.62
