Data from hue_160_FLMS001491_00035.txt Node
Date: Tue Feb 07 16:51:06 GMT 2017
User: dcchb
Spectrometer: FLMS00149
Trigger mode: 0
Integration Time (sec): 2.000000E-2
Scans to average: 10
Electric dark correction enabled: true
Nonlinearity correction enabled: false
Boxcar width: 0
XAxis mode: Wavelengths
Number of Pixels in Spectrum: 2048
>>>>>Begin Spectral Data<<<<<
341.393	-22.37
341.776	-22.37
342.16	-22.37
342.543	-38.42
342.927	-61.92
343.31	-77.96
343.693	-64.86
344.077	-83.39
344.46	-47.68
344.843	-39.32
345.226	-46.78
345.61	-23.73
345.993	-12.66
346.376	-16.95
346.759	11.98
347.142	28.02
347.525	40.45
347.908	56.95
348.291	68.7
348.674	91.07
349.057	116.16
349.44	153.44
349.823	160.45
350.206	163.84
350.588	214.68
350.971	211.75
351.354	225.53
351.737	231.63
352.119	236.6
352.502	262.82
352.884	301.46
353.267	279.09
353.65	299.65
354.032	291.52
354.414	298.75
354.797	310.95
355.179	320.44
355.562	318.64
355.944	311.86
356.326	324.29
356.709	326.77
357.091	319.99
357.473	339.43
357.855	330.61
358.238	339.2
358.62	354.57
359.002	312.99
359.384	346.88
359.766	339.2
360.148	334.68
360.53	334.45
360.912	340.1
361.294	354.11
361.676	343.49
362.057	327
362.439	323.61
362.821	316.15
363.203	300.11
363.584	324.51
363.966	332.19
364.348	315.02
364.729	326.09
365.111	312.31
365.493	324.06
365.874	326.55
366.256	309.82
366.637	308.47
367.019	333.32
367.4	308.24
367.781	339.88
368.163	304.62
368.544	319.54
368.925	314.34
369.306	303.27
369.688	317.28
370.069	317.28
370.45	326.77
370.831	308.92
371.212	291.29
371.593	297.62
371.974	305.98
372.355	331.52
372.736	307.79
373.117	310.73
373.498	315.92
373.879	305.08
374.26	306.88
374.641	337.39
375.021	321.12
375.402	332.19
375.783	312.99
376.163	303.95
376.544	320.22
376.925	330.84
377.305	319.77
377.686	314.12
378.066	327.22
378.447	329.26
378.827	333.1
379.208	318.86
379.588	342.36
379.968	326.09
380.349	326.55
380.729	307.34
381.109	323.83
381.489	333.78
381.87	352.31
382.25	359.31
382.63	356.83
383.01	351.86
383.39	334.23
383.77	337.62
384.15	336.26
384.53	343.04
384.91	336.49
385.29	362.7
385.67	347.11
386.049	354.11
386.429	339.43
386.809	360.22
387.189	343.95
387.568	359.99
387.948	350.27
388.328	341.91
388.707	358.41
389.087	375.36
389.466	345.75
389.846	346.66
390.225	364.96
390.605	341.91
390.984	340.78
391.363	362.02
391.743	371.29
392.122	352.76
392.501	375.81
392.881	382.14
393.26	372.65
393.639	350.95
394.018	370.16
394.397	370.61
394.776	355.47
395.155	371.06
395.534	377.17
395.913	354.11
396.292	373.32
396.671	393.89
397.05	368.13
397.429	376.26
397.808	370.84
398.186	367.45
398.565	375.58
398.944	385.75
399.323	409.48
399.701	407.45
400.08	385.53
400.458	387.11
400.837	390.72
401.215	400.44
401.594	385.53
401.972	389.14
402.351	389.82
402.729	396.15
403.107	382.36
403.486	416.26
403.864	391.63
404.242	385.07
404.62	412.64
404.999	391.85
405.377	397.73
405.755	388.46
406.133	414.45
406.511	421.01
406.889	391.63
407.267	431.18
407.645	402.25
408.023	420.55
408.401	429.59
408.779	428.69
409.156	447.9
409.534	434.34
409.912	419.65
410.29	452.19
410.667	444.51
411.045	450.38
411.422	441.57
411.8	446.77
412.178	470.04
412.555	479.08
412.933	454.68
413.31	461.23
413.687	486.31
414.065	460.33
414.442	472.76
414.819	486.54
415.197	490.38
415.574	474.11
415.951	486.99
416.328	508.91
416.705	505.98
417.082	480.67
417.46	477.95
417.837	487.44
418.214	495.35
418.591	512.75
418.967	505.98
419.344	506.65
419.721	515.92
420.098	514.79
420.475	509.14
420.852	516.6
421.228	514.11
421.605	535.35
421.982	533.77
422.358	546.65
422.735	531.29
423.111	510.95
423.488	533.09
423.864	552.75
424.241	545.97
424.617	558.63
424.994	556.14
425.37	560.89
425.746	562.02
426.123	558.63
426.499	542.13
426.875	580.32
427.251	602.02
427.627	580.78
428.003	580.32
428.379	584.17
428.756	596.37
429.132	614.45
429.507	598.63
429.883	609.7
430.259	602.47
430.635	620.1
431.011	618.29
431.387	644.28
431.763	658.51
432.138	642.47
432.514	636.14
432.89	649.7
433.265	654.22
433.641	653.99
434.016	671.85
434.392	667.78
434.767	672.3
435.143	693.99
435.518	677.04
435.894	710.72
436.269	697.83
436.644	724.73
437.02	730.6
437.395	733.31
437.77	720.88
438.145	740.09
438.52	728.79
438.895	745.52
439.271	772.41
439.646	779.87
440.021	771.05
440.395	754.56
440.77	785.97
441.145	762.24
441.52	793.2
441.895	787.55
442.27	790.04
442.645	795.91
443.019	833.65
443.394	796.82
443.769	797.95
444.143	805.4
444.518	839.53
444.892	839.98
445.267	837.49
445.641	842.24
446.016	827.77
446.39	835.68
446.764	844.27
447.139	856.25
447.513	839.98
447.887	847.44
448.262	877.49
448.636	858.51
449.01	917.26
449.384	910.03
449.758	899.64
450.132	907.32
450.506	920.43
450.88	928.79
451.254	928.79
451.628	935.12
452.002	939.86
452.376	948
452.75	956.59
453.123	955
453.497	992.06
453.871	973.99
454.244	1010.14
454.618	998.39
454.992	1019.41
455.365	1021.44
455.739	1047.43
456.112	1061.22
456.486	1074.77
456.859	1066.64
457.232	1092.17
457.606	1089.24
457.979	1080.65
458.352	1110.93
458.725	1124.49
459.099	1157.26
459.472	1150.93
459.845	1181.66
460.218	1175.34
460.591	1197.93
460.964	1210.14
461.337	1198.39
461.71	1244.04
462.083	1287.88
462.456	1278.61
462.829	1273.19
463.201	1306.86
463.574	1322.45
463.947	1313.64
464.32	1369.68
464.692	1383.47
465.065	1395.44
465.438	1396.35
465.81	1430.92
466.183	1432.28
466.555	1462.33
466.928	1475.67
467.3	1470.02
467.672	1533.29
468.045	1556.34
468.417	1549.34
468.789	1599.51
469.161	1602.67
469.534	1620.75
469.906	1672.72
470.278	1666.85
470.65	1714.53
471.022	1738.94
471.394	1795.66
471.766	1810.12
472.138	1868.65
472.51	1930.34
472.882	1948.42
473.253	1951.59
473.625	1994.52
473.997	2055.54
474.369	2067.06
474.74	2111.58
475.112	2166.27
475.484	2208.98
475.855	2253.05
476.227	2301.18
476.598	2393.38
476.97	2438.13
477.341	2495.98
477.713	2541.4
478.084	2603.77
478.455	2695.52
478.827	2754.05
479.198	2820.94
479.569	2862.75
479.94	2962.86
480.311	2980.71
480.682	3106.81
481.053	3235.17
481.424	3288.28
481.795	3331.44
482.166	3438.55
482.537	3541.38
482.908	3597.19
483.279	3730.98
483.65	3774.36
484.021	3925.77
484.391	3973.91
484.762	4101.59
485.133	4174.13
485.503	4296.38
485.874	4435.36
486.244	4523.95
486.615	4603.04
486.985	4718.29
487.356	4867.89
487.726	4947.21
488.097	5072.41
488.467	5126.87
488.837	5316.92
489.207	5440.99
489.578	5594.66
489.948	5655.9
490.318	5804.59
490.688	5877.36
491.058	6018.37
491.428	6119.61
491.798	6290.68
492.168	6355.54
492.538	6491.35
492.908	6603.22
493.278	6800.05
493.648	6864.23
494.017	6949.65
494.387	7102.64
494.757	7203.65
495.126	7287.94
495.496	7452.46
495.866	7482.06
496.235	7666.01
496.605	7724.54
496.974	7836.63
497.344	7986.91
497.713	8044.08
498.082	8167.92
498.452	8320.01
498.821	8383.28
499.19	8430.96
499.559	8521.81
499.928	8628.25
500.298	8664.18
500.667	8799.54
501.036	8819.43
501.405	9018.29
501.774	8923.61
502.143	9120.44
502.512	9117.73
502.88	9279.3
503.249	9306.65
503.618	9346.19
503.987	9448.79
504.356	9538.96
504.724	9584.83
505.093	9612.63
505.462	9699.18
505.83	9757.03
506.199	9875.9
506.567	9936.01
506.936	9919.06
507.304	10027.76
507.672	10104.37
508.041	10112.28
508.409	10221.65
508.777	10275.66
509.145	10289.9
509.514	10352.95
509.882	10472.27
510.25	10496
510.618	10479.27
510.986	10505.49
511.354	10644.24
511.722	10664.8
512.09	10713.84
512.458	10672.71
512.826	10780.28
513.193	10869.09
513.561	10839.26
513.929	10929.88
514.297	11025.92
514.664	11096.66
515.032	11044
515.4	11082.65
515.767	11131.68
516.135	11110.44
516.502	11080.39
516.869	11253.49
517.237	11236.31
517.604	11173.27
517.972	11287.84
518.339	11311.79
518.706	11246.03
519.073	11362.64
519.44	11302.3
519.808	11417.33
520.175	11408.97
520.542	11468.62
520.909	11491.9
521.276	11424.56
521.643	11589.53
522.009	11578
522.376	11579.36
522.743	11609.41
523.11	11669.07
523.477	11692.12
523.843	11725.12
524.21	11818.9
524.577	11838.33
524.943	11793.36
525.31	11865.22
525.676	11935.28
526.043	11995.62
526.409	11890.31
526.776	11999.68
527.142	12006.24
527.508	11964.43
527.874	11997.88
528.241	11935.73
528.607	11964.43
528.973	11999.23
529.339	11896.86
529.705	11999.46
530.071	12065.45
530.437	12007.14
530.803	12002.85
531.169	12069.97
531.535	12014.37
531.901	11961.27
532.267	11982.28
532.632	12004.43
532.998	11923.3
533.364	11925.34
533.73	11895.51
534.095	11997.65
534.461	11874.26
534.826	11913.59
535.192	11939.35
535.557	11984.77
535.923	11835.62
536.288	11823.42
536.653	11845.11
537.019	11729.41
537.384	11775.51
537.749	11731.89
538.114	11718.79
538.479	11710.88
538.845	11688.05
539.21	11654.83
539.575	11657.09
539.94	11601.95
540.305	11602.86
540.67	11558.11
541.034	11448.74
541.399	11476.76
541.764	11411.68
542.129	11411.9
542.494	11347.05
542.858	11324
543.223	11328.06
543.587	11371.68
543.952	11281.74
544.316	11156.54
544.681	11160.84
545.045	11204.23
545.41	11212.81
545.774	11109.99
546.138	11096.43
546.503	11069.09
546.867	10994.51
547.231	11106.37
547.595	11017.11
547.959	10956.32
548.324	10933.5
548.688	11018.02
549.052	10926.27
549.416	10855.31
549.779	10746.38
550.143	10757.91
550.507	10756.33
550.871	10728.76
551.235	10623.68
551.599	10697.8
551.962	10672.49
552.326	10681.53
552.689	10677.91
553.053	10609.66
553.417	10613.73
553.78	10685.14
554.143	10583.9
554.507	10633.84
554.87	10468.2
555.234	10590
555.597	10487.41
555.96	10504.36
556.323	10524.24
556.686	10459.84
557.05	10446.96
557.413	10431.36
557.776	10430.46
558.139	10410.35
558.502	10461.19
558.865	10372.61
559.228	10429.56
559.59	10410.35
559.953	10311.37
560.316	10422.32
560.679	10377.58
561.041	10383.91
561.404	10405.6
561.767	10471.59
562.129	10369.44
562.492	10410.35
562.854	10390.69
563.217	10399.05
563.579	10400.18
563.941	10404.7
564.304	10439.27
564.666	10513.17
565.028	10418.26
565.39	10446.5
565.753	10456.67
566.115	10502.32
566.477	10530.8
566.839	10450.8
567.201	10482.66
567.563	10526.5
567.925	10531.47
568.287	10487.41
568.648	10526.95
569.01	10560.4
569.372	10534.41
569.734	10549.33
570.095	10604.92
570.457	10525.6
570.819	10636.1
571.18	10570.34
571.542	10577.12
571.903	10604.47
572.265	10589.55
572.626	10631.58
572.987	10625.26
573.349	10660.51
573.71	10641.53
574.071	10645.14
574.432	10696.44
574.794	10768.98
575.155	10678.36
575.516	10663
575.877	10681.08
576.238	10731.7
576.599	10623.9
576.96	10674.07
577.32	10707.06
577.681	10721.3
578.042	10763.78
578.403	10803.11
578.763	10706.16
579.124	10702.32
579.485	10788.42
579.845	10757.23
580.206	10772.37
580.566	10752.49
580.927	10785.71
581.287	10730.57
581.648	10705.71
582.008	10787.51
582.368	10694.63
582.728	10732.37
583.089	10633.62
583.449	10745.93
583.809	10711.81
584.169	10722.43
584.529	10704.58
584.889	10778.7
585.249	10664.35
585.609	10561.3
585.969	10696.44
586.329	10677.46
586.688	10639.95
587.048	10648.31
587.408	10583
587.768	10578.7
588.127	10627.52
588.487	10598.37
588.846	10667.29
589.206	10555.43
589.565	10510.68
589.925	10544.81
590.284	10559.04
590.643	10557.46
591.003	10577.12
591.362	10573.06
591.721	10465.04
592.08	10490.8
592.44	10564.47
592.799	10524.02
593.158	10528.76
593.517	10483.79
593.876	10569.67
594.235	10411.48
594.593	10494.19
594.952	10533.28
595.311	10484.7
595.67	10464.58
596.029	10524.02
596.387	10517.69
596.746	10508.65
597.104	10501.64
597.463	10443.57
597.822	10480.18
598.18	10455.77
598.538	10432.04
598.897	10484.47
599.255	10438.14
599.613	10533.73
599.972	10496
600.33	10490.12
600.688	10439.73
601.046	10477.01
601.404	10533.28
601.762	10528.99
602.12	10579.38
602.478	10512.72
602.836	10494.87
603.194	10503.68
603.552	10435.21
603.91	10423.45
604.268	10449.89
604.625	10389.56
604.983	10487.18
605.341	10439.05
605.698	10518.59
606.056	10530.12
606.413	10521.08
606.771	10557.69
607.128	10489.22
607.485	10487.86
607.843	10519.27
608.2	10556.56
608.557	10577.35
608.914	10456.67
609.272	10554.07
609.629	10560.4
609.986	10594.75
610.343	10521.98
610.7	10567.18
611.057	10593.85
611.414	10571.25
611.771	10598.59
612.127	10648.76
612.484	10605.82
612.841	10724.69
613.198	10595.88
613.554	10593.39
613.911	10640.17
614.267	10644.47
614.624	10677.91
614.98	10719.04
615.337	10645.82
615.693	10677.69
616.05	10636.56
616.406	10734.63
616.762	10710
617.118	10714.97
617.475	10658.48
617.831	10741.19
618.187	10820.96
618.543	10795.2
618.899	10740.96
619.255	10779.83
619.611	10733.05
619.967	10738.47
620.323	10856.89
620.678	10773.05
621.034	10727.85
621.39	10723.56
621.746	10740.51
622.101	10791.81
622.457	10745.48
622.812	10769.21
623.168	10779.38
623.523	10808.98
623.879	10799.49
624.234	10804.46
624.589	10733.96
624.945	10810.79
625.3	10824.8
625.655	10745.48
626.01	10797.68
626.365	10690.57
626.72	10694.18
627.075	10727.85
627.43	10785.03
627.785	10711.81
628.14	10763.78
628.495	10742.99
628.85	10731.7
629.205	10715.65
629.559	10691.24
629.914	10723.11
630.269	10677.91
630.623	10626.84
630.978	10644.01
631.332	10702.77
631.687	10688.53
632.041	10681.98
632.396	10747.29
632.75	10650.57
633.104	10608.08
633.459	10590.68
633.813	10660.06
634.167	10626.61
634.521	10559.95
634.875	10614.64
635.229	10590.46
635.583	10572.38
635.937	10567.18
636.291	10493.74
636.645	10527.63
636.999	10521.98
637.352	10498.48
637.706	10486.96
638.06	10465.04
638.413	10512.94
638.767	10417.81
639.121	10460.29
639.474	10395.43
639.828	10373.96
640.181	10423.91
640.534	10405.6
640.888	10267.98
641.241	10303.23
641.594	10364.93
641.947	10335.1
642.301	10296.23
642.654	10300.97
643.007	10392.5
643.36	10399.05
643.713	10340.97
644.066	10375.32
644.419	10354.08
644.771	10211.26
645.124	10122.45
645.477	10124.03
645.83	10077.93
646.182	10026.85
646.535	9977.14
646.888	9989.57
647.24	10003.8
647.593	10040.87
647.945	9975.1
648.298	9958.83
648.65	10012.62
649.002	9892.17
649.355	9974.43
649.707	9925.84
650.059	9998.61
650.411	10127.87
650.763	10107.76
651.115	10210.58
651.467	10213.29
651.819	10238.37
652.171	10277.02
652.523	10156.12
652.875	10153.63
653.227	10128.1
653.578	10185.49
653.93	10167.19
654.282	10107.3
654.633	10065.95
654.985	10141.2
655.337	10181.43
655.688	10158.38
656.039	10240.86
656.391	10160.86
656.742	10133.74
657.094	10187.08
657.445	10238.83
657.796	10241.76
658.147	10131.94
658.498	10150.47
658.849	10162.44
659.2	10117.7
659.551	10147.08
659.902	10159.73
660.253	10206.96
660.604	10149.56
660.955	10082.22
661.306	10184.59
661.656	10188.21
662.007	10175.1
662.358	10228.66
662.708	10209.68
663.059	10185.95
663.409	10154.54
663.76	10187.08
664.11	10225.95
664.461	10176.23
664.811	10187.75
665.161	10149.56
665.511	10172.84
665.862	10224.82
666.212	10269.33
666.562	10266.17
666.912	10206.96
667.262	10258.04
667.612	10248.77
667.962	10271.14
668.312	10252.61
668.662	10270.24
669.011	10169.45
669.361	10220.52
669.711	10220.97
670.06	10202.9
670.41	10152.28
670.76	10146.17
671.109	10208.55
671.459	10245.61
671.808	10169
672.157	10200.41
672.507	10136
672.856	10161.54
673.205	10163.57
673.554	10145.72
673.904	10130.36
674.253	10162.67
674.602	10152.73
674.951	9994.31
675.3	9995.9
675.649	10130.81
675.998	10109.56
676.346	10106.63
676.695	10192.73
677.044	9982.56
677.393	9976.69
677.741	10056.68
678.09	10034.99
678.438	9998.16
678.787	10062.79
679.135	10037.02
679.484	9992.73
679.832	9910.7
680.181	9925.39
680.529	9947.54
680.877	9870.7
681.225	9936.69
681.573	9983.01
681.922	9899.4
682.27	9756.35
682.618	9832.51
682.966	9836.58
683.314	9792.96
683.661	9829.35
684.009	9747.99
684.357	9712.29
684.705	9752.96
685.053	9765.39
685.4	9708.67
685.748	9596.13
686.095	9666.86
686.443	9581.44
686.79	9633.42
687.138	9651.72
687.485	9609.01
687.832	9606.08
688.18	9577.6
688.527	9477.49
688.874	9518.85
689.221	9438.17
689.568	9517.72
689.915	9380.54
690.262	9452.41
690.609	9357.95
690.956	9383.26
691.303	9307.78
691.65	9234.11
691.997	9305.74
692.344	9211.96
692.69	9182.36
693.037	9133.77
693.383	9094.45
693.73	9122.47
694.077	8979.88
694.423	9018.75
694.769	8978.07
695.116	8963.38
695.462	8974.91
695.808	8938.97
696.155	8962.48
696.501	8886.09
696.847	8867.79
697.193	8795.25
697.539	8808.81
697.885	8752.99
698.231	8677.96
698.577	8703.05
698.923	8672.77
699.269	8565.2
699.614	8602.94
699.96	8578.31
700.306	8548.7
700.651	8485.43
700.997	8478.87
701.342	8438.42
701.688	8484.07
702.033	8398.2
702.379	8373.34
702.724	8365.2
703.069	8331.08
703.415	8207.47
703.76	8256.51
704.105	8278.43
704.45	8198.43
704.795	8138.09
705.14	8177.86
705.485	8176.06
705.83	8147.36
706.175	8100.13
706.52	8078.21
706.865	8017.64
707.209	8026.68
707.554	7965.89
707.899	8037.08
708.243	7960.02
708.588	7952.79
708.932	7897.19
709.277	7878.66
709.621	7852.22
709.966	7900.81
710.31	7898.55
710.654	7799.34
710.998	7747.14
711.342	7733.81
711.687	7787.14
712.031	7717.31
712.375	7691.1
712.719	7738.78
713.063	7708.95
713.407	7676.86
713.75	7658.56
714.094	7611.78
714.438	7577.65
714.782	7576.98
715.125	7612.23
715.469	7569.97
715.812	7595.51
716.156	7471.44
716.499	7482.97
716.843	7494.94
717.186	7520.93
717.53	7507.15
717.873	7534.27
718.216	7458.79
718.559	7479.13
718.902	7443.65
719.246	7442.52
719.589	7335.4
719.932	7405.68
720.275	7391.9
720.617	7338.34
720.96	7341.5
721.303	7419.24
721.646	7364.33
721.989	7303.54
722.331	7359.58
722.674	7353.93
723.016	7378.34
723.359	7326.81
723.701	7287.72
724.044	7271.9
724.386	7200.04
724.729	7315.29
725.071	7280.94
725.413	7267.61
725.755	7236.19
726.097	7254.5
726.439	7179.25
726.782	7208.85
727.124	7284.33
727.465	7205.23
727.807	7168.17
728.149	7206.82
728.491	7197.1
728.833	7215.4
729.175	7193.71
729.516	7158.23
729.858	7162.75
730.199	7228.74
730.541	7183.77
730.882	7153.48
731.224	7188.74
731.565	7152.58
731.906	7178.34
732.248	7202.07
732.589	7113.49
732.93	7096.08
733.271	7182.64
733.612	7206.82
733.953	7146.25
734.294	7197.78
734.635	7172.69
734.976	7182.86
735.317	7142.41
735.658	7129.53
735.999	7130.66
736.339	7138.57
736.68	7151.45
737.021	7182.18
737.361	7154.84
737.702	7202.75
738.042	7219.92
738.383	7158.91
738.723	7184.22
739.063	7224.67
739.404	7233.26
739.744	7274.61
740.084	7263.76
740.424	7323.65
740.764	7214.73
741.104	7243.88
741.444	7283.42
741.784	7266.48
742.124	7252.92
742.464	7277.1
742.804	7351.45
743.143	7359.58
743.483	7371.78
743.823	7336.08
744.162	7458.11
744.502	7436.19
744.841	7461.05
745.181	7460.37
745.52	7466.7
745.86	7545.11
746.199	7591.66
746.538	7580.59
746.877	7676.86
747.216	7661.72
747.556	7739.68
747.895	7794.15
748.234	7761.83
748.573	7799.12
748.911	7922.5
749.25	7939.9
749.589	7939.68
749.928	7997.08
750.267	8110.97
750.605	8177.86
750.944	8218.31
751.283	8269.16
751.621	8379.44
751.96	8392.32
752.298	8574.46
752.636	8584.18
752.975	8663.95
753.313	8726.55
753.651	8833.89
753.989	8897.85
754.327	9064.85
754.666	9024.85
755.004	9200.66
755.342	9353.65
755.679	9444.5
756.017	9545.29
756.355	9709.58
756.693	9766.07
757.031	9874.09
757.368	10000.64
757.706	10129.68
758.044	10292.61
758.381	10356.56
758.719	10579.61
759.056	10767.63
759.394	10877
759.731	10935.53
760.068	11026.6
760.405	11226.82
760.743	11377.55
761.08	11541.17
