Data from hue_24_FLMS001491_00027.txt Node
Date: Tue Feb 07 17:12:02 GMT 2017
User: dcchb
Spectrometer: FLMS00149
Trigger mode: 0
Integration Time (sec): 2.000000E-2
Scans to average: 10
Electric dark correction enabled: true
Nonlinearity correction enabled: false
Boxcar width: 0
XAxis mode: Wavelengths
Number of Pixels in Spectrum: 2048
>>>>>Begin Spectral Data<<<<<
341.393	-6.33
341.776	-6.33
342.16	-6.33
342.543	-62.15
342.927	-69.6
343.31	-50.62
343.693	-50.85
344.077	-84.07
344.46	-70.28
344.843	-46.1
345.226	-35.25
345.61	-35.93
345.993	-5.42
346.376	-3.84
346.759	11.07
347.142	4.29
347.525	53.33
347.908	63.95
348.291	75.93
348.674	70.96
349.057	102.82
349.44	100.11
349.823	139.43
350.206	180.33
350.588	193.89
350.971	199.09
351.354	216.04
351.737	238.41
352.119	259.43
352.502	265.76
352.884	288.13
353.267	289.48
353.65	277.96
354.032	305.53
354.414	321.8
354.797	307.11
355.179	321.8
355.562	351.4
355.944	355.47
356.326	333.55
356.709	354.11
357.091	350.73
357.473	357.5
357.855	338.3
358.238	367.67
358.62	363.61
359.002	354.11
359.384	356.15
359.766	337.17
360.148	348.69
360.53	333.32
360.912	327.68
361.294	349.37
361.676	359.54
362.057	322.25
362.439	321.12
362.821	348.69
363.203	348.24
363.584	322.7
363.966	336.04
364.348	324.06
364.729	328.58
365.111	306.88
365.493	325.19
365.874	331.74
366.256	316.38
366.637	314.34
367.019	314.79
367.4	306.88
367.781	322.03
368.163	327.45
368.544	315.47
368.925	335.13
369.306	317.73
369.688	325.64
370.069	302.36
370.45	307.34
370.831	330.61
371.212	324.06
371.593	316.6
371.974	339.65
372.355	316.38
372.736	325.64
373.117	315.02
373.498	321.57
373.879	317.96
374.26	312.76
374.641	342.14
375.021	315.92
375.402	336.49
375.783	320.44
376.163	346.21
376.544	345.3
376.925	324.51
377.305	321.35
377.686	341.91
378.066	345.08
378.447	338.3
378.827	347.11
379.208	339.43
379.588	339.43
379.968	354.57
380.349	338.07
380.729	345.3
381.109	319.54
381.489	337.84
381.87	340.56
382.25	343.49
382.63	352.08
383.01	351.4
383.39	358.18
383.77	345.08
384.15	362.48
384.53	357.05
384.91	353.66
385.29	341.69
385.67	351.18
386.049	362.7
386.429	360.89
386.809	349.14
387.189	357.28
387.568	367.67
387.948	376.71
388.328	383.94
388.707	390.5
389.087	380.1
389.466	373.1
389.846	384.85
390.225	366.32
390.605	364.28
390.984	375.81
391.363	392.31
391.743	369.48
392.122	383.49
392.501	384.4
392.881	374.45
393.26	371.52
393.639	399.99
394.018	384.62
394.397	373.78
394.776	360.89
395.155	389.82
395.534	377.39
395.913	387.33
396.292	394.11
396.671	394.57
397.05	388.01
397.429	406.54
397.808	399.09
398.186	406.54
398.565	402.48
398.944	417.39
399.323	387.79
399.701	406.09
400.08	398.41
400.458	428.92
400.837	414.68
401.215	422.14
401.594	425.98
401.972	415.58
402.351	406.99
402.729	422.14
403.107	423.72
403.486	419.65
403.864	416.71
404.242	438.63
404.62	433.66
404.999	417.16
405.377	425.07
405.755	420.1
406.133	420.33
406.511	457.39
406.889	431.63
407.267	438.63
407.645	458.97
408.023	442.47
408.401	456.49
408.779	455.13
409.156	465.98
409.534	442.7
409.912	450.84
410.29	473.21
410.667	468.46
411.045	482.02
411.422	479.99
411.8	483.6
412.178	469.14
412.555	480.89
412.933	491.74
413.31	496.26
413.687	479.54
414.065	490.38
414.442	490.83
414.819	496.48
415.197	499.65
415.574	502.36
415.951	516.37
416.328	515.69
416.705	500.55
417.082	505.98
417.46	518.4
417.837	522.25
418.214	528.57
418.591	523.38
418.967	515.69
419.344	559.53
419.721	533.77
420.098	546.2
420.475	536.71
420.852	561.34
421.228	558.63
421.605	559.53
421.982	554.11
422.358	562.25
422.735	576.71
423.111	578.29
423.488	583.26
423.864	562.92
424.241	549.14
424.617	571.06
424.994	563.6
425.37	574
425.746	593.88
426.123	588.46
426.499	598.85
426.875	601.57
427.251	609.02
427.627	608.57
428.003	596.59
428.379	628.91
428.756	631.17
429.132	625.52
429.507	616.71
429.883	616.25
430.259	644.05
430.635	658.06
431.011	636.82
431.387	645.63
431.763	655.12
432.138	651.51
432.514	666.42
432.89	653.54
433.265	683.15
433.641	668.91
434.016	703.48
434.392	675.69
434.767	701.45
435.143	719.08
435.518	697.16
435.894	713.88
436.269	733.09
436.644	743.48
437.02	754.78
437.395	729.02
437.77	753.43
438.145	756.59
438.52	731.28
438.895	778.96
439.271	785.74
439.646	777.61
440.021	765.4
440.395	774.89
440.77	793.2
441.145	784.39
441.52	812.63
441.895	793.43
442.27	814.22
442.645	804.27
443.019	805.85
443.394	801.56
443.769	815.12
444.143	835.46
444.518	828
444.892	816.02
445.267	831.84
445.641	838.4
446.016	841.11
446.39	858.28
446.764	824.84
447.139	843.14
447.513	855.8
447.887	864.38
448.262	872.75
448.636	899.86
449.01	862.12
449.384	881.33
449.758	915.91
450.132	916.81
450.506	898.96
450.88	915.91
451.254	904.16
451.628	923.82
452.002	925.17
452.376	916.81
452.75	922.24
453.123	951.84
453.497	969.92
453.871	964.04
454.244	983.7
454.618	1000.43
454.992	1011.95
455.365	990.03
455.739	1021.22
456.112	1048.33
456.486	1002.23
456.859	1045.62
457.232	1049.92
457.606	1084.27
457.979	1066.41
458.352	1087.88
458.725	1099.18
459.099	1078.84
459.472	1107.77
459.845	1138.95
460.218	1141.44
460.591	1150.25
460.964	1141.89
461.337	1162
461.71	1167.65
462.083	1205.62
462.456	1169.91
462.829	1216.47
463.201	1225.28
463.574	1256.01
463.947	1242.45
464.32	1282.45
464.692	1262.34
465.065	1285.84
465.438	1302.79
465.81	1304.15
466.183	1346.86
466.555	1350.02
466.928	1364.48
467.3	1358.83
467.672	1388.44
468.045	1422.34
468.417	1429.34
468.789	1447.19
469.161	1442.45
469.534	1491.26
469.906	1519.28
470.278	1544.82
470.65	1548.21
471.022	1554.31
471.394	1593.4
471.766	1608.32
472.138	1641.31
472.51	1666.17
472.882	1667.3
473.253	1691.25
473.625	1736.45
473.997	1743.91
474.369	1757.69
474.74	1801.31
475.112	1835.66
475.484	1837.92
475.855	1855.32
476.227	1930.8
476.598	1947.97
476.97	2018.93
477.341	2010.57
477.713	2046.05
478.084	2083.79
478.455	2125.82
478.827	2174.86
479.198	2198.13
479.569	2248.3
479.94	2289.66
480.311	2345.93
480.682	2403.55
481.053	2410.56
481.424	2497.34
481.795	2497.79
482.166	2561.51
482.537	2592.02
482.908	2675.41
483.279	2660.72
483.65	2733.26
484.021	2795.18
484.391	2815.97
484.762	2867.5
485.133	2886.7
485.503	2961.96
485.874	3006.93
486.244	3041.05
486.615	3128.51
486.985	3158.79
487.356	3223.87
487.726	3257.77
488.097	3334.15
488.467	3364.43
488.837	3424.32
489.207	3488.5
489.578	3550.19
489.948	3579.34
490.318	3642.39
490.688	3632.67
491.058	3719.68
491.428	3764.19
491.798	3797.64
492.168	3909.05
492.538	3962.61
492.908	3975.04
493.278	4031.76
493.648	4051.42
494.017	4120.8
494.387	4161.47
494.757	4190.4
495.126	4229.49
495.496	4292.54
495.866	4332.99
496.235	4367.34
496.605	4430.17
496.974	4415.03
497.344	4493.67
497.713	4524.17
498.082	4529.6
498.452	4619.31
498.821	4615.25
499.19	4662.7
499.559	4746.32
499.928	4745.19
500.298	4794.45
500.667	4841.45
501.036	4800.55
501.405	4841.23
501.774	4851.17
502.143	4928.01
502.512	4949.93
502.88	4966.42
503.249	4987.21
503.618	5007.78
503.987	5051.84
504.356	5066.99
504.724	5127.32
505.093	5107.44
505.462	5124.61
505.83	5198.06
506.199	5248
506.567	5317.83
506.936	5290.93
507.304	5396.69
507.672	5351.27
508.041	5355.11
508.409	5460.42
508.777	5470.82
509.145	5454.09
509.514	5513.75
509.882	5535.45
510.25	5491.83
510.618	5615.9
510.986	5646.41
511.354	5678.04
511.722	5754.42
512.09	5786.97
512.458	5713.52
512.826	5769.57
513.193	5786.97
513.561	5806.63
513.929	5799.85
514.297	5892.27
514.664	5887.08
515.032	5927.3
515.4	5979.05
515.767	6007.53
516.135	6019.73
516.502	5967.3
516.869	6132.04
517.237	6054.08
517.604	6120.07
517.972	6139.05
518.339	6183.11
518.706	6187.41
519.073	6189.89
519.44	6170.69
519.808	6295.65
520.175	6236.67
520.542	6321.42
520.909	6381.53
521.276	6341.53
521.643	6456.33
522.009	6448.19
522.376	6524.57
522.743	6513.28
523.11	6641.18
523.477	6594.18
523.843	6664.46
524.21	6725.02
524.577	6768.64
524.943	6758.01
525.31	6794.85
525.676	6863.55
526.043	6904
526.409	6988.97
526.776	6985.58
527.142	6981.74
527.508	7054.05
527.874	7058.57
528.241	7119.59
528.607	7185.12
528.973	7203.88
529.339	7241.39
529.705	7294.95
530.071	7306.7
530.437	7318.68
530.803	7384.66
531.169	7376.53
531.535	7351.67
531.901	7440.03
532.267	7540.82
532.632	7565
532.998	7559.12
533.364	7594.6
533.73	7630.53
534.095	7673.92
534.461	7714.83
534.826	7784.2
535.192	7828.95
535.557	7866.91
535.923	7866.69
536.288	7896.29
536.653	7918.44
537.019	7900.13
537.384	7929.51
537.749	7989.85
538.114	7961.15
538.479	8012.9
538.845	8041.6
539.21	8061.03
539.575	8096.96
539.94	8122.95
540.305	8238.2
540.67	8140.8
541.034	8229.16
541.399	8335.6
541.764	8344.64
542.129	8325.2
542.494	8416.95
542.858	8420.12
543.223	8457.63
543.587	8520.23
543.952	8489.49
544.316	8524.07
544.681	8548.48
545.045	8598.19
545.41	8707.79
545.774	8707.12
546.138	8686.78
546.503	8656.72
546.867	8747.57
547.231	8818.75
547.595	8845.87
547.959	8847.23
548.324	8818.75
548.688	8862.59
549.052	8931.29
549.416	8974.91
549.779	8952.08
550.143	9050.38
550.507	9076.37
550.871	9111.17
551.235	9092.64
551.599	9243.82
551.962	9201.79
552.326	9179.42
552.689	9273.2
553.053	9207.22
553.417	9253.32
553.78	9385.52
554.143	9373.76
554.507	9397.72
554.87	9373.54
555.234	9490.82
555.597	9360.43
555.96	9539.41
556.323	9572.18
556.686	9539.18
557.05	9604.27
557.413	9642.91
557.776	9679.75
558.139	9682.68
558.502	9731.04
558.865	9732.63
559.228	9834.54
559.59	9863.92
559.953	9849.46
560.316	9960.42
560.679	9999.29
561.041	10032.73
561.404	9994.09
561.767	10178.94
562.129	10117.02
562.492	10239.96
562.854	10121.54
563.217	10107.76
563.579	10227.3
563.941	10304.81
564.304	10287.19
564.666	10398.14
565.028	10258.49
565.39	10369.67
565.753	10467.52
566.115	10496.67
566.477	10512.27
566.839	10610.34
567.201	10656.89
567.563	10687.63
567.925	10685.14
568.287	10723.56
568.648	10762.88
569.01	10798.59
569.372	10860.96
569.734	10865.48
570.095	10934.63
570.457	10961.52
570.819	11011.24
571.18	11042.65
571.542	11081.74
571.903	11133.04
572.265	11227.28
572.626	11250.78
572.987	11321.96
573.349	11313.83
573.71	11450.32
574.071	11422.52
574.432	11568.28
574.794	11580.26
575.155	11704.33
575.516	11657.09
575.877	11694.83
576.238	11764.44
576.599	11909.97
576.96	11973.47
577.32	12102.73
577.681	12191.77
578.042	12220.24
578.403	12405.32
578.763	12417.07
579.124	12541.14
579.485	12624.3
579.845	12724.41
580.206	12804.86
580.566	12943.84
580.927	13076.27
581.287	13253.66
581.648	13301.12
582.008	13499.08
582.368	13571.62
582.728	13785.17
583.089	13899.52
583.449	13965.06
583.809	14189.23
584.169	14257.7
584.529	14491.14
584.889	14736.11
585.249	14846.39
585.609	15086.38
585.969	15361.4
586.329	15380.61
586.688	15713.71
587.048	15862.18
587.408	16110.08
587.768	16360.25
588.127	16543.97
588.487	16787.36
588.846	17106.67
589.206	17263.27
589.565	17525.19
589.925	17870.49
590.284	18077.94
590.643	18296.02
591.003	18622.34
591.362	18957.02
591.721	19166.5
592.08	19448.3
592.44	19819.59
592.799	20106.14
593.158	20394.27
593.517	20568.5
593.876	20935.72
594.235	21158.31
594.593	21545.2
594.952	21884.17
595.311	22087.55
595.67	22611.61
596.029	22822.68
596.387	23128.21
596.746	23476.67
597.104	23701.3
597.463	23952.14
597.822	24379.02
598.18	24674.83
598.538	24885.9
598.897	25352.78
599.255	25388.26
599.613	26052.2
599.972	26261.68
600.33	26446.54
600.688	26789.8
601.046	27055.11
601.404	27542.78
601.762	27757.69
602.12	28187.51
602.478	28388.41
602.836	28762.41
603.194	28840.37
603.552	29340.92
603.91	29290.3
604.268	29799.22
604.625	29982.04
604.983	30328.24
605.341	30495.92
605.698	30881.67
606.056	31029.69
606.413	31271.95
606.771	31679.84
607.128	32105.14
607.485	32128.19
607.843	32405.48
608.2	32688.18
608.557	32967.27
608.914	33178.56
609.272	33541.04
609.629	33668.04
609.986	34123.62
610.343	34143.28
610.7	34698.3
611.057	34665.98
611.414	34953.88
611.771	35252.41
612.127	35510.25
612.484	35709.12
612.841	35867.31
613.198	36057.13
613.554	36227.07
613.911	36474.52
614.267	36771.91
614.624	36814.85
614.98	37084
615.337	37389.07
615.693	37403.08
616.05	37557.43
616.406	37928.27
616.762	37874.03
617.118	37892.34
617.475	38068.83
617.831	38486.67
618.187	38588.59
618.543	38709.72
618.899	38992.87
619.255	39114.23
619.611	39203.94
619.967	39536.14
620.323	39696.13
620.678	39549.92
621.034	39618.39
621.39	39737.71
621.746	39877.14
622.101	40381.09
622.457	40061.09
622.812	40227.87
623.168	40460.18
623.523	40641.87
623.879	40812.71
624.234	40634.41
624.589	40929.09
624.945	41028.53
625.3	41143.78
625.655	41092.48
626.01	41189.2
626.365	41318.69
626.72	41455.63
627.075	41388.29
627.43	41407.95
627.785	41472.81
628.14	41618.11
628.495	41644.33
628.85	41693.82
629.205	41640.49
629.559	41883.19
629.914	41677.32
630.269	41904.66
630.623	42009.29
630.978	41850.65
631.332	42140.81
631.687	42148.04
632.041	42121.6
632.396	42009.97
632.75	41972.46
633.104	42117.31
633.459	41951.21
633.813	42080.02
634.167	41974.04
634.521	42141.94
634.875	42187.14
635.229	42334.93
635.583	41997.54
635.937	42121.15
636.291	42052.68
636.645	42112.79
636.999	42054.71
637.352	42286.57
637.706	41967.03
638.06	42278.89
638.413	42147.59
638.767	42144.2
639.121	42236.4
639.474	41960.48
639.828	42077.31
640.181	42030.31
640.534	41970.2
640.888	41961.61
641.241	41860.59
641.594	41955.51
641.947	41970.42
642.301	41944.21
642.654	41992.57
643.007	42095.84
643.36	41991.44
643.713	41861.95
644.066	42124.32
644.419	41860.59
644.771	41588.96
645.124	41333.38
645.477	41261.97
645.83	40959.83
646.182	40944.69
646.535	40756.44
646.888	40910.56
647.24	40633.06
647.593	40909.21
647.945	40949.88
648.298	40703.34
648.65	40760.06
649.002	40636.45
649.355	40708.76
649.707	40707.86
650.059	40783.56
650.411	41380.61
650.763	41412.02
651.115	41910.54
651.467	41711.45
651.819	41618.34
652.171	41495.18
652.523	41395.07
652.875	41555.52
653.227	41347.39
653.578	41568.62
653.93	41493.15
654.282	41316.65
654.633	41244.11
654.985	41307.16
655.337	41359.82
655.688	41580.38
656.039	41501.06
656.391	41066.94
656.742	41299.03
657.094	41203.44
657.445	41394.39
657.796	41270.55
658.147	41318.91
658.498	41178.58
658.849	41372.7
659.2	41397.78
659.551	41173.83
659.902	41301.06
660.253	41151.46
660.604	41233.72
660.955	41228.29
661.306	41329.08
661.656	41261.74
662.007	41207.05
662.358	41210.22
662.708	41270.55
663.059	41201.85
663.409	41165.47
663.76	41306.48
664.11	41247.73
664.461	41251.57
664.811	41295.86
665.161	41338.8
665.511	41005.02
665.862	41309.42
666.212	41389.87
666.562	41103.1
666.912	41145.36
667.262	41161.18
667.612	41107.39
667.962	41165.47
668.312	41121.4
668.662	41263.1
669.011	41108.07
669.361	41034.4
669.711	41035.76
670.06	41081.86
670.41	40994.4
670.76	40983.56
671.109	41103.55
671.459	40927.96
671.808	40968.64
672.157	40990.33
672.507	40902.2
672.856	40847.97
673.205	40728.19
673.554	41030.79
673.904	40903.78
674.253	41170.89
674.602	40895.2
674.951	40202.78
675.3	40126.18
675.649	40806.38
675.998	40809.32
676.346	40699.72
676.695	40788.08
677.044	40433.97
677.393	40717.12
677.741	40750.57
678.09	40665.37
678.438	40513.96
678.787	40658.37
679.135	40709.89
679.484	40354.65
679.832	40749.44
680.181	40223.58
680.529	40396.68
680.877	40360.07
681.225	40407.75
681.573	40458.82
681.922	40186.74
682.27	40092.05
682.618	40084.37
682.966	39978.38
683.314	40026.74
683.661	39996.69
684.009	39897.26
684.357	39734.32
684.705	39767.32
685.053	39695.91
685.4	39616.59
685.748	39341.34
686.095	39438.74
686.443	39430.83
686.79	39334.78
687.138	39414.33
687.485	39341.56
687.832	39189.03
688.18	39327.78
688.527	38931.18
688.874	39014.34
689.221	38885.08
689.568	38814.57
689.915	38703.84
690.262	38744.52
690.609	38575.26
690.956	38533.9
691.303	38447.35
691.65	38241.48
691.997	38336.62
692.344	38160.58
692.69	38115.38
693.037	38137.08
693.383	37671.55
693.73	37987.25
694.077	37555.62
694.423	37671.55
694.769	37544.78
695.116	37551.33
695.462	37470.88
695.808	37410.32
696.155	37372.58
696.501	37182.53
696.847	37125.58
697.193	36928.75
697.539	37008.74
697.885	36791.8
698.231	36736.44
698.577	36741.63
698.923	36555.65
699.269	36469.78
699.614	36346.84
699.96	36239.73
700.306	36225.94
700.651	36168.31
700.997	36029.34
701.342	35928.77
701.688	35889.45
702.033	35731.49
702.379	35828.21
702.724	35510.25
703.069	35580.53
703.415	35219.19
703.76	35335.34
704.105	35373.53
704.45	35232.97
704.795	35057.61
705.14	34947.1
705.485	34896.94
705.83	34759.99
706.175	34884.51
706.52	34731.06
706.865	34617.39
707.209	34540.79
707.554	34447.46
707.899	34554.8
708.243	34349.38
708.588	34314.8
708.932	34100.57
709.277	34047.01
709.621	34098.99
709.966	33871.88
710.31	33984.64
710.654	33647.93
710.998	33763.41
711.342	33781.71
711.687	33643.86
712.031	33423.98
712.375	33336.3
712.719	33440.7
713.063	33315.96
713.407	33474.15
713.75	33274.83
714.094	33182.86
714.438	33099.47
714.782	33050.2
715.125	33004.56
715.469	33031.67
715.812	32967.95
716.156	32682.3
716.499	32645.47
716.843	32739.48
717.186	32577.9
717.53	32690.67
717.873	32679.37
718.216	32489.54
718.559	32542.87
718.902	32201.19
719.246	32299.72
719.589	32243.22
719.932	32084.81
720.275	32102.43
720.617	32043.45
720.96	31886.62
721.303	32044.36
721.646	32040.51
721.989	31719.84
722.331	32060.17
722.674	31692.05
723.016	31848.2
723.359	31691.82
723.701	31719.39
724.044	31491.83
724.386	31453.86
724.729	31682.78
725.071	31400.76
725.413	31322.57
725.755	31307.43
726.097	31209.57
726.439	31006.64
726.782	31111.05
727.124	31236.69
727.465	31005.06
727.807	30950.37
728.149	30984.95
728.491	30763.26
728.833	30904.27
729.175	30912.41
729.516	30681.68
729.858	30740.89
730.199	30818.17
730.541	30615.24
730.882	30610.27
731.224	30714.9
731.565	30439.65
731.906	30539.99
732.248	30515.36
732.589	30285.98
732.93	30229.49
733.271	30212.76
733.612	30255.48
733.953	30268.58
734.294	30092.09
734.635	30129.38
734.976	30179.32
735.317	30010.74
735.658	29846.9
735.999	30034.92
736.339	29978.87
736.68	30055.48
737.021	29872.43
737.361	29803.74
737.702	29908.59
738.042	29711.31
738.383	29795.83
738.723	29746.34
739.063	29595.83
739.404	29694.36
739.744	29553.35
740.084	29468.15
740.424	29591.54
740.764	29494.14
741.104	29484.65
741.444	29281.26
741.784	29260.25
742.124	29371.43
742.464	29219.8
742.804	29228.61
743.143	29131.44
743.483	29199.91
743.823	29046.69
744.162	28956.75
744.502	29142.51
744.841	29020.03
745.181	28919.01
745.52	28866.81
745.86	28976.64
746.199	28923.08
746.538	28747.94
746.877	28822.97
747.216	28747.27
747.556	28687.83
747.895	28718.11
748.234	28668.17
748.573	28576.65
748.911	28590.66
749.25	28533.26
749.589	28453.26
749.928	28433.15
750.267	28460.72
750.605	28316.54
750.944	28224.34
751.283	28155.42
751.621	28242.2
751.96	28166.04
752.298	28145.25
752.636	28161.75
752.975	28044.46
753.313	27782.32
753.651	27976.67
753.989	27891.24
754.327	27854.18
754.666	27748.87
755.004	27694.19
755.342	27727.63
755.679	27715.88
756.017	27590.23
756.355	27594.3
756.693	27562.89
757.031	27505.72
757.368	27317.93
757.706	27390.24
758.044	27203.13
758.381	27312.28
758.719	27199.06
759.056	27113.19
759.394	26983.25
