Data from hue_310_FLMS001491_33.txt Node
Date: Mon Feb 06 15:49:36 GMT 2017
User: dcchb
Spectrometer: FLMS00149
Trigger mode: 0
Integration Time (sec): 2.000000E-2
Scans to average: 10
Electric dark correction enabled: true
Nonlinearity correction enabled: false
Boxcar width: 0
XAxis mode: Wavelengths
Number of Pixels in Spectrum: 2048
>>>>>Begin Spectral Data<<<<<
341.393	-10.31
341.776	-10.31
342.16	-10.31
342.543	-45.56
342.927	-86.24
343.31	-55.06
343.693	-68.61
344.077	-70.65
344.46	-67.48
344.843	-48.05
345.226	-57.54
345.61	-40.82
345.993	-16.64
346.376	-28.84
346.759	32.85
347.142	42.57
347.525	29.46
347.908	60.87
348.291	69.91
348.674	95.9
349.057	122.12
349.44	123.92
349.823	118.5
350.206	154.66
350.588	190.14
350.971	189.68
351.354	207.76
351.737	237.14
352.119	261.09
352.502	250.47
352.884	269.91
353.267	264.94
353.65	295.9
354.032	287.76
354.414	303.35
354.797	287.53
355.179	316.69
355.562	323.01
355.944	328.89
356.326	333.86
356.709	330.92
357.091	327.99
357.473	331.83
357.855	315.1
358.238	336.12
358.62	339.74
359.002	324.6
359.384	320.98
359.766	330.92
360.148	332.96
360.53	346.06
360.912	312.84
361.294	329.12
361.676	330.02
362.057	315.56
362.439	320.08
362.821	313.52
363.203	320.98
363.584	314.88
363.966	304.26
364.348	302.45
364.729	308.55
365.111	315.56
365.493	318.49
365.874	298.38
366.256	307.65
366.637	301.77
367.019	316.46
367.4	299.06
367.781	318.72
368.163	306.97
368.544	308.33
368.925	310.13
369.306	309.46
369.688	309.23
370.069	276.24
370.45	288.66
370.831	287.76
371.212	319.17
371.593	313.97
371.974	282.11
372.355	294.31
372.736	316.23
373.117	308.1
373.498	315.33
373.879	308.78
374.26	322.34
374.641	297.48
375.021	331.6
375.402	325.73
375.783	314.88
376.163	311.94
376.544	304.94
376.925	319.62
377.305	299.96
377.686	309.68
378.066	334.77
378.447	318.04
378.827	350.58
379.208	325.5
379.588	329.79
379.968	321.66
380.349	325.95
380.729	303.58
381.109	318.49
381.489	327.76
381.87	331.38
382.25	325.5
382.63	309.23
383.01	316.01
383.39	316.91
383.77	330.47
384.15	351.26
384.53	337.25
384.91	336.12
385.29	343.58
385.67	357.14
386.049	327.76
386.429	351.26
386.809	342.9
387.189	313.75
387.568	334.09
387.948	335.22
388.328	334.31
388.707	360.08
389.087	336.57
389.466	341.09
389.846	356.01
390.225	345.84
390.605	351.26
390.984	355.1
391.363	337.03
391.743	343.35
392.122	358.27
392.501	358.72
392.881	374.09
393.26	375.22
393.639	375.89
394.018	376.8
394.397	358.95
394.776	365.95
395.155	356.23
395.534	352.39
395.913	381.77
396.292	375.89
396.671	367.98
397.05	376.12
397.429	382.67
397.808	388.55
398.186	369.11
398.565	382
398.944	372.5
399.323	381.77
399.701	385.16
400.08	399.17
400.458	405.72
400.837	403.46
401.215	370.92
401.594	382.9
401.972	395.33
402.351	403.01
402.729	387.65
403.107	394.88
403.486	410.92
403.864	407.31
404.242	408.44
404.62	432.16
404.999	415.89
405.377	416.8
405.755	434.2
406.133	415.89
406.511	424.03
406.889	438.94
407.267	424.03
407.645	429.68
408.023	447.76
408.401	461.32
408.779	458.15
409.156	466.06
409.534	462.45
409.912	467.42
410.29	483.01
410.667	479.85
411.045	458.83
411.422	497.47
411.8	491.37
412.178	496.79
412.555	504.7
412.933	509.68
413.31	519.17
413.687	533.4
414.065	527.08
414.442	539.51
414.819	528.21
415.197	555.55
415.574	558.04
415.951	554.19
416.328	575.89
416.705	589.9
417.082	574.76
417.46	563.23
417.837	608.43
418.214	609.79
418.591	604.81
418.967	618.37
419.344	629.45
419.721	622.22
420.098	640.97
420.475	648.43
420.852	650.69
421.228	694.3
421.605	663.57
421.982	670.35
422.358	694.3
422.735	687.3
423.111	691.59
423.488	708.09
423.864	708.54
424.241	711.93
424.617	744.25
424.994	739.5
425.37	735.43
425.746	727.52
426.123	743.34
426.499	761.65
426.875	760.52
427.251	755.09
427.627	767.07
428.003	801.42
428.379	809.78
428.756	821.53
429.132	811.59
429.507	832.38
429.883	828.99
430.259	847.52
430.635	859.5
431.011	848.88
431.387	887.97
431.763	891.81
432.138	894.3
432.514	900.17
432.89	927.29
433.265	932.49
433.641	950.79
434.016	936.33
434.392	962.77
434.767	983.34
435.143	969.78
435.518	985.6
435.894	1027.18
436.269	981.75
436.644	1012.26
437.02	998.48
437.395	1026.05
437.77	1051.58
438.145	1044.58
438.52	1057.68
438.895	1056.55
439.271	1082.77
439.646	1082.09
440.021	1108.3
440.395	1097.01
440.77	1097.23
441.145	1127.29
441.52	1124.12
441.895	1126.61
442.27	1148.76
442.645	1141.98
443.019	1139.72
443.394	1132.48
443.769	1144.91
444.143	1154.18
444.518	1167.51
444.892	1142.43
445.267	1167.51
445.641	1168.19
446.016	1168.64
446.39	1176.78
446.764	1171.81
447.139	1186.72
447.513	1206.38
447.887	1184.46
448.262	1241.63
448.636	1220.39
449.01	1223.1
449.384	1209.32
449.758	1227.85
450.132	1240.96
450.506	1224.91
450.88	1236.66
451.254	1239.6
451.628	1249.54
452.002	1257.45
452.376	1260.39
452.75	1270.11
453.123	1296.32
453.497	1315.76
453.871	1303.1
454.244	1300.62
454.618	1336.09
454.992	1310.56
455.365	1298.36
455.739	1357.79
456.112	1339.94
456.486	1393.04
456.859	1364.34
457.232	1399.37
457.606	1400.27
457.979	1381.29
458.352	1390.78
458.725	1421.52
459.099	1408.41
459.472	1434.4
459.845	1445.47
460.218	1444.79
460.591	1438.92
460.964	1456.77
461.337	1462.87
461.71	1487.96
462.083	1501.29
462.456	1526.37
462.829	1485.92
463.201	1500.16
463.574	1537.9
463.947	1533.83
464.32	1563.21
464.692	1584.68
465.065	1577.44
465.438	1576.54
465.81	1600.27
466.183	1607.73
466.555	1601.17
466.928	1613.83
467.3	1621.96
467.672	1664.67
468.045	1674.39
468.417	1686.37
468.789	1697.89
469.161	1697.89
469.534	1751.68
469.906	1757.78
470.278	1745.12
470.65	1777.21
471.022	1776.31
471.394	1835.52
471.766	1805.69
472.138	1809.08
472.51	1863.09
472.882	1856.76
473.253	1911.45
473.625	1939.02
473.997	1927.27
474.369	1938.34
474.74	1948.51
475.112	1956.42
475.484	2001.84
475.855	2015.85
476.227	2021.95
476.598	2086.81
476.97	2107.6
477.341	2086.13
477.713	2140.59
478.084	2141.5
478.455	2164.1
478.827	2175.39
479.198	2245.22
479.569	2222.63
479.94	2242.96
480.311	2291.55
480.682	2314.37
481.053	2330.19
481.424	2386.46
481.795	2394.82
482.166	2408.38
482.537	2408.16
482.908	2452.68
483.279	2467.82
483.65	2509.85
484.021	2518.66
484.391	2522.73
484.762	2557.98
485.133	2547.59
485.503	2578.77
485.874	2633.91
486.244	2656.06
486.615	2673.91
486.985	2717.53
487.356	2720.92
487.726	2771.99
488.097	2758.43
488.467	2773.8
488.837	2812.89
489.207	2814.25
489.578	2886.56
489.948	2882.95
490.318	2882.49
490.688	2895.15
491.058	2972.44
491.428	2944.64
491.798	3022.6
492.168	3059.67
492.538	3044.98
492.908	3102.83
493.278	3103.51
493.648	3121.58
494.017	3142.83
494.387	3135.14
494.757	3158.87
495.126	3163.62
495.496	3185.99
495.866	3195.71
496.235	3238.87
496.605	3254.46
496.974	3270.96
497.344	3329.26
497.713	3266.44
498.082	3324.07
498.452	3322.71
498.821	3315.48
499.19	3318.64
499.559	3369.49
499.928	3384.63
500.298	3410.84
500.667	3396.38
501.036	3385.31
501.405	3438.86
501.774	3397.51
502.143	3435.93
502.512	3482.25
502.88	3463.04
503.249	3479.54
503.618	3476.6
503.987	3512.31
504.356	3533.55
504.724	3501.46
505.093	3527.68
505.462	3527.9
505.83	3571.52
506.199	3564.74
506.567	3623.04
506.936	3618.97
507.304	3645.41
507.672	3643.38
508.041	3654.9
508.409	3682.02
508.777	3680.89
509.145	3694.45
509.514	3682.93
509.882	3727.9
510.25	3667.11
510.618	3708.69
510.986	3737.16
511.354	3754.56
511.722	3784.39
512.09	3778.74
512.458	3769.93
512.826	3795.47
513.193	3795.47
513.561	3772.64
513.929	3776.48
514.297	3858.29
514.664	3876.14
515.032	3851.96
515.4	3916.37
515.767	3872.75
516.135	3842.7
516.502	3863.71
516.869	3941
517.237	3907.78
517.604	3942.81
517.972	3941.9
518.339	3957.95
518.706	3917.04
519.073	3947.1
519.44	3955.23
519.808	3994.1
520.175	3980.32
520.542	3978.06
520.909	4012.63
521.276	4051.73
521.643	4033.65
522.009	4063.48
522.376	4024.61
522.743	4090.6
523.11	4106.42
523.477	4120.2
523.843	4147.77
524.21	4184.83
524.577	4170.37
524.943	4155.23
525.31	4186.87
525.676	4222.12
526.043	4181.9
526.409	4247.43
526.776	4243.36
527.142	4297.82
527.508	4322.01
527.874	4370.59
528.241	4344.83
528.607	4397.71
528.973	4380.76
529.339	4364.94
529.705	4431.38
530.071	4463.7
530.437	4472.96
530.803	4505.5
531.169	4475.22
531.535	4512.51
531.901	4470.48
532.267	4564.48
532.632	4595.9
532.998	4579.4
533.364	4584.37
533.73	4587.99
534.095	4641.09
534.461	4688.1
534.826	4737.81
535.192	4686.97
535.557	4750.92
535.923	4704.59
536.288	4741.43
536.653	4754.31
537.019	4766.51
537.384	4786.4
537.749	4819.39
538.114	4858.26
538.479	4814.65
538.845	4893.29
539.21	4863.69
539.575	4876.79
539.94	4925.15
540.305	4931.03
540.67	4903.91
541.034	4989.56
541.399	5038.82
541.764	5010.12
542.129	5016.45
542.494	5046.73
542.858	5100.52
543.223	5096.9
543.587	5185.71
543.952	5180.51
544.316	5167.41
544.681	5172.38
545.045	5164.47
545.41	5227.07
545.774	5210.12
546.138	5206.95
546.503	5278.59
546.867	5251.47
547.231	5342.54
547.595	5366.72
547.959	5368.98
548.324	5330.34
548.688	5329.44
549.052	5372.15
549.416	5420.96
549.779	5426.16
550.143	5383.9
550.507	5432.26
550.871	5501.64
551.235	5479.04
551.599	5563.78
551.962	5502.09
552.326	5519.26
552.689	5523.56
553.053	5566.49
553.417	5592.93
553.78	5655.98
554.143	5648.98
554.507	5616.43
554.87	5653.72
555.234	5696.88
555.597	5672.93
555.96	5752.48
556.323	5685.13
556.686	5715.64
557.05	5748.41
557.413	5760.39
557.776	5761.06
558.139	5856.43
558.502	5824.79
558.865	5841.51
559.228	5886.48
559.59	5841.06
559.953	5897.1
560.316	5925.58
560.679	5952.7
561.041	5963.32
561.404	5996.09
561.767	6017.33
562.129	5973.26
562.492	6072.47
562.854	6016.88
563.217	6040.83
563.579	6115.4
563.941	6149.98
564.304	6085.12
564.666	6167.15
565.028	6169.19
565.39	6180.26
565.753	6196.08
566.115	6228.85
566.477	6231.79
566.839	6286.25
567.201	6256.19
567.563	6300.26
567.925	6334.61
568.287	6359.24
568.648	6366.7
569.01	6379.13
569.372	6448.05
569.734	6425.45
570.095	6457.99
570.457	6551.1
570.819	6534.38
571.18	6557.2
571.542	6614.83
571.903	6595.17
572.265	6669.06
572.626	6651.66
572.987	6773.69
573.349	6765.1
573.71	6782.51
574.071	6887.36
574.432	6903.18
574.794	6958.09
575.155	6997.41
575.516	7012.33
575.877	7062.72
576.238	7166.22
576.599	7279.67
576.96	7208.48
577.32	7341.81
577.681	7433.34
578.042	7415.93
578.403	7543.16
578.763	7541.36
579.124	7712.88
579.485	7792.65
579.845	7901.35
580.206	8010.72
580.566	8079.42
580.927	8214.78
581.287	8331.62
581.648	8404.84
582.008	8571.61
582.368	8714.88
582.728	8882.11
583.089	8967.98
583.449	9089.56
583.809	9274.87
584.169	9441.64
584.529	9599.38
584.889	9861.97
585.249	9952.37
585.609	10175.41
585.969	10390.09
586.329	10558.9
586.688	10726.81
587.048	10916.63
587.408	11174.25
587.768	11332.22
588.127	11602.27
588.487	11816.72
588.846	12116.38
589.206	12300.1
589.565	12532.41
589.925	12895.56
590.284	13116.8
590.643	13254.2
591.003	13650.57
591.362	13930.79
591.721	14184.34
592.08	14406.26
592.44	14770.09
592.799	14975.74
593.158	15316.97
593.517	15533.24
593.876	15903.85
594.235	16080.79
594.593	16424.29
594.952	16721.23
595.311	16974.1
595.67	17348.78
596.029	17690.24
596.387	17978.82
596.746	18270.56
597.104	18550.78
597.463	18815.41
597.822	19073.26
598.18	19296.53
598.538	19660.36
598.897	20071.42
599.255	20239.78
599.613	20768.58
599.972	20906.43
600.33	21241.33
600.688	21516.58
601.046	21841.09
601.404	22210.57
601.762	22351.59
602.12	22737.34
602.478	23095.07
602.836	23355.85
603.194	23462.52
603.552	23692.12
603.91	23896.63
604.268	24349.95
604.625	24461.81
604.983	24911.75
605.341	24918.53
605.698	25366.88
606.056	25502.47
606.413	25763.93
606.771	26130.02
607.128	26413.18
607.485	26500.86
607.843	26770.91
608.2	27027.4
608.557	27350.1
608.914	27365.47
609.272	27826.7
609.629	28041.38
609.986	28255.84
610.343	28260.81
610.7	28814.02
611.057	28934.92
611.414	29122.71
611.771	29311.86
612.127	29533.77
612.484	29594.11
612.841	30006.75
613.198	29919.52
613.554	30167.43
613.911	30575.33
614.267	30554.76
614.624	30694.42
614.98	31042.66
615.337	31322.65
615.693	31259.15
616.05	31354.06
616.406	31599.48
616.762	31854.61
617.118	31795.86
617.475	32042.63
617.831	32249.86
618.187	32363.53
618.543	32599.91
618.899	32803.29
619.255	32915.6
619.611	32971.87
619.967	33264.97
620.323	33426.32
620.678	33263.84
621.034	33498.41
621.39	33576.6
621.746	33618.86
622.101	34136.14
622.457	33864.73
622.812	34040.55
623.168	34157.6
623.523	34300.65
623.879	34365.06
624.234	34310.6
624.589	34447.09
624.945	34708.32
625.3	34644.15
625.655	34862.44
626.01	34891.6
626.365	34873.97
626.72	34910.81
627.075	34985.83
627.43	35123
627.785	35082.55
628.14	35237.35
628.495	35292.94
628.85	35209.1
629.205	35176.56
629.559	35557.12
629.914	35406.84
630.269	35390.34
630.623	35394.18
630.978	35370.91
631.332	35685.47
631.687	35766.6
632.041	35575.65
632.396	35774.29
632.75	35487.51
633.104	35725.47
633.459	35566.83
633.813	35617.23
634.167	35760.05
634.521	35724.12
634.875	35752.37
635.229	35666.72
635.583	35670.79
635.937	35778.13
636.291	35686.6
636.645	35711.46
636.999	35573.39
637.352	35962.08
637.706	35619.94
638.06	35855.19
638.413	35807.05
638.767	35809.31
639.121	35809.09
639.474	35610.67
639.828	35665.81
640.181	35746.04
640.534	35778.58
640.888	35509.66
641.241	35565.03
641.594	35640.5
641.947	35688.64
642.301	35563.67
642.654	35732.7
643.007	35584.69
643.36	35560.96
643.713	35586.27
644.066	35739.03
644.419	35532.48
644.771	35250.46
645.124	35022.89
645.477	35005.27
645.83	34782
646.182	34764.14
646.535	34662.9
646.888	34798.04
647.24	34410.93
647.593	34766.18
647.945	34705.61
648.298	34552.85
648.65	34475.56
649.002	34512.62
649.355	34574.09
649.707	34554.88
650.059	34629.46
650.411	34962.1
650.763	35066.96
651.115	35409.1
651.467	35268.54
651.819	35347.4
652.171	35224.7
652.523	35187.63
652.875	35262.89
653.227	35144.47
653.578	35257.91
653.93	35132.27
654.282	35132.27
654.633	34908.55
654.985	35117.35
655.337	35046.85
655.688	35164.81
656.039	35240.51
656.391	35010.92
656.742	35131.14
657.094	35056.11
657.445	35267.86
657.796	35043.23
658.147	34990.35
658.498	34939.51
658.849	35006.85
659.2	34993.29
659.551	34907.64
659.902	35012.27
660.253	35074.19
660.604	35108.54
660.955	34860.64
661.306	35021.54
661.656	34967.98
662.007	34941.76
662.358	34898.83
662.708	34973.4
663.059	35000.52
663.409	34718.49
663.76	34966.85
664.11	34897.25
664.461	34960.07
664.811	34944.93
665.161	34826.29
665.511	34914.42
665.862	34854.31
666.212	34918.49
666.562	34994.87
666.912	34942.89
667.262	34832.62
667.612	34863.57
667.962	34925.49
668.312	34899.51
668.662	34929.79
669.011	34824.93
669.361	34857.25
669.711	34859.28
670.06	34738.15
670.41	34706.74
670.76	34690.92
671.109	34837.81
671.459	34784.71
671.808	34705.61
672.157	34771.6
672.507	34552.4
672.856	34586.07
673.205	34561.66
673.554	34707.87
673.904	34512.85
674.253	34729.79
674.602	34629
674.951	34135.01
675.3	34025.4
675.649	34575.9
675.998	34422.46
676.346	34601.21
676.695	34684.37
677.044	34342.68
677.393	34485.28
677.741	34585.62
678.09	34363.7
678.438	34331.84
678.787	34451.61
679.135	34466.07
679.484	34099.53
679.832	34344.04
680.181	34124.61
680.529	34264.95
680.877	34173.2
681.225	34068.57
681.573	34278.28
681.922	34064.5
682.27	33887.1
682.618	33956.03
682.966	33863.15
683.314	33948.57
683.661	33863.38
684.009	33704.28
684.357	33641.46
684.705	33609.14
685.053	33563.04
685.4	33511.07
685.748	33402.14
686.095	33441.47
686.443	33281.92
686.79	33211.87
687.138	33255.48
687.485	33422.71
687.832	33113.79
688.18	33354.46
688.527	33098.65
688.874	33048.03
689.221	33116.5
689.568	32876.06
689.915	32790.18
690.262	32964.87
690.609	32755.38
690.956	32665.67
691.303	32555.39
691.65	32362.17
691.997	32405.56
692.344	32185.45
692.69	32190.88
693.037	32229.75
693.383	32034.27
693.73	32196.98
694.077	31970.09
694.423	31992.69
694.769	31799.47
695.116	31731.68
695.462	31668.18
695.808	31503.21
696.155	31586.82
696.501	31377.79
696.847	31375.08
697.193	31167.63
697.539	31267.96
697.885	30989.1
698.231	31079.27
698.577	31051.47
698.923	30879.5
699.269	30724.47
699.614	30590.01
699.96	30639.73
700.306	30639.96
700.651	30458.72
700.997	30413.3
701.342	30366.29
701.688	30244.26
702.033	30263.47
702.379	30158.39
702.724	30039.52
703.069	30205.62
703.415	29904.84
703.76	29986.19
704.105	29867.77
704.45	29711.85
704.795	29607.44
705.14	29601.34
705.485	29542.13
705.83	29295.13
706.175	29398.86
706.52	29447.45
706.865	29219.43
707.209	29191.86
707.554	29182.14
707.899	29281.35
708.243	29042.48
708.588	28959.55
708.932	28728.82
709.277	28723.85
709.621	28873
709.966	28640.91
710.31	28768.82
710.654	28544.19
710.998	28572.21
711.342	28465.55
711.687	28370.41
712.031	28268.49
712.375	28160.47
712.719	28328.38
713.063	28182.85
713.407	28337.64
713.75	28125.22
714.094	28038.22
714.438	27827.15
714.782	27953.02
715.125	27836.87
715.469	27861.27
715.812	27670.77
716.156	27521.17
716.499	27607.95
716.843	27512.81
717.186	27529.3
717.53	27588.51
717.873	27569.08
718.216	27434.84
718.559	27355.52
718.902	27244.79
719.246	27277.11
719.589	27153.5
719.932	27077.11
720.275	27097.45
720.617	27005.48
720.96	26971.8
721.303	26940.39
721.646	26998.92
721.989	26810.68
722.331	26890
722.674	26832.83
723.016	26793.5
723.359	26637.58
723.701	26689.55
724.044	26562.1
724.386	26440.52
724.729	26609.33
725.071	26415.89
725.413	26370.92
725.755	26438.94
726.097	26318.49
726.439	26196.01
726.782	26215.67
727.124	26302.44
727.465	26027.2
727.807	26168.44
728.149	26181.54
728.491	26018.61
728.833	26029.23
729.175	26062.22
729.516	25816.81
729.858	25975.45
730.199	25962.79
730.541	25884.83
730.882	25846.64
731.224	25923.7
731.565	25762.35
731.906	25718.05
732.248	25794.66
732.589	25620.2
732.93	25507.44
733.271	25546.76
733.612	25526.65
733.953	25488.91
734.294	25506.08
734.635	25460.66
734.976	25415.01
735.317	25310.15
735.658	25311.51
735.999	25300.44
736.339	25183.83
736.68	25259.31
737.021	25213.43
737.361	25112.42
737.702	25296.37
738.042	25099.99
738.383	25121.46
738.723	25128.46
739.063	25004.85
739.404	24984.74
739.744	24930.05
740.084	24836.04
740.424	24834.46
740.764	24713.56
741.104	24872.88
741.444	24647.35
741.784	24578.2
742.124	24656.84
742.464	24579.78
742.804	24648.48
743.143	24474.24
743.483	24543.62
743.823	24373.68
744.162	24467.69
744.502	24458.2
744.841	24270.41
745.181	24420.01
745.52	24268.15
745.86	24345.43
746.199	24291.88
746.538	24116.51
746.877	24295.04
747.216	24199.45
747.556	24224.53
747.895	24121.03
748.234	24029.51
748.573	24058.66
748.911	23966.69
749.25	23926.24
749.589	23793.13
749.928	23838.55
750.267	23743.19
750.605	23749.74
750.944	23649.41
751.283	23651.67
751.621	23581.39
751.96	23627.71
752.298	23623.87
752.636	23461.16
752.975	23392.92
753.313	23292.81
753.651	23389.75
753.989	23354.5
754.327	23215.29
754.666	23096.43
755.004	23130.55
755.342	23157.67
755.679	23040.16
756.017	23000.38
756.355	23032.7
756.693	22860.5
757.031	22988.41
757.368	22808.07
757.706	22773.95
758.044	22658.25
758.381	22627.74
758.719	22572.15
759.056	22677
759.394	22643.33
759.731	22464.13
