Data from hue_340_FLMS001491_68.txt Node
Date: Mon Feb 06 15:43:27 GMT 2017
User: dcchb
Spectrometer: FLMS00149
Trigger mode: 0
Integration Time (sec): 2.000000E-2
Scans to average: 10
Electric dark correction enabled: true
Nonlinearity correction enabled: false
Boxcar width: 0
XAxis mode: Wavelengths
Number of Pixels in Spectrum: 2048
>>>>>Begin Spectral Data<<<<<
341.393	-5.17
341.776	-5.17
342.16	-5.17
342.543	-65.73
342.927	-66.18
343.31	-61.44
343.693	-63.7
344.077	-93.98
344.46	-56.47
344.843	-49.24
345.226	-54.43
345.61	-32.74
345.993	-20.08
346.376	7.94
346.759	17.2
347.142	21.95
347.525	47.94
347.908	61.27
348.291	68.73
348.674	87.71
349.057	119.35
349.44	132.45
349.823	132
350.206	143.75
350.588	184.88
350.971	197.99
351.354	205.67
351.737	263.75
352.119	252
352.502	251.55
352.884	277.08
353.267	269.4
353.65	270.53
354.032	290.87
354.414	299.46
354.797	295.61
355.179	311.66
355.562	312.79
355.944	324.31
356.326	337.42
356.709	338.78
357.091	318.21
357.473	335.16
357.855	330.87
358.238	336.29
358.62	329.96
359.002	329.51
359.384	329.06
359.766	317.31
360.148	333.35
360.53	322.51
360.912	318.89
361.294	337.42
361.676	326.12
362.057	320.47
362.439	332.45
362.821	322.51
363.203	311.66
363.584	313.24
363.966	302.17
364.348	307.59
364.729	307.36
365.111	296.29
365.493	304.43
365.874	304.65
366.256	324.31
366.637	330.42
367.019	303.52
367.4	295.61
367.781	311.43
368.163	316.4
368.544	296.74
368.925	281.38
369.306	301.72
369.688	306.46
370.069	315.5
370.45	293.13
370.831	297.87
371.212	303.75
371.593	291.32
371.974	318.44
372.355	312.34
372.736	289.74
373.117	321.38
373.498	299.23
373.879	310.98
374.26	306.46
374.641	315.95
375.021	310.3
375.402	297.65
375.783	319.79
376.163	322.28
376.544	333.35
376.925	328.38
377.305	312.11
377.686	321.6
378.066	310.3
378.447	338.32
378.827	310.98
379.208	317.31
379.588	300.13
379.968	346.23
380.349	326.57
380.729	322.28
381.109	330.64
381.489	318.89
381.87	311.88
382.25	324.09
382.63	317.31
383.01	328.16
383.39	327.48
383.77	339.68
384.15	322.05
384.53	329.29
384.91	328.16
385.29	333.13
385.67	333.35
386.049	322.28
386.429	352.11
386.809	347.59
387.189	338.78
387.568	346.46
387.948	335.16
388.328	330.87
388.707	338.78
389.087	353.01
389.466	351.43
389.846	324.54
390.225	348.04
390.605	347.36
390.984	351.88
391.363	355.27
391.743	358.21
392.122	360.92
392.501	341.94
392.881	346.69
393.26	363.63
393.639	365.44
394.018	367.93
394.397	357.98
394.776	372.45
395.155	360.47
395.534	381.71
395.913	359.57
396.292	368.15
396.671	355.95
397.05	381.94
397.429	370.41
397.808	357.76
398.186	355.5
398.565	357.53
398.944	352.56
399.323	393.46
399.701	369.28
400.08	371.54
400.458	352.56
400.837	374.48
401.215	394.82
401.594	386.91
401.972	396.85
402.351	379.68
402.729	387.14
403.107	383.97
403.486	399.34
403.864	385.33
404.242	394.82
404.62	392.79
404.999	404.54
405.377	411.54
405.755	391.88
406.133	407.7
406.511	409.28
406.889	420.58
407.267	415.61
407.645	411.32
408.023	439.79
408.401	419.45
408.779	426.46
409.156	403.86
409.534	458.1
409.912	437.98
410.29	472.56
410.667	460.36
411.045	450.86
411.422	442.28
411.8	447.7
412.178	465.55
412.555	465.1
412.933	466.68
413.31	460.36
413.687	458.77
414.065	482.28
414.442	484.08
414.819	462.84
415.197	496.51
415.574	494.25
415.951	490.18
416.328	518.21
416.705	494.25
417.082	497.87
417.46	522.27
417.837	522.73
418.214	524.53
418.591	515.27
418.967	538.77
419.344	532.22
419.721	517.53
420.098	517.53
420.475	528.15
420.852	547.58
421.228	532.44
421.605	549.39
421.982	563.63
422.358	549.84
422.735	570.63
423.111	564.53
423.488	570.18
423.864	562.95
424.241	568.83
424.617	593.01
424.994	587.13
425.37	588.94
425.746	593.91
426.123	583.97
426.499	597.53
426.875	609.05
427.251	637.07
427.627	623.29
428.003	636.85
428.379	649.05
428.756	630.97
429.132	647.02
429.507	654.47
429.883	625.55
430.259	680.01
430.635	677.75
431.011	652.67
431.387	673
431.763	699.67
432.138	659.45
432.514	668.71
432.89	708.03
433.265	713.91
433.641	709.39
434.016	729.5
434.392	721.37
434.767	741.25
435.143	735.6
435.518	731.53
435.894	755.26
436.269	786.67
436.644	745.09
437.02	747.58
437.395	777.63
437.77	779.67
438.145	785.54
438.52	797.75
438.895	805.66
439.271	787.35
439.646	804.3
440.021	818.31
440.395	809.95
440.77	814.24
441.145	818.76
441.52	834.13
441.895	816.28
442.27	836.84
442.645	834.13
443.019	841.36
443.394	856.73
443.769	847.69
444.143	826.22
444.518	842.94
444.892	854.7
445.267	857.86
445.641	872.32
446.016	880.23
446.39	876.39
446.764	880.23
447.139	870.74
447.513	871.42
447.887	929.5
448.262	877.29
448.636	912.09
449.01	899.89
449.384	871.87
449.758	900.12
450.132	934.92
450.506	927.01
450.88	942.38
451.254	919.55
451.628	945.09
452.002	905.77
452.376	947.57
452.75	944.86
453.123	962.49
453.497	961.36
453.871	942.83
454.244	975.6
454.618	978.99
454.992	1006.33
455.365	1009.27
455.739	1026.89
456.112	996.61
456.486	1015.37
456.859	1017.85
457.232	1018.53
457.606	1044.97
457.979	1060.57
458.352	1061.47
458.725	1074.8
459.099	1060.57
459.472	1098.76
459.845	1116.84
460.218	1117.74
460.591	1128.13
460.964	1112.54
461.337	1152.77
461.71	1153.22
462.083	1164.52
462.456	1180.11
462.829	1164.74
463.201	1179.43
463.574	1174.01
463.947	1181.47
464.32	1221.92
464.692	1219.66
465.065	1211.3
465.438	1248.13
465.81	1279.32
466.183	1287.9
466.555	1261.92
466.928	1282.25
467.3	1284.51
467.672	1285.19
468.045	1337.39
468.417	1335.81
468.789	1345.08
469.161	1324.51
469.534	1364.29
469.906	1394.12
470.278	1411.97
470.65	1409.03
471.022	1434.79
471.394	1448.13
471.766	1460.55
472.138	1481.57
472.51	1499.2
472.882	1526.32
473.253	1551.63
473.625	1553.43
473.997	1552.08
474.369	1597.5
474.74	1583.94
475.112	1635.01
475.484	1636.37
475.855	1682.02
476.227	1694.45
476.598	1725.41
476.97	1712.3
477.341	1762.92
477.713	1780.77
478.084	1790.04
478.455	1820.32
478.827	1851.73
479.198	1892.86
479.569	1901.9
479.94	1945.29
480.311	1979.41
480.682	1989.13
481.053	2039.97
481.424	2089.46
481.795	2097.6
482.166	2112.06
482.537	2139.86
482.908	2163.81
483.279	2158.84
483.65	2238.61
484.021	2275.67
484.391	2321.55
484.762	2305.96
485.133	2283.81
485.503	2333.3
485.874	2375.33
486.244	2419.4
486.615	2451.94
486.985	2488.1
487.356	2507.76
487.726	2532.17
488.097	2589.34
488.467	2618.49
488.837	2615.1
489.207	2650.13
489.578	2703.91
489.948	2734.42
490.318	2807.41
490.688	2726.51
491.058	2825.04
491.428	2847.19
491.798	2854.42
492.168	2902.32
492.538	2912.49
492.908	2946.39
493.278	2974.41
493.648	2991.59
494.017	3023.9
494.387	3088.31
494.757	3087.63
495.126	3139.61
495.496	3084.01
495.866	3163.56
496.235	3191.36
496.605	3191.36
496.974	3191.13
497.344	3215.99
497.713	3245.14
498.082	3270
498.452	3284.46
498.821	3268.64
499.19	3307.29
499.559	3400.16
499.928	3364.91
500.298	3373.5
500.667	3401.75
501.036	3428.41
501.405	3448.3
501.774	3433.16
502.143	3464.12
502.512	3478.81
502.88	3513.38
503.249	3536.66
503.618	3583.44
503.987	3527.17
504.356	3554.06
504.724	3610.55
505.093	3579.14
505.462	3616.88
505.83	3601.29
506.199	3655.75
506.567	3687.84
506.936	3668.63
507.304	3733.04
507.672	3698.01
508.041	3707.5
508.409	3750.66
508.777	3737.56
509.145	3784.56
509.514	3797.67
509.882	3811.68
510.25	3831.34
510.618	3787.73
510.986	3816.2
511.354	3840.15
511.722	3866.37
512.09	3941.85
512.458	3893.03
512.826	3896.87
513.193	3903.2
513.561	3964.67
513.929	3946.37
514.297	3991.56
514.664	4018
515.032	3988.62
515.4	4033.82
515.767	3984.33
516.135	4037.89
516.502	4032.01
516.869	4095.51
517.237	4102.75
517.604	4074.05
517.972	4122.41
518.339	4146.13
518.706	4117.89
519.073	4086.25
519.44	4122.18
519.808	4159.01
520.175	4130.54
520.542	4218.67
520.909	4232.01
521.276	4214.83
521.643	4274.04
522.009	4267.71
522.376	4250.54
522.743	4314.49
523.11	4307.94
523.477	4346.35
523.843	4361.27
524.21	4350.2
524.577	4420.25
524.943	4440.59
525.31	4447.14
525.676	4504.77
526.043	4508.16
526.409	4521.04
526.776	4555.84
527.142	4563.98
527.508	4602.85
527.874	4629.06
528.241	4593.81
528.607	4656.85
528.973	4696.63
529.339	4660.47
529.705	4699.79
530.071	4772.33
530.437	4720.36
530.803	4781.6
531.169	4861.82
531.535	4799.9
531.901	4838.09
532.267	4829.96
532.632	4945.66
532.998	4876.96
533.364	4900.46
533.73	4919.67
534.095	5005.32
534.461	4946.56
534.826	4976.62
535.192	5019.78
535.557	5077.41
535.923	5045.77
536.288	5085.54
536.653	5076.28
537.019	5119.67
537.384	5151.31
537.749	5183.17
538.114	5131.42
538.479	5200.12
538.845	5210.74
539.21	5205.77
539.575	5246.9
539.94	5268.14
540.305	5293.22
540.67	5296.39
541.034	5366.67
541.399	5376.61
541.764	5365.54
542.129	5396.04
542.494	5379.77
542.858	5428.59
543.223	5381.13
543.587	5495.7
543.952	5471.97
544.316	5525.98
544.681	5525.53
545.045	5593.33
545.41	5593.33
545.774	5615.93
546.138	5608.92
546.503	5663.61
546.867	5677.62
547.231	5706.77
547.595	5753.32
547.959	5728.69
548.324	5724.85
548.688	5827.45
549.052	5788.8
549.416	5821.57
549.779	5810.5
550.143	5789.25
550.507	5891.85
550.871	5861.8
551.235	5897.27
551.599	5923.26
551.962	5910.38
552.326	5965.75
552.689	5996.25
553.053	5967.55
553.417	5976.37
553.78	6055.46
554.143	6046.2
554.507	6046.2
554.87	6083.71
555.234	6148.79
555.597	6096.37
555.96	6113.77
556.323	6148.57
556.686	6130.04
557.05	6163.48
557.413	6224.95
557.776	6223.37
558.139	6241.67
558.502	6338.17
558.865	6284.38
559.228	6302.24
559.59	6313.31
559.953	6365.28
560.316	6396.02
560.679	6380.65
561.041	6450.25
561.404	6465.62
561.767	6499.29
562.129	6483.02
562.492	6555.11
562.854	6582.23
563.217	6485.28
563.579	6606.86
563.941	6622.45
564.304	6608.44
564.666	6681.66
565.028	6620.42
565.39	6703.58
565.753	6702.9
566.115	6699.06
566.477	6742.22
566.839	6780.41
567.201	6834.2
567.563	6804.37
567.925	6888.89
568.287	6904.48
568.648	6860.41
569.01	6960.3
569.372	6910.13
569.734	6966.4
570.095	7010.69
570.457	7020.86
570.819	7135.89
571.18	7105.38
571.542	7122.33
571.903	7141.54
572.265	7226.73
572.626	7268.76
572.987	7312.15
573.349	7372.72
573.71	7389.21
574.071	7366.61
574.432	7423.34
574.794	7600.96
575.155	7566.83
575.516	7592.37
575.877	7653.61
576.238	7730.22
576.599	7766.6
576.96	7861.97
577.32	7896.09
577.681	7970.21
578.042	7977.45
578.403	8127.27
578.763	8129.08
579.124	8186.71
579.485	8359.81
579.845	8431.22
580.206	8513.02
580.566	8588.28
580.927	8725.45
581.287	8848.16
581.648	8888.61
582.008	9021.49
582.368	9159.56
582.728	9328.37
583.089	9451.08
583.449	9538.31
583.809	9669.15
584.169	9850.39
584.529	10005.41
584.889	10217.61
585.249	10284.5
585.609	10469.13
585.969	10716.81
586.329	10884.94
586.688	11115.44
587.048	11205.16
587.408	11464.81
587.768	11627.07
588.127	11833.84
588.487	12064.12
588.846	12335.98
589.206	12474.95
589.565	12726.7
589.925	13004.43
590.284	13133.69
590.643	13415.72
591.003	13806.44
591.362	14010.51
591.721	14243.27
592.08	14531.4
592.44	14797.61
592.799	15038.05
593.158	15238.72
593.517	15533.18
593.876	15770.24
594.235	16081.64
594.593	16321.86
594.952	16693.6
595.311	16813.15
595.67	17230.31
596.029	17528.61
596.387	17800.69
596.746	18072.55
597.104	18312.54
597.463	18603.83
597.822	18942.81
598.18	19045.18
598.538	19414.43
598.897	19886.29
599.255	19867.08
599.613	20513.39
599.972	20629.09
600.33	20933.94
600.688	21139.13
601.046	21509.97
601.404	21846.91
601.762	21999
602.12	22436.05
602.478	22644.86
602.836	22952.65
603.194	23043.72
603.552	23280.32
603.91	23463.14
604.268	23843.02
604.625	24056.57
604.983	24374.75
605.341	24551.25
605.698	24847.06
606.056	25120.27
606.413	25261.51
606.771	25716.64
607.128	25937.2
607.485	25934.94
607.843	26195.72
608.2	26531.53
608.557	26916.61
608.914	26941.24
609.272	27243.61
609.629	27567.89
609.986	27790.03
610.343	27944.83
610.7	28298.95
611.057	28451.94
611.414	28543.46
611.771	28827.52
612.127	29042.65
612.484	29214.4
612.841	29454.17
613.198	29479.48
613.554	29717.21
613.911	29999.47
614.267	30076.3
614.624	30415.05
614.98	30442.39
615.337	30808.26
615.693	30849.39
616.05	30948.82
616.406	31320.33
616.762	31239.21
617.118	31381.12
617.475	31515.13
617.831	31644.85
618.187	31812.75
618.543	32153.08
618.899	32386.75
619.255	32462.23
619.611	32465.39
619.967	32702.9
620.323	32918.26
620.678	32746.51
621.034	32770.92
621.39	33032.15
621.746	33080.06
622.101	33484.57
622.457	33288.19
622.812	33445.48
623.168	33724.57
623.523	33759.14
623.879	33791
624.234	33824.22
624.589	34073.03
624.945	34006.14
625.3	34281.61
625.655	34293.14
626.01	34279.8
626.365	34440.93
626.72	34363.64
627.075	34410.87
627.43	34509.86
627.785	34506.92
628.14	34646.8
628.495	34825.78
628.85	34585.11
629.205	34661.26
629.559	34851.09
629.914	34914.36
630.269	35022.61
630.623	34884.31
630.978	35014.25
631.332	35094.25
631.687	35197.97
632.041	35038.88
632.396	35155.04
632.75	35040.46
633.104	35296.73
633.459	35083.4
633.813	35127.01
634.167	35117.52
634.521	35221.7
634.875	35184.19
635.229	35210.18
635.583	35141.7
635.937	35141.7
636.291	35101.03
636.645	35272.32
636.999	35124.08
637.352	35320.68
637.706	35020.35
638.06	35265.77
638.413	35220.57
638.767	35206.33
639.121	35279.78
639.474	35044.98
639.828	35087.24
640.181	35161.82
640.534	35183.06
640.888	35066.45
641.241	35075.94
641.594	35155.04
641.947	35231.87
642.301	35248.37
642.654	35223.28
643.007	35223.96
643.36	35135.83
643.713	35078.88
644.066	35249.04
644.419	35181.48
644.771	34872.33
645.124	34535.17
645.477	34383.08
645.83	34397.54
646.182	34172.01
646.535	34081.62
646.888	34218.34
647.24	34082.52
647.593	34163.88
647.945	34118
648.298	34050.43
648.65	34047.49
649.002	33912.36
649.355	34054.27
649.707	34068.29
650.059	34078
650.411	34532
650.763	34645.22
651.115	34900.35
651.467	34930.41
651.819	34799.79
652.171	34781.49
652.523	34676.63
652.875	34715.73
653.227	34569.74
653.578	34711.66
653.93	34690.87
654.282	34614.71
654.633	34569.29
654.985	34544.2
655.337	34476.41
655.688	34458.78
656.039	34718.66
656.391	34361.38
656.742	34435.28
657.094	34650.19
657.445	34607.93
657.796	34537.65
658.147	34405
658.498	34266.92
658.849	34506.92
659.2	34402.97
659.551	34442.06
659.902	34557.76
660.253	34419.24
660.604	34536.07
660.955	34401.16
661.306	34471.21
661.656	34338.56
662.007	34539.46
662.358	34286.58
662.708	34416.07
663.059	34396.41
663.409	34157.55
663.76	34499.46
664.11	34492.45
664.461	34406.36
664.811	34412.46
665.161	34345.57
665.511	34294.95
665.862	34293.59
666.212	34419.69
666.562	34471.44
666.912	34317.54
667.262	34411.1
667.612	34264.66
667.962	34419.46
668.312	34279.35
668.662	34457.65
669.011	34423.08
669.361	34284.32
669.711	34256.3
670.06	34131.33
670.41	34144.44
670.76	34231.22
671.109	34333.81
671.459	34241.16
671.808	34186.93
672.157	34252.46
672.507	34059.47
672.856	34061.96
673.205	34140.83
673.554	34212.91
673.904	33950.77
674.253	34197.32
674.602	33984.22
674.951	33595.98
675.3	33506.27
675.649	34035.52
675.998	33925.24
676.346	33879.36
676.695	34084.56
677.044	33827.84
677.393	33977.67
677.741	33908.97
678.09	33854.28
678.438	33787.39
678.787	33767.73
679.135	33802.98
679.484	33636.21
679.832	33791.68
680.181	33611.35
680.529	33732.25
680.877	33652.02
681.225	33476.44
681.573	33743.32
681.922	33595.08
682.27	33395.31
682.618	33546.72
682.966	33397.12
683.314	33432.6
683.661	33349.89
684.009	33170
684.357	33187.63
684.705	33062.89
685.053	33234.63
685.4	33106.73
685.748	32782.22
686.095	32892.27
686.443	32812.05
686.79	32817.92
687.138	32884.81
687.485	32813.63
687.832	32660.86
688.18	32776.34
688.527	32563.69
688.874	32573.41
689.221	32522.34
689.568	32362.57
689.915	32308.11
690.262	32262.68
690.609	32197.15
690.956	32132.29
691.303	32085.29
691.65	32011.16
691.997	31966.19
692.344	31732.08
692.69	31699.08
693.037	31704.51
693.383	31492.53
693.73	31749.48
694.077	31528.69
694.423	31387.68
694.769	31374.34
695.116	31279.88
695.462	31252.31
695.808	31196.5
696.155	31280.11
696.501	31010.96
696.847	30994.47
697.193	30662.72
697.539	30918.99
697.885	30745.21
698.231	30576.85
698.577	30611.65
698.923	30537.76
699.269	30364.65
699.614	30149.97
699.96	30174.83
700.306	30193.36
700.651	30036.75
700.997	29925.12
701.342	29885.12
701.688	29761.05
702.033	29770.54
702.379	29745.69
702.724	29665.46
703.069	29672.24
703.415	29448.07
703.76	29354.96
704.105	29444.23
704.45	29306.83
704.795	29140.96
705.14	29145.25
705.485	29094.18
705.83	28984.12
706.175	29033.84
706.52	28923.11
706.865	28766.5
707.209	28745.26
707.554	28678.6
707.899	28634.76
708.243	28539.62
708.588	28469.56
708.932	28372.62
709.277	28411.94
709.621	28459.84
709.966	28284.71
710.31	28204.26
710.654	28096.69
710.998	28083.58
711.342	27997.48
711.687	27932.18
712.031	27853.53
712.375	27681.79
712.719	27771.28
713.063	27819.18
713.407	27830.71
713.75	27665.06
714.094	27570.15
714.438	27617.16
714.782	27599.98
715.125	27367.9
715.469	27487.89
715.812	27267.11
716.156	27216.26
716.499	27270.27
716.843	27182.36
717.186	27046.32
717.53	27295.36
717.873	27036.38
718.216	27091.97
718.559	26912.77
718.902	26698.31
719.246	26824.18
719.589	26726.11
719.932	26571.31
720.275	26685.43
720.617	26597.3
720.96	26599.33
721.303	26535.38
721.646	26581.93
721.989	26386.45
722.331	26510.52
722.674	26306.46
723.016	26354.59
723.359	26285.21
723.701	26300.13
724.044	26144.65
724.386	25987.37
724.729	26134.93
725.071	26043.41
725.413	25980.36
725.755	25896.75
726.097	25832.8
726.439	25752.57
726.782	25875.28
727.124	25903.53
727.465	25735.4
727.807	25654.95
728.149	25682.97
728.491	25578.11
728.833	25661.73
729.175	25647.72
729.516	25503.54
729.858	25471.9
730.199	25578.79
730.541	25462.18
730.882	25395.29
731.224	25568.17
731.565	25344.22
731.906	25297.44
732.248	25325.69
732.589	25204.79
732.93	25068.52
733.271	25159.14
733.612	25095.87
733.953	25207.95
734.294	24973.16
734.635	24938.81
734.976	24981.97
735.317	24905.36
735.658	24993.27
735.999	24803.9
736.339	24773.61
736.68	24755.99
737.021	24727.51
737.361	24670.11
737.702	24825.36
738.042	24723.22
738.383	24680.28
738.723	24688.42
739.063	24473.51
739.404	24554.64
739.744	24575.88
740.084	24458.37
740.424	24496.79
740.764	24291.59
741.104	24425.15
741.444	24258.6
741.784	24229.22
742.124	24306.96
742.464	24244.36
742.804	24120.52
743.143	24157.36
743.483	24177.02
743.823	23986.52
744.162	24020.19
744.502	24131.82
744.841	23971.38
745.181	24013.18
745.52	23820.19
745.86	23929.57
746.199	23914.88
746.538	23867.2
746.877	23929.79
747.216	23774.32
747.556	23804.83
747.895	23898.16
748.234	23659.97
748.573	23586.98
748.911	23480.54
749.25	23722.79
749.589	23396.25
749.928	23398.51
750.267	23504.72
750.605	23325.52
750.944	23342.69
751.283	23272.41
751.621	23292.75
751.96	23282.58
752.298	23201.45
752.636	23203.26
752.975	23005.3
753.313	22860.22
753.651	22954.23
753.989	22903.83
754.327	22948.35
754.666	22784.06
755.004	22834.68
755.342	22881.69
755.679	22710.84
756.017	22644.4
756.355	22690.96
756.693	22572.54
757.031	22626.78
757.368	22403.28
757.706	22449.38
758.044	22356.73
758.381	22326.45
758.719	22165.77
759.056	22329.16
759.394	22150.86
759.731	22043.74
760.068	22006.23
760.405	21865.44
