Data from hue_170_FLMS001491_00032.txt Node
Date: Tue Feb 07 16:48:36 GMT 2017
User: dcchb
Spectrometer: FLMS00149
Trigger mode: 0
Integration Time (sec): 2.000000E-2
Scans to average: 10
Electric dark correction enabled: true
Nonlinearity correction enabled: false
Boxcar width: 0
XAxis mode: Wavelengths
Number of Pixels in Spectrum: 2048
>>>>>Begin Spectral Data<<<<<
341.393	-4.59
341.776	-4.59
342.16	-4.59
342.543	-74.87
342.927	-65.15
343.31	-46.17
343.693	-74.64
344.077	-68.32
344.46	-69.9
344.843	-20.86
345.226	-37.36
345.61	-39.84
345.993	-34.19
346.376	-22.89
346.759	14.62
347.142	20.95
347.525	41.51
347.908	63.88
348.291	91.9
348.674	81.51
349.057	99.81
349.44	132.81
349.823	178.46
350.206	147.5
350.588	208.74
350.971	227.04
351.354	218.91
351.737	236.53
352.119	233.82
352.502	273.82
352.884	270.43
353.267	269.75
353.65	276.76
354.032	305.23
354.414	306.59
354.797	316.76
355.179	326.02
355.562	310.88
355.944	347.26
356.326	320.82
356.709	338.9
357.091	345.46
357.473	335.51
357.855	340.03
358.238	337.77
358.62	328.73
359.002	353.82
359.384	352.69
359.766	336.64
360.148	335.51
360.53	335.29
360.912	346.81
361.294	355.17
361.676	342.29
362.057	317.89
362.439	321.28
362.821	333.25
363.203	334.61
363.584	332.12
363.966	318.79
364.348	315.63
364.729	318.34
365.111	326.25
365.493	337.1
365.874	313.82
366.256	327.38
366.637	321.28
367.019	314.95
367.4	313.37
367.781	327.6
368.163	312.01
368.544	321.5
368.925	325.57
369.306	321.5
369.688	326.93
370.069	289.87
370.45	299.13
370.831	321.73
371.212	316.31
371.593	300.03
371.974	297.32
372.355	305.91
372.736	325.8
373.117	310.2
373.498	315.18
373.879	335.06
374.26	312.24
374.641	303.42
375.021	321.73
375.402	315.18
375.783	314.05
376.163	328.06
376.544	339.13
376.925	320.37
377.305	332.8
377.686	332.12
378.066	333.93
378.447	341.62
378.827	335.06
379.208	340.94
379.588	329.19
379.968	333.93
380.349	320.37
380.729	343.88
381.109	342.52
381.489	352.69
381.87	342.29
382.25	342.75
382.63	338.23
383.01	342.52
383.39	330.99
383.77	348.62
384.15	342.29
384.53	329.41
384.91	333.03
385.29	346.59
385.67	358.56
386.049	342.29
386.429	355.17
386.809	339.58
387.189	349.52
387.568	322.86
387.948	330.54
388.328	353.59
388.707	354.95
389.087	357.66
389.466	356.08
389.846	377.55
390.225	385.23
390.605	359.02
390.984	371.45
391.363	369.86
391.743	386.81
392.122	367.38
392.501	368.96
392.881	379.81
393.26	383.87
393.639	388.85
394.018	376.19
394.397	405.57
394.776	377.32
395.155	378.68
395.534	373.25
395.913	376.64
396.292	386.36
396.671	385
397.05	396.3
397.429	391.33
397.808	408.73
398.186	428.39
398.565	394.95
398.944	387.94
399.323	394.27
399.701	386.81
400.08	411.44
400.458	399.01
400.837	418.45
401.215	420.94
401.594	427.71
401.972	432.01
402.351	413.03
402.729	417.55
403.107	426.36
403.486	449.41
403.864	419.58
404.242	452.57
404.62	413.93
404.999	422.07
405.377	450.31
405.755	429.3
406.133	443.08
406.511	460.48
406.889	465.45
407.267	457.32
407.645	458.9
408.023	480.37
408.401	460.48
408.779	477.88
409.156	483.53
409.534	502.06
409.912	476.53
410.29	485.34
410.667	491.89
411.045	493.25
411.422	516.3
411.8	492.35
412.178	512.68
412.555	506.13
412.933	524.89
413.31	542.06
413.687	528.73
414.065	533.25
414.442	527.6
414.819	537.09
415.197	548.16
415.574	558.78
415.951	556.52
416.328	568.5
416.705	561.72
417.082	556.75
417.46	568.95
417.837	595.62
418.214	568.05
418.591	584.77
418.967	609.86
419.344	603.76
419.721	587.71
420.098	624.09
420.475	636.75
420.852	624.32
421.228	638.56
421.605	630.87
421.982	612.79
422.358	651.89
422.735	674.71
423.111	660.03
423.488	666.13
423.864	671.1
424.241	662.51
424.617	686.92
424.994	720.14
425.37	728.27
425.746	686.47
426.123	720.81
426.499	718.1
426.875	725.79
427.251	749.06
427.627	769.63
428.003	734.6
428.379	756.75
428.756	774.15
429.132	744.32
429.507	782.73
429.883	805.78
430.259	808.72
430.635	806.46
431.011	823.41
431.387	844.88
431.763	864.77
432.138	809.85
432.514	840.81
432.89	848.72
433.265	888.27
433.641	906.8
434.016	907.48
434.392	904.99
434.767	922.17
435.143	935.05
435.518	954.25
435.894	944.99
436.269	964.65
436.644	973.46
437.02	996.06
437.395	970.07
437.77	1008.49
438.145	1011.43
438.52	1033.35
438.895	1044.65
439.271	1063.4
439.646	1067.92
440.021	1079.68
440.395	1088.71
440.77	1035.83
441.145	1098.43
441.52	1098.88
441.895	1114.02
442.27	1112.22
442.645	1115.38
443.019	1121.26
443.394	1150.63
443.769	1166
444.143	1144.08
444.518	1167.13
444.892	1159.45
445.267	1184.53
445.641	1192.21
446.016	1217.3
446.39	1236.06
446.764	1240.57
447.139	1249.16
447.513	1239.22
447.887	1262.04
448.262	1252.1
448.636	1274.02
449.01	1260.91
449.384	1282.83
449.758	1306.34
450.132	1328.26
450.506	1333
450.88	1370.06
451.254	1338.2
451.628	1380.23
452.002	1376.16
452.376	1398.54
452.75	1405.32
453.123	1404.41
453.497	1421.59
453.871	1427.01
454.244	1487.8
454.618	1497.29
454.992	1498.65
455.365	1530.06
455.739	1533.45
456.112	1574.8
456.486	1571.64
456.859	1569.61
457.232	1610.51
457.606	1600.34
457.979	1664.74
458.352	1680.34
458.725	1680.79
459.099	1723.27
459.472	1735.03
459.845	1732.09
460.218	1772.76
460.591	1763.27
460.964	1817.06
461.337	1836.04
461.71	1830.84
462.083	1902.7
462.456	1916.49
462.829	1934.12
463.201	1931.86
463.574	1977.5
463.947	1994
464.32	2032.19
464.692	2098.86
465.065	2092.53
465.438	2125.52
465.81	2141.57
466.183	2189.02
466.555	2214.33
466.928	2262.02
467.3	2270.38
467.672	2313.09
468.045	2330.49
468.417	2382.92
468.789	2394.67
469.161	2431.5
469.534	2460.88
469.906	2536.59
470.278	2542.46
470.65	2587.43
471.022	2662.23
471.394	2727.32
471.766	2740.2
472.138	2812.74
472.51	2864.03
472.882	2900.87
473.253	2967.53
473.625	3004.37
473.997	3097.93
474.369	3096.57
474.74	3186.06
475.112	3236.23
475.484	3338.6
475.855	3418.37
476.227	3462.66
476.598	3584.02
476.97	3622.21
477.341	3682.77
477.713	3750.57
478.084	3861.52
478.455	3959.37
478.827	3996.21
479.198	4154.4
479.569	4158.92
479.94	4329.31
480.311	4406.59
480.682	4524.33
481.053	4621.95
481.424	4742.18
481.795	4780.59
482.166	4912.34
482.537	4996.18
482.908	5146.01
483.279	5195.27
483.65	5373.12
484.021	5501.71
484.391	5595.26
484.762	5691.08
485.133	5818.53
485.503	5927.01
485.874	6102.59
486.244	6148.69
486.615	6297.62
486.985	6387.33
487.356	6594.56
487.726	6624.61
488.097	6829.58
488.467	6894.66
488.837	7073.87
489.207	7195.9
489.578	7304.37
489.948	7490.35
490.318	7596.79
490.688	7650.35
491.058	7846.73
491.428	7953.62
491.798	8060.28
492.168	8245.59
492.538	8369.88
492.908	8481.29
493.278	8542.98
493.648	8674.05
494.017	8843.31
494.387	8905.23
494.757	9015.29
495.126	9137.77
495.496	9208.95
495.866	9281.27
496.235	9454.82
496.605	9551.77
496.974	9592.45
497.344	9729.62
497.713	9751.31
498.082	9863.85
498.452	10054.81
498.821	10050.96
499.19	10163.5
499.559	10241.24
499.928	10308.36
500.298	10285.53
500.667	10478.3
501.036	10476.72
501.405	10592.19
501.774	10584.06
502.143	10724.62
502.512	10859.98
502.88	10943.37
503.249	10852.75
503.618	10922.13
503.987	11052.97
504.356	11094.55
504.724	11179.97
505.093	11169.13
505.462	11238.96
505.83	11319.18
506.199	11391.04
506.567	11524.82
506.936	11576.57
507.304	11643.47
507.672	11696.12
508.041	11669.91
508.409	11782.22
508.777	11840.3
509.145	11950.58
509.514	11888.66
509.882	11940.41
510.25	11910.8
510.618	11993.96
510.986	12085.49
511.354	12085.71
511.722	12201.42
512.09	12249.78
512.458	12294.75
512.826	12363.67
513.193	12395.99
513.561	12395.31
513.929	12403.22
514.297	12559.15
514.664	12564.8
515.032	12526.38
515.4	12610.9
515.767	12682.08
516.135	12643.89
516.502	12555.98
516.869	12774.28
517.237	12793.27
517.604	12683.66
517.972	12774.96
518.339	12806.37
518.706	12879.14
519.073	12808.63
519.44	12904.45
519.808	12988.06
520.175	12940.38
520.542	13100.83
520.909	13056.76
521.276	12998.68
521.643	13117.55
522.009	13169.53
522.376	13134.95
522.743	13087.49
523.11	13254.5
523.477	13291.11
523.843	13298.79
524.21	13369.52
524.577	13376.53
524.943	13487.48
525.31	13450.2
525.676	13464.66
526.043	13501.27
526.409	13496.07
526.776	13607.03
527.142	13567.26
527.508	13589.18
527.874	13590.98
528.241	13605.67
528.607	13585.33
528.973	13613.13
529.339	13491.1
529.705	13614.94
530.071	13719.12
530.437	13647.25
530.803	13630.53
531.169	13674.15
531.535	13597.99
531.901	13612
532.267	13543.3
532.632	13609.97
532.998	13593.92
533.364	13539.69
533.73	13531.33
534.095	13549.18
534.461	13546.47
534.826	13603.19
535.192	13597.31
535.557	13594.6
535.923	13472.8
536.288	13514.6
536.653	13489.52
537.019	13435.51
537.384	13424.89
537.749	13392.8
538.114	13338.11
538.479	13281.16
538.845	13288.85
539.21	13157.32
539.575	13274.61
539.94	13207.27
540.305	13221.95
540.67	13171.79
541.034	13103.31
541.399	13009.76
541.764	13070.77
542.129	13056.31
542.494	13073.48
542.858	12969.08
543.223	12964.79
543.587	12881.62
543.952	12840.04
544.316	12817.22
544.681	12707.62
545.045	12770.89
545.41	12763.66
545.774	12664
546.138	12694.51
546.503	12669.88
546.867	12537.45
547.231	12558.24
547.595	12557.11
547.959	12480.73
548.324	12421.75
548.688	12391.69
549.052	12442.99
549.416	12361.86
549.779	12343.33
550.143	12218.37
550.507	12328.19
550.871	12271.7
551.235	12135.43
551.599	12228.99
551.962	12146.28
552.326	12099.27
552.689	12123.9
553.053	11969.33
553.417	12064.47
553.78	12134.53
554.143	12000.52
554.507	11988.99
554.87	11974.3
555.234	12019.73
555.597	11946.51
555.96	11947.86
556.323	11943.12
556.686	11895.21
557.05	11820.41
557.413	11872.84
557.776	11786.29
558.139	11858.6
558.502	11808.21
558.865	11803.23
559.228	11775.21
559.59	11772.5
559.953	11770.24
560.316	11838.71
560.679	11855.21
561.041	11796
561.404	11842.33
561.767	11855.21
562.129	11673.29
562.492	11817.92
562.854	11843.91
563.217	11743.12
563.579	11791.26
563.941	11795.1
564.304	11852.05
564.666	11844.82
565.028	11796.23
565.39	11803.23
565.753	11826.06
566.115	11797.81
566.477	11812.05
566.839	11861.99
567.201	11920.29
567.563	11819.28
567.925	11919.16
568.287	11927.07
568.648	11936.34
569.01	11906.06
569.372	11906.06
569.734	11860.86
570.095	11967.3
570.457	11970.24
570.819	11967.52
571.18	11926.17
571.542	11991.03
571.903	11888.88
572.265	11994.64
572.626	11970.46
572.987	11935.66
573.349	12028.54
573.71	11950.58
574.071	11966.39
574.432	11982.67
574.794	12047.3
575.155	12037.58
575.516	12000.97
575.877	12044.58
576.238	12023.12
576.599	12037.58
576.96	12031.25
577.32	12093.85
577.681	12023.57
578.042	12127.75
578.403	11977.02
578.763	12104.02
579.124	12104.47
579.485	12081.42
579.845	12097.24
580.206	11993.96
580.566	12042.78
580.927	12083.45
581.287	12038.93
581.648	12053.85
582.008	12053.4
582.368	12027.41
582.728	11996.9
583.089	12039.16
583.449	12022.89
583.809	11971.14
584.169	12005.04
584.529	11970.69
584.889	12031.93
585.249	11960.97
585.609	11917.36
585.969	11965.49
586.329	12020.18
586.688	11926.85
587.048	11849.79
587.408	11896.57
587.768	11830.58
588.127	11870.58
588.487	11851.14
588.846	11867.41
589.206	11848.43
589.565	11855.66
589.925	11897.7
590.284	11831.71
590.643	11785.38
591.003	11853.85
591.362	11924.14
591.721	11881.65
592.08	11828.54
592.44	11872.39
592.799	11865.61
593.158	11780.18
593.517	11741.99
593.876	11745.61
594.235	11756
594.593	11728.43
594.952	11778.6
595.311	11669.45
595.67	11741.99
596.029	11755.55
596.387	11764.82
596.746	11769.79
597.104	11740.19
597.463	11713.97
597.822	11683.24
598.18	11662.45
598.538	11711.94
598.897	11768.66
599.255	11603.92
599.613	11766.85
599.972	11723.91
600.33	11716.91
600.688	11646.85
601.046	11731.6
601.404	11730.92
601.762	11612.96
602.12	11760.75
602.478	11799.85
602.836	11742.9
603.194	11673.07
603.552	11655.22
603.91	11588.78
604.268	11677.36
604.625	11614.31
604.983	11724.82
605.341	11602.11
605.698	11677.59
606.056	11680.98
606.413	11722.78
606.771	11734.31
607.128	11678.94
607.485	11563.24
607.843	11671.94
608.2	11680.07
608.557	11767.98
608.914	11754.65
609.272	11777.7
609.629	11798.04
609.986	11803.23
610.343	11753.52
610.7	11767.08
611.057	11839.17
611.414	11749.68
611.771	11802.56
612.127	11754.42
612.484	11800.98
612.841	11811.14
613.198	11866.51
613.554	11816.57
613.911	11899.73
614.267	11867.64
614.624	11830.35
614.98	11847.98
615.337	11843.23
615.693	11882.55
616.05	11849.79
616.406	11957.13
616.762	11872.61
617.118	11921.42
617.475	11861.54
617.831	11936.56
618.187	11888.66
618.543	11962.78
618.899	12085.71
619.255	11995.32
619.611	11943.8
619.967	12016.56
620.323	12022.89
620.678	11934.53
621.034	11950.35
621.39	11975.89
621.746	11925.49
622.101	12040.06
622.457	11889.56
622.812	11974.98
623.168	11988.77
623.523	11962.33
623.879	12004.59
624.234	11906.06
624.589	11941.76
624.945	12011.59
625.3	11989.9
625.655	11941.54
626.01	11926.62
626.365	12095.43
626.72	11896.11
627.075	11887.53
627.43	11947.19
627.785	11941.76
628.14	11952.61
628.495	11990.8
628.85	11905.83
629.205	11881.2
629.559	12011.36
629.914	11979.95
630.269	11878.04
630.623	11838.04
630.978	11868.77
631.332	11850.47
631.687	11937.92
632.041	11798.94
632.396	11836.68
632.75	11889.56
633.104	11810.47
633.459	11813.63
633.813	11723.46
634.167	11716.46
634.521	11757.13
634.875	11713.75
635.229	11690.47
635.583	11660.19
635.937	11666.06
636.291	11710.58
636.645	11645.5
636.999	11631.71
637.352	11639.62
637.706	11549
638.06	11563.02
638.413	11592.17
638.767	11562.11
639.121	11591.04
639.474	11503.36
639.828	11558.72
640.181	11506.75
640.534	11539.06
640.888	11520.3
641.241	11406.64
641.594	11403.25
641.947	11488.89
642.301	11415.22
642.654	11426.75
643.007	11521.66
643.36	11509.01
643.713	11398.27
644.066	11497.25
644.419	11443.92
644.771	11315.34
645.124	11246.19
645.477	11277.6
645.83	11158.96
646.182	11125.06
646.535	11077.6
646.888	11215
647.24	11078.73
647.593	11168.68
647.945	11098.17
648.298	11055.91
648.65	11052.75
649.002	11061.56
649.355	11106.3
649.707	11037.61
650.059	11133.65
650.411	11212.29
650.763	11197.6
651.115	11384.26
651.467	11269.69
651.819	11280.08
652.171	11321.67
652.523	11305.62
652.875	11273.53
653.227	11268.79
653.578	11311.27
653.93	11292.74
654.282	11285.28
654.633	11232.18
654.985	11239.63
655.337	11245.96
655.688	11235.57
656.039	11325.51
656.391	11237.83
656.742	11256.13
657.094	11295.23
657.445	11308.33
657.796	11287.99
658.147	11273.98
658.498	11297.26
658.849	11244.15
659.2	11318.5
659.551	11261.78
659.902	11278.95
660.253	11343.13
660.604	11250.48
660.955	11295.9
661.306	11339.97
661.656	11304.72
662.007	11361.66
662.358	11376.81
662.708	11366.64
663.059	11361.44
663.409	11288.9
663.76	11403.02
664.11	11352.4
664.461	11370.7
664.811	11411.15
665.161	11392.62
665.511	11314.66
665.862	11375.45
666.212	11434.43
666.562	11404.83
666.912	11349.91
667.262	11322.8
667.612	11421.1
667.962	11332.29
668.312	11394.43
668.662	11434.88
669.011	11410.25
669.361	11378.61
669.711	11338.16
670.06	11259.07
670.41	11417.48
670.76	11291.16
671.109	11360.76
671.459	11286.19
671.808	11342.46
672.157	11266.53
672.507	11263.36
672.856	11219.52
673.205	11243.02
673.554	11277.37
673.904	11239.63
674.253	11322.34
674.602	11261.78
674.951	11075.8
675.3	10976.36
675.649	11173.42
675.998	11191.73
676.346	11108.11
676.695	11175
677.044	11166.19
677.393	11110.6
677.741	11191.27
678.09	11178.39
678.438	11080.32
678.787	11126.87
679.135	11146.98
679.484	11055.23
679.832	11045.74
680.181	11004.16
680.529	11020.2
680.877	10979.08
681.225	11015.68
681.573	11092.75
681.922	10953.54
682.27	10974.78
682.618	10935.91
682.966	10910.6
683.314	10932.3
683.661	10942.69
684.009	10763.26
684.357	10754.22
684.705	10797.61
685.053	10790.38
685.4	10745.41
685.748	10624.28
686.095	10693.89
686.443	10649.82
686.79	10609.59
687.138	10634.9
687.485	10648.91
687.832	10614.34
688.18	10678.74
688.527	10600.1
688.874	10560.78
689.221	10457.28
689.568	10437.85
689.915	10410.28
690.262	10404.18
690.609	10400.56
690.956	10378.87
691.303	10255.03
691.65	10264.52
691.997	10260.45
692.344	10130.74
692.69	10160.57
693.037	10168.02
693.383	10077.63
693.73	10140
694.077	9989.05
694.423	9987.69
694.769	9940.68
695.116	9973.45
695.462	9933.91
695.808	9888.03
696.155	9876.28
696.501	9750.86
696.847	9769.62
697.193	9665.21
697.539	9794.02
697.885	9655.49
698.231	9593.58
698.577	9575.5
698.923	9634.03
699.269	9521.94
699.614	9473.58
699.96	9401.72
700.306	9462.28
700.651	9429.51
700.997	9363.52
701.342	9326.92
701.688	9330.31
702.033	9312.68
702.379	9278.33
702.724	9212.57
703.069	9199.69
703.415	9123.08
703.76	9143.19
704.105	9042.86
704.45	9086.7
704.795	8951.11
705.14	9019.58
705.485	8959.02
705.83	8956.3
706.175	8943.2
706.52	8934.61
706.865	8907.49
707.209	8864.1
707.554	8799.25
707.899	8843.99
708.243	8709.98
708.588	8771
708.932	8671.11
709.277	8733.03
709.621	8662.07
709.966	8629.08
710.31	8676.54
710.654	8584.11
710.998	8477.22
711.342	8532.36
711.687	8499.14
712.031	8505.69
712.375	8420.5
712.719	8503.43
713.063	8367.84
713.407	8474.06
713.75	8398.35
714.094	8430.89
714.438	8335.53
714.782	8351.35
715.125	8326.26
715.469	8364.23
715.812	8320.61
716.156	8237.68
716.499	8297.79
716.843	8245.14
717.186	8205.82
717.53	8190.9
717.873	8285.36
718.216	8213.27
718.559	8188.19
718.902	8164.23
719.246	8142.54
719.589	8173.27
719.932	8119.72
720.275	8150
720.617	8141.64
720.96	8121.98
721.303	8109.77
721.646	8116.1
721.989	8094.41
722.331	8036.78
722.674	8060.96
723.016	8031.58
723.359	8119.04
723.701	8071.13
724.044	8024.58
724.386	7960.4
724.729	8020.74
725.071	8067.74
725.413	8067.97
725.755	7983.22
726.097	7947.74
726.439	7928.76
726.782	8057.8
727.124	7978.93
727.465	7965.14
727.807	7994.07
728.149	7903
728.491	7959.49
728.833	7968.99
729.175	7919.04
729.516	7945.03
729.858	7891.47
730.199	7879.04
730.541	7868.2
730.882	7898.93
731.224	7944.81
731.565	7884.24
731.906	7887.18
732.248	7931.25
732.589	7845.82
732.93	7865.49
733.271	7937.8
733.612	7853.96
733.953	7892.6
734.294	7861.87
734.635	7901.64
734.976	7881.08
735.317	7906.61
735.658	7845.6
735.999	7900.06
736.339	7917.24
736.68	7952.04
737.021	7893.51
737.361	7894.64
737.702	7934.86
738.042	7948.19
738.383	7889.21
738.723	7966.95
739.063	7988.65
739.404	7950.91
739.744	7961.75
740.084	7974.41
740.424	7962.66
740.764	7994.52
741.104	8025.03
741.444	8020.51
741.784	7978.93
742.124	8009.89
742.464	8067.29
742.804	8095.08
743.143	8089.21
743.483	8155.65
743.823	8090.79
744.162	8124.69
744.502	8213.27
744.841	8181.86
745.181	8277.68
745.52	8247.85
745.86	8361.74
746.199	8282.2
746.538	8375.08
746.877	8514.73
747.216	8508.41
747.556	8464.11
747.895	8537.56
748.234	8570.33
748.573	8642.41
748.911	8715.63
749.25	8786.82
749.589	8868.62
749.928	8841.5
750.267	8992.69
750.605	9049.41
750.944	9112.68
751.283	9147.03
751.621	9246.47
751.96	9324.66
752.298	9419.57
752.636	9550.64
752.975	9552.9
753.313	9638.55
753.651	9850.07
753.989	9925.77
754.327	10018.87
754.666	10097.52
755.004	10207.12
755.342	10356.49
755.679	10470.16
756.017	10553.1
756.355	10731.85
756.693	10798.74
757.031	11034.89
757.368	11090.03
757.706	11282.12
758.044	11391.27
758.381	11591.94
758.719	11733.18
759.056	11930.92
