Data from hue_120_FLMS001491_00027.txt Node
Date: Tue Feb 07 16:59:08 GMT 2017
User: dcchb
Spectrometer: FLMS00149
Trigger mode: 0
Integration Time (sec): 2.000000E-2
Scans to average: 10
Electric dark correction enabled: true
Nonlinearity correction enabled: false
Boxcar width: 0
XAxis mode: Wavelengths
Number of Pixels in Spectrum: 2048
>>>>>Begin Spectral Data<<<<<
341.393	-29.28
341.776	-29.28
342.16	-29.28
342.543	-53.46
342.927	-67.92
343.31	-77.64
343.693	-43.29
344.077	-60.01
344.46	-63.85
344.843	-44.42
345.226	-46.68
345.61	-39.22
345.993	-11.88
346.376	-14.59
346.759	6.43
347.142	27.22
347.525	42.81
347.908	47.78
348.291	72.87
348.674	88.68
349.057	115.8
349.44	131.17
349.823	147.21
350.206	157.16
350.588	181.34
350.971	206.87
351.354	240.09
351.737	254.56
352.119	247.55
352.502	263.82
352.884	272.41
353.267	272.86
353.65	303.59
354.032	297.72
354.414	280.32
354.797	311.05
355.179	317.83
355.562	332.52
355.944	316.93
356.326	352.86
356.709	325.97
357.091	336.14
357.473	345.17
357.855	324.16
358.238	342.01
358.62	366.42
359.002	349.47
359.384	330.94
359.766	340.65
360.148	335.46
360.53	353.54
360.912	338.85
361.294	351.05
361.676	341.78
362.057	328.23
362.439	320.99
362.821	337.49
363.203	314.89
363.584	328
363.966	313.08
364.348	340.43
364.729	315.34
365.111	310.83
365.493	329.36
365.874	328.23
366.256	316.93
366.637	308.34
367.019	321.9
367.4	331.84
367.781	324.38
368.163	302.46
368.544	304.27
368.925	331.84
369.306	318.28
369.688	306.76
370.069	322.35
370.45	330.71
370.831	318.06
371.212	323.03
371.593	318.96
371.974	303.59
372.355	320.09
372.736	322.58
373.117	320.54
373.498	324.16
373.879	323.93
374.26	304.5
374.641	320.32
375.021	322.58
375.402	330.94
375.783	333.65
376.163	325.74
376.544	342.69
376.925	362.58
377.305	355.57
377.686	322.35
378.066	345.17
378.447	335.91
378.827	333.42
379.208	333.65
379.588	334.33
379.968	346.76
380.349	322.8
380.729	337.04
381.109	325.51
381.489	323.48
381.87	330.49
382.25	335.01
382.63	351.05
383.01	353.76
383.39	358.51
383.77	353.76
384.15	346.53
384.53	351.73
384.91	352.63
385.29	353.54
385.67	362.12
386.049	343.14
386.429	358.73
386.809	353.76
387.189	364.16
387.568	335.68
387.948	357.38
388.328	379.52
388.707	369.81
389.087	360.77
389.466	359.86
389.846	365.96
390.225	362.35
390.605	368
390.984	382.91
391.363	375.91
391.743	366.19
392.122	374.78
392.501	390.15
392.881	370.71
393.26	365.06
393.639	384.95
394.018	362.58
394.397	374.78
394.776	395.79
395.155	378.62
395.534	387.66
395.913	391.05
396.292	390.15
396.671	374.33
397.05	379.52
397.429	386.76
397.808	412.07
398.186	407.09
398.565	412.97
398.944	406.87
399.323	393.99
399.701	410.94
400.08	408.22
400.458	435.79
400.837	419.75
401.215	415
401.594	392.18
401.972	433.31
402.351	395.57
402.729	426.53
403.107	431.27
403.486	410.26
403.864	430.14
404.242	419.3
404.62	422.91
404.999	414.78
405.377	413.87
405.755	389.47
406.133	455.91
406.511	440.31
406.889	471.5
407.267	432.86
407.645	440.31
408.023	459.97
408.401	444.38
408.779	471.72
409.156	456.36
409.534	458.39
409.912	458.62
410.29	454.78
410.667	478.73
411.045	466.98
411.422	487.54
411.8	459.97
412.178	483.25
412.555	497.03
412.933	516.24
413.31	486.87
413.687	486.41
414.065	481.44
414.442	505.4
414.819	523.7
415.197	533.64
415.574	513.53
415.951	512.18
416.328	513.31
416.705	498.39
417.082	513.76
417.46	516.24
417.837	526.64
418.214	530.25
418.591	523.7
418.967	518.05
419.344	540.88
419.721	524.6
420.098	545.85
420.475	543.36
420.852	543.36
421.228	546.75
421.605	547.88
421.982	530.48
422.358	575
422.735	582.23
423.111	582.46
423.488	583.81
423.864	584.94
424.241	602.34
424.617	567.77
424.994	600.99
425.37	595.11
425.746	575.68
426.123	613.19
426.499	605.05
426.875	619.52
427.251	626.07
427.627	640.31
428.003	605.73
428.379	614.09
428.756	629.91
429.132	644.38
429.507	653.64
429.883	640.99
430.259	648.44
430.635	660.65
431.011	665.39
431.387	673.98
431.763	672.85
432.138	681.21
432.514	694.77
432.89	694.54
433.265	705.84
433.641	718.27
434.016	709.91
434.392	709.68
434.767	728.22
435.143	739.97
435.518	738.38
435.894	760.3
436.269	740.64
436.644	743.81
437.02	776.12
437.395	759.17
437.77	769.12
438.145	804.82
438.52	773.86
438.895	812.51
439.271	802.34
439.646	795.78
440.021	830.81
440.395	815.9
440.77	842.11
441.145	803.69
441.52	856.35
441.895	849.79
442.27	863.35
442.645	857.25
443.019	863.8
443.394	850.47
443.769	893.86
444.143	852.05
444.518	859.96
444.892	875.56
445.267	871.49
445.641	892.73
446.016	909
446.39	894.76
446.764	897.02
447.139	876.91
447.513	926.4
447.887	916.01
448.262	939.96
448.636	956.46
449.01	946.29
449.384	950.58
449.758	940.87
450.132	957.36
450.506	960.53
450.88	986.29
451.254	963.24
451.628	996.46
452.002	980.86
452.376	1024.7
452.75	1020.64
453.123	1011.82
453.497	1035.55
453.871	1062.9
454.244	1085.27
454.618	1077.81
454.992	1092.27
455.365	1098.83
455.739	1107.41
456.112	1113.29
456.486	1099.5
456.859	1151.93
457.232	1140.41
457.606	1167.3
457.979	1147.41
458.352	1212.04
458.725	1194.19
459.099	1187.64
459.472	1244.36
459.845	1247.75
460.218	1242.55
460.591	1268.31
460.964	1262.66
461.337	1333.62
461.71	1323.45
462.083	1352.15
462.456	1369.33
462.829	1353.51
463.201	1397.12
463.574	1377.24
463.947	1401.87
464.32	1421.3
464.692	1461.08
465.065	1472.38
465.438	1504.69
465.81	1510.57
466.183	1563.9
466.555	1571.81
466.928	1569.1
467.3	1584.24
467.672	1625.14
468.045	1675.31
468.417	1687.96
468.789	1674.63
469.161	1724.35
469.534	1754.4
469.906	1777.68
470.278	1802.09
470.65	1838.24
471.022	1877.34
471.394	1867.85
471.766	1922.99
472.138	1958.92
472.51	2034.62
472.882	2106.03
473.253	2105.81
473.625	2165.69
473.997	2199.14
474.369	2241.17
474.74	2270.55
475.112	2346.48
475.484	2368.4
475.855	2456.53
476.227	2490.88
476.598	2569.75
476.97	2629.86
477.341	2706.24
477.713	2744.89
478.084	2809.06
478.455	2907.59
478.827	2947.59
479.198	3096.29
479.569	3112.11
479.94	3177.19
480.311	3265.32
480.682	3363.17
481.053	3473
481.424	3623.05
481.795	3680.45
482.166	3750.06
482.537	3827.57
482.908	3978.3
483.279	4062.82
483.65	4170.16
484.021	4321.57
484.391	4447.21
484.762	4497.83
485.133	4600.43
485.503	4727.43
485.874	4917.26
486.244	4986.41
486.615	5158.61
486.985	5233.63
487.356	5425.72
487.726	5516.11
488.097	5682.66
488.467	5809.66
488.837	5909.77
489.207	6068.41
489.578	6219.82
489.948	6333.49
490.318	6498.46
490.688	6627.04
491.058	6761.5
491.428	6923.31
491.798	7073.36
492.168	7281.04
492.538	7385.89
492.908	7546.57
493.278	7731.87
493.648	7792.44
494.017	8029.72
494.387	8113.33
494.757	8279.2
495.126	8398.97
495.496	8489.82
495.866	8561.68
496.235	8749.93
496.605	8909.92
496.974	9066.08
497.344	9150.37
497.713	9213.19
498.082	9429.23
498.452	9537.7
498.821	9603.01
499.19	9760.29
499.559	9904.02
499.928	9974.75
500.298	10164.13
500.667	10287.51
501.036	10300.39
501.405	10438.02
501.774	10451.12
502.143	10653.83
502.512	10766.82
502.88	10863.09
503.249	10830.55
503.618	11066.93
503.987	11111.22
504.356	11177.88
504.724	11236.64
505.093	11270.76
505.462	11456.52
505.83	11442.51
506.199	11601.38
506.567	11730.41
506.936	11789.39
507.304	11826.91
507.672	12024.87
508.041	12076.84
508.409	12170.85
508.777	12264.41
509.145	12338.98
509.514	12359.55
509.882	12423.73
510.25	12457.17
510.618	12620.56
510.986	12485.87
511.354	12710.27
511.722	12787.11
512.09	12946.65
512.458	12847.44
512.826	13015.58
513.193	13040.66
513.561	13053.99
513.929	13146.19
514.297	13260.09
514.664	13307.32
515.032	13269.13
515.4	13397.26
515.767	13439.97
516.135	13509.8
516.502	13353.42
516.869	13615.11
517.237	13602
517.604	13559.29
517.972	13707.54
518.339	13746.86
518.706	13674.54
519.073	13749.57
519.44	13825.72
519.808	14003.12
520.175	13873.41
520.542	13926.74
520.909	14007.64
521.276	14086.96
521.643	14077.92
522.009	14192.27
522.376	14198.37
522.743	14233.62
523.11	14309.33
523.477	14352.49
523.843	14424.8
524.21	14492.6
524.577	14538.47
524.943	14544.12
525.31	14485.59
525.676	14634.52
526.043	14622.31
526.409	14686.94
526.776	14730.56
527.142	14731.46
527.508	14779.15
527.874	14818.24
528.241	14828.64
528.607	14861.85
528.973	14866.6
529.339	14814.85
529.705	14986.15
530.071	14959.93
530.437	14976.65
530.803	14924.68
531.169	15046.03
531.535	14975.52
531.901	14931.68
532.267	14945.92
532.632	14982.98
532.998	15009.87
533.364	15035.41
533.73	15029.99
534.095	15012.59
534.461	14962.19
534.826	15004.68
535.192	14866.37
535.557	15018.91
535.923	14925.81
536.288	14947.5
536.653	14897.33
537.019	14809.2
537.384	14860.05
537.749	14780.73
538.114	14779.15
538.479	14811.46
538.845	14820.05
539.21	14652.14
539.575	14729.88
539.94	14639.49
540.305	14736.66
540.67	14673.84
541.034	14580.51
541.399	14576.44
541.764	14571.02
542.129	14518.14
542.494	14486.95
542.858	14513.16
543.223	14423
543.587	14396.78
543.952	14399.04
544.316	14321.76
544.681	14320.17
545.045	14187.3
545.41	14251.25
545.774	14270.01
546.138	14291.02
546.503	14206.96
546.867	14181.42
547.231	14185.49
547.595	14176.22
547.959	14039.73
548.324	13979.84
548.688	14044.93
549.052	13958.38
549.416	13923.57
549.779	13915.44
550.143	13879.96
550.507	13952.27
550.871	13935.55
551.235	13797.93
551.599	13983.69
551.962	13811.94
552.326	13780.08
552.689	13853.97
553.053	13725.16
553.417	13724.94
553.78	13746.18
554.143	13600.42
554.507	13669.8
554.87	13670.7
555.234	13634.32
555.597	13601.1
555.96	13582.34
556.323	13578.05
556.686	13594.54
557.05	13659.85
557.413	13637.03
557.776	13484.72
558.139	13604.03
558.502	13545.28
558.865	13524.04
559.228	13570.14
559.59	13614.43
559.953	13444.49
560.316	13645.16
560.679	13595.22
561.041	13619.63
561.404	13733.07
561.767	13698.95
562.129	13618.27
562.492	13653.98
562.854	13587.99
563.217	13588.89
563.579	13625.05
563.941	13671.38
564.304	13643.81
564.666	13657.82
565.028	13636.12
565.39	13712.96
565.753	13681.55
566.115	13714.31
566.477	13752.51
566.839	13716.35
567.201	13813.07
567.563	13753.41
567.925	13709.12
568.287	13827.08
568.648	13816.46
569.01	13875.67
569.372	13957.02
569.734	13836.8
570.095	13815.78
570.457	13984.36
570.819	13819.17
571.18	13866.4
571.542	13973.97
571.903	13982.78
572.265	13973.74
572.626	13959.28
572.987	13939.62
573.349	13989.34
573.71	14099.84
574.071	13989.79
574.432	14046.96
574.794	14081.08
575.155	14090.8
575.516	14061.65
575.877	14019.62
576.238	14082.44
576.599	14079.95
576.96	14082.67
577.32	14119.73
577.681	14181.42
578.042	14209.22
578.403	14140.52
578.763	14157.01
579.124	14103.68
579.485	14142.55
579.845	14225.26
580.206	14167.64
580.566	14136
580.927	14162.66
581.287	14219.16
581.648	14141.2
582.008	14168.77
582.368	14201.08
582.728	14161.31
583.089	14145.94
583.449	14168.99
583.809	14096.9
584.169	14103.46
584.529	14131.93
584.889	14157.24
585.249	14008.09
585.609	14043.8
585.969	14029.11
586.329	13932.39
586.688	13933.74
587.048	14051.93
587.408	13929
587.768	14002.44
588.127	13964.25
588.487	13972.39
588.846	14034.76
589.206	13980.75
589.565	13941.2
589.925	14031.14
590.284	13959.51
590.643	13888.32
591.003	13982.78
591.362	13952.73
591.721	13924.48
592.08	13914.76
592.44	13869.11
592.799	14067.3
593.158	13930.13
593.517	13872.73
593.876	13943.01
594.235	13859.85
594.593	13857.59
594.952	13819.17
595.311	13819.62
595.67	13811.26
596.029	13940.07
596.387	13907.53
596.746	13892.39
597.104	13836.8
597.463	13829.79
597.822	13908.89
598.18	13803.13
598.538	13746.18
598.897	13912.5
599.255	13791.83
599.613	13981.2
599.972	13805.61
600.33	13818.04
600.688	13740.3
601.046	13826.18
601.404	13893.52
601.762	13920.64
602.12	13830.92
602.478	13857.59
602.836	13856.01
603.194	13838.38
603.552	13815.55
603.91	13786.18
604.268	13833.18
604.625	13785.73
604.983	13744.6
605.341	13771.49
605.698	13822.33
606.056	13901.88
606.413	13843.35
606.771	13919.28
607.128	13928.32
607.485	13863.69
607.843	13894.2
608.2	13936.46
608.557	13882.22
608.914	13834.99
609.272	13940.07
609.629	13919.28
609.986	13983.23
610.343	13932.16
610.7	14007.41
611.057	13931.71
611.414	13927.42
611.771	14009
612.127	14036.11
612.484	14023.23
612.841	14062.55
613.198	13995.89
613.554	14096.9
613.911	14065.72
614.267	14085.6
614.624	14055.1
614.98	14034.31
615.337	14118.6
615.693	14093.51
616.05	14156.56
616.406	14183.23
616.762	14105.49
617.118	14135.32
617.475	14108.65
617.831	14145.72
618.187	14237.24
618.543	14123.57
618.899	14279.05
619.255	14229.1
619.611	14231.82
619.967	14319.72
620.323	14293.96
620.678	14206.5
621.034	14130.8
621.39	14276.33
621.746	14081.54
622.101	14267.07
622.457	14157.69
622.812	14292.83
623.168	14300.29
623.523	14270.01
623.879	14309.1
624.234	14244.24
624.589	14307.29
624.945	14323.79
625.3	14290.8
625.655	14291.7
626.01	14317.69
626.365	14289.89
626.72	14223
627.075	14240.63
627.43	14311.36
627.785	14196.79
628.14	14205.6
628.495	14266.84
628.85	14280.4
629.205	14157.47
629.559	14230.46
629.914	14146.85
630.269	14197.92
630.623	14091.25
630.978	14064.59
631.332	14192.04
631.687	14203.57
632.041	14107.3
632.396	14149.11
632.75	14008.09
633.104	14074.31
633.459	14035.21
633.813	14039.28
634.167	13954.53
634.521	14008.77
634.875	14005.83
635.229	13990.01
635.583	13909.79
635.937	13970.13
636.291	13946.62
636.645	13957.25
636.999	13872.5
637.352	13907.3
637.706	13776.69
638.06	13932.16
638.413	13844.71
638.767	13765.16
639.121	13760.64
639.474	13691.26
639.828	13791.15
640.181	13794.09
640.534	13723.81
640.888	13751.6
641.241	13676.12
641.594	13695.11
641.947	13794.54
642.301	13722
642.654	13694.2
643.007	13702.11
643.36	13607.42
643.713	13614.66
644.066	13668.89
644.419	13615.56
644.771	13545.96
645.124	13380.54
645.477	13409.24
645.83	13237.26
646.182	13203.59
646.535	13233.42
646.888	13236.59
647.24	13085.63
647.593	13251.95
647.945	13126.99
648.298	13135.12
648.65	13034.56
649.002	13102.58
649.355	13114.1
649.707	13184.84
650.059	13147.55
650.411	13367.43
650.763	13381.22
651.115	13546.64
651.467	13431.16
651.819	13378.96
652.171	13404.49
652.523	13459.18
652.875	13366.98
653.227	13445.85
653.578	13455.56
653.93	13486.07
654.282	13390.48
654.633	13377.15
654.985	13388.67
655.337	13390.93
655.688	13317.04
656.039	13547.09
656.391	13360.65
656.742	13379.63
657.094	13401.1
657.445	13441.78
657.796	13493.3
658.147	13400.2
658.498	13434.55
658.849	13423.47
659.2	13373.76
659.551	13358.39
659.902	13570.59
660.253	13393.19
660.604	13448.11
660.955	13326.08
661.306	13505.28
661.656	13511.38
662.007	13522.23
662.358	13499.18
662.708	13465.28
663.059	13522.46
663.409	13343.93
663.76	13501.89
664.11	13450.14
664.461	13533.53
664.811	13508.44
665.161	13525.39
665.511	13486.98
665.862	13592.06
666.212	13459.18
666.562	13546.18
666.912	13483.81
667.262	13479.74
667.612	13591.83
667.962	13488.11
668.312	13448.56
668.662	13646.75
669.011	13475.45
669.361	13482.68
669.711	13473.64
670.06	13539.4
670.41	13449.69
670.76	13493.76
671.109	13557.03
671.459	13407.66
671.808	13477.26
672.157	13562
672.507	13411.95
672.856	13437.26
673.205	13360.65
673.554	13423.93
673.904	13361.33
674.253	13346.19
674.602	13436.81
674.951	13117.72
675.3	13125.18
675.649	13377.6
675.998	13321.78
676.346	13311.16
676.695	13327.66
677.044	13238.39
677.393	13272.97
677.741	13300.31
678.09	13247.21
678.438	13283.59
678.787	13260.32
679.135	13242.24
679.484	13126.31
679.832	13159.98
680.181	13039.98
680.529	13100.09
680.877	13047.21
681.225	12957.27
681.573	13051.51
681.922	12983.26
682.27	12939.65
682.618	12982.81
682.966	12890.16
683.314	12929.93
683.661	12897.16
684.009	12820.33
684.357	12859.2
684.705	12818.52
685.053	12729.03
685.4	12816.71
685.748	12746.2
686.095	12755.24
686.443	12685.64
686.79	12743.72
687.138	12701.23
687.485	12738.75
687.832	12572.65
688.18	12571.52
688.527	12557.28
688.874	12549.83
689.221	12434.8
689.568	12442.94
689.915	12360
690.262	12410.17
690.609	12327.91
690.956	12267.57
691.303	12251.3
691.65	12228.25
691.997	12209.27
692.344	12092.89
692.69	12004.75
693.037	11994.36
693.383	11894.48
693.73	12043.17
694.077	11868.71
694.423	11878.88
694.769	11844.99
695.116	11820.58
695.462	11739.68
695.808	11739.9
696.155	11691.32
696.501	11678.66
696.847	11670.53
697.193	11559.12
697.539	11582.17
697.885	11492.45
698.231	11468.05
698.577	11452.23
698.923	11407.48
699.269	11387.6
699.614	11290.65
699.96	11301.27
700.306	11245.68
700.651	11218.11
700.997	11178.56
701.342	11144.66
701.688	11104.44
702.033	11043.2
702.379	11020.6
702.724	10955.97
703.069	11002.75
703.415	10781.51
703.76	10820.61
704.105	10843.66
704.45	10728.18
704.795	10716.88
705.14	10692.93
705.485	10640.27
705.83	10639.59
706.175	10595.3
706.52	10627.62
706.865	10591.91
707.209	10525.7
707.554	10458.13
707.899	10575.64
708.243	10437.56
708.588	10464.68
708.932	10301.07
709.277	10354.4
709.621	10377.91
709.966	10252.26
710.31	10309.66
710.654	10234.18
710.998	10248.42
711.342	10289.77
711.687	10220.85
712.031	10198.7
712.375	10070.57
712.719	10155.54
713.063	10094.07
713.407	10123.67
713.75	10079.83
714.094	10050.91
714.438	10024.92
714.782	10045.03
715.125	9933.4
715.469	9954.19
715.812	9896.79
716.156	9817.02
716.499	9838.71
716.843	9852.04
717.186	9822.21
717.53	9896.79
717.873	9791.93
718.216	9796.45
718.559	9787.64
718.902	9729.11
719.246	9752.84
719.589	9704.7
719.932	9666.29
720.275	9705.38
720.617	9684.59
720.96	9607.3
721.303	9654.76
721.646	9642.56
721.989	9614.08
722.331	9670.81
722.674	9630.13
723.016	9626.74
723.359	9584.93
723.701	9571.15
724.044	9506.52
724.386	9471.04
724.729	9610.02
725.071	9534.99
725.413	9587.64
725.755	9528.89
726.097	9475.33
726.439	9439.85
726.782	9502
727.124	9526.4
727.465	9485.5
727.807	9516.23
728.149	9473.07
728.491	9462.67
728.833	9509
729.175	9445.27
729.516	9425.39
729.858	9464.03
730.199	9532.73
730.541	9396.46
730.882	9450.7
731.224	9443.69
731.565	9398.27
731.906	9370.25
732.248	9403.24
732.589	9392.39
732.93	9366.63
733.271	9444.6
733.612	9396.46
733.953	9393.75
734.294	9376.35
734.635	9407.31
734.976	9397.82
735.317	9323.02
735.658	9376.58
735.999	9403.47
736.339	9366.63
736.68	9350.59
737.021	9482.56
737.361	9401.21
737.702	9382.23
738.042	9368.44
738.383	9372.28
738.723	9397.82
739.063	9418.61
739.404	9440.3
739.744	9431.94
740.084	9433.98
740.424	9464.71
740.764	9472.62
741.104	9536.57
741.444	9393.75
741.784	9421.32
742.124	9441.66
742.464	9551.49
742.804	9564.14
743.143	9535.22
743.483	9581.54
743.823	9517.36
744.162	9572.05
744.502	9663.12
744.841	9596.91
745.181	9662.22
745.52	9742.89
745.86	9712.39
746.199	9833.29
746.538	9864.7
746.877	9951.25
747.216	9897.01
747.556	9976.79
747.895	9989.44
748.234	10016.11
748.573	10151.7
748.911	10142.66
749.25	10296.55
749.589	10249.32
749.928	10337.45
750.267	10474.4
750.605	10506.94
750.944	10565.02
751.283	10644.56
751.621	10719.14
751.96	10723.66
752.298	10947.61
752.636	11015.63
752.975	11110.54
753.313	11160.71
753.651	11341.95
753.989	11416.07
754.327	11493.81
754.666	11609.74
755.004	11679.34
755.342	11830.97
755.679	12043.85
756.017	12042.72
756.355	12261.47
756.693	12330.85
757.031	12522.71
757.368	12620.78
757.706	12866.88
758.044	12976.03
758.381	13078.4
