Data from hue_270_FLMS001491_00040.txt Node
Date: Tue Feb 07 15:57:07 GMT 2017
User: dcchb
Spectrometer: FLMS00149
Trigger mode: 0
Integration Time (sec): 2.000000E-2
Scans to average: 10
Electric dark correction enabled: true
Nonlinearity correction enabled: false
Boxcar width: 0
XAxis mode: Wavelengths
Number of Pixels in Spectrum: 2048
>>>>>Begin Spectral Data<<<<<
341.393	-20.41
341.776	-20.41
342.16	-20.41
342.543	-66.74
342.927	-82.1
343.31	-92.5
343.693	-67.64
344.077	-60.63
344.46	-64.7
344.843	-64.48
345.226	-58.37
345.61	-16.79
345.993	-23.12
346.376	12.81
346.759	7.61
347.142	13.26
347.525	48.97
347.908	82.87
348.291	76.31
348.674	99.59
349.057	106.82
349.44	145.69
349.823	143.43
350.206	153.37
350.588	185.46
350.971	193.6
351.354	222.97
351.737	234.05
352.119	228.17
352.502	263.65
352.884	252.35
353.267	265.69
353.65	279.24
354.032	285.57
354.414	294.84
354.797	298.45
355.179	323.99
355.562	322.41
355.944	330.77
356.326	295.29
356.709	340.49
357.091	305.91
357.473	327.6
357.855	357.21
358.238	331.22
358.62	325.8
359.002	337.1
359.384	338.45
359.766	328.96
360.148	340.03
360.53	340.03
360.912	320.37
361.294	308.4
361.676	325.34
362.057	329.19
362.439	306.14
362.821	303.88
363.203	314.27
363.584	314.95
363.966	322.63
364.348	317.44
364.729	304.33
365.111	313.14
365.493	315.4
365.874	312.01
366.256	295.97
366.637	309.07
367.019	311.79
367.4	310.66
367.781	311.33
368.163	313.14
368.544	302.52
368.925	301.62
369.306	342.07
369.688	308.17
370.069	315.18
370.45	298.45
370.831	290.54
371.212	291.67
371.593	279.7
371.974	303.88
372.355	319.24
372.736	324.89
373.117	314.27
373.498	304.1
373.879	315.63
374.26	291
374.641	303.65
375.021	299.13
375.402	328.73
375.783	319.24
376.163	314.5
376.544	309.53
376.925	334.38
377.305	316.53
377.686	345.23
378.066	316.53
378.447	333.93
378.827	333.25
379.208	336.64
379.588	316.31
379.968	327.83
380.349	333.25
380.729	321.28
381.109	328.51
381.489	332.58
381.87	331.9
382.25	329.64
382.63	357.66
383.01	323.08
383.39	351.78
383.77	319.69
384.15	324.67
384.53	348.85
384.91	351.78
385.29	356.76
385.67	355.85
386.049	343.42
386.429	336.87
386.809	344.1
387.189	356.3
387.568	360.82
387.948	363.31
388.328	324.44
388.707	338.68
389.087	350.65
389.466	365.8
389.846	356.3
390.225	370.77
390.605	359.47
390.984	336.87
391.363	350.88
391.743	375.06
392.122	363.31
392.501	368.06
392.881	377.09
393.26	365.12
393.639	380.03
394.018	370.32
394.397	381.16
394.776	379.58
395.155	361.05
395.534	382.07
395.913	362.41
396.292	386.59
396.671	364.89
397.05	403.08
397.429	380.48
397.808	383.87
398.186	377.77
398.565	405.57
398.944	379.13
399.323	374.61
399.701	374.61
400.08	393.37
400.458	401.95
400.837	398.11
401.215	383.87
401.594	390.43
401.972	420.94
402.351	398.11
402.729	430.43
403.107	428.84
403.486	412.35
403.864	435.62
404.242	420.71
404.62	438.11
404.999	431.1
405.377	441.95
405.755	438.11
406.133	445.12
406.511	449.18
406.889	461.16
407.267	444.44
407.645	457.32
408.023	455.74
408.401	468.84
408.779	481.05
409.156	464.1
409.534	472.69
409.912	508.62
410.29	495.06
410.667	510.42
411.045	501.39
411.422	519.46
411.8	508.16
412.178	522.18
412.555	521.95
412.933	519.24
413.31	521.5
413.687	558.56
414.065	557.2
414.442	564.89
414.819	574.38
415.197	568.5
415.574	584.55
415.951	580.71
416.328	604.21
416.705	582.96
417.082	600.82
417.46	594.04
417.837	611.66
418.214	613.25
418.591	623.87
418.967	621.61
419.344	632.68
419.721	651.66
420.098	661.61
420.475	641.27
420.852	662.74
421.228	687.14
421.605	659.12
421.982	696.41
422.358	695.5
422.735	702.74
423.111	715.39
423.488	731.66
423.864	748.61
424.241	752.45
424.617	755.62
424.994	765.33
425.37	787.93
425.746	804.65
426.123	792.45
426.499	787.48
426.875	828.38
427.251	850.53
427.627	813.47
428.003	863.86
428.379	851.21
428.756	844.65
429.132	870.64
429.507	883.3
429.883	883.75
430.259	909.96
430.635	916.29
431.011	918.1
431.387	915.61
431.763	945.44
432.138	955.16
432.514	981.6
432.89	979.34
433.265	959.45
433.641	997.64
434.016	1024.76
434.392	1049.39
434.767	1058.43
435.143	1053.24
435.518	1070.41
435.894	1093.91
436.269	1111.54
436.644	1167.13
437.02	1128.49
437.395	1158.77
437.77	1178.66
438.145	1157.19
438.52	1197.19
438.895	1227.47
439.271	1217.07
439.646	1254.36
440.021	1274.25
440.395	1285.32
440.77	1296.17
441.145	1283.96
441.52	1321.25
441.895	1319.44
442.27	1340.69
442.645	1331.87
443.019	1348.82
443.394	1354.92
443.769	1365.54
444.143	1381.81
444.518	1367.58
444.892	1388.82
445.267	1419.78
445.641	1449.16
446.016	1417.97
446.39	1445.09
446.764	1422.72
447.139	1458.87
447.513	1482.15
447.887	1476.73
448.262	1475.37
448.636	1495.03
449.01	1520.57
449.384	1518.76
449.758	1541.81
450.132	1537.74
450.506	1549.49
450.88	1546.78
451.254	1576.84
451.628	1568.48
452.002	1600.57
452.376	1596.72
452.75	1636.95
453.123	1632.2
453.497	1662.26
453.871	1672.88
454.244	1692.31
454.618	1707
454.992	1714.01
455.365	1725.31
455.739	1740.9
456.112	1776.38
456.486	1784.97
456.859	1784.52
457.232	1815.02
457.606	1841.69
457.979	1806.66
458.352	1859.77
458.725	1887.34
459.099	1891.86
459.472	1887.56
459.845	1927.11
460.218	1943.83
460.591	1973.21
460.964	1950.39
461.337	2015.24
461.71	2028.35
462.083	2077.39
462.456	2060.89
462.829	2041.46
463.201	2081.23
463.574	2089.82
463.947	2143.15
464.32	2177.5
464.692	2179.31
465.065	2192.64
465.438	2210.72
465.81	2235.58
466.183	2252.53
466.555	2280.55
466.928	2328.91
467.3	2301.11
467.672	2344.95
468.045	2375.01
468.417	2385.86
468.789	2401.45
469.161	2449.81
469.534	2422.46
469.906	2518.28
470.278	2497.49
470.65	2544.5
471.022	2555.34
471.394	2599.41
471.766	2633.53
472.138	2645.28
472.51	2704.94
472.882	2704.04
473.253	2758.05
473.625	2813.64
473.997	2818.61
474.369	2826.75
474.74	2847.99
475.112	2918.95
475.484	2939.29
475.855	3009.34
476.227	2951.72
476.598	3074.42
476.97	3115.78
477.341	3163.46
477.713	3194.42
478.084	3180.18
478.455	3275.1
478.827	3290.24
479.198	3316.9
479.569	3361.42
479.94	3458.82
480.311	3476.9
480.682	3534.98
481.053	3595.32
481.424	3654.75
481.795	3670.12
482.166	3697.23
482.537	3784.69
482.908	3786.95
483.279	3829.43
483.65	3843.44
484.021	3964.12
484.391	3989.65
484.762	4031.91
485.133	4049.31
485.503	4043.44
485.874	4164.11
486.244	4150.1
486.615	4235.3
486.985	4305.8
487.356	4314.17
487.726	4384.9
488.097	4423.77
488.467	4404.33
488.837	4559.81
489.207	4528.17
489.578	4654.04
489.948	4669.64
490.318	4673.03
490.688	4709.64
491.058	4786.92
491.428	4866.47
491.798	4835.51
492.168	4945.79
492.538	4962.74
492.908	4943.53
493.278	5019.23
493.648	5032.57
494.017	5127.7
494.387	5101.72
494.757	5081.6
495.126	5163.86
495.496	5193.01
495.866	5186.69
496.235	5281.15
496.605	5304.42
496.974	5343.97
497.344	5340.81
497.713	5360.47
498.082	5447.92
498.452	5482.5
498.821	5452.89
499.19	5506.9
499.559	5509.84
499.928	5586
500.298	5532.21
500.667	5574.02
501.036	5600.69
501.405	5615.83
501.774	5600.01
502.143	5669.16
502.512	5675.03
502.88	5727.01
503.249	5675.71
503.618	5720
503.987	5736.5
504.356	5738.31
504.724	5772.21
505.093	5769.72
505.462	5777.4
505.83	5819.44
506.199	5883.16
506.567	5947.57
506.936	5880.23
507.304	5937.63
507.672	5934.01
508.041	6006.78
508.409	6015.14
508.777	6023.73
509.145	6089.49
509.514	6027.34
509.882	6056.04
510.25	6093.55
510.618	6090.16
510.986	6155.7
511.354	6175.81
511.722	6159.99
512.09	6216.72
512.458	6161.35
512.826	6234.12
513.193	6207.45
513.561	6230.05
513.929	6268.01
514.297	6303.49
514.664	6308.24
515.032	6287.45
515.4	6359.76
515.767	6328.8
516.135	6351.85
516.502	6288.8
516.869	6386.43
517.237	6386.2
517.604	6356.82
517.972	6376.48
518.339	6400.67
518.706	6450.38
519.073	6399.08
519.44	6450.38
519.808	6500.78
520.175	6467.1
520.542	6503.26
520.909	6519.98
521.276	6519.76
521.643	6599.08
522.009	6576.48
522.376	6602.02
522.743	6544.84
523.11	6604.95
523.477	6661.22
523.843	6644.5
524.21	6739.41
524.577	6708.45
524.943	6765.18
525.31	6776.7
525.676	6771.05
526.043	6723.82
526.409	6787.55
526.776	6851.27
527.142	6859.86
527.508	6811.95
527.874	6867.32
528.241	6898.51
528.607	6897.83
528.973	6926.98
529.339	6975.34
529.705	6967.88
530.071	6981.89
530.437	7006.3
530.803	6977.83
531.169	7032.51
531.535	7003.59
531.901	7043.59
532.267	7044.49
532.632	7104.15
532.998	7089.91
533.364	7028.22
533.73	7067.54
534.095	7158.39
534.461	7140.98
534.826	7133.98
535.192	7118.84
535.557	7130.14
535.923	7154.77
536.288	7121.32
536.653	7150.93
537.019	7153.19
537.384	7164.49
537.749	7225.95
538.114	7167.88
538.479	7201.32
538.845	7201.55
539.21	7176.69
539.575	7150.02
539.94	7204.03
540.305	7242.9
540.67	7183.7
541.034	7211.27
541.399	7245.84
541.764	7239.51
542.129	7194.54
542.494	7231.15
542.858	7177.14
543.223	7266.86
543.587	7299.17
543.952	7225.5
544.316	7237.48
544.681	7244.48
545.045	7247.42
545.41	7328.32
545.774	7261.21
546.138	7200.87
546.503	7267.31
546.867	7263.92
547.231	7260.53
547.595	7296.23
547.959	7237.93
548.324	7255.56
548.688	7288.55
549.052	7288.78
549.416	7312.05
549.779	7287.2
550.143	7307.76
550.507	7331.94
550.871	7355.67
551.235	7286.07
551.599	7321.54
551.962	7366.52
552.326	7369.23
552.689	7291.04
553.053	7324.71
553.417	7256.69
553.78	7401.32
554.143	7368.78
554.507	7350.24
554.87	7408.1
555.234	7440.19
555.597	7394.99
555.96	7388.44
556.323	7463.69
556.686	7429.79
557.05	7472.95
557.413	7493.97
557.776	7492.16
558.139	7486.29
558.502	7478.15
558.865	7539.84
559.228	7572.61
559.59	7578.49
559.953	7578.94
560.316	7637.69
560.679	7602.22
561.041	7697.13
561.404	7662.1
561.767	7711.82
562.129	7711.59
562.492	7802.21
562.854	7723.57
563.217	7719.05
563.579	7757.92
563.941	7855.32
564.304	7810.35
564.666	7867.29
565.028	7860.06
565.39	7907.97
565.753	7914.3
566.115	7907.74
566.477	7964.92
566.839	8035.65
567.201	8009.66
567.563	8018.7
567.925	8109.32
568.287	8120.85
568.648	8116.55
569.01	8144.12
569.372	8166.04
569.734	8177.57
570.095	8188.19
570.457	8250.11
570.819	8242.88
571.18	8250.79
571.542	8313.84
571.903	8302.76
572.265	8346.38
572.626	8420.95
572.987	8375.53
573.349	8380.73
573.71	8433.61
574.071	8482.64
574.432	8500.95
574.794	8592.92
575.155	8550.44
575.516	8586.82
575.877	8582.3
576.238	8557.44
576.599	8661.62
576.96	8645.13
577.32	8696.65
577.681	8767.61
578.042	8729.42
578.403	8780.72
578.763	8794.95
579.124	8847.83
579.485	8821.84
579.845	8914.72
580.206	8904.78
580.566	8930.32
580.927	8904.1
581.287	9043.76
581.648	8984.1
582.008	9107.03
582.368	9059.13
582.728	9086.92
583.089	9115.17
583.449	9135.51
583.809	9139.8
584.169	9215.28
584.529	9197.65
584.889	9208.73
585.249	9240.36
585.609	9192.23
585.969	9297.54
586.329	9335.73
586.688	9395.61
587.048	9330.31
587.408	9368.27
587.768	9412.11
588.127	9471.77
588.487	9494.37
588.846	9544.31
589.206	9477.42
589.565	9471.32
589.925	9570.3
590.284	9521.94
590.643	9642.39
591.003	9639.9
591.362	9702.73
591.721	9643.97
592.08	9686.68
592.44	9747.24
592.799	9727.36
593.158	9756.28
593.517	9799.45
593.876	9813.23
594.235	9767.81
594.593	9826.56
594.952	9872.44
595.311	9872.66
595.67	9904.08
596.029	9956.73
596.387	9939.56
596.746	9962.38
597.104	9937.52
597.463	9995.6
597.822	10008.03
598.18	9942.94
598.538	10000.8
598.897	10062.49
599.255	9977.97
599.613	10141.36
599.972	10041.47
600.33	10063.17
600.688	10120.12
601.046	10146.1
601.404	10161.7
601.762	10131.19
602.12	10150.4
602.478	10115.82
602.836	10223.84
603.194	10200.79
603.552	10152.2
603.91	10132.77
604.268	10261.35
604.625	10241.47
604.983	10231.3
605.341	10212.99
605.698	10283.5
606.056	10340.45
606.413	10252.99
606.771	10291.86
607.128	10332.54
607.485	10274.46
607.843	10330.73
608.2	10370.96
608.557	10420.45
608.914	10369.6
609.272	10417.28
609.629	10471.29
609.986	10459.09
610.343	10424.29
610.7	10517.62
611.057	10460.45
611.414	10471.74
611.771	10480.33
612.127	10495.02
612.484	10507
612.841	10556.94
613.198	10455.7
613.554	10526.21
613.911	10633.55
614.267	10596.94
614.624	10548.13
614.98	10613.66
615.337	10600.1
615.693	10633.77
616.05	10627.45
616.406	10682.59
616.762	10634.23
617.118	10605.98
617.475	10593.78
617.831	10700.21
618.187	10699.54
618.543	10729.82
618.899	10757.61
619.255	10708.8
619.611	10753.32
619.967	10725.3
620.323	10768.46
620.678	10782.24
621.034	10685.3
621.39	10710.38
621.746	10669.25
622.101	10811.62
622.457	10778.18
622.812	10815.01
623.168	10818.63
623.523	10818.4
623.879	10785.86
624.234	10749.7
624.589	10728.69
624.945	10811.62
625.3	10790.38
625.655	10816.82
626.01	10749.03
626.365	10762.13
626.72	10712.42
627.075	10746.99
627.43	10658.18
627.785	10751.06
628.14	10787.89
628.495	10750.38
628.85	10720.33
629.205	10698.63
629.559	10815.92
629.914	10722.13
630.269	10720.1
630.623	10684.17
630.978	10660.21
631.332	10707.9
631.687	10710.38
632.041	10704.96
632.396	10666.09
632.75	10706.99
633.104	10694.79
633.459	10617.5
633.813	10651.63
634.167	10644.85
634.521	10644.17
634.875	10607.79
635.229	10598.07
635.583	10565.3
635.937	10531.4
636.291	10478.75
636.645	10548.8
636.999	10489.82
637.352	10501.35
637.706	10479.2
638.06	10495.7
638.413	10447.34
638.767	10387.45
639.121	10436.27
639.474	10395.59
639.828	10336.38
640.181	10396.27
640.534	10369.15
640.888	10430.62
641.241	10369.6
641.594	10319.88
641.947	10375.02
642.301	10319.21
642.654	10366.66
643.007	10330.73
643.36	10342.03
643.713	10274.46
644.066	10297.06
644.419	10383.61
644.771	10201.7
645.124	10143.84
645.477	10139.32
645.83	10071.53
646.182	10035.6
646.535	9971.19
646.888	9975.49
647.24	9801.93
647.593	10056.61
647.945	10011.64
648.298	9982.27
648.65	9904.08
649.002	9869.95
649.355	10011.42
649.707	9968.03
650.059	9970.06
650.411	10122.38
650.763	10142.49
651.115	10223.16
651.467	10149.72
651.819	10221.36
652.171	10195.82
652.523	10159.66
652.875	10218.42
653.227	10081.7
653.578	10196.72
653.93	10191.53
654.282	10163.73
654.633	10107.91
654.985	10198.53
655.337	10163.73
655.688	10161.47
656.039	10246.44
656.391	10119.66
656.742	10193.79
657.094	10193.33
657.445	10216.38
657.796	10128.7
658.147	10180.68
658.498	10192.2
658.849	10173.67
659.2	10148.14
659.551	10086.22
659.902	10133.22
660.253	10179.55
660.604	10214.58
660.955	10070.4
661.306	10202.15
661.656	10119.66
662.007	10158.53
662.358	10217.74
662.708	10174.8
663.059	10185.88
663.409	10097.97
663.76	10149.27
664.11	10194.69
664.461	10139.55
664.811	10168.02
665.161	10168.25
665.511	10120.34
665.862	10173.22
666.212	10211.41
666.562	10243.05
666.912	10085.54
667.262	10183.84
667.612	10139.55
667.962	10172.54
668.312	10200.79
668.662	10151.07
669.011	10144.75
669.361	10097.29
669.711	10136.16
670.06	10112.88
670.41	10120.79
670.76	10107.91
671.109	10122.15
671.459	10104.3
671.808	10115.6
672.157	10155.14
672.507	10094.81
672.856	9979.1
673.205	10096.16
673.554	10113.79
673.904	10120.57
674.253	10056.39
674.602	10079.21
674.951	9942.27
675.3	9886.22
675.649	9994.92
675.998	9935.26
676.346	10002.6
676.695	9988.59
677.044	9972.55
677.393	9963.96
677.741	9971.87
678.09	9939.56
678.438	9937.97
678.787	9923.51
679.135	9930.74
679.484	9848.26
679.832	9900.69
680.181	9861.82
680.529	9932.32
680.877	9877.41
681.225	9860.91
681.573	9844.64
681.922	9879.9
682.27	9794.7
682.618	9751.31
682.966	9781.59
683.314	9750.41
683.661	9751.31
684.009	9636.96
684.357	9694.14
684.705	9665.89
685.053	9642.39
685.4	9622.73
685.748	9601.48
686.095	9575.5
686.443	9535.95
686.79	9546.12
687.138	9509.96
687.485	9525.78
687.832	9550.19
688.18	9464.99
688.527	9384.32
688.874	9404.43
689.221	9403.52
689.568	9386.58
689.915	9365.78
690.262	9328.72
690.609	9286.69
690.956	9205.56
691.303	9287.82
691.65	9238.56
691.997	9172.8
692.344	9138.67
692.69	9074.04
693.037	9178.45
693.383	9045.34
693.73	9041.5
694.077	8980.03
694.423	8957.21
694.769	8922.18
695.116	8853.26
695.462	8897.77
695.808	8866.81
696.155	8944.78
696.501	8781.39
696.847	8787.04
697.193	8770.77
697.539	8773.71
697.885	8723.54
698.231	8690.32
698.577	8663.88
698.923	8643.09
699.269	8577.56
699.614	8492.59
699.96	8544.79
700.306	8463.44
700.651	8492.59
700.997	8429.76
701.342	8420.95
701.688	8410.56
702.033	8403.78
702.379	8404.68
702.724	8380.05
703.069	8351.12
703.415	8223.22
703.76	8272.93
704.105	8257.11
704.45	8215.08
704.795	8198.13
705.14	8187.28
705.485	8157.68
705.83	8150.22
706.175	8147.51
706.52	8100.96
706.865	8080.39
707.209	8008.76
707.554	8026.16
707.899	8015.31
708.243	7952.71
708.588	7924.92
708.932	7874.07
709.277	7887.41
709.621	7890.12
709.966	7804.02
710.31	7839.95
710.654	7775.32
710.998	7767.18
711.342	7751.59
711.687	7731.7
712.031	7735.32
712.375	7698.03
712.719	7676.34
713.063	7680.18
713.407	7650.8
713.75	7667.52
714.094	7582.33
714.438	7569.22
714.782	7694.19
715.125	7593.18
715.469	7567.64
715.812	7472.28
716.156	7514.76
716.499	7527.19
716.843	7543.91
717.186	7495.33
717.53	7509.34
717.873	7460.52
718.216	7496.23
718.559	7447.64
718.902	7345.95
719.246	7485.61
719.589	7345.05
719.932	7375.78
720.275	7369.91
720.617	7361.54
720.96	7407.87
721.303	7281.32
721.646	7318.83
721.989	7321.54
722.331	7341.66
722.674	7306.4
723.016	7277.25
723.359	7317.7
723.701	7329.68
724.044	7309.34
724.386	7223.92
724.729	7218.27
725.071	7225.28
725.413	7263.69
725.755	7272.51
726.097	7217.14
726.439	7174.66
726.782	7141.21
727.124	7157.71
727.465	7165.39
727.807	7195.22
728.149	7115.9
728.491	7086.75
728.833	7230.93
729.175	7216.24
729.516	7159.52
729.858	7154.77
730.199	7220.76
730.541	7140.08
730.882	7178.5
731.224	7187.76
731.565	7150.93
731.906	7171.04
732.248	7127.65
732.589	7114.32
732.93	7113.87
733.271	7100.76
733.612	7138.27
733.953	7107.54
734.294	7097.82
734.635	7103.25
734.976	7098.73
735.317	7063.47
735.658	7138.95
735.999	7107.54
736.339	7177.14
736.68	7122.91
737.021	7137.82
737.361	7090.59
737.702	7136.92
738.042	7136.01
738.383	7143.47
738.723	7181.66
739.063	7106.64
739.404	7183.24
739.744	7142.34
740.084	7129.23
740.424	7191.38
740.764	7162.45
741.104	7160.87
741.444	7187.54
741.784	7260.98
742.124	7193.64
742.464	7203.13
742.804	7224.15
743.143	7255.78
743.483	7280.87
743.823	7274.09
744.162	7311.6
744.502	7349.34
744.841	7338.72
745.181	7372.39
745.52	7407.19
745.86	7383.69
746.199	7488.09
746.538	7508.88
746.877	7530.13
747.216	7501.65
747.556	7618.71
747.895	7628.66
748.234	7674.08
748.573	7723.57
748.911	7719.73
749.25	7809.89
749.589	7845.82
749.928	7841.31
750.267	7958.82
750.605	8039.27
750.944	8017.8
751.283	8073.16
751.621	8209.21
751.96	8241.75
752.298	8354.96
752.636	8364.68
752.975	8476.54
753.313	8492.14
753.651	8636.09
753.989	8678.57
754.327	8796.99
754.666	8843.09
755.004	8987.26
755.342	9178.45
755.679	9213.92
756.017	9281.04
756.355	9415.95
756.693	9607.59
757.031	9698.43
757.368	9799.45
757.706	9945.66
758.044	9956.28
758.381	10204.63
758.719	10333.67
759.056	10510.84
759.394	10570.72
759.731	10732.53
760.068	10819.53
760.405	10972.07
760.743	11089.58
761.08	11298.39
761.417	11369.57
761.754	11604.37
762.091	11722.56
762.428	11864.02
762.765	11969.33
763.102	12167.52
763.438	12270.34
763.775	12469.43
764.112	12666.71
764.449	12836.43
764.785	12934.05
765.122	12961.4
