Data from hue_350_FLMS001491_50.txt Node
Date: Mon Feb 06 15:38:06 GMT 2017
User: dcchb
Spectrometer: FLMS00149
Trigger mode: 0
Integration Time (sec): 2.000000E-2
Scans to average: 10
Electric dark correction enabled: true
Nonlinearity correction enabled: false
Boxcar width: 0
XAxis mode: Wavelengths
Number of Pixels in Spectrum: 2048
>>>>>Begin Spectral Data<<<<<
341.393	-15.65
341.776	-15.65
342.16	-15.65
342.543	-66.5
342.927	-56.55
343.31	-79.38
343.693	-69.43
344.077	-57.91
344.46	-51.35
344.843	-50.45
345.226	-51.13
345.61	-59.04
345.993	-12.94
346.376	-8.87
346.759	8.08
347.142	47.17
347.525	38.13
347.908	62.77
348.291	85.82
348.674	83.33
349.057	115.19
349.44	90.34
349.823	131.92
350.206	149.09
350.588	215.08
350.971	210.56
351.354	212.59
351.737	214.4
352.119	238.58
352.502	255.98
352.884	266.83
353.267	279.03
353.65	289.43
354.032	286.72
354.414	311.57
354.797	307.73
355.179	334.85
355.562	332.82
355.944	324.23
356.326	343.66
356.709	322.19
357.091	340.05
357.473	334.17
357.855	328.3
358.238	334.4
358.62	340.05
359.002	331.46
359.384	340.05
359.766	325.81
360.148	342.53
360.53	345.92
360.912	318.81
361.294	349.54
361.676	329.88
362.057	324.23
362.439	341.86
362.821	328.75
363.203	324
363.584	310.44
363.966	329.65
364.348	325.81
364.729	304.12
365.111	324.91
365.493	304.79
365.874	302.99
366.256	310.44
366.637	315.42
367.019	301.18
367.4	304.79
367.781	308.64
368.163	307.73
368.544	285.13
368.925	291.69
369.306	314.96
369.688	293.27
370.069	325.36
370.45	291.24
370.831	302.99
371.212	309.09
371.593	286.49
371.974	293.72
372.355	304.79
372.736	293.95
373.117	323.78
373.498	302.31
373.879	320.84
374.26	329.88
374.641	316.55
375.021	322.19
375.402	306.15
375.783	305.92
376.163	312.93
376.544	309.09
376.925	306.83
377.305	309.09
377.686	306.15
378.066	344.57
378.447	309.54
378.827	314.06
379.208	314.96
379.588	320.16
379.968	314.51
380.349	332.14
380.729	336.21
381.109	337.11
381.489	310.9
381.87	323.1
382.25	312.7
382.63	338.01
383.01	342.08
383.39	327.84
383.77	319.48
384.15	309.99
384.53	331.69
384.91	320.84
385.29	329.2
385.67	341.18
386.049	345.25
386.429	351.57
386.809	331.91
387.189	347.96
387.568	352.02
387.948	350.22
388.328	344.57
388.707	345.02
389.087	339.82
389.466	349.99
389.846	329.65
390.225	348.63
390.605	343.66
390.984	346.83
391.363	357.67
391.743	339.37
392.122	357.67
392.501	344.12
392.881	350.67
393.26	345.92
393.639	346.6
394.018	348.18
394.397	365.81
394.776	358.35
395.155	375.98
395.534	366.71
395.913	353.61
396.292	359.71
396.671	370.56
397.05	380.95
397.429	357.67
397.808	383.89
398.186	364
398.565	355.64
398.944	384.79
399.323	357.22
399.701	368.52
400.08	363.78
400.458	376.66
400.837	390.67
401.215	355.87
401.594	375.75
401.972	357
402.351	367.84
402.729	370.78
403.107	370.78
403.486	386.83
403.864	391.12
404.242	404.45
404.62	396.09
404.999	399.48
405.377	399.48
405.755	393.61
406.133	394.06
406.511	399.03
406.889	407.62
407.267	406.03
407.645	418.24
408.023	397.67
408.401	435.19
408.779	424.57
409.156	434.51
409.534	430.67
409.912	420.5
410.29	444.68
410.667	424.34
411.045	413.72
411.422	443.32
411.8	440.84
412.178	456.2
412.555	450.1
412.933	464.56
413.31	455.52
413.687	452.14
414.065	472.25
414.442	479.25
414.819	451.68
415.197	467.05
415.574	475.86
415.951	470.89
416.328	467.05
416.705	468.18
417.082	472.93
417.46	479.03
417.837	474.28
418.214	505.47
418.591	507.5
418.967	491.91
419.344	499.59
419.721	501.4
420.098	512.47
420.475	501.4
420.852	518.12
421.228	528.74
421.605	516.54
421.982	515.18
422.358	535.75
422.735	522.42
423.111	535.75
423.488	522.87
423.864	551.34
424.241	536.88
424.617	549.31
424.994	564.67
425.37	553.15
425.746	565.8
426.123	549.53
426.499	578.23
426.875	582.75
427.251	589.08
427.627	569.19
428.003	574.39
428.379	603.77
428.756	576.88
429.132	607.16
429.507	606.71
429.883	606.48
430.259	627.72
430.635	589.76
431.011	606.26
431.387	607.39
431.763	619.14
432.138	626.59
432.514	654.84
432.89	654.84
433.265	658.91
433.641	669.08
434.016	644.9
434.392	652.13
434.767	690.09
435.143	666.59
435.518	672.47
435.894	680.83
436.269	691
436.644	702.3
437.02	700.72
437.395	684.67
437.77	711.79
438.145	707.27
438.52	717.66
438.895	723.54
439.271	726.7
439.646	753.6
440.021	727.83
440.395	741.39
440.77	750.88
441.145	748.62
441.52	768.74
441.895	769.64
442.27	755.4
442.645	778.45
443.019	756.99
443.394	779.36
443.769	792.01
444.143	774.16
444.518	776.65
444.892	782.52
445.267	806.02
445.641	804.67
446.016	803.31
446.39	786.82
446.764	815.06
447.139	802.41
447.513	814.61
447.887	787.72
448.262	803.54
448.636	807.15
449.01	832.69
449.384	844.44
449.758	833.37
450.132	836.98
450.506	834.95
450.88	851.45
451.254	872.91
451.628	864.33
452.002	869.75
452.376	857.1
452.75	872.91
453.123	881.05
453.497	875.85
453.871	884.21
454.244	893.25
454.618	915.17
454.992	903.2
455.365	888.28
455.739	932.8
456.112	945.91
456.486	960.37
456.859	945
457.232	956.75
457.606	949.07
457.979	961.05
458.352	985.23
458.725	1007.15
459.099	1008.5
459.472	995.17
459.845	1027.49
460.218	1034.49
460.591	1035.17
460.964	1040.59
461.337	1051.89
461.71	1063.87
462.083	1081.72
462.456	1077.2
462.829	1099.8
463.201	1084.89
463.574	1101.16
463.947	1125.56
464.32	1119.46
464.692	1132.57
465.065	1164.88
465.438	1148.61
465.81	1182.06
466.183	1199.01
466.555	1199.23
466.928	1224.32
467.3	1206.92
467.672	1210.53
468.045	1249.85
468.417	1270.42
468.789	1279.46
469.161	1276.52
469.534	1301.6
469.906	1346.35
470.278	1345.22
470.65	1365.56
471.022	1376.63
471.394	1399
471.766	1397.19
472.138	1402.17
472.51	1446.23
472.882	1477.42
473.253	1453.69
473.625	1500.47
473.997	1508.15
474.369	1517.64
474.74	1551.32
475.112	1569.17
475.484	1617.98
475.855	1624.53
476.227	1633.35
476.598	1689.84
476.97	1701.59
477.341	1712.67
477.713	1741.14
478.084	1777.75
478.455	1802.16
478.827	1834.92
479.198	1878.99
479.569	1876.28
479.94	1916.5
480.311	1958.76
480.682	1970.06
481.053	1989.04
481.424	2058.42
481.795	2092.77
482.166	2090.06
482.537	2149.94
482.908	2145.88
483.279	2199.43
483.65	2245.99
484.021	2287.57
484.391	2283.05
484.762	2368.92
485.133	2358.3
485.503	2404.4
485.874	2451.86
486.244	2469.03
486.615	2520.33
486.985	2528.69
487.356	2574.57
487.726	2644.17
488.097	2638.97
488.467	2689.59
488.837	2732.98
489.207	2753.32
489.578	2812.98
489.948	2803.94
490.318	2851.39
490.688	2874.44
491.058	2897.95
491.428	2932.52
491.798	3001.9
492.168	3020.88
492.538	3053.2
492.908	3114.66
493.278	3131.61
493.648	3136.13
494.017	3183.59
494.387	3213.64
494.757	3272.63
495.126	3268.33
495.496	3282.12
495.866	3292.29
496.235	3374.09
496.605	3384.71
496.974	3430.36
497.344	3423.36
497.713	3449.57
498.082	3473.52
498.452	3483.47
498.821	3536.8
499.19	3550.81
499.559	3599.85
499.928	3623.13
500.298	3630.81
500.667	3670.58
501.036	3635.55
501.405	3725.72
501.774	3659.96
502.143	3695.67
502.512	3718.72
502.88	3728.89
503.249	3757.13
503.618	3801.43
503.987	3763.46
504.356	3848.66
504.724	3842.33
505.093	3828.54
505.462	3881.65
505.83	3885.49
506.199	3916.22
506.567	3969.33
506.936	3973.85
507.304	3988.31
507.672	4010.69
508.041	4063.34
508.409	4062.89
508.777	4033.28
509.145	4067.18
509.514	4092.27
509.882	4111.02
510.25	4102.66
510.618	4134.98
510.986	4139.5
511.354	4196.67
511.722	4203.45
512.09	4228.08
512.458	4214.07
512.826	4268.76
513.193	4236.44
513.561	4277.57
513.929	4274.18
514.297	4334.07
514.664	4373.84
515.032	4373.16
515.4	4398.47
515.767	4360.51
516.135	4443.89
516.502	4378.36
516.869	4478.7
517.237	4452.26
517.604	4457.91
517.972	4440.28
518.339	4460.84
518.706	4453.61
519.073	4494.51
519.44	4516.21
519.808	4528.19
520.175	4506.72
520.542	4539.49
520.909	4578.81
521.276	4575.64
521.643	4607.28
522.009	4669.43
522.376	4629.2
522.743	4705.13
523.11	4723.21
523.477	4728.86
523.843	4723.89
524.21	4801.17
524.577	4793.49
524.943	4849.53
525.31	4805.24
525.676	4885.46
526.043	4898.57
526.409	4910.32
526.776	4988.29
527.142	5024.22
527.508	4966.14
527.874	5072.58
528.241	5056.76
528.607	5086.36
528.973	5168.4
529.339	5083.2
529.705	5137.66
530.071	5175.85
530.437	5206.13
530.803	5236.42
531.169	5245.23
531.535	5205.68
531.901	5327.71
532.267	5295.62
532.632	5289.52
532.998	5373.14
533.364	5358.67
533.73	5392.8
534.095	5417.65
534.461	5460.59
534.826	5451.55
535.192	5470.31
535.557	5581.72
535.923	5542.85
536.288	5520.02
536.653	5576.97
537.019	5579.68
537.384	5536.97
537.749	5599.8
538.114	5633.24
538.479	5611.32
538.845	5724.54
539.21	5663.98
539.575	5690.87
539.94	5711.66
540.305	5790.98
540.67	5794.14
541.034	5838.89
541.399	5816.74
541.764	5830.3
542.129	5887.7
542.494	5899.9
542.858	5943.52
543.223	5948.26
543.587	6010.86
543.952	6044.3
544.316	6006.34
544.681	5999.79
545.045	6078.43
545.41	6112.33
545.774	6086.11
546.138	6148.03
546.503	6122.27
546.867	6170.4
547.231	6240.01
547.595	6259.89
547.959	6287.69
548.324	6266.67
548.688	6264.19
549.052	6286.33
549.416	6340.34
549.779	6359.78
550.143	6365.2
550.507	6386.44
550.871	6435.93
551.235	6411.3
551.599	6475.25
551.962	6493.11
552.326	6516.38
552.689	6499.66
553.053	6487.91
553.417	6518.19
553.78	6539.21
554.143	6574.01
554.507	6605.65
554.87	6671.86
555.234	6672.31
555.597	6650.16
555.96	6675.47
556.323	6776.94
556.686	6711.18
557.05	6767
557.413	6809.93
557.776	6772.19
558.139	6823.27
558.502	6851.97
558.865	6842.25
559.228	6863.27
559.59	6943.04
559.953	6883.83
560.316	7005.86
560.679	7027.78
561.041	7023.94
561.404	7045.86
561.767	7091.73
562.129	7046.99
562.492	7129.7
562.854	7115.69
563.217	7148.23
563.579	7155.01
563.941	7166.99
564.304	7218.74
564.666	7288.11
565.028	7290.6
565.39	7250.15
565.753	7330.6
566.115	7413.99
566.477	7408.34
566.839	7406.53
567.201	7400.88
567.563	7450.6
567.925	7439.97
568.287	7506.64
568.648	7503.48
569.01	7545.28
569.372	7575.79
569.734	7522.91
570.095	7706.63
570.457	7700.53
570.819	7663.7
571.18	7747.76
571.542	7784.82
571.903	7779.17
572.265	7820.08
572.626	7883.13
572.987	7951.82
573.349	7993.41
573.71	8005.83
574.071	8038.38
574.432	8124.25
574.794	8192.04
575.155	8203.8
575.516	8224.81
575.877	8350.23
576.238	8343.9
576.599	8421.19
576.96	8468.2
577.32	8535.99
577.681	8671.58
578.042	8709.09
578.403	8828.41
578.763	8821.86
579.124	8937.34
579.485	9037.9
579.845	9181.62
580.206	9265.91
580.566	9321.28
580.927	9511.78
581.287	9594.72
581.648	9656.19
582.008	9815.28
582.368	9925.56
582.728	10071.32
583.089	10191.09
583.449	10320.12
583.809	10425.66
584.169	10685.09
584.529	10741.36
584.889	11052.99
585.249	11100.89
585.609	11293.88
585.969	11493.2
586.329	11625.17
586.688	11886.64
587.048	12076.69
587.408	12284.82
587.768	12453.18
588.127	12731.59
588.487	12894.75
588.846	13236.21
589.206	13299.48
589.565	13593.48
589.925	13919.58
590.284	14097.43
590.643	14331.32
591.003	14666.22
591.362	14934.92
591.721	15106.66
592.08	15462.36
592.44	15757.95
592.799	16033.19
593.158	16200.87
593.517	16516.57
593.876	16808.77
594.235	17028.87
594.593	17332.82
594.952	17683.77
595.311	17887.83
595.67	18192.91
596.029	18668.61
596.387	18971.2
596.746	19194.02
597.104	19366.21
597.463	19759.65
597.822	20057.95
598.18	20163.03
598.538	20592.4
598.897	20946.51
599.255	21084.81
599.613	21674.85
599.972	21734.97
600.33	22102.64
600.688	22335.85
601.046	22678.44
601.404	23015.84
601.762	23397.97
602.12	23590.06
602.478	23857.17
602.836	24159.53
603.194	24348.68
603.552	24541.9
603.91	24755.22
604.268	25273.63
604.625	25392.95
604.983	25631.36
605.341	25705.93
605.698	26276.77
606.056	26411.68
606.413	26702.97
606.771	27003.3
607.128	27246.68
607.485	27285.33
607.843	27644.87
608.2	27890.96
608.557	28363.04
608.914	28364.85
609.272	28772.52
609.629	29010.93
609.986	29233.75
610.343	29220.87
610.7	29641.88
611.057	29846.39
611.414	30018.82
611.771	30334.74
612.127	30574.05
612.484	30742.41
612.841	30922.97
613.198	30956.42
613.554	31269.18
613.911	31486.57
614.267	31701.03
614.624	31770.41
614.98	31923.62
615.337	32294.69
615.693	32421.69
616.05	32419.88
616.406	32822.58
616.762	32844.5
617.118	32989.36
617.475	33024.61
617.831	33323.36
618.187	33415.34
618.543	33686.52
618.899	34032.04
619.255	34123.79
619.611	34212.15
619.967	34305.71
620.323	34472.03
620.678	34445.14
621.034	34448.53
621.39	34673.38
621.746	34670.44
622.101	35260.94
622.457	35075.86
622.812	35220.03
623.168	35240.15
623.523	35375.06
623.879	35603.75
624.234	35405.34
624.589	35644.66
624.945	35759.23
625.3	35998.32
625.655	35939.79
626.01	36103.4
626.365	36067.7
626.72	36133.46
627.075	36305.43
627.43	36149.28
627.785	36199.22
628.14	36405.77
628.495	36493.45
628.85	36617.96
629.205	36343.85
629.559	36762.82
629.914	36598.3
630.269	36691.86
630.623	36575.93
630.978	36652.31
631.332	36833.55
631.687	36882.36
632.041	36792.2
632.396	36987.9
632.75	36713.78
633.104	36863.83
633.459	36720.11
633.813	36759.2
634.167	36954.45
634.521	36899.76
634.875	36974.11
635.229	36937.73
635.583	36727.57
635.937	36826.32
636.291	36886.66
636.645	36937.28
636.999	36956.03
637.352	37027.44
637.706	36820.67
638.06	36900.89
638.413	36888.92
638.767	36834.68
639.121	36927.33
639.474	36736.83
639.828	36754.68
640.181	36869.48
640.534	36898.63
640.888	36808.02
641.241	36690.96
641.594	36810.28
641.947	36835.59
642.301	36805.76
642.654	36797.62
643.007	36850.27
643.36	36858.41
643.713	36788.35
644.066	36959.2
644.419	36701.58
644.771	36457.97
645.124	36112.89
645.477	36159.67
645.83	35934.59
646.182	35748.16
646.535	35775.95
646.888	35908.15
647.24	35697.99
647.593	35992.9
647.945	35738.44
648.298	35715.39
648.65	35623.64
649.002	35586.13
649.355	35631.55
649.707	35589.74
650.059	35651.66
650.411	36191.76
650.763	36096.17
651.115	36417.97
651.467	36398.08
651.819	36453
652.171	36377.52
652.523	36340
652.875	36248.03
653.227	36158.31
653.578	36305.2
653.93	36364.86
654.282	36142.95
654.633	36021.6
654.985	36239.22
655.337	36133.46
655.688	36279.67
656.039	36405.77
656.391	36009.17
656.742	36169.16
657.094	36086.68
657.445	36234.7
657.796	36120.8
658.147	36075.38
658.498	36072.67
658.849	36199.67
659.2	36016.17
659.551	36071.76
659.902	36290.97
660.253	36111.99
660.604	36083.51
660.955	35982.05
661.306	36189.5
661.656	35993.57
662.007	36068.37
662.358	36037.87
662.708	35951.77
663.059	35945.89
663.409	35792.67
663.76	36018.88
664.11	36003.74
664.461	36090.29
664.811	36186.34
665.161	36056.62
665.511	35880.36
665.862	35949.51
666.212	36169.84
666.562	36091.65
666.912	36024.08
667.262	35897.08
667.612	36015.49
667.962	35943.18
668.312	35945.44
668.662	36089.39
669.011	36011.65
669.361	35956.74
669.711	35957.64
670.06	35875.16
670.41	35874.25
670.76	35789.06
671.109	35928.49
671.459	35767.14
671.808	35804.43
672.157	35931.65
672.507	35751.77
672.856	35702.73
673.205	35778.89
673.554	35991.54
673.904	35689.85
674.253	35860.24
674.602	35761.49
674.951	35144.78
675.3	35058.91
675.649	35756.97
675.998	35454.15
676.346	35541.16
676.695	35661.38
677.044	35524.66
677.393	35505
677.741	35571.66
678.09	35520.82
678.438	35371.44
678.787	35498.9
679.135	35526.47
679.484	35279.24
679.832	35417.54
680.181	35125.12
680.529	35229.53
680.877	35337.09
681.225	35133.93
681.573	35290.77
681.922	35158.12
682.27	35079.47
682.618	35000.83
682.966	34937.56
683.314	34985.01
683.661	34827.95
684.009	34684.46
684.357	34648.98
684.705	34533.5
685.053	34642.42
685.4	34571.69
685.748	34393.62
686.095	34403.56
686.443	34339.61
686.79	34306.84
687.138	34349.1
687.485	34359.04
687.832	34074.3
688.18	34164.24
688.527	34025.94
688.874	34116.56
689.221	33944.81
689.568	33862.33
689.915	33699.4
690.262	33724.25
690.609	33687.87
690.956	33657.14
691.303	33562.45
691.65	33317.26
691.997	33393.42
692.344	33143.48
692.69	33132.86
693.037	33228.67
693.383	33025.06
693.73	33082.46
694.077	32861.45
694.423	32838.18
694.769	32929.7
695.116	32720.21
695.462	32701
695.808	32552.53
696.155	32636.15
696.501	32444.74
696.847	32341.24
697.193	32138.53
697.539	32237.97
697.885	32013.34
698.231	31903.51
698.577	32094.92
698.923	31787.81
699.269	31763.4
699.614	31550.75
699.96	31542.39
700.306	31514.82
700.651	31420.59
700.997	31320.48
701.342	31336.52
701.688	31239.35
702.033	31158.45
702.379	31112.12
702.724	31003.87
703.069	31032.35
703.415	30672.13
703.76	30636.65
704.105	30797.1
704.45	30658.12
704.795	30491.57
705.14	30347.17
705.485	30379.26
705.83	30373.16
706.175	30349.43
706.52	30229.88
706.865	30090.68
707.209	30169.77
707.554	30002.09
707.899	30084.8
708.243	29848.88
708.588	29902.21
708.932	29664.25
709.277	29639.16
709.621	29619.05
709.966	29375.44
710.31	29517.13
710.654	29333.64
710.998	29278.27
711.342	29391.71
711.687	29232.62
712.031	29178.16
712.375	28982.91
712.719	29101.1
713.063	29132.96
713.407	29134.77
713.75	29027.65
714.094	28883.25
714.438	28805.74
714.782	28864.27
715.125	28626.76
715.469	28646.2
715.812	28488.91
716.156	28364.62
716.499	28473.32
716.843	28380.89
717.186	28232.42
717.53	28399.87
717.873	28354.68
718.216	28240.1
718.559	28164.4
718.902	27991.98
719.246	28172.31
719.589	28009.6
719.932	27846.44
720.275	27852.09
720.617	27874.69
720.96	27840.79
721.303	27636.28
721.646	27785.88
721.989	27683.51
722.331	27756.05
722.674	27555.38
723.016	27605.32
723.359	27431.09
723.701	27496.4
724.044	27225.44
724.386	27228.38
724.729	27304.99
725.071	27395.38
725.413	27267.7
725.755	27245.55
726.097	27127.14
726.439	27073.58
726.782	26921.04
727.124	27103.86
727.465	26956.3
727.807	26877.88
728.149	26871.1
728.491	26790.2
728.833	26900.48
729.175	26592.24
729.516	26742.52
729.858	26708.17
730.199	26630.88
730.541	26692.35
730.882	26524.22
731.224	26545.23
731.565	26403.32
731.906	26449.42
732.248	26489.64
732.589	26276.99
732.93	26221.4
733.271	26161.06
733.612	26316.54
733.953	26244.68
734.294	26174.85
734.635	26066.6
734.976	26217.56
735.317	26047.17
735.658	25994.51
735.999	25987.51
736.339	25878.36
736.68	25911.8
737.021	25906.15
737.361	25800.4
737.702	25851.02
738.042	25789.32
738.383	25654.18
738.723	25763.79
739.063	25671.13
739.404	25676.56
739.744	25668.65
740.084	25379.16
740.424	25633.17
740.764	25388.43
741.104	25557.69
741.444	25390.91
741.784	25260.75
742.124	25425.94
742.464	25281.31
742.804	25258.04
743.143	25220.52
743.483	25250.13
743.823	25110.24
744.162	25103.69
744.502	25077.48
744.841	24976.46
745.181	25061.88
745.52	24908.22
745.86	24871.15
746.199	24895.33
746.538	24875.22
746.877	25004.94
747.216	24876.13
747.556	24813.98
747.895	24733.53
748.234	24712.74
748.573	24711.38
748.911	24656.7
749.25	24688.56
749.589	24542.58
749.928	24522.69
750.267	24555
750.605	24395.69
750.944	24453.31
751.283	24370.6
751.621	24443.14
751.96	24296.03
752.298	24301.9
752.636	24213.54
752.975	24075.69
753.313	24121.57
753.651	24037.73
753.989	24053.32
754.327	24016.26
754.666	23858.75
755.004	23893.1
755.342	23855.14
755.679	23944.17
756.017	23611.3
756.355	23719.32
756.693	23612.88
757.031	23681.13
757.368	23517.52
757.706	23549.61
758.044	23341.93
758.381	23449.72
758.719	23316.17
759.056	23328.82
759.394	23289.5
759.731	23086.57
760.068	23114.14
760.405	22925.44
760.743	22985.78
761.08	23052.22
