Data from hue_130_FLMS001491_00053.txt Node
Date: Tue Feb 07 16:57:47 GMT 2017
User: dcchb
Spectrometer: FLMS00149
Trigger mode: 0
Integration Time (sec): 2.000000E-2
Scans to average: 10
Electric dark correction enabled: true
Nonlinearity correction enabled: false
Boxcar width: 0
XAxis mode: Wavelengths
Number of Pixels in Spectrum: 2048
>>>>>Begin Spectral Data<<<<<
341.393	-14.03
341.776	-14.03
342.16	-14.03
342.543	-54.48
342.927	-62.61
343.31	-76.85
343.693	-58.32
344.077	-39.56
344.46	-47.24
344.843	-65.78
345.226	-53.12
345.61	-37.08
345.993	-25.55
346.376	-19.67
346.759	18.06
347.142	17.61
347.525	38.63
347.908	49.02
348.291	84.5
348.674	101.23
349.057	114.11
349.44	127.21
349.823	156.14
350.206	147.55
350.588	175.12
350.971	206.31
351.354	220.09
351.737	256.7
352.119	250.6
352.502	269.81
352.884	268.68
353.267	271.84
353.65	309.13
354.032	291.28
354.414	305.06
354.797	300.99
355.179	320.43
355.562	303.03
355.944	313.65
356.326	322.46
356.709	331.28
357.091	330.15
357.473	332.18
357.855	340.99
358.238	344.16
358.62	343.48
359.002	349.81
359.384	343.93
359.766	346.87
360.148	351.39
360.53	357.94
360.912	356.13
361.294	334.21
361.676	327.66
362.057	330.37
362.439	346.19
362.821	314.33
363.203	306.42
363.584	323.37
363.966	329.24
364.348	344.38
364.729	330.6
365.111	322.46
365.493	315.23
365.874	314.78
366.256	319.3
366.637	307.77
367.019	322.24
367.4	326.98
367.781	336.93
368.163	313.42
368.544	338.28
368.925	311.39
369.306	325.63
369.688	329.47
370.069	291.5
370.45	311.84
370.831	313.42
371.212	306.19
371.593	316.81
371.974	344.16
372.355	326.76
372.736	324.05
373.117	309.13
373.498	326.76
373.879	312.97
374.26	311.39
374.641	313.2
375.021	314.33
375.402	323.82
375.783	329.47
376.163	339.64
376.544	345.06
376.925	325.4
377.305	326.08
377.686	305.97
378.066	309.36
378.447	346.64
378.827	341.45
379.208	338.28
379.588	343.71
379.968	328.11
380.349	343.03
380.729	337.38
381.109	358.39
381.489	340.09
381.87	320.88
382.25	360.88
382.63	329.47
383.01	348.45
383.39	335.8
383.77	340.09
384.15	338.96
384.53	360.65
384.91	341.67
385.29	369.24
385.67	348.45
386.049	358.17
386.429	359.07
386.809	376.7
387.189	359.52
387.568	356.13
387.948	364.5
388.328	370.37
388.707	353.65
389.087	362.46
389.466	371.5
389.846	374.44
390.225	370.82
390.605	379.86
390.984	371.73
391.363	367.43
391.743	388.45
392.122	367.66
392.501	388.22
392.881	409.01
393.26	390.26
393.639	376.02
394.018	366.53
394.397	388
394.776	391.61
395.155	409.24
395.534	385.96
395.913	399.75
396.292	377.38
396.671	400.88
397.05	400.2
397.429	398.39
397.808	398.85
398.186	403.14
398.565	409.69
398.944	373.54
399.323	397.26
399.701	392.07
400.08	421.67
400.458	414.89
400.837	413.08
401.215	409.24
401.594	457.83
401.972	435.23
402.351	424.83
402.729	422.57
403.107	446.75
403.486	448.11
403.864	428.68
404.242	426.64
404.62	430.93
404.999	446.98
405.377	469.58
405.755	428.68
406.133	440.88
406.511	464.83
406.889	465.51
407.267	487.2
407.645	442.01
408.023	463.25
408.401	471.61
408.779	464.61
409.156	469.8
409.534	466.19
409.912	486.3
410.29	460.09
410.667	485.17
411.045	476.81
411.422	478.84
411.8	495.57
412.178	496.02
412.555	500.99
412.933	508.45
413.31	507.32
413.687	488.56
414.065	502.57
414.442	501.89
414.819	503.25
415.197	505.51
415.574	516.81
415.951	531.27
416.328	520.65
416.705	532.18
417.082	546.86
417.46	537.15
417.837	532.85
418.214	528.33
418.591	550.25
418.967	552.74
419.344	566.75
419.721	555.68
420.098	556.36
420.475	563.36
420.852	555
421.228	580.99
421.605	563.59
421.982	581.89
422.358	578.95
422.735	570.82
423.111	573.3
423.488	589.57
423.864	587.54
424.241	629.57
424.617	603.13
424.994	626.41
425.37	611.27
425.746	587.32
426.123	600.42
426.499	607.43
426.875	623.7
427.251	624.6
427.627	632.74
428.003	638.61
428.379	646.3
428.756	630.7
429.132	642.45
429.507	661.89
429.883	657.82
430.259	667.31
430.635	675.9
431.011	676.58
431.387	667.99
431.763	671.83
432.138	708.67
432.514	700.31
432.89	694.2
433.265	719.51
433.641	735.11
434.016	724.49
434.392	733.3
434.767	731.94
435.143	751.38
435.518	771.72
435.894	756.58
436.269	775.56
436.644	758.38
437.02	767.65
437.395	773.52
437.77	806.07
438.145	784.15
438.52	813.98
438.895	800.42
439.271	824.14
439.646	813.3
440.021	826.18
440.395	817.59
440.77	825.05
441.145	837.7
441.52	861.88
441.895	846.97
442.27	848.78
442.645	852.17
443.019	866.4
443.394	890.13
443.769	880.87
444.143	898.27
444.518	912.73
444.892	898.27
445.267	898.27
445.641	919.51
446.016	904.59
446.39	912.73
446.764	915.44
447.139	922.67
447.513	928.55
447.887	946.18
448.262	931.94
448.636	948.89
449.01	988.43
449.384	958.83
449.758	954.09
450.132	987.3
450.506	984.59
450.88	976.91
451.254	988.89
451.628	1034.31
452.002	1021.65
452.376	1036.12
452.75	1045.38
453.123	1016.23
453.497	1046.74
453.871	1065.72
454.244	1086.96
454.618	1071.6
454.992	1071.6
455.365	1120.86
455.739	1099.17
456.112	1137.13
456.486	1137.81
456.859	1150.69
457.232	1168.99
457.606	1145.94
457.979	1214.64
458.352	1225.04
458.725	1213.97
459.099	1232.27
459.472	1248.09
459.845	1252.38
460.218	1283.12
460.591	1282.89
460.964	1310.46
461.337	1314.75
461.71	1324.02
462.083	1380.74
462.456	1394.07
462.829	1368.54
463.201	1404.24
463.574	1422.77
463.947	1439.5
464.32	1474.75
464.692	1492.15
465.065	1496.9
465.438	1515.2
465.81	1520.4
466.183	1534.63
466.555	1581.41
466.928	1595.65
467.3	1603.11
467.672	1667.29
468.045	1679.94
468.417	1720.39
468.789	1672.71
469.161	1735.31
469.534	1795.64
469.906	1821.86
470.278	1817.11
470.65	1872.25
471.022	1902.53
471.394	1926.26
471.766	1982.08
472.138	2006.71
472.51	2046.03
472.882	2109.08
473.253	2123.32
473.625	2163.77
473.997	2218.01
474.369	2286.25
474.74	2287.16
475.112	2367.61
475.484	2389.3
475.855	2471.79
476.227	2539.81
476.598	2587.26
476.97	2612.8
477.341	2747.71
477.713	2823.64
478.084	2834.26
478.455	2948.16
478.827	2956.07
479.198	3108.83
479.569	3129.62
479.94	3273.57
480.311	3290.97
480.682	3434.02
481.053	3522.15
481.424	3610.29
481.795	3671.53
482.166	3818.64
482.537	3881.24
482.908	3998.98
483.279	4069.94
483.65	4195.58
484.021	4346.31
484.391	4441
484.762	4536.36
485.133	4665.63
485.503	4732.06
485.874	4889.8
486.244	5016.35
486.615	5144.94
486.985	5312.39
487.356	5454.08
487.726	5527.75
488.097	5722.55
488.467	5801.42
488.837	5983.33
489.207	6051.35
489.578	6214.74
489.948	6368.41
490.318	6540.38
490.688	6606.14
491.058	6810.43
491.428	6917.32
491.798	7074.83
492.168	7266.01
492.538	7400.47
492.908	7569.05
493.278	7717.07
493.648	7822.15
494.017	7941.92
494.387	8140.34
494.757	8241.35
495.126	8387.11
495.496	8495.36
495.866	8622.58
496.235	8682.02
496.605	8872.75
496.974	9012.63
497.344	9173.3
497.713	9290.36
498.082	9446.52
498.452	9536.01
498.821	9665.27
499.19	9778.71
499.559	9911.59
499.928	10025.03
500.298	10090.57
500.667	10253.28
501.036	10292.82
501.405	10378.02
501.774	10565.13
502.143	10631.12
502.512	10752.47
502.88	10913.82
503.249	10911.79
503.618	11043.09
503.987	11118.11
504.356	11225.23
504.724	11315.85
505.093	11336.18
505.462	11479.91
505.83	11481.27
506.199	11588.38
506.567	11875.15
506.936	11803.29
507.304	11948.15
507.672	11937.75
508.041	12054.81
508.409	12132.55
508.777	12241.02
509.145	12337.51
509.514	12350.85
509.882	12442.14
510.25	12535.02
510.618	12616.83
510.986	12568.02
511.354	12716.94
511.722	12840.78
512.09	12907.22
512.458	12920.1
512.826	13020.43
513.193	13063.37
513.561	13104.05
513.929	13180.66
514.297	13291.39
514.664	13330.03
515.032	13388.79
515.4	13442.34
515.767	13502.68
516.135	13535.22
516.502	13487.09
516.869	13678.72
517.237	13621.55
517.604	13633.53
517.972	13698.61
518.339	13799.4
518.706	13808.21
519.073	13801.43
519.44	13784.71
519.808	13976.34
520.175	13900.86
520.542	14082.1
520.909	14048.66
521.276	14127.75
521.643	14162.78
522.009	14159.39
522.376	14266.05
522.743	14257.24
523.11	14383.11
523.477	14472.83
523.843	14422.21
524.21	14521.19
524.577	14568.64
524.943	14617.23
525.31	14635.99
525.676	14725.93
526.043	14813.61
526.409	14793.95
526.776	14849.99
527.142	14847.73
527.508	14806.6
527.874	14953.72
528.241	14914.85
528.607	14908.97
528.973	14947.84
529.339	14899.48
529.705	15019.93
530.071	15115.07
530.437	14949.65
530.803	15023.32
531.169	15164.33
531.535	15065.58
531.901	14961.85
532.267	15039.36
532.632	15090.66
532.998	15143.77
533.364	15071.68
533.73	15030.55
534.095	15159.59
534.461	15135.18
534.826	15114.84
535.192	15157.78
535.557	15164.78
535.923	15016.77
536.288	15013.6
536.653	15037.1
537.019	14948.29
537.384	14959.14
537.749	14937.22
538.114	14944.23
538.479	14886.83
538.845	14985.58
539.21	14823.55
539.575	14906.03
539.94	14768.41
540.305	14841.86
540.67	14753.27
541.034	14742.42
541.399	14814.74
541.764	14715.08
542.129	14716.44
542.494	14732.03
542.858	14701.29
543.223	14569.09
543.587	14626.27
543.952	14554.63
544.316	14550.11
544.681	14522.32
545.045	14353.73
545.41	14531.36
545.774	14484.12
546.138	14403.67
546.503	14363.9
546.867	14310.12
547.231	14403.67
547.595	14371.36
547.959	14283.23
548.324	14222.21
548.688	14229.67
549.052	14249.33
549.416	14226.96
549.779	14150.35
550.143	14127.3
550.507	14120.74
550.871	14097.92
551.235	13971.14
551.599	14003.23
551.962	14071.71
552.326	13959.39
552.689	14028.54
553.053	13927.98
553.417	13919.39
553.78	13979.05
554.143	13868.77
554.507	13934.76
554.87	13864.03
555.234	13973.86
555.597	13858.38
555.96	13873.29
556.323	13897.25
556.686	13809.11
557.05	13874.42
557.413	13841.66
557.776	13800.07
558.139	13878.94
558.502	13713.98
558.865	13780.87
559.228	13748.1
559.59	13751.94
559.953	13779.06
560.316	13910.13
560.679	13885.27
561.041	13897.02
561.404	13831.71
561.767	13899.51
562.129	13812.96
562.492	13981.54
562.854	13858.83
563.217	13866.06
563.579	13787.65
563.941	13960.52
564.304	13918.94
564.666	13967.53
565.028	13970.47
565.39	14033.52
565.753	14036.23
566.115	14014.08
566.477	14055.44
566.839	14109.22
567.201	14095.21
567.563	14131.59
567.925	14149.22
568.287	14132.27
568.648	14064.7
569.01	14191.7
569.372	14193.74
569.734	14177.01
570.095	14295.2
570.457	14257.92
570.819	14195.32
571.18	14227.18
571.542	14265.37
571.903	14274.86
572.265	14293.4
572.626	14287.97
572.987	14322.32
573.349	14394.86
573.71	14381.08
574.071	14423.34
574.432	14413.84
574.794	14482.99
575.155	14444.13
575.516	14388.99
575.877	14451.36
576.238	14353.05
576.599	14458.81
576.96	14407.29
577.32	14393.28
577.681	14443.22
578.042	14453.39
578.403	14441.64
578.763	14501.07
579.124	14490.23
579.485	14551.24
579.845	14598.02
580.206	14482.09
580.566	14532.03
580.927	14494.97
581.287	14511.92
581.648	14465.59
582.008	14538.59
582.368	14447.06
582.728	14553.95
583.089	14453.84
583.449	14419.49
583.809	14429.89
584.169	14464.46
584.529	14414.3
584.889	14530.9
585.249	14400.51
585.609	14385.82
585.969	14493.62
586.329	14404.13
586.688	14323.68
587.048	14478.02
587.408	14382.66
587.768	14382.66
588.127	14339.5
588.487	14299.04
588.846	14423.11
589.206	14298.82
589.565	14370.23
589.925	14349.67
590.284	14319.84
590.643	14350.57
591.003	14412.04
591.362	14429.89
591.721	14324.81
592.08	14294.07
592.44	14339.72
592.799	14407.06
593.158	14365.03
593.517	14277.12
593.876	14286.39
594.235	14286.16
594.593	14282.77
594.952	14273.73
595.311	14225.37
595.67	14206.84
596.029	14341.08
596.387	14235.09
596.746	14258.37
597.104	14240.97
597.463	14127.3
597.822	14294.53
598.18	14135.43
598.538	14196
598.897	14219.27
599.255	14138.6
599.613	14231.48
599.972	14215.21
600.33	14267.41
600.688	14254.98
601.046	14230.12
601.404	14164.81
601.762	14252.27
602.12	14271.02
602.478	14294.07
602.836	14268.54
603.194	14194.19
603.552	14287.97
603.91	14124.36
604.268	14271.93
604.625	14228.76
604.983	14209.56
605.341	14161.2
605.698	14346.73
606.056	14261.98
606.413	14216.56
606.771	14374.07
607.128	14297.92
607.485	14243
607.843	14266.28
608.2	14287.97
608.557	14400.96
608.914	14247.29
609.272	14379.27
609.629	14436.67
609.986	14454.52
610.343	14415.43
610.7	14380.17
611.057	14360.29
611.414	14347.41
611.771	14461.07
612.127	14486.38
612.484	14425.82
612.841	14473.5
613.198	14400.06
613.554	14408.19
613.911	14464.69
614.267	14537.23
614.624	14456.33
614.98	14461.75
615.337	14544.01
615.693	14539.94
616.05	14536.1
616.406	14663.33
616.762	14520.73
617.118	14558.25
617.475	14583.56
617.831	14591.47
618.187	14667.62
618.543	14690.22
618.899	14724.34
619.255	14737
619.611	14673.5
619.967	14755.3
620.323	14801.63
620.678	14722.99
621.034	14614.74
621.39	14719.15
621.746	14555.76
622.101	14796.21
622.457	14672.82
622.812	14752.37
623.168	14734.97
623.523	14730.45
623.879	14784
624.234	14687.06
624.589	14731.12
624.945	14691.58
625.3	14741.97
625.655	14714.4
626.01	14702.42
626.365	14671.69
626.72	14653.61
627.075	14691.8
627.43	14668.07
627.785	14644.8
628.14	14692.03
628.495	14666.94
628.85	14725.93
629.205	14638.47
629.559	14743.1
629.914	14640.28
630.269	14648.41
630.623	14586.72
630.978	14576.1
631.332	14617.68
631.687	14602.09
632.041	14590.79
632.396	14602.31
632.75	14487.97
633.104	14525.93
633.459	14491.36
633.813	14473.28
634.167	14535.87
634.521	14508.76
634.875	14474.41
635.229	14519.83
635.583	14369.55
635.937	14368.2
636.291	14350.57
636.645	14364.13
636.999	14323.45
637.352	14408.87
637.706	14215.88
638.06	14313.28
638.413	14288.88
638.767	14246.84
639.121	14258.14
639.474	14229.67
639.828	14180.63
640.181	14174.53
640.534	14226.28
640.888	14180.63
641.241	14100.18
641.594	14150.8
641.947	14157.35
642.301	14145.83
642.654	14164.36
643.007	14114.64
643.36	14075.55
643.713	14055.66
644.066	14090.24
644.419	14042.1
644.771	14005.95
645.124	13828.32
645.477	13819.28
645.83	13765.73
646.182	13726.4
646.535	13591.72
646.888	13666.07
647.24	13629.91
647.593	13747.65
647.945	13617.25
648.298	13590.81
648.65	13516.92
649.002	13480.54
649.355	13635.33
649.707	13535.22
650.059	13586.97
650.411	13784.48
650.763	13780.64
651.115	13890.02
651.467	13805.05
651.819	13886.17
652.171	13898.38
652.523	13792.62
652.875	13889.56
653.227	13855.44
653.578	13984.02
653.93	13910.35
654.282	13864.71
654.633	13812.28
654.985	13886.85
655.337	13847.76
655.688	13883.46
656.039	13929.79
656.391	13843.92
656.742	13925.72
657.094	13800.98
657.445	13978.15
657.796	13951.94
658.147	13879.39
658.498	13901.09
658.849	13928.89
659.2	13890.02
659.551	13846.18
659.902	13915.33
660.253	13897.7
660.604	13874.2
660.955	13859.51
661.306	13917.13
661.656	13883.01
662.007	13859.28
662.358	13934.53
662.708	14004.14
663.059	13911.71
663.409	13763.92
663.76	13916.46
664.11	13876.01
664.461	14012.95
664.811	13968.88
665.161	13930.92
665.511	13939.51
665.862	13939.28
666.212	13947.87
666.562	13949
666.912	13922.11
667.262	13843.92
667.612	13943.57
667.962	13934.08
668.312	13875.78
668.662	13976.34
669.011	13959.84
669.361	13880.98
669.711	13871.03
670.06	13917.59
670.41	13872.16
670.76	13865.84
671.109	13913.97
671.459	13902.9
671.808	13862.22
672.157	13897.47
672.507	13828.77
672.856	13744.48
673.205	13817.7
673.554	13795.56
673.904	13848.44
674.253	13871.26
674.602	13755.56
674.951	13591.94
675.3	13535.45
675.649	13782.45
675.998	13673.98
676.346	13725.05
676.695	13759.62
677.044	13601.66
677.393	13623.13
677.741	13630.14
678.09	13666.29
678.438	13670.81
678.787	13616.8
679.135	13702.22
679.484	13585.17
679.832	13627.88
680.181	13494.77
680.529	13593.07
680.877	13511.72
681.225	13463.81
681.573	13544.49
681.922	13390.59
682.27	13372.06
682.618	13379.3
682.966	13353.31
683.314	13426.75
683.661	13323.7
684.009	13240.09
684.357	13203.03
684.705	13243.93
685.053	13268.11
685.4	13203.93
685.748	13130.94
686.095	13040.32
686.443	13091.39
686.79	13053.88
687.138	13118.51
687.485	13050.72
687.832	12978.63
688.18	13018.17
688.527	12902.7
688.874	12956.26
689.221	12911.06
689.568	12849.37
689.915	12811.4
690.262	12785.41
690.609	12751.06
690.956	12712.42
691.303	12670.39
691.65	12585.19
691.997	12570.95
692.344	12555.81
692.69	12497.28
693.037	12574.57
693.383	12378.42
693.73	12315.14
694.077	12244.64
694.423	12310.4
694.769	12248.7
695.116	12170.51
695.462	12287.8
695.808	12112.21
696.155	12175.26
696.501	12085.77
696.847	12108.59
697.193	11927.81
697.539	12004.42
697.885	11894.36
698.231	11839.45
698.577	11841.03
698.923	11868.37
699.269	11741.6
699.614	11788.15
699.96	11669.06
700.306	11646.91
700.651	11567.59
700.997	11478.78
701.342	11548.61
701.688	11518.78
702.033	11448.05
702.379	11407.14
702.724	11391.78
703.069	11375.51
703.415	11224.1
703.76	11246.47
704.105	11288.73
704.45	11200.14
704.795	11198.56
705.14	11049.64
705.485	11100.71
705.83	11048.51
706.175	10974.39
706.52	10986.14
706.865	10869.08
707.209	10961.96
707.554	10827.27
707.899	10954.05
708.243	10815.52
708.588	10810.55
708.932	10755.18
709.277	10728.74
709.621	10761.74
709.966	10692.13
710.31	10720.61
710.654	10560.84
710.998	10624.79
711.342	10577.11
711.687	10574.62
712.031	10536.21
712.375	10392.48
712.719	10480.16
713.063	10496.89
713.407	10467.51
713.75	10474.96
714.094	10482.2
714.438	10392.03
714.782	10417.57
715.125	10342.99
715.469	10374.85
715.812	10322.43
716.156	10283.56
716.499	10233.39
716.843	10240.17
717.186	10249.21
717.53	10255.31
717.873	10255.08
718.216	10166.27
718.559	10164.69
718.902	10175.31
719.246	10145.48
719.589	10066.16
719.932	10034.3
720.275	10056.22
720.617	10049.44
720.96	10030.91
721.303	10078.59
721.646	10034.75
721.989	9930.12
722.331	10052.15
722.674	9939.61
723.016	10003.79
723.359	9951.14
723.701	9965.6
724.044	9903.45
724.386	9806.73
724.729	9928.76
725.071	9932.15
725.413	9925.15
725.755	9900.52
726.097	9823.68
726.439	9805.6
726.782	9817.58
727.124	9865.94
727.465	9777.36
727.807	9804.7
728.149	9749.33
728.491	9776.23
728.833	9838.15
729.175	9770.35
729.516	9742.1
729.858	9764.93
730.199	9731.03
730.541	9758.37
730.882	9727.41
731.224	9740.52
731.565	9671.14
731.906	9740.97
732.248	9696.23
732.589	9651.48
732.93	9658.94
733.271	9669.56
733.612	9657.13
733.953	9769.9
734.294	9704.82
734.635	9713.85
734.976	9705.27
735.317	9663.69
735.658	9742.1
735.999	9732.39
736.339	9674.31
736.68	9679.96
737.021	9742.78
737.361	9678.38
737.702	9788.66
738.042	9676.57
738.383	9722.22
738.723	9745.27
739.063	9736.68
739.404	9824.81
739.744	9772.84
740.084	9763.57
740.424	9807.41
740.764	9776.9
741.104	9799.73
741.444	9793.85
741.784	9860.52
742.124	9898.26
742.464	9922.89
742.804	9881.76
743.143	9857.58
743.483	9865.04
743.823	9886.51
744.162	9917.24
744.502	10009.21
744.841	9935.09
745.181	10045.6
745.52	10127.4
745.86	10073.85
746.199	10108.19
746.538	10130.34
746.877	10237
747.216	10262.31
747.556	10299.15
747.895	10352.93
748.234	10298.02
748.573	10420.95
748.911	10431.35
749.25	10529.88
749.589	10495.98
749.928	10617.79
750.267	10764
750.605	10764.9
750.944	10945.69
751.283	10948.62
751.621	11020.26
751.96	11153.59
752.298	11228.84
752.636	11290.99
752.975	11374.83
753.313	11431.1
753.651	11541.15
753.989	11714.25
754.327	11833.8
754.666	11813.46
755.004	12004.42
755.342	12071.31
755.679	12262.71
756.017	12366.89
756.355	12504.74
756.693	12667.68
757.031	12883.26
757.368	12883.94
