Data from hue_240_FLMS001491_00093.txt Node
Date: Tue Feb 07 16:36:11 GMT 2017
User: dcchb
Spectrometer: FLMS00149
Trigger mode: 0
Integration Time (sec): 2.000000E-2
Scans to average: 10
Electric dark correction enabled: true
Nonlinearity correction enabled: false
Boxcar width: 0
XAxis mode: Wavelengths
Number of Pixels in Spectrum: 2048
>>>>>Begin Spectral Data<<<<<
341.393	-2.8
341.776	-2.8
342.16	-2.8
342.543	-44.6
342.927	-71.72
343.31	-69.69
343.693	-48.45
344.077	-56.58
344.46	-44.6
344.843	-48.67
345.226	-64.72
345.61	-31.5
345.993	-27.2
346.376	-4.83
346.759	-0.31
347.142	21.16
347.525	43.3
347.908	60.03
348.291	84.21
348.674	80.14
349.057	107.71
349.44	148.84
349.823	135.96
350.206	161.27
350.588	185
350.971	186.35
351.354	220.25
351.737	242.17
352.119	264.09
352.502	258.67
352.884	278.55
353.267	284.88
353.65	278.78
354.032	287.82
354.414	297.99
354.797	320.13
355.179	302.73
355.562	309.96
355.944	322.39
356.326	324.65
356.709	327.36
357.091	329.62
357.473	321.49
357.855	325.78
358.238	328.27
358.62	340.02
359.002	345.22
359.384	314.71
359.766	321.94
360.148	327.36
360.53	305.9
360.912	320.81
361.294	334.14
361.676	314.03
362.057	324.2
362.439	335.95
362.821	333.01
363.203	295.27
363.584	308.61
363.966	319.68
364.348	311.32
364.729	310.64
365.111	301.6
365.493	314.03
365.874	301.83
366.256	321.94
366.637	303.64
367.019	296.86
367.4	308.16
367.781	313.58
368.163	326.69
368.544	316.52
368.925	310.19
369.306	296.63
369.688	316.29
370.069	303.18
370.45	325.1
370.831	313.58
371.212	319.45
371.593	298.21
371.974	317.87
372.355	312.45
372.736	302.05
373.117	322.39
373.498	308.16
373.879	313.13
374.26	297.08
374.641	297.31
375.021	307.7
375.402	318.1
375.783	319.23
376.163	305.9
376.544	320.81
376.925	320.13
377.305	299.34
377.686	283.52
378.066	333.69
378.447	317.87
378.827	329.85
379.208	320.81
379.588	323.97
379.968	308.38
380.349	352.67
380.729	343.18
381.109	334.14
381.489	324.88
381.87	351.32
382.25	349.06
382.63	351.09
383.01	360.13
383.39	334.82
383.77	342.73
384.15	343.64
384.53	317.65
384.91	342.96
385.29	351.09
385.67	340.92
386.049	364.43
386.429	363.3
386.809	361.49
387.189	345.89
387.568	351.32
387.948	351.77
388.328	346.35
388.707	356.29
389.087	360.81
389.466	352.9
389.846	371.66
390.225	366.91
390.605	367.36
390.984	379.57
391.363	363.97
391.743	371.66
392.122	378.89
392.501	385.22
392.881	371.88
393.26	389.28
393.639	379.79
394.018	396.97
394.397	374.37
394.776	383.63
395.155	364.88
395.534	385.89
395.913	394.71
396.292	387.93
396.671	380.02
397.05	391.77
397.429	406.23
397.808	390.19
398.186	403.52
398.565	410.07
398.944	394.03
399.323	398.77
399.701	406.46
400.08	418.21
400.458	406.01
400.837	427.93
401.215	408.27
401.594	426.57
401.972	413.92
402.351	433.58
402.729	425.67
403.107	416.4
403.486	427.93
403.864	410.98
404.242	420.92
404.62	437.42
404.999	444.2
405.377	460.69
405.755	460.69
406.133	432.67
406.511	446.91
406.889	460.69
407.267	477.87
407.645	457.08
408.023	487.59
408.401	469.28
408.779	480.81
409.156	508.6
409.534	507.92
409.912	491.43
410.29	485.78
410.667	516.96
411.045	501.15
411.422	512.22
411.8	521.26
412.178	546.57
412.555	530.52
412.933	529.17
413.31	542.95
413.687	547.7
414.065	574.14
414.442	582.72
414.819	571.43
415.197	612.33
415.574	591.09
415.951	586.34
416.328	571.88
416.705	591.09
417.082	597.19
417.46	602.61
417.837	618.43
418.214	621.59
418.591	626.57
418.967	632.67
419.344	637.41
419.721	644.19
420.098	645.1
420.475	666.34
420.852	669.05
421.228	664.08
421.605	687.81
421.982	714.47
422.358	707.92
422.735	715.83
423.111	726.45
423.488	730.52
423.864	733.23
424.241	756.96
424.617	750.86
424.994	765.54
425.37	797.63
425.746	784.08
426.123	794.7
426.499	811.19
426.875	784.53
427.251	815.94
427.627	841.48
428.003	823.85
428.379	853.9
428.756	866.33
429.132	867.69
429.507	873.11
429.883	873.34
430.259	901.81
430.635	893.45
431.011	929.16
431.387	951.53
431.763	918.31
432.138	943.85
432.514	945.65
432.89	971.19
433.265	993.11
433.641	1000.57
434.016	1024.3
434.392	1010.28
434.767	1037.63
435.143	1046.22
435.518	1059.77
435.894	1097.29
436.269	1104.97
436.644	1119.43
437.02	1119.89
437.395	1161.01
437.77	1160.34
438.145	1170.28
438.52	1168.02
438.895	1212.09
439.271	1229.94
439.646	1269.94
440.021	1276.27
440.395	1269.26
440.77	1254.12
441.145	1295.25
441.52	1282.59
441.895	1299.99
442.27	1299.54
442.645	1328.24
443.019	1355.36
443.394	1369.14
443.769	1340.67
444.143	1358.07
444.518	1387
444.892	1347.68
445.267	1405.08
445.641	1417.28
446.016	1390.84
446.39	1455.02
446.764	1441.46
447.139	1431.52
447.513	1449.82
447.887	1501.12
448.262	1508.12
448.636	1475.13
449.01	1504.06
449.384	1492.76
449.758	1518.29
450.132	1539.54
450.506	1545.41
450.88	1560.55
451.254	1562.59
451.628	1586.77
452.002	1588.8
452.376	1607.1
452.75	1637.16
453.123	1659.76
453.497	1674.45
453.871	1645.07
454.244	1688.68
454.618	1692.3
454.992	1726.65
455.365	1723.71
455.739	1777.72
456.112	1786.08
456.486	1781.34
456.859	1826.76
457.232	1836.93
457.606	1834.9
457.979	1866.31
458.352	1905.63
458.725	1935.91
459.099	1957.15
459.472	1971.84
459.845	1973.42
460.218	1995.57
460.591	2000.09
460.964	2009.13
461.337	2068.56
461.71	2087.54
462.083	2110.37
462.456	2109.69
462.829	2109.01
463.201	2195.79
463.574	2152.4
463.947	2192.4
464.32	2260.42
464.692	2257.71
465.065	2256.35
465.438	2264.04
465.81	2319.18
466.183	2341.77
466.555	2403.02
466.928	2397.37
467.3	2358.27
467.672	2444.37
468.045	2510.58
468.417	2494.76
468.789	2529.34
469.161	2538.61
469.534	2603.46
469.906	2631.48
470.278	2670.58
470.65	2680.07
471.022	2729.56
471.394	2765.04
471.766	2755.32
472.138	2815.89
472.51	2859.5
472.882	2910.57
473.253	2930.23
473.625	2973.85
473.997	3024.02
474.369	3026.73
474.74	3070.79
475.112	3113.96
475.484	3120.51
475.855	3209.55
476.227	3238.47
476.598	3348.53
476.97	3345.36
477.341	3407.74
477.713	3426.49
478.084	3457.45
478.455	3506.26
478.827	3546.26
479.198	3672.59
479.569	3687.5
479.94	3779.93
480.311	3804.11
480.682	3879.14
481.053	3924.56
481.424	4035.06
481.795	4028.74
482.166	4074.84
482.537	4111.67
482.908	4216.98
483.279	4212.23
483.65	4296.07
484.021	4409.74
484.391	4428.95
484.762	4473.24
485.133	4468.72
485.503	4469.63
485.874	4601.15
486.244	4713.01
486.615	4708.04
486.985	4755.5
487.356	4812.44
487.726	4834.14
488.097	4994.59
488.467	5011.31
488.837	5062.83
489.207	5137.86
489.578	5184.86
489.948	5229.61
490.318	5265.54
490.688	5283.62
491.058	5354.58
491.428	5443.84
491.798	5497.62
492.168	5582.82
492.538	5535.36
492.908	5604.29
493.278	5700.78
493.648	5760.22
494.017	5742.14
494.387	5798.41
494.757	5837.28
495.126	5892.42
495.496	5881.79
495.866	5962.24
496.235	6035.91
496.605	6042.69
496.974	6070.26
497.344	6155.23
497.713	6186.42
498.082	6192.29
498.452	6246.3
498.821	6243.59
499.19	6296.47
499.559	6307.32
499.928	6364.72
500.298	6374.89
500.667	6433.87
501.036	6461.67
501.405	6442.23
501.774	6492.17
502.143	6566.52
502.512	6563.81
502.88	6628.22
503.249	6653.98
503.618	6629.57
503.987	6668.44
504.356	6705.95
504.724	6677.71
505.093	6731.94
505.462	6766.74
505.83	6819.17
506.199	6860.3
506.567	6896.23
506.936	6934.2
507.304	6959.51
507.672	6938.49
508.041	6983.23
508.409	7099.62
508.777	7068.66
509.145	7084.25
509.514	7060.97
509.882	7117.47
510.25	7135.09
510.618	7180.74
510.986	7214.19
511.354	7177.81
511.722	7269.55
512.09	7285.15
512.458	7333.96
512.826	7324.69
513.193	7367.63
513.561	7329.21
513.929	7474.07
514.297	7452.83
514.664	7505.93
515.032	7495.54
515.4	7542.99
515.767	7540.28
516.135	7580.96
516.502	7557.23
516.869	7627.29
517.237	7629.77
517.604	7596.78
517.972	7598.81
518.339	7725.14
518.706	7740.73
519.073	7724.01
519.44	7751.8
519.808	7803.78
520.175	7778.24
520.542	7841.74
520.909	7842.87
521.276	7839.94
521.643	7877.45
522.009	7991.34
522.376	7921.29
522.743	7933.72
523.11	8041.51
523.477	8100.72
523.843	8016.88
524.21	8099.14
524.577	8145.01
524.943	8118.8
525.31	8195.86
525.676	8237.21
526.043	8262.3
526.409	8273.6
526.776	8332.13
527.142	8289.41
527.508	8291.67
527.874	8337.1
528.241	8341.84
528.607	8402.86
528.973	8428.85
529.339	8436.08
529.705	8486.92
530.071	8415.29
530.437	8495.06
530.803	8446.92
531.169	8495.96
531.535	8410.09
531.901	8503.65
532.267	8525.11
532.632	8509.97
532.998	8518.34
533.364	8562.85
533.73	8564.66
534.095	8567.15
534.461	8582.29
534.826	8571.44
535.192	8569.63
535.557	8642.4
535.923	8594.04
536.288	8622.51
536.653	8672.23
537.019	8579.58
537.384	8585.23
537.749	8605.79
538.114	8617.54
538.479	8592.01
538.845	8591.1
539.21	8632.23
539.575	8652.8
539.94	8620.93
540.305	8609.18
540.67	8575.51
541.034	8637.65
541.399	8586.13
541.764	8607.6
542.129	8589.97
542.494	8579.12
542.858	8576.41
543.223	8637.65
543.587	8629.29
543.952	8525.34
544.316	8561.05
544.681	8583.19
545.045	8606.24
545.41	8573.48
545.774	8617.99
546.138	8554.27
546.503	8588.62
546.867	8568.05
547.231	8594.72
547.595	8554.94
547.959	8588.62
548.324	8570.99
548.688	8598.11
549.052	8572.35
549.416	8588.62
549.779	8516.75
550.143	8534.15
550.507	8556.75
550.871	8588.62
551.235	8569.86
551.599	8665
551.962	8576.41
552.326	8577.54
552.689	8664.09
553.053	8578.22
553.417	8598.33
553.78	8632.91
554.143	8581.84
554.507	8545
554.87	8563.98
555.234	8636.3
555.597	8599.24
555.96	8602.85
556.323	8669.74
556.686	8629.97
557.05	8683.53
557.413	8707.93
557.776	8671.33
558.139	8662.51
558.502	8662.51
558.865	8711.55
559.228	8742.74
559.59	8779.57
559.953	8739.12
560.316	8821.83
560.679	8834.03
561.041	8846.24
561.404	8843.98
561.767	8909.96
562.129	8846.69
562.492	8956.52
562.854	8852.79
563.217	8901.15
563.579	8935.27
563.941	8897.76
564.304	8946.57
564.666	9012.11
565.028	8937.76
565.39	8992
565.753	9081.94
566.115	9149.28
566.477	9100.92
566.839	9107.02
567.201	9155.15
567.563	9181.59
567.925	9250.75
568.287	9179.79
568.648	9252.78
569.01	9170.3
569.372	9325.32
569.734	9275.15
570.095	9337.07
570.457	9370.52
570.819	9322.38
571.18	9407.8
571.542	9401.25
571.903	9420.46
572.265	9440.34
572.626	9516.05
572.987	9482.83
573.349	9551.53
573.71	9568.25
574.071	9529.61
574.432	9516.95
574.794	9644.18
575.155	9606.44
575.516	9615.71
575.877	9678.76
576.238	9716.5
576.599	9766.21
576.96	9675.59
577.32	9726.67
577.681	9739.55
578.042	9757.4
578.403	9801.24
578.763	9821.35
579.124	9866.55
579.485	9893.89
579.845	9932.31
580.206	9876.72
580.566	9832.88
580.927	9970.27
581.287	10006.88
581.648	9886.43
582.008	9905.87
582.368	9956.04
582.728	9934.57
583.089	9985.64
583.449	10017.05
583.809	9936.15
584.169	10033.78
584.529	9981.12
584.889	10100.44
585.249	10074.45
585.609	10010.05
585.969	10097.28
586.329	10045.75
586.688	10083.27
587.048	10077.62
587.408	10078.29
587.768	10022.93
588.127	10116.94
588.487	10047.11
588.846	10185.86
589.206	10101.8
589.565	10120.1
589.925	10192.87
590.284	10160.78
590.643	10089.37
591.003	10205.07
591.362	10203.49
591.721	10141.34
592.08	10149.93
592.44	10141.8
592.799	10242.13
593.158	10166.43
593.517	10201.23
593.876	10250.49
594.235	10182.92
594.593	10239.19
594.952	10248.01
595.311	10142.47
595.67	10264.28
596.029	10281.68
596.387	10319.19
596.746	10243.94
597.104	10295.01
597.463	10243.94
597.822	10248.46
598.18	10273.77
598.538	10261.79
598.897	10312.86
599.255	10242.13
599.613	10468.79
599.972	10301.11
600.33	10319.42
600.688	10327.78
601.046	10419.75
601.404	10402.58
601.762	10387.66
602.12	10373.2
602.478	10378.4
602.836	10439.64
603.194	10424.27
603.552	10412.52
603.91	10313.09
604.268	10415.01
604.625	10362.58
604.983	10399.42
605.341	10310.83
605.698	10494.1
606.056	10511.28
606.413	10440.09
606.771	10481.22
607.128	10535.23
607.485	10436.7
607.843	10504.95
608.2	10562.8
608.557	10491.39
608.914	10457.27
609.272	10556.47
609.629	10584.72
609.986	10575
610.343	10563.93
610.7	10624.72
611.057	10596.25
611.414	10625.4
611.771	10584.95
612.127	10575.68
612.484	10642.12
612.841	10626.98
613.198	10646.19
613.554	10607.55
613.911	10656.13
614.267	10645.51
614.624	10658.39
614.98	10673.98
615.337	10697.71
615.693	10681.89
616.05	10704.72
616.406	10764.83
616.762	10700.42
617.118	10778.84
617.475	10742.91
617.831	10661.1
618.187	10791.27
618.543	10728.45
618.899	10855.22
619.255	10829.46
619.611	10822.23
619.967	10769.58
620.323	10833.98
620.678	10827.65
621.034	10780.2
621.39	10752.4
621.746	10775.9
622.101	10839.18
622.457	10769.58
622.812	10853.19
623.168	10792.63
623.523	10840.76
623.879	10791.95
624.234	10770.03
624.589	10799.63
624.945	10812.74
625.3	10840.08
625.655	10889.57
626.01	10819.74
626.365	10753.08
626.72	10771.84
627.075	10755.11
627.43	10819.29
627.785	10756.02
628.14	10847.99
628.495	10859.29
628.85	10758.73
629.205	10781.78
629.559	10718.05
629.914	10698.62
630.269	10655
630.623	10741.33
630.978	10702.01
631.332	10737.03
631.687	10753.3
632.041	10612.97
632.396	10766.64
632.75	10676.24
633.104	10677.6
633.459	10616.13
633.813	10627.66
634.167	10606.42
634.521	10599.64
634.875	10615.68
635.229	10591.5
635.583	10593.99
635.937	10533.2
636.291	10594.21
636.645	10497.27
636.999	10482.13
637.352	10509.24
637.706	10445.74
638.06	10488.9
638.413	10408
638.767	10452.75
639.121	10469.47
639.474	10371.39
639.828	10425.86
640.181	10433.31
640.534	10431.05
640.888	10371.17
641.241	10365.74
641.594	10403.03
641.947	10386.31
642.301	10327.55
642.654	10361
643.007	10304.73
643.36	10310.83
643.713	10350.6
644.066	10305.63
644.419	10263.15
644.771	10239.65
645.124	10170.04
645.477	10135.69
645.83	10082.36
646.182	10002.82
646.535	9956.49
646.888	9946.32
647.24	9897.51
647.593	9942.48
647.945	9884.4
648.298	9919.65
648.65	9853.67
649.002	9859.32
649.355	9962.59
649.707	9904.97
650.059	9949.26
650.411	9979.77
650.763	9998.97
651.115	10101.34
651.467	10099.08
651.819	10125.3
652.171	10137.28
652.523	10053.21
652.875	10119.42
653.227	10035.36
653.578	10066.09
653.93	10136.15
654.282	10003.95
654.633	10001.46
654.985	10038.07
655.337	10066.54
655.688	10031.74
656.039	10067
656.391	10017.5
656.742	10073.55
657.094	10007.79
657.445	10028.35
657.796	10071.97
658.147	10027.22
658.498	10055.7
658.849	10060.44
659.2	10018.18
659.551	10003.04
659.902	10108.35
660.253	10072.64
660.604	10026.77
660.955	10046.43
661.306	10019.76
661.656	10077.39
662.007	10053.21
662.358	10026.77
662.708	10029.03
663.059	10047.79
663.409	9970.73
663.76	10079.65
664.11	10045.53
664.461	10074
664.811	10012.76
665.161	10054.79
665.511	10000.33
665.862	9970.27
666.212	10040.1
666.562	10075.36
666.912	10039.43
667.262	9967.34
667.612	10029.03
667.962	10027.45
668.312	9975.47
668.662	10095.02
669.011	10050.27
669.361	9936.38
669.711	9987.9
670.06	9999.88
670.41	9917.85
670.76	9947.68
671.109	9930.95
671.459	9969.37
671.808	10022.25
672.157	10047.33
672.507	9925.08
672.856	9845.31
673.205	9857.74
673.554	9954
673.904	9879.2
674.253	9894.34
674.602	9944.06
674.951	9760.11
675.3	9693.9
675.649	9885.53
675.998	9838.3
676.346	9883.5
676.695	9846.66
677.044	9766.21
677.393	9810.73
677.741	9824.06
678.09	9831.07
678.438	9788.13
678.787	9824.97
679.135	9794.01
679.484	9709.04
679.832	9765.76
680.181	9690.51
680.529	9761.69
680.877	9703.39
681.225	9694.58
681.573	9700.45
681.922	9628.59
682.27	9572.54
682.618	9594.01
682.966	9597.63
683.314	9621.58
683.661	9594.69
684.009	9479.21
684.357	9581.13
684.705	9485.09
685.053	9532.32
685.4	9506.56
685.748	9462.94
686.095	9426.11
686.443	9434.7
686.79	9396.28
687.138	9452.32
687.485	9385.88
687.832	9308.15
688.18	9320.57
688.527	9280.12
688.874	9285.55
689.221	9208.49
689.568	9231.08
689.915	9186.11
690.262	9206.68
690.609	9123.97
690.956	9116.29
691.303	9079.22
691.65	9082.61
691.997	9105.89
692.344	9018.21
692.69	8970.3
693.037	8987.7
693.383	8905.44
693.73	8923.07
694.077	8854.82
694.423	8849.17
694.769	8849.4
695.116	8774.83
695.462	8787.03
695.808	8775.05
696.155	8771.66
696.501	8676.3
696.847	8719.23
697.193	8658.44
697.539	8679.01
697.885	8511.33
698.231	8563.31
698.577	8577.99
698.923	8560.14
699.269	8443.76
699.614	8489.18
699.96	8473.82
700.306	8414.84
700.651	8382.75
700.997	8305.46
701.342	8379.13
701.688	8328.28
702.033	8231.34
702.379	8288.06
702.724	8223.88
703.069	8218.68
703.415	8153.6
703.76	8132.58
704.105	8129.42
704.45	8151.34
704.795	8084
705.14	8084.22
705.485	8071.12
705.83	7959.25
706.175	7994.96
706.52	7995.19
706.865	7968.29
707.209	7954.28
707.554	7923.77
707.899	7930.55
708.243	7886.94
708.588	7854.85
708.932	7867.73
709.277	7817.79
709.621	7840.61
709.966	7710.67
710.31	7816.66
710.654	7665.25
710.998	7719.71
711.342	7691.46
711.687	7667.74
712.031	7634.97
712.375	7557.46
712.719	7675.19
713.063	7601.75
713.407	7604.24
713.75	7585.03
714.094	7557.23
714.438	7531.47
714.782	7498.93
715.125	7443.79
715.469	7516.33
715.812	7447.4
716.156	7370.34
716.499	7424.35
716.843	7399.95
717.186	7401.53
717.53	7387.07
717.873	7421.87
718.216	7397.69
718.559	7382.77
718.902	7365.6
719.246	7384.81
719.589	7313.4
719.932	7345.48
720.275	7308.88
720.617	7308.42
720.96	7297.58
721.303	7243.34
721.646	7275.88
721.989	7248.99
722.331	7284.47
722.674	7246.73
723.016	7284.47
723.359	7238.59
723.701	7275.43
724.044	7173.29
724.386	7184.36
724.729	7188.88
725.071	7196.79
725.413	7163.79
725.755	7177.81
726.097	7077.47
726.439	7057.13
726.782	7119.5
727.124	7136.68
727.465	7103.23
727.807	7080.86
728.149	7098.03
728.491	7035.21
728.833	7073.63
729.175	7087.19
729.516	6996.57
729.858	7058.71
730.199	7059.39
730.541	7005.15
730.882	7038.6
731.224	7046.74
731.565	7022.1
731.906	7052.84
732.248	7049
732.589	6984.59
732.93	6940.52
733.271	6977.13
733.612	6985.49
733.953	7066.85
734.294	7006.28
734.635	7039.28
734.976	7021.2
735.317	6980.75
735.658	7012.39
735.999	6969.9
736.339	6987.3
736.68	7051.03
737.021	7055.32
737.361	6910.92
737.702	6996.12
738.042	6981.88
738.383	6972.61
738.723	6936.68
739.063	6926.06
739.404	7010.13
739.744	7021.2
740.084	6985.95
740.424	7025.95
740.764	6999.05
741.104	7021.65
741.444	6967.19
741.784	7058.49
742.124	7031.59
742.464	7004.48
742.804	7010.58
743.143	7008.77
743.483	7001.54
743.823	7038.15
744.162	7071.59
744.502	7114.76
744.841	7043.35
745.181	7144.36
745.52	7096.45
745.86	7142.1
746.199	7162.89
746.538	7175.09
746.877	7265.71
747.216	7273.4
747.556	7215.32
747.895	7277.01
748.234	7302.32
748.573	7324.47
748.911	7352.04
749.25	7312.04
749.589	7445.6
749.928	7459.38
750.267	7470
750.605	7502.77
750.944	7590
751.283	7624.57
751.621	7685.14
751.96	7696.66
752.298	7724.23
752.636	7750.22
752.975	7846.26
753.313	7917.67
753.651	8018.24
753.989	8007.84
754.327	8058.23
754.666	8080.83
755.004	8235.63
755.342	8290.32
755.679	8321.05
756.017	8452.35
756.355	8535.28
756.693	8545.45
757.031	8638.78
757.368	8662.06
757.706	8773.7
758.044	8834.71
758.381	8974.14
758.719	9043.29
759.056	9171.88
759.394	9194.25
759.731	9263.63
760.068	9360.57
760.405	9427.01
760.743	9563.96
761.08	9636.27
761.417	9669.94
761.754	9845.08
762.091	9851.63
762.428	9915.59
762.765	10033.78
763.102	10161.23
763.438	10210.04
763.775	10304.28
764.112	10397.61
764.449	10497.49
764.785	10533.65
765.122	10510.83
