Data from hue_00_FLMS001491_76.txt Node
Date: Mon Feb 06 15:30:12 GMT 2017
User: dcchb
Spectrometer: FLMS00149
Trigger mode: 0
Integration Time (sec): 2.000000E-2
Scans to average: 10
Electric dark correction enabled: true
Nonlinearity correction enabled: false
Boxcar width: 0
XAxis mode: Wavelengths
Number of Pixels in Spectrum: 2048
>>>>>Begin Spectral Data<<<<<
341.393	0.72
341.776	0.72
342.16	0.72
342.543	-43.35
342.927	-57.13
343.31	-67.53
343.693	-82.67
344.077	-82.22
344.46	-51.93
344.843	-58.94
345.226	-39.5
345.61	-19.17
345.993	-17.58
346.376	-6.51
346.759	0.27
347.142	45.01
347.525	42.53
347.908	75.52
348.291	93.6
348.674	71.45
349.057	97.67
349.44	114.16
349.823	139.02
350.206	181.96
350.588	196.65
350.971	207.27
351.354	216.99
351.737	247.27
352.119	240.94
352.502	258.79
352.884	282.29
353.267	268.28
353.65	293.59
354.032	304.44
354.414	301.28
354.797	303.31
355.179	332.69
355.562	318.45
355.944	318.9
356.326	335.17
356.709	320.26
357.091	333.14
357.473	343.08
357.855	324.33
358.238	336.53
358.62	324.78
359.002	334.27
359.384	341.28
359.766	340.6
360.148	327.72
360.53	314.84
360.912	326.59
361.294	324.33
361.676	310.32
362.057	330.88
362.439	361.61
362.821	314.16
363.203	319.81
363.584	347.38
363.966	317.32
364.348	310.32
364.729	324.33
365.111	312.35
365.493	311.22
365.874	316.19
366.256	321.84
366.637	329.75
367.019	311.22
367.4	292.92
367.781	310.32
368.163	326.81
368.544	302.18
368.925	297.21
369.306	326.81
369.688	317.1
370.069	292.92
370.45	293.59
370.831	303.09
371.212	306.7
371.593	310.32
371.974	312.58
372.355	285.68
372.736	296.98
373.117	322.29
373.498	305.57
373.879	295.63
374.26	311.45
374.641	293.37
375.021	300.6
375.402	308.73
375.783	314.61
376.163	324.1
376.544	308.96
376.925	315.74
377.305	315.06
377.686	322.75
378.066	314.61
378.447	312.12
378.827	324.33
379.208	317.32
379.588	297.66
379.968	335.85
380.349	326.81
380.729	335.63
381.109	327.04
381.489	327.94
381.87	328.17
382.25	316.42
382.63	317.77
383.01	345.8
383.39	328.62
383.77	324.1
384.15	355.74
384.53	334.5
384.91	328.85
385.29	334.27
385.67	345.34
386.049	342.86
386.429	324.78
386.809	331.11
387.189	345.57
387.568	338.11
387.948	333.14
388.328	342.41
388.707	341.28
389.087	332.69
389.466	333.82
389.846	352.8
390.225	367.26
390.605	326.14
390.984	361.39
391.363	339.92
391.743	353.93
392.122	352.58
392.501	326.36
392.881	355.74
393.26	346.02
393.639	365.91
394.018	376.53
394.397	370.2
394.776	359.81
395.155	346.02
395.534	344.44
395.913	360.03
396.292	361.84
396.671	355.74
397.05	365.68
397.429	361.16
397.808	367.04
398.186	367.72
398.565	367.26
398.944	380.15
399.323	382.86
399.701	361.84
400.08	380.82
400.458	357.32
400.837	355.29
401.215	373.82
401.594	376.3
401.972	358.68
402.351	385.12
402.729	377.66
403.107	360.03
403.486	398.45
403.864	404.1
404.242	383.54
404.62	372.46
404.999	403.2
405.377	391.67
405.755	396.64
406.133	409.07
406.511	400.71
406.889	395.29
407.267	396.87
407.645	413.36
408.023	416.3
408.401	399.35
408.779	382.63
409.156	418.34
409.534	426.47
409.912	408.62
410.29	408.85
410.667	422.63
411.045	418.56
411.422	415.85
411.8	433.7
412.178	416.08
412.555	442.52
412.933	433.25
413.31	437.09
413.687	466.02
414.065	440.03
414.442	421.73
414.819	443.87
415.197	442.52
415.574	442.52
415.951	452.01
416.328	467.15
416.705	473.93
417.082	455.17
417.46	453.59
417.837	440.26
418.214	476.64
418.591	478.67
418.967	464.44
419.344	474.15
419.721	477.09
420.098	473.02
420.475	478
420.852	463.76
421.228	481.39
421.605	504.21
421.982	483.19
422.358	520.71
422.735	493.14
423.111	502.18
423.488	516.86
423.864	523.42
424.241	490.88
424.617	520.03
424.994	501.5
425.37	514.83
425.746	541.5
426.123	509.18
426.499	525.9
426.875	524.1
427.251	531.33
427.627	550.76
428.003	543.98
428.379	541.05
428.756	549.86
429.132	563.42
429.507	558.9
429.883	554.15
430.259	562.74
430.635	558.22
431.011	562.06
431.387	592.57
431.763	593.7
432.138	573.59
432.514	614.26
432.89	587.6
433.265	618.56
433.641	606.58
434.016	598.22
434.392	615.17
434.767	620.37
435.143	622.17
435.518	607.48
435.894	642.74
436.269	645.45
436.644	640.25
437.02	635.96
437.395	633.25
437.77	658.78
438.145	669.18
438.52	645.22
438.895	646.13
439.271	657.43
439.646	664.43
440.021	679.12
440.395	666.01
440.77	669.4
441.145	681.83
441.52	703.53
441.895	693.36
442.27	697.2
442.645	681.83
443.019	684.09
443.394	683.87
443.769	722.28
444.143	699.01
444.518	710.31
444.892	713.02
445.267	704.2
445.641	706.92
446.016	729.51
446.39	695.39
446.764	727.48
447.139	725
447.513	727.71
447.887	737.88
448.262	730.87
448.636	764.77
449.01	744.88
449.384	761.15
449.758	770.19
450.132	752.56
450.506	754.37
450.88	757.54
451.254	763.64
451.628	763.64
452.002	759.12
452.376	773.81
452.75	777.2
453.123	797.99
453.497	814.71
453.871	803.86
454.244	802.96
454.618	795.73
454.992	819.23
455.365	846.12
455.739	812.45
456.112	822.62
456.486	820.36
456.859	833.92
457.232	863.07
457.606	847.03
457.979	861.49
458.352	885.44
458.725	880.02
459.099	875.95
459.472	903.3
459.845	892.9
460.218	908.27
460.591	939.45
460.964	940.58
461.337	941.49
461.71	946.68
462.083	972.22
462.456	963.63
462.829	969.06
463.201	961.82
463.574	976.51
463.947	982.62
464.32	1002.73
464.692	1017.42
465.065	1003.18
465.438	1021.71
465.81	1049.96
466.183	1059
466.555	1059.68
466.928	1057.64
467.3	1080.24
467.672	1098.54
468.045	1127.92
468.417	1110.75
468.789	1134.48
469.161	1137.41
469.534	1160.01
469.906	1154.36
470.278	1178.32
470.65	1166.11
471.022	1224.19
471.394	1219.9
471.766	1236.39
472.138	1253.79
472.51	1284.3
472.882	1279.78
473.253	1263.96
473.625	1360.01
473.997	1334.7
474.369	1357.97
474.74	1346
475.112	1393
475.484	1428.25
475.855	1452.66
476.227	1461.02
476.598	1521.13
476.97	1499.89
477.341	1527.69
477.713	1571.53
478.084	1553.9
478.455	1630.06
478.827	1614.24
479.198	1661.69
479.569	1680.9
479.94	1712.31
480.311	1746.66
480.682	1768.81
481.053	1805.19
481.424	1840.22
481.795	1845.19
482.166	1895.36
482.537	1922.25
482.908	1974.68
483.279	1989.14
483.65	2025.98
484.021	2082.7
484.391	2072.98
484.762	2105.98
485.133	2117.73
485.503	2168.35
485.874	2225.75
486.244	2233.88
486.615	2277.72
486.985	2325.63
487.356	2357.27
487.726	2392.97
488.097	2495.8
488.467	2450.6
488.837	2500.99
489.207	2525.85
489.578	2565.4
489.948	2616.02
490.318	2625.28
490.688	2669.12
491.058	2705.28
491.428	2721.1
491.798	2775.34
492.168	2814.43
492.538	2832.28
492.908	2865.05
493.278	2909.57
493.648	2913.41
494.017	2977.14
494.387	3003.81
494.757	3034.09
495.126	3055.78
495.496	3041.77
495.866	3105.5
496.235	3126.06
496.605	3126.51
496.974	3166.96
497.344	3236.79
497.713	3247.41
498.082	3245.83
498.452	3276.34
498.821	3287.41
499.19	3322.67
499.559	3332.38
499.928	3373.51
500.298	3385.49
500.667	3420.97
501.036	3404.47
501.405	3426.62
501.774	3465.04
502.143	3481.08
502.512	3494.41
502.88	3567.41
503.249	3557.91
503.618	3552.49
503.987	3614.41
504.356	3602.43
504.724	3642.66
505.093	3644.24
505.462	3617.12
505.83	3663.45
506.199	3676.56
506.567	3749.77
506.936	3717.23
507.304	3740.51
507.672	3750.45
508.041	3804.01
508.409	3792.03
508.777	3822.77
509.145	3861.86
509.514	3825.93
509.882	3874.97
510.25	3891.69
510.618	3926.27
510.986	3936.44
511.354	3955.64
511.722	4002.42
512.09	3972.82
512.458	3997.9
512.826	4022.31
513.193	3998.58
513.561	4043.55
513.929	4034.74
514.297	4072.93
514.664	4126.26
515.032	4072.7
515.4	4121.74
515.767	4111.35
516.135	4171.68
516.502	4111.12
516.869	4182.08
517.237	4187.05
517.604	4163.1
517.972	4221.63
518.339	4234.06
518.706	4219.59
519.073	4227.28
519.44	4241.96
519.808	4263.66
520.175	4298.01
520.542	4307.05
520.909	4297.33
521.276	4307.73
521.643	4334.84
522.009	4359.48
522.376	4419.59
522.743	4411.23
523.11	4429.3
523.477	4440.6
523.843	4448.29
524.21	4436.08
524.577	4542.52
524.943	4521.28
525.31	4525.12
525.676	4578.45
526.043	4631.56
526.409	4594.27
526.776	4679.69
527.142	4664.55
527.508	4691.67
527.874	4730.99
528.241	4740.03
528.607	4742.52
528.973	4776.64
529.339	4780.26
529.705	4809.63
530.071	4836.3
530.437	4892.34
530.803	4867.71
531.169	4900.03
531.535	4910.42
531.901	4903.87
532.267	4930.08
532.632	4947.48
532.998	5032.45
533.364	5020.02
533.73	5053.69
534.095	5034.94
534.461	5079.23
534.826	5138.89
535.192	5096.86
535.557	5167.14
535.923	5129.17
536.288	5158.78
536.653	5187.02
537.019	5231.09
537.384	5208.04
537.749	5212.79
538.114	5222.5
538.479	5317.42
538.845	5309.96
539.21	5354.48
539.575	5343.18
539.94	5363.97
540.305	5417.08
540.67	5383.4
541.034	5408.49
541.399	5395.15
541.764	5461.59
542.129	5500.24
542.494	5473.34
542.858	5509.73
543.223	5528.03
543.587	5587.92
543.952	5554.92
544.316	5583.62
544.681	5645.09
545.045	5648.03
545.41	5637.41
545.774	5683.06
546.138	5750.85
546.503	5744.52
546.867	5740.91
547.231	5830.85
547.595	5783.39
547.959	5841.02
548.324	5867.23
548.688	5852.54
549.052	5841.02
549.416	5936.84
549.779	5914.46
550.143	5983.16
550.507	5983.16
550.871	5977.96
551.235	5969.83
551.599	6013.22
551.962	6013.9
552.326	6020.22
552.689	6065.65
553.053	6032.43
553.417	6085.76
553.78	6196.04
554.143	6099.54
554.507	6168.02
554.87	6176.6
555.234	6205.53
555.597	6189.26
555.96	6214.34
556.323	6269.93
556.686	6282.36
557.05	6276.49
557.413	6306.32
557.776	6328.92
558.139	6369.37
558.502	6398.29
558.865	6345.86
559.228	6437.16
559.59	6443.04
559.953	6438.07
560.316	6490.04
560.679	6531.85
561.041	6539.98
561.404	6576.59
561.767	6629.7
562.129	6526.65
562.492	6645.74
562.854	6615.91
563.217	6640.55
563.579	6619.98
563.941	6696.59
564.304	6687.1
564.666	6779.98
565.028	6722.35
565.39	6786.08
565.753	6790.37
566.115	6837.15
566.477	6796.47
566.839	6857.94
567.201	6958.96
567.563	6923.25
567.925	6953.08
568.287	6963.93
568.648	7006.64
569.01	7022.46
569.372	7095.68
569.734	7084.83
570.095	7136.35
570.457	7198.95
570.819	7157.14
571.18	7122.11
571.542	7270.81
571.903	7244.82
572.265	7293.41
572.626	7353.97
572.987	7342.22
573.349	7421.77
573.71	7459.73
574.071	7533.4
574.432	7577.7
574.794	7692.27
575.155	7726.17
575.516	7640.75
575.877	7753.28
576.238	7777.46
576.599	7920.51
576.96	8006.84
577.32	8041.64
577.681	8101.07
578.042	8159.83
578.403	8243.22
578.763	8301.29
579.124	8411.35
579.485	8473.94
579.845	8645.69
580.206	8668.29
580.566	8768.63
580.927	8903.09
581.287	9023.08
581.648	9124.77
582.008	9326.35
582.368	9371.1
582.728	9472.56
583.089	9628.04
583.449	9793.91
583.809	9893.12
584.169	10099.44
584.529	10214.92
584.889	10543.95
585.249	10568.58
585.609	10719.99
585.969	10961.79
586.329	11108.9
586.688	11284.27
587.048	11537.59
587.408	11790.69
587.768	11968.99
588.127	12137.8
588.487	12432.71
588.846	12737.11
589.206	12795.64
589.565	13043.32
589.925	13337.77
590.284	13596.07
590.643	13792
591.003	14164.87
591.362	14381.81
591.721	14684.18
592.08	14935.69
592.44	15225.63
592.799	15426.53
593.158	15672.85
593.517	15966.85
593.876	16266.96
594.235	16454.07
594.593	16876.21
594.952	17087.95
595.311	17282.53
595.67	17793.47
596.029	18061.04
596.387	18321.14
596.746	18721.58
597.104	18859.89
597.463	19064.85
597.822	19378.52
598.18	19699.41
598.538	19949.57
598.897	20343.01
599.255	20399.73
599.613	20975.31
599.972	21112.48
600.33	21383.89
600.688	21664.78
601.046	21893.25
601.404	22383.18
601.762	22529.85
602.12	22852.55
602.478	23104.97
602.836	23420.67
603.194	23561.46
603.552	23808.46
603.91	24149.46
604.268	24387.2
604.625	24572.28
604.983	24947.41
605.341	24947.86
605.698	25438.24
606.056	25615.41
606.413	25822.41
606.771	26229.86
607.128	26513.02
607.485	26453.81
607.843	26688.38
608.2	27074.81
608.557	27432.77
608.914	27392.09
609.272	27849.71
609.629	27972.64
609.986	28257.15
610.343	28339.64
610.7	28773.52
611.057	28820.75
611.414	28901.66
611.771	29194.08
612.127	29501.19
612.484	29738.02
612.841	29797.45
613.198	29915.87
613.554	30096.88
613.911	30413.25
614.267	30591.78
614.624	30579.8
614.98	30788.84
615.337	31200.13
615.693	31127.59
616.05	31287.81
616.406	31600.12
616.762	31628.59
617.118	31683.96
617.475	31862.03
617.831	32177.28
618.187	32302.47
618.543	32440.77
618.899	32724.61
619.255	32783.14
619.611	32825.17
619.967	33005.5
620.323	33125.73
620.678	33120.08
621.034	33177.7
621.39	33206.4
621.746	33327.75
622.101	33794.18
622.457	33571.36
622.812	33680.51
623.168	33848.64
623.523	33903.78
623.879	34098.58
624.234	33921.86
624.589	34170.22
624.945	34369.99
625.3	34317.11
625.655	34535.18
626.01	34489.31
626.365	34644.78
626.72	34683.42
627.075	34666.48
627.43	34705.34
627.785	34714.84
628.14	34836.64
628.495	34999.57
628.85	34827.6
629.205	34852.23
629.559	35207.93
629.914	35064.43
630.269	35213.81
630.623	34983.3
630.978	35068.72
631.332	35212.45
631.687	35410.18
632.041	35144.43
632.396	35320.92
632.75	35226.91
633.104	35402.28
633.459	35179.91
633.813	35283.63
634.167	35289.96
634.521	35245.22
634.875	35319.34
635.229	35397.53
635.583	35335.38
635.937	35177.65
636.291	35341.03
636.645	35317.76
636.999	35371.09
637.352	35386.68
637.706	35151.21
638.06	35289.96
638.413	35322.05
638.767	35284.76
639.121	35354.59
639.474	35204.31
639.828	35203.86
640.181	35324.76
640.534	35365.21
640.888	35261.71
641.241	35113.7
641.594	35254.48
641.947	35357.98
642.301	35273.47
642.654	35223.97
643.007	35137.2
643.36	35196.63
643.713	35156.41
644.066	35337.42
644.419	35148.04
644.771	34796.87
645.124	34592.58
645.477	34543.54
645.83	34421.96
646.182	34240.95
646.535	34116.43
646.888	34180.84
647.24	33966.38
647.593	34118.47
647.945	34058.81
648.298	33939.04
648.65	33900.62
649.002	33906.95
649.355	33945.36
649.707	33983.33
650.059	34085.25
650.411	34471.68
650.763	34502.41
651.115	34948.28
651.467	34832.35
651.819	34713.25
652.171	34693.59
652.523	34637.55
652.875	34617.89
653.227	34579.7
653.578	34822.86
653.93	34730.43
654.282	34487.27
654.633	34362.3
654.985	34618.57
655.337	34607.27
655.688	34701.5
656.039	34684.55
656.391	34399.59
656.742	34419.93
657.094	34398.23
657.445	34591.22
657.796	34433.71
658.147	34374.51
658.498	34508.29
658.849	34501.51
659.2	34400.95
659.551	34316.65
659.902	34506.93
660.253	34442.07
660.604	34376.54
660.955	34239.14
661.306	34493.6
661.656	34232.81
662.007	34397.1
662.358	34434.84
662.708	34338.35
663.059	34366.37
663.409	34195.98
663.76	34447.5
664.11	34269.2
664.461	34311
664.811	34380.38
665.161	34416.31
665.511	34301.29
665.862	34395.3
666.212	34371.79
666.562	34342.64
666.912	34426.03
667.262	34287.05
667.612	34399.14
667.962	34391
668.312	34280.95
668.662	34490.21
669.011	34241.85
669.361	34213.38
669.711	34230.33
670.06	34090.9
670.41	34080.73
670.76	34194.85
671.109	34193.27
671.459	34194.17
671.808	34112.14
672.157	34247.5
672.507	33987.62
672.856	34046.83
673.205	34029.66
673.554	34101.74
673.904	33898.13
674.253	34142.65
674.602	34053.84
674.951	33539.73
675.3	33427.41
675.649	33913.05
675.998	33941.97
676.346	33954.18
676.695	34046.15
677.044	33854.29
677.393	33911.92
677.741	33862.2
678.09	33877.34
678.438	33726.84
678.787	33846.61
679.135	33768.65
679.484	33586.96
679.832	33816.1
680.181	33564.36
680.529	33729.1
680.877	33546.73
681.225	33510.35
681.573	33699.5
681.922	33370.01
682.27	33337.47
682.618	33386.74
682.966	33364.36
683.314	33322.33
683.661	33254.76
684.009	33080.53
684.357	33104.48
684.705	32956.92
685.053	32977.03
685.4	32958.27
685.748	32806.86
686.095	32891.61
686.443	32835.56
686.79	32645.74
687.138	32826.98
687.485	32664.27
687.832	32522.13
688.18	32615.91
688.527	32520.32
688.874	32391.28
689.221	32280.55
689.568	32287.1
689.915	32224.96
690.262	32318.74
690.609	32162.59
690.956	32031.97
691.303	31971.18
691.65	31794.01
691.997	31839.21
692.344	31657.52
692.69	31624.52
693.037	31650.51
693.383	31400.35
693.73	31504.3
694.077	31419.56
694.423	31269.5
694.769	31161.71
695.116	31140.01
695.462	31088.72
695.808	30958.32
696.155	31034.03
696.501	30834.71
696.847	30735.05
697.193	30557.88
697.539	30689.4
697.885	30389.98
698.231	30379.58
698.577	30397.44
698.923	30241.06
699.269	30188.85
699.614	29977.33
699.96	30058.46
700.306	30010.55
700.651	29889.65
700.997	29843.33
701.342	29808.98
701.688	29743.89
702.033	29616.21
702.379	29705.02
702.724	29471.58
703.069	29462.77
703.415	29248.54
703.76	29274.98
704.105	29307.29
704.45	29107.07
704.795	28941.43
705.14	28871.83
705.485	29007.87
705.83	28831.15
706.175	28834.99
706.52	28809.45
706.865	28678.16
707.209	28672.06
707.554	28505.06
707.899	28660.76
708.243	28459.86
708.588	28492.85
708.932	28155.23
709.277	28249.92
709.621	28212.41
709.966	27964.05
710.31	28075.01
710.654	27825.07
710.998	27942.81
711.342	27834.34
711.687	27782.81
712.031	27711.86
712.375	27492.2
712.719	27695.81
713.063	27490.62
713.407	27665.76
713.75	27591.86
714.094	27511.18
714.438	27425.99
714.782	27307.57
715.125	27238.42
715.469	27283.62
715.812	27091.08
716.156	26989.62
716.499	27099.22
716.843	27069.39
717.186	26879.11
717.53	26980.12
717.873	26980.58
718.216	26862.16
718.559	26765.44
718.902	26549.63
719.246	26661.26
719.589	26603.64
719.932	26580.13
720.275	26467.37
720.617	26545.56
720.96	26404.77
721.303	26412
721.646	26346.24
721.989	26182.63
722.331	26353.7
722.674	26120.71
723.016	26242.97
723.359	26192.35
723.701	26206.13
724.044	25900.83
724.386	25931.56
724.729	25977.44
725.071	25867.61
725.413	25928.17
725.755	25862.64
726.097	25753.49
726.439	25696.32
726.782	25617.67
727.124	25737.22
727.465	25677.79
727.807	25553.72
728.149	25659.25
728.491	25455.64
728.833	25500.61
729.175	25369.32
729.516	25410.22
729.858	25348.08
730.199	25319.6
730.541	25243.9
730.882	25339.04
731.224	25194.86
731.565	25175.88
731.906	25087.29
732.248	25178.59
732.589	25001.64
732.93	24955.09
733.271	24877.13
733.612	25037.35
733.953	24971.14
734.294	24894.3
734.635	24859.05
734.976	24919.61
735.317	24758.04
735.658	24792.38
735.999	24765.27
736.339	24580.86
736.68	24754.42
737.021	24598.49
737.361	24531.15
737.702	24619.06
738.042	24533.63
738.383	24520.08
738.723	24555.78
739.063	24382.9
739.404	24469
739.744	24364.6
740.084	24349.46
740.424	24369.35
740.764	24252.06
741.104	24293.64
741.444	24180.88
741.784	24138.16
742.124	24138.84
742.464	24043.25
742.804	23964.38
743.143	23965.29
743.483	24048.45
743.823	23873.31
744.162	23920.32
744.502	23905.4
744.841	23798.29
745.181	23848.68
745.52	23799.42
745.86	23801.68
746.199	23707.44
746.538	23661.12
746.877	23727.78
747.216	23602.13
747.556	23599.42
747.895	23572.53
748.234	23528.01
748.573	23558.97
748.911	23540.67
749.25	23490.5
749.589	23278.3
749.928	23356.49
750.267	23384.96
750.605	23298.41
750.944	23260.22
751.283	23258.41
751.621	23231.75
751.96	23125.99
752.298	23093.67
752.636	23072.66
752.975	22904.07
753.313	22941.59
753.651	22971.42
753.989	22857.75
754.327	22817.75
754.666	22651.2
755.004	22806.45
755.342	22718.77
755.679	22723.51
756.017	22596.74
756.355	22615.27
756.693	22461.82
757.031	22530.98
757.368	22476.97
757.706	22506.34
758.044	22281.26
758.381	22354.71
758.719	22224.09
759.056	22308.83
759.394	22196.97
759.731	22024.1
760.068	22105.22
760.405	21872.01
760.743	21856.87
761.08	21953.82
