Data from hue_00_FLMS001491_59.txt Node
Date: Mon Feb 06 15:29:56 GMT 2017
User: dcchb
Spectrometer: FLMS00149
Trigger mode: 0
Integration Time (sec): 2.000000E-2
Scans to average: 10
Electric dark correction enabled: true
Nonlinearity correction enabled: false
Boxcar width: 0
XAxis mode: Wavelengths
Number of Pixels in Spectrum: 2048
>>>>>Begin Spectral Data<<<<<
341.393	-15.54
341.776	-15.54
342.16	-15.54
342.543	-52.6
342.927	-66.61
343.31	-61.86
343.693	-65.25
344.077	-65.03
344.46	-51.47
344.843	-65.48
345.226	-51.02
345.61	-19.15
345.993	-38.81
346.376	-7.17
346.759	4.12
347.142	14.29
347.525	43.67
347.908	49.77
348.291	82.99
348.674	106.27
349.057	124.12
349.44	138.36
349.823	151.69
350.206	173.61
350.588	215.87
350.971	200.28
351.354	218.81
351.737	215.87
352.119	264.46
352.502	271.46
352.884	248.19
353.267	287.28
353.65	276.66
354.032	297.68
354.414	321.86
354.797	305.13
355.179	322.08
355.562	332.48
355.944	324.79
356.326	347.62
356.709	318.69
357.091	347.39
357.473	343.32
357.855	323.89
358.238	336.09
358.62	341.52
359.002	345.13
359.384	349.65
359.766	329.54
360.148	341.74
360.53	354.4
360.912	339.71
361.294	337
361.676	313.49
362.057	339.71
362.439	341.52
362.821	331.57
363.203	310.1
363.584	309.2
363.966	313.95
364.348	312.14
364.729	292.25
365.111	313.95
365.493	330.9
365.874	309.88
366.256	316.66
366.637	322.76
367.019	323.21
367.4	297
367.781	316.88
368.163	308.97
368.544	286.83
368.925	318.01
369.306	317.56
369.688	307.17
370.069	317.56
370.45	301.52
370.831	323.21
371.212	321.86
371.593	312.59
371.974	308.52
372.355	329.99
372.736	303.55
373.117	318.47
373.498	300.61
373.879	326.15
374.26	320.5
374.641	323.21
375.021	323.66
375.402	285.47
375.783	336.54
376.163	318.69
376.544	317.11
376.925	321.18
377.305	335.19
377.686	310.1
378.066	312.36
378.447	302.42
378.827	326.6
379.208	317.11
379.588	336.09
379.968	332.48
380.349	336.09
380.729	335.87
381.109	324.12
381.489	329.99
381.87	314.17
382.25	329.09
382.63	349.65
383.01	329.09
383.39	318.92
383.77	325.25
384.15	330.22
384.53	317.34
384.91	334.96
385.29	339.48
385.67	350.1
386.049	339.26
386.429	336.54
386.809	346.49
387.189	339.71
387.568	343.32
387.948	332.03
388.328	351.23
388.707	355.75
389.087	371.35
389.466	345.13
389.846	361.4
390.225	360.72
390.605	348.52
390.984	364.57
391.363	351.69
391.743	370.89
392.122	349.43
392.501	361.85
392.881	350.1
393.26	359.6
393.639	378.13
394.018	349.65
394.397	368.18
394.776	359.14
395.155	378.8
395.534	375.19
395.913	369.76
396.292	376.09
396.671	356.43
397.05	369.99
397.429	344.45
397.808	386.71
398.186	365.02
398.565	374.51
398.944	374.51
399.323	365.7
399.701	371.12
400.08	375.87
400.458	375.87
400.837	369.09
401.215	391.01
401.594	371.8
401.972	375.19
402.351	369.31
402.729	415.86
403.107	400.5
403.486	397.11
403.864	412.48
404.242	378.58
404.62	402.76
404.999	386.71
405.377	377.22
405.755	409.09
406.133	408.18
406.511	409.54
406.889	396.66
407.267	387.39
407.645	417.9
408.023	404.79
408.401	409.54
408.779	415.19
409.156	417.9
409.534	426.94
409.912	409.54
410.29	399.82
410.667	445.69
411.045	444.11
411.422	419.93
411.8	432.81
412.178	449.99
412.555	442.76
412.933	453.6
413.31	467.84
413.687	463.77
414.065	456.09
414.442	473.49
414.819	440.95
415.197	447.73
415.574	465.13
415.951	473.49
416.328	463.77
416.705	466.03
417.082	452.93
417.46	477.78
417.837	478.46
418.214	470.33
418.591	480.5
418.967	492.02
419.344	495.64
419.721	487.5
420.098	482.08
420.475	505.81
420.852	502.87
421.228	482.3
421.605	506.48
421.982	496.54
422.358	519.59
422.735	522.75
423.111	525.01
423.488	534.05
423.864	523.66
424.241	526.14
424.617	526.37
424.994	537.44
425.37	549.87
425.746	528.86
426.123	532.7
426.499	534.51
426.875	556.88
427.251	512.13
427.627	561.4
428.003	571.57
428.379	557.78
428.756	566.14
429.132	546.03
429.507	561.17
429.883	574.28
430.259	570.89
430.635	571.57
431.011	596.65
431.387	596.65
431.763	593.49
432.138	573.15
432.514	625.8
432.89	626.48
433.265	620.83
433.641	608.18
434.016	634.39
434.392	624.9
434.767	617.89
435.143	644.56
435.518	644.33
435.894	626.25
436.269	658.8
436.644	651.34
437.02	661.96
437.395	655.63
437.77	652.92
438.145	670.77
438.52	676.2
438.895	661.73
439.271	663.77
439.646	692.47
440.021	689.98
440.395	660.83
440.77	695.86
441.145	723.65
441.52	724.78
441.895	703.31
442.27	745.57
442.645	711.9
443.019	715.74
443.394	724.78
443.769	736.31
444.143	736.53
444.518	727.95
444.892	715.74
445.267	732.69
445.641	753.93
446.016	751.45
446.39	755.52
446.764	729.75
447.139	739.25
447.513	756.42
447.887	739.47
448.262	752.35
448.636	777.21
449.01	771.79
449.384	770.43
449.758	764.1
450.132	780.83
450.506	787.61
450.88	791.22
451.254	795.29
451.628	786.02
452.002	797.78
452.376	806.36
452.75	822.18
453.123	824.22
453.497	838.68
453.871	821.5
454.244	814.95
454.618	812.46
454.992	845.91
455.365	843.42
455.739	859.24
456.112	879.81
456.486	894.95
456.859	875.51
457.232	904.67
457.606	893.59
457.979	894.95
458.352	906.25
458.725	897.66
459.099	928.39
459.472	918.9
459.845	946.25
460.218	962.52
460.591	943.53
460.964	952.35
461.337	958.9
461.71	1001.84
462.083	997.77
462.456	1039.8
462.829	1003.87
463.201	1021.05
463.574	1035.51
463.947	1036.19
464.32	1043.64
464.692	1067.6
465.065	1053.59
465.438	1078.9
465.81	1093.36
466.183	1095.17
466.555	1103.53
466.928	1128.61
467.3	1127.71
467.672	1162.96
468.045	1172.68
468.417	1156.41
468.789	1197.54
469.161	1199.8
469.534	1192.79
469.906	1235.73
470.278	1236.86
470.65	1231.66
471.022	1256.29
471.394	1311.89
471.766	1320.93
472.138	1301.49
472.51	1341.04
472.882	1377.65
473.253	1379.68
473.625	1371.77
473.997	1412.45
474.369	1402.51
474.74	1448.83
475.112	1458.55
475.484	1493.8
475.855	1496.29
476.227	1526.12
476.598	1570.86
476.97	1577.64
477.341	1608.15
477.713	1641.37
478.084	1669.39
478.455	1684.08
478.827	1676.85
479.198	1748.03
479.569	1759.56
479.94	1779.67
480.311	1826.9
480.682	1859.22
481.053	1884.98
481.424	1906.45
481.795	1945.32
482.166	1993.22
482.537	2031.42
482.908	2043.62
483.279	2066.44
483.65	2092.2
484.021	2144.18
484.391	2167.91
484.762	2206.33
485.133	2197.06
485.503	2283.61
485.874	2315.02
486.244	2292.88
486.615	2368.36
486.985	2396.6
487.356	2423.04
487.726	2486.32
488.097	2533.55
488.467	2533.1
488.837	2581.01
489.207	2605.64
489.578	2618.74
489.948	2701.23
490.318	2705.3
490.688	2714.79
491.058	2768.12
491.428	2809.02
491.798	2853.99
492.168	2870.26
492.538	2901
492.908	2910.94
493.278	2988.9
493.648	2947.78
494.017	3041.11
494.387	3072.52
494.757	3113.42
495.126	3152.29
495.496	3161.1
495.866	3158.84
496.235	3182.35
496.605	3258.95
496.974	3262.12
497.344	3311.83
497.713	3283.81
498.082	3351.83
498.452	3368.33
498.821	3393.64
499.19	3404.71
499.559	3400.42
499.928	3477.93
500.298	3440.42
500.667	3524.26
501.036	3521.77
501.405	3578.04
501.774	3575.78
502.143	3596.8
502.512	3592.28
502.88	3604.26
503.249	3600.87
503.618	3653.75
503.987	3651.26
504.356	3662.56
504.724	3715.89
505.093	3725.83
505.462	3753.4
505.83	3739.62
506.199	3770.13
506.567	3790.69
506.936	3823.68
507.304	3867.53
507.672	3880.18
508.041	3909.33
508.409	3894.64
508.777	3913.63
509.145	3980.52
509.514	3990.69
509.882	3995.43
510.25	3973.29
510.618	3989.78
510.986	3995.43
511.354	4027.97
511.722	4034.3
512.09	4113.85
512.458	4039.95
512.826	4133.06
513.193	4133.28
513.561	4126.95
513.929	4216.67
514.297	4220.96
514.664	4194.97
515.032	4211.92
515.4	4237.01
515.767	4263.9
516.135	4309.77
516.502	4242.66
516.869	4335.31
517.237	4311.13
517.604	4301.19
517.972	4330.34
518.339	4386.38
518.706	4375.53
519.073	4401.3
519.44	4408.08
519.808	4441.3
520.175	4374.63
520.542	4514.97
520.909	4478.81
521.276	4519.26
521.643	4505.02
522.009	4525.14
522.376	4544.57
522.743	4566.49
523.11	4615.3
523.477	4637
523.843	4652.82
524.21	4677.67
524.577	4721.51
524.943	4766.94
525.31	4743.89
525.676	4848.97
526.043	4786.37
526.409	4826.82
526.776	4905.01
527.142	4848.74
527.508	4897.55
527.874	4912.7
528.241	4917.89
528.607	4947.5
528.973	4981.17
529.339	5046.25
529.705	5037.66
530.071	5074.5
530.437	5088.28
530.803	5128.96
531.169	5150.88
531.535	5098
531.901	5136.19
532.267	5143.42
532.632	5218
532.998	5241.27
533.364	5269.3
533.73	5266.36
534.095	5317.43
534.461	5322.63
534.826	5359.92
535.192	5393.36
535.557	5391.33
535.923	5442.63
536.288	5491.44
536.653	5436.52
537.019	5479.01
537.384	5467.48
537.749	5529.18
538.114	5561.27
538.479	5561.49
538.845	5575.05
539.21	5545.22
539.575	5620.47
539.94	5604.43
540.305	5616.41
540.67	5649.85
541.034	5682.84
541.399	5708.15
541.764	5656.86
542.129	5758.78
542.494	5796.97
542.858	5814.14
543.223	5785.22
543.587	5823.63
543.952	5874.7
544.316	5885.55
544.681	5881.03
545.045	5931.43
545.41	5980.01
545.774	5994.02
546.138	6027.92
546.503	5988.6
546.867	6039.9
547.231	6058.88
547.595	6088.26
547.959	6123.74
548.324	6166.45
548.688	6108.37
549.052	6160.57
549.416	6193.34
549.779	6219.78
550.143	6279.67
550.507	6293
550.871	6299.1
551.235	6317.86
551.599	6328.93
551.962	6323.05
552.326	6366.44
552.689	6379.1
553.053	6352.66
553.417	6424.29
553.78	6455.48
554.143	6424.07
554.507	6488.02
554.87	6442.15
555.234	6568.25
555.597	6465.2
555.96	6550.17
556.323	6585.65
556.686	6588.13
557.05	6617.06
557.413	6624.74
557.776	6612.54
558.139	6690.28
558.502	6701.58
558.865	6636.04
559.228	6741.8
559.59	6774.79
559.953	6798.07
560.316	6891.85
560.679	6886.2
561.041	6886.43
561.404	6906.99
561.767	6951.29
562.129	6955.81
562.492	6989.7
562.854	6958.74
563.217	6976.6
563.579	7041.91
563.941	6999.65
564.304	7052.75
564.666	7104.5
565.028	7151.51
565.39	7136.82
565.753	7211.62
566.115	7146.54
566.477	7231.96
566.839	7186.76
567.201	7289.36
567.563	7308.34
567.925	7375.46
568.287	7302.92
568.648	7372.74
569.01	7330.26
569.372	7457.26
569.734	7457.04
570.095	7530.03
570.457	7622
570.819	7529.12
571.18	7527.09
571.542	7622.23
571.903	7676.01
572.265	7666.07
572.626	7758.27
572.987	7767.08
573.349	7893.18
573.71	7875.56
574.071	7915.78
574.432	7952.16
574.794	8084.82
575.155	8057.7
575.516	8044.14
575.877	8172.72
576.238	8207.3
576.599	8298.37
576.96	8314.41
577.32	8418.14
577.681	8487.74
578.042	8529.55
578.403	8583.11
578.763	8671.24
579.124	8779.71
579.485	8810.9
579.845	8991.01
580.206	9059.03
580.566	9071
580.927	9258.34
581.287	9357.32
581.648	9388.96
582.008	9599.8
582.368	9691.78
582.728	9839.35
583.089	9930.64
583.449	10036.63
583.809	10212.44
584.169	10402.04
584.529	10492.66
584.889	10676.16
585.249	10810.85
585.609	10972.88
585.969	11248.57
586.329	11433.88
586.688	11594.78
587.048	11738.73
587.408	11986.18
587.768	12126.97
588.127	12293.97
588.487	12499.84
588.846	12793.62
589.206	12919.04
589.565	13173.72
589.925	13501.4
590.284	13715.4
590.643	13900.48
591.003	14132.57
591.362	14420.92
591.721	14667.47
592.08	14927.12
592.44	15234.91
592.799	15361.46
593.158	15635.13
593.517	15927.1
593.876	16193.3
594.235	16414.31
594.593	16696.11
594.952	17018.14
595.311	17263.33
595.67	17597.56
596.029	17928.4
596.387	18158.9
596.746	18547.37
597.104	18813.12
597.463	18983.96
597.822	19317.97
598.18	19552.54
598.538	19732.42
598.897	20162.01
599.255	20272.52
599.613	20791.83
599.972	20921.54
600.33	21224.81
600.688	21437.91
601.046	21863.21
601.404	22148.4
601.762	22241.51
602.12	22628.16
602.478	22895.5
602.836	23197.64
603.194	23340.23
603.552	23619.1
603.91	23833.1
604.268	24175.01
604.625	24220.66
604.983	24721.44
605.341	24732.74
605.698	25171.82
606.056	25405.04
606.413	25598.93
606.771	25977
607.128	26285.47
607.485	26112.82
607.843	26444.33
608.2	26963.42
608.557	27148.5
608.914	27206.8
609.272	27590.07
609.629	27781.47
609.986	28055.14
610.343	28153.44
610.7	28527.89
611.057	28674.78
611.414	28767.21
611.771	29084.49
612.127	29266.63
612.484	29470.92
612.841	29639.73
613.198	29686.96
613.554	29886.05
613.911	30239.04
614.267	30415.75
614.624	30520.16
614.98	30651
615.337	31072.69
615.693	31039.69
616.05	31201.95
616.406	31480.58
616.762	31392.68
617.118	31615.27
617.475	31708.83
617.831	31925.54
618.187	32029.72
618.543	32158.08
618.899	32443.5
619.255	32430.84
619.611	32462.71
619.967	32754.22
620.323	32963.26
620.678	32895.24
621.034	32795.13
621.39	33011.39
621.746	33101.56
622.101	33530.25
622.457	33593.3
622.812	33697.93
623.168	33741.32
623.523	33849.34
623.879	34079.16
624.234	33968.65
624.589	34010.91
624.945	34107.86
625.3	34283.45
625.655	34252.26
626.01	34344.01
626.365	34504.46
626.72	34534.74
627.075	34558.02
627.43	34654.96
627.785	34568.41
628.14	34727.28
628.495	34887.27
628.85	34909.2
629.205	34904.22
629.559	35014.96
629.914	34929.53
630.269	34930.44
630.623	34922.75
630.978	34922.98
631.332	35223.76
631.687	35232.35
632.041	35070.32
632.396	35267.15
632.75	34968.4
633.104	35229.64
633.459	35200.49
633.813	35101.73
634.167	35259.24
634.521	35209.07
634.875	35207.94
635.229	35323.87
635.583	35129.3
635.937	35200.26
636.291	35187.83
636.645	35309.86
636.999	35114.39
637.352	35361.61
637.706	35126.82
638.06	35248.4
638.413	35215.85
638.767	35093.6
639.121	35393.02
639.474	35144.9
639.828	35196.87
640.181	35111
640.534	35183.31
640.888	35133.37
641.241	34936.31
641.594	35086.59
641.947	35256.3
642.301	35171.56
642.654	35131.34
643.007	35201.84
643.36	35029.87
643.713	35011.57
644.066	35213.59
644.419	35041.62
644.771	34737.22
645.124	34468.98
645.477	34452.03
645.83	34364.58
646.182	34195.54
646.535	34120.97
646.888	34222.43
647.24	33967.07
647.593	34268.31
647.945	34167.29
648.298	33920.97
648.65	33974.98
649.002	33896.79
649.355	33990.58
649.707	33924.14
650.059	34008.88
650.411	34488.64
650.763	34454.97
651.115	34848.63
651.467	34749.88
651.819	34699.71
652.171	34709.2
652.523	34666.26
652.875	34657.9
653.227	34468.08
653.578	34711.69
653.93	34550.11
654.282	34441.41
654.633	34493.39
654.985	34503.33
655.337	34550.56
655.688	34576.32
656.039	34720.5
656.391	34320.96
656.742	34467.62
657.094	34396.44
657.445	34611.35
657.796	34441.18
658.147	34401.86
658.498	34403.45
658.849	34426.72
659.2	34444.35
659.551	34259.27
659.902	34501.52
660.253	34442.54
660.604	34468.98
660.955	34260.62
661.306	34462.2
661.656	34502.88
662.007	34565.02
662.358	34256.33
662.708	34350.11
663.059	34298.59
663.409	34183.34
663.76	34443.67
664.11	34346.27
664.461	34382.66
664.811	34328.65
665.161	34310.34
665.511	34157.12
665.862	34285.26
666.212	34244.58
666.562	34315.54
666.912	34326.84
667.262	34230.57
667.612	34226.28
667.962	34265.82
668.312	34094.08
668.662	34436.67
669.011	34230.34
669.361	34187.63
669.711	34172.94
670.06	34197.35
670.41	34089.56
670.76	34054.08
671.109	34320.28
671.459	34091.36
671.808	34122.32
672.157	34118.93
672.507	33922.55
672.856	33950.58
673.205	34060.18
673.554	34160.51
673.904	34016.56
674.253	34233.51
674.602	34178.59
674.951	33664.26
675.3	33439.86
675.649	33896.11
675.998	33901.99
676.346	33989.9
676.695	33969.56
677.044	33732.05
677.393	33761.2
677.741	33742.9
678.09	33816.57
678.438	33658.38
678.787	33756.46
679.135	33713.52
679.484	33459.97
679.832	33651.83
680.181	33475.56
680.529	33551.72
680.877	33468.56
681.225	33518.5
681.573	33756.91
681.922	33437.6
682.27	33216.36
682.618	33484.15
682.966	33260.65
683.314	33171.16
683.661	33283.7
684.009	33046.42
684.357	32990.15
684.705	32990.83
685.053	32958.29
685.4	33014.1
685.748	32922.13
686.095	32761.45
686.443	32718.74
686.79	32591.29
687.138	32790.61
687.485	32698.18
687.832	32594.68
688.18	32557.39
688.527	32359.66
688.874	32386.55
689.221	32367.12
689.568	32253.45
689.915	32228.59
690.262	32151.3
690.609	31990.85
690.956	31942.72
691.303	31961.93
691.65	31787.24
691.997	31823.63
692.344	31578.44
692.69	31610.07
693.037	31577.08
693.383	31334.83
693.73	31453.92
694.077	31269.97
694.423	31278.33
694.769	31139.35
695.116	31138.9
695.462	31103.19
695.808	30895.06
696.155	30874.27
696.501	30837.44
696.847	30847.16
697.193	30685.35
697.539	30731.68
697.885	30399.94
698.231	30321.52
698.577	30338.92
698.923	30321.07
699.269	30132.37
699.614	30166.27
699.96	30043.79
700.306	29955.88
700.651	29864.81
700.997	29745.72
701.342	29747.3
701.688	29692.61
702.033	29640.41
702.379	29506.63
702.724	29451.94
703.069	29549.34
703.415	29134.43
703.76	29257.82
704.105	29291.04
704.45	29099.4
704.795	29015.34
705.14	28903.25
705.485	28887.21
705.83	28795.68
706.175	28849.02
706.52	28768.34
706.865	28628.68
707.209	28594.56
707.554	28555.46
707.899	28579.42
708.243	28353.21
708.588	28422.59
708.932	28260.33
709.277	28105.08
709.621	28172.42
709.966	27988.7
710.31	28108.92
710.654	27788.48
710.998	27965.2
711.342	27843.62
711.687	27840.91
712.031	27666
712.375	27704.86
712.719	27647.24
713.063	27587.35
713.407	27705.99
713.75	27434.36
714.094	27447.47
714.438	27320.24
714.782	27320.02
715.125	27277.53
715.469	27292.9
715.812	27011.78
716.156	26972
716.499	27073.24
716.843	26965.22
717.186	26893.13
717.53	27027.14
717.873	26946.47
718.216	26936.98
718.559	26721.61
718.902	26447.72
719.246	26605.01
719.589	26604.55
719.932	26479.36
720.275	26497.66
720.617	26446.37
720.96	26335.41
721.303	26355.97
721.646	26444.78
721.989	26081.86
722.331	26293.6
722.674	26226.26
723.016	26174.96
723.359	26038.69
723.701	26145.36
724.044	25956.89
724.386	25810
724.729	25936.32
725.071	25866.5
725.413	25765.48
725.755	25862.43
726.097	25751.7
726.439	25664.24
726.782	25750.11
727.124	25659.04
727.465	25647.74
727.807	25595.09
728.149	25560.51
728.491	25498.37
728.833	25478.93
729.175	25416.56
729.516	25377.92
729.858	25240.52
730.199	25370.46
730.541	25273.52
730.882	25294.31
731.224	25274.42
731.565	25155.33
731.906	25033.97
732.248	25155.33
732.589	24983.35
732.93	24825.84
733.271	24970.02
733.612	24961.66
733.953	24989.23
734.294	24896.35
734.635	24858.61
734.976	24801.44
735.317	24784.49
735.658	24633.08
735.999	24662.68
736.339	24599.18
736.68	24710.14
737.021	24561.44
737.361	24504.5
737.702	24604.61
738.042	24555.34
738.383	24467.66
738.723	24401.45
739.063	24362.13
739.404	24445.97
739.744	24352.18
740.084	24339.98
740.424	24300.21
740.764	24309.47
741.104	24306.76
741.444	24114.45
741.784	24072.19
742.124	24172.53
742.464	24148.35
742.804	24102.7
743.143	24091.63
743.483	24036.03
743.823	23809.15
744.162	23848.69
744.502	23881.46
744.841	23697.74
745.181	23841.01
745.52	23807.57
745.86	23854.12
746.199	23677.85
746.538	23681.02
746.877	23695.7
747.216	23627.01
747.556	23580.91
747.895	23573.45
748.234	23549.95
748.573	23553.11
748.911	23442.15
749.25	23437.18
749.589	23415.94
749.928	23379.33
750.267	23289.16
750.605	23299.33
750.944	23246.68
751.283	23182.05
751.621	23242.61
751.96	23123.06
752.298	23060.47
752.636	23096.85
752.975	23021.15
753.313	22899.79
753.651	23035.83
753.989	22846.46
754.327	22871.09
754.666	22768.5
755.004	22751.32
755.342	22770.31
755.679	22742.74
756.017	22591.78
756.355	22615.73
756.693	22626.13
757.031	22528.05
757.368	22459.13
757.706	22303.88
758.044	22274.27
758.381	22241.51
758.719	22223.65
759.056	22267.72
759.394	22236.08
759.731	22122.86
760.068	22048.06
760.405	21932.36
760.743	21884
761.08	21969.65
761.417	21829.76
761.754	21745.25
