Data from hue_32_FLMS001491_00033.txt Node
Date: Tue Feb 07 17:23:17 GMT 2017
User: dcchb
Spectrometer: FLMS00149
Trigger mode: 0
Integration Time (sec): 2.000000E-2
Scans to average: 10
Electric dark correction enabled: true
Nonlinearity correction enabled: false
Boxcar width: 0
XAxis mode: Wavelengths
Number of Pixels in Spectrum: 2048
>>>>>Begin Spectral Data<<<<<
341.393	-14.32
341.776	-14.32
342.16	-14.32
342.543	-83.47
342.927	-84.15
343.31	-61.55
343.693	-69.01
344.077	-57.48
344.46	-56.81
344.843	-59.29
345.226	-27.65
345.61	-33.76
345.993	-35.11
346.376	7.15
346.759	10.54
347.142	23.64
347.525	21.38
347.908	60.25
348.291	70.2
348.674	97.99
349.057	109.52
349.44	134.15
349.823	147.71
350.206	164.43
350.588	206.92
350.971	224.09
351.354	231.1
351.737	237.88
352.119	244.88
352.502	283.75
352.884	290.3
353.267	287.59
353.65	300.92
354.032	297.31
354.414	321.04
354.797	310.42
355.179	328.04
355.562	328.49
355.944	344.99
356.326	333.01
356.709	338.89
357.091	337.31
357.473	333.92
357.855	344.54
358.238	342.96
358.62	337.31
359.002	323.07
359.384	352.9
359.766	328.27
360.148	342.73
360.53	359.68
360.912	343.18
361.294	333.47
361.676	335.05
362.057	334.82
362.439	353.13
362.821	336.63
363.203	323.97
363.584	343.86
363.966	334.14
364.348	316.07
364.729	319
365.111	327.14
365.493	329.85
365.874	319.91
366.256	329.17
366.637	327.36
367.019	312
367.4	319.68
367.781	319.91
368.163	307.7
368.544	307.93
368.925	319.91
369.306	319.45
369.688	308.83
370.069	326.46
370.45	288.5
370.831	301.6
371.212	305.67
371.593	287.37
371.974	305.22
372.355	322.84
372.736	320.13
373.117	309.51
373.498	307.03
373.879	329.62
374.26	313.58
374.641	313.81
375.021	318.32
375.402	317.87
375.783	339.34
376.163	341.38
376.544	337.31
376.925	327.14
377.305	324.88
377.686	312.22
378.066	347.02
378.447	343.64
378.827	327.36
379.208	336.18
379.588	333.47
379.968	340.92
380.349	364.2
380.729	338.89
381.109	351.77
381.489	354.93
381.87	353.8
382.25	347.48
382.63	352.9
383.01	339.34
383.39	338.89
383.77	345.44
384.15	343.18
384.53	336.18
384.91	352
385.29	347.48
385.67	355.39
386.049	354.93
386.429	356.06
386.809	366.69
387.189	353.58
387.568	338.89
387.948	355.84
388.328	375.05
388.707	341.6
389.087	356.52
389.466	349.28
389.846	377.08
390.225	379.57
390.605	363.97
390.984	363.07
391.363	370.08
391.743	374.59
392.122	372.56
392.501	371.2
392.881	367.82
393.26	362.62
393.639	376.63
394.018	398.32
394.397	377.98
394.776	364.65
395.155	378.66
395.534	382.73
395.913	382.73
396.292	401.71
396.671	394.26
397.05	397.64
397.429	396.51
397.808	397.64
398.186	399.68
398.565	380.02
398.944	368.95
399.323	389.06
399.701	401.71
400.08	363.97
400.458	401.71
400.837	410.07
401.215	380.92
401.594	417.98
401.972	400.36
402.351	391.09
402.729	416.18
403.107	428.15
403.486	412.79
403.864	421.83
404.242	403.97
404.62	429.73
404.999	412.33
405.377	414.37
405.755	415.05
406.133	441.26
406.511	419.57
406.889	415.05
407.267	427.7
407.645	423.63
408.023	430.19
408.401	444.2
408.779	466.34
409.156	453.01
409.534	438.55
409.912	455.95
410.29	437.64
410.667	436.29
411.045	476.29
411.422	457.98
411.8	446.01
412.178	466.57
412.555	447.59
412.933	487.36
413.31	461.37
413.687	482.16
414.065	460.24
414.442	494.82
414.819	477.87
415.197	500.24
415.574	511.54
415.951	485.78
416.328	487.36
416.705	473.35
417.082	489.17
417.46	497.76
417.837	509.96
418.214	519.22
418.591	493.46
418.967	515.61
419.344	515.61
419.721	513.35
420.098	520.35
420.475	530.3
420.852	516.51
421.228	507.25
421.605	515.83
421.982	536.17
422.358	527.36
422.735	538.21
423.111	522.16
423.488	546.12
423.864	538.21
424.241	579.56
424.617	564.65
424.994	544.76
425.37	536.62
425.746	559.45
426.123	565.32
426.499	582.72
426.875	558.32
427.251	545.21
427.627	600.58
428.003	573.01
428.379	610.29
428.756	589.5
429.132	569.39
429.507	590.18
429.883	594.7
430.259	597.64
430.635	603.97
431.011	633.34
431.387	610.97
431.763	635.6
432.138	638.54
432.514	620.01
432.89	642.16
433.265	618.88
433.641	642.16
434.016	653.68
434.392	655.49
434.767	683.74
435.143	673.57
435.518	646.45
435.894	666.34
436.269	677.64
436.644	704.98
437.02	694.81
437.395	719.44
437.77	684.42
438.145	721.93
438.52	721.03
438.895	730.07
439.271	726
439.646	740.46
440.021	750.63
440.395	733.68
440.77	744.3
441.145	739.56
441.52	746.34
441.895	762.38
442.27	763.51
442.645	723.96
443.019	766
443.394	786.79
443.769	795.37
444.143	769.39
444.518	771.87
444.892	790.63
445.267	782.27
445.641	813.68
446.016	791.53
446.39	811.65
446.764	824.53
447.139	794.92
447.513	789.5
447.887	803.51
448.262	842.15
448.636	824.75
449.01	824.98
449.384	796.5
449.758	841.02
450.132	856.84
450.506	848.71
450.88	839.44
451.254	839.67
451.628	853.9
452.002	866.33
452.376	895.48
452.75	884.86
453.123	885.99
453.497	892.32
453.871	911.76
454.244	912.43
454.618	927.8
454.992	928.7
455.365	921.7
455.739	944.98
456.112	965.54
456.486	972.32
456.859	967.12
457.232	985.43
457.606	981.58
457.979	989.27
458.352	1013.45
458.725	1033.33
459.099	1008.93
459.472	1042.15
459.845	1077.63
460.218	1056.84
460.591	1102.49
460.964	1102.94
461.337	1097.97
461.71	1104.07
462.083	1144.52
462.456	1161.24
462.829	1143.61
463.201	1179.32
463.574	1149.94
463.947	1184.52
464.32	1176.16
464.692	1212.09
465.065	1197.17
465.438	1224.29
465.81	1227.23
466.183	1251.86
466.555	1280.33
466.928	1292.76
467.3	1271.52
467.672	1296.83
468.045	1362.59
468.417	1330.5
468.789	1368.24
469.161	1388.35
469.534	1419.54
469.906	1419.31
470.278	1466.09
470.65	1469.71
471.022	1501.12
471.394	1507.67
471.766	1546.54
472.138	1539.54
472.51	1583.15
472.882	1590.16
473.253	1663.15
473.625	1680.1
473.997	1719.42
474.369	1763.94
474.74	1743.6
475.112	1800.09
475.484	1832.41
475.855	1883.03
476.227	1918.73
476.598	1960.32
476.97	1982.69
477.341	2035.12
477.713	2048.22
478.084	2132.29
478.455	2184.72
478.827	2207.31
479.198	2259.29
479.569	2299.97
479.94	2388.55
480.311	2386.75
480.682	2428.78
481.053	2515.33
481.424	2601.2
481.795	2603.91
482.166	2672.39
482.537	2728.43
482.908	2805.04
483.279	2847.07
483.65	2927.07
484.021	2997.12
484.391	3083
484.762	3130.68
485.133	3143.11
485.503	3233.05
485.874	3301.3
486.244	3364.35
486.615	3499.94
486.985	3534.29
487.356	3621.51
487.726	3698.35
488.097	3778.8
488.467	3844.33
488.837	3955.07
489.207	4013.6
489.578	4143.76
489.948	4212.46
490.318	4257.2
490.688	4329.97
491.058	4398.44
491.428	4473.7
491.798	4564.99
492.168	4709.4
492.538	4744.2
492.908	4812.67
493.278	4930.86
493.648	4954.81
494.017	4997.98
494.387	5072.1
494.757	5155.71
495.126	5299.44
495.496	5325.88
495.866	5381.92
496.235	5470.96
496.605	5574.01
496.974	5588.92
497.344	5621.69
497.713	5736.04
498.082	5774
498.452	5870.95
498.821	5948.23
499.19	6003.15
499.559	6074.78
499.928	6123.6
500.298	6263.25
500.667	6208.79
501.036	6298.05
501.405	6391.16
501.774	6437.26
502.143	6492.4
502.512	6509.8
502.88	6603.36
503.249	6603.13
503.618	6709.12
503.987	6757.48
504.356	6813.52
504.724	6879.73
505.093	6901.43
505.462	6936.91
505.83	7015.55
506.199	7069.79
506.567	7162.44
506.936	7169.67
507.304	7287.41
507.672	7284.7
508.041	7350.68
508.409	7363.56
508.777	7405.14
509.145	7469.1
509.514	7491.24
509.882	7552.03
510.25	7666.15
510.618	7647.4
510.986	7722.42
511.354	7800.39
511.722	7890.78
512.09	7943.21
512.458	7926.26
512.826	7985.02
513.193	7961.51
513.561	8098.69
513.929	8130.1
514.297	8272.92
514.664	8254.16
515.032	8235.63
515.4	8387.27
515.767	8369.19
516.135	8409.41
516.502	8433.82
516.869	8577.09
517.237	8561.5
517.604	8494.83
517.972	8651.89
518.339	8627.03
518.706	8741.15
519.073	8765.79
519.44	8801.04
519.808	8856.86
520.175	8885.78
520.542	8930.53
520.909	8990.19
521.276	9026.8
521.643	9076.51
522.009	9086.23
522.376	9226.79
522.743	9193.35
523.11	9254.59
523.477	9368.26
523.843	9443.06
524.21	9475.6
524.577	9586.1
524.943	9622.71
525.31	9601.7
525.676	9743.84
526.043	9730.05
526.409	9759.21
526.776	9865.42
527.142	9880.33
527.508	9979.77
527.874	10049.37
528.241	10062.25
528.607	10098.86
528.973	10241
529.339	10234.22
529.705	10296.14
530.071	10422.92
530.437	10410.26
530.803	10510.15
531.169	10516.93
531.535	10510.83
531.901	10568.45
532.267	10608.9
532.632	10746.3
532.998	10719.41
533.364	10795.56
533.73	10775.23
534.095	10938.61
534.461	10993.75
534.826	10978.61
535.192	11040.75
535.557	11066.74
535.923	11115.56
536.288	11100.87
536.653	11230.13
537.019	11150.81
537.384	11234.65
537.749	11291.14
538.114	11332.72
538.479	11457.92
538.845	11419.05
539.21	11455.43
539.575	11474.64
539.94	11486.62
540.305	11642.77
540.67	11681.42
541.034	11657.91
541.399	11657.46
541.764	11834.63
542.129	11847.29
542.494	11834.86
542.858	11917.34
543.223	11933.16
543.587	12027.4
543.952	12026.72
544.316	12056.1
544.681	12085.7
545.045	12216.54
545.41	12248.18
545.774	12290.21
546.138	12291.8
546.503	12374.73
546.867	12286.6
547.231	12474.84
547.595	12568.62
547.959	12570.66
548.324	12633.93
548.688	12611.34
549.052	12640.49
549.416	12724.33
549.779	12726.81
550.143	12756.64
550.507	12822.85
550.871	12959.57
551.235	12922.97
551.599	13031.44
551.962	12926.58
552.326	13062.62
552.689	13127.71
553.053	13101.49
553.417	13143.98
553.78	13268.04
554.143	13197.53
554.507	13225.78
554.87	13330.64
555.234	13495.61
555.597	13400.24
555.96	13449.28
556.323	13572.44
556.686	13523.85
557.05	13610.18
557.413	13703.06
557.776	13687.46
558.139	13816.05
558.502	13842.26
558.865	13826.44
559.228	13901.02
559.59	13975.37
559.953	13962.49
560.316	14071.41
560.679	14060.56
561.041	14195.7
561.404	14201.58
561.767	14345.98
562.129	14320.22
562.492	14401.34
562.854	14442.7
563.217	14408.8
563.579	14518.86
563.941	14565.63
564.304	14588.46
564.666	14687.21
565.028	14733.09
565.39	14749.36
565.753	14885.4
566.115	14894.21
566.477	14992.52
566.839	14960.2
567.201	15098.28
567.563	15090.37
567.925	15132.62
568.287	15238.84
568.648	15193.41
569.01	15321.09
569.372	15449
569.734	15382.34
570.095	15432.5
570.457	15505.95
570.819	15665.94
571.18	15614.87
571.542	15738.26
571.903	15840.85
572.265	15825.71
572.626	15943.68
572.987	15954.07
573.349	16032.04
573.71	16208.98
574.071	16245.14
574.432	16249.88
574.794	16416.88
575.155	16474.28
575.516	16467.05
575.877	16707.5
576.238	16761.51
576.599	16813.48
576.96	16953.59
577.32	17009.64
577.681	17200.82
578.042	17313.58
578.403	17440.36
578.763	17529.62
579.124	17652.11
579.485	17759.45
579.845	17942.04
580.206	18064.3
580.566	18147.01
580.927	18314.24
581.287	18592.19
581.648	18589.71
582.008	18765.07
582.368	19088.68
582.728	19170.48
583.089	19320.54
583.449	19556.24
583.809	19716.01
584.169	19985.6
584.529	20216.11
584.889	20500.39
585.249	20398.93
585.609	20730.67
585.969	21166.14
586.329	21263.54
586.688	21495.17
587.048	21618.78
587.408	21823.07
587.768	22052.89
588.127	22282.27
588.487	22515.26
588.846	22907.11
589.206	22995.02
589.565	23265.97
589.925	23567.43
590.284	23781.21
590.643	24160.18
591.003	24472.04
591.362	24667.52
591.721	24906.38
592.08	25126.26
592.44	25494.39
592.799	25821.38
593.158	25978.22
593.517	26256.63
593.876	26560.12
594.235	26787.01
594.593	27042.14
594.952	27394.68
595.311	27492.53
595.67	27883.93
596.029	28282.11
596.387	28623.57
596.746	28825.82
597.104	29014.29
597.463	29274.63
597.822	29625.8
598.18	29805.91
598.538	29901.73
598.897	30387.14
599.255	30337.65
599.613	31029.16
599.972	31132.88
600.33	31366.55
600.688	31376.94
601.046	31870.26
601.404	32158.39
601.762	32323.81
602.12	32623.46
602.478	32609.23
602.836	32971.93
603.194	33008.31
603.552	33291.02
603.91	33363.78
604.268	33835.18
604.625	33847.16
604.983	34329.86
605.341	34389.75
605.698	34686.91
606.056	34936.17
606.413	35077.64
606.771	35374.13
607.128	35590.17
607.485	35640.33
607.843	35852.98
608.2	36200.77
608.557	36445.74
608.914	36300.2
609.272	36696.35
609.629	36836.91
609.986	37261.99
610.343	37125.04
610.7	37586.72
611.057	37583.79
611.414	37754.18
611.771	37833.95
612.127	38099.48
612.484	38273.03
612.841	38480.94
613.198	38454.95
613.554	38553.93
613.911	39033.24
614.267	39017.65
614.624	39055.84
614.98	39208.38
615.337	39534.24
615.693	39356.85
616.05	39592.55
616.406	39903.95
616.762	39928.58
617.118	39877.96
617.475	40042.93
617.831	40279.99
618.187	40404.5
618.543	40439.53
618.899	40598.17
619.255	40712.52
619.611	40772.63
619.967	41054.2
620.323	41174.43
620.678	41142.11
621.034	41178.72
621.39	41262.33
621.746	41328.09
622.101	41729.44
622.457	41560.63
622.812	41588.65
623.168	41741.64
623.523	41799.49
623.879	42065.25
624.234	41803.11
624.589	41941.86
624.945	42032.03
625.3	42175.3
625.655	42154.06
626.01	42261.4
626.365	42201.97
626.72	42424.11
627.075	42269.31
627.43	42325.13
627.785	42306.15
628.14	42374.39
628.495	42584.78
628.85	42342.53
629.205	42441.06
629.559	42690.54
629.914	42492.13
630.269	42608.96
630.623	42629.08
630.978	42688.06
631.332	42858.22
631.687	42689.19
632.041	42579.13
632.396	42651.45
632.75	42665.69
633.104	42607.83
633.459	42662.97
633.813	42582.07
634.167	42571.45
634.521	42630.88
634.875	42669.3
635.229	42588.4
635.583	42477.44
635.937	42601.05
636.291	42469.53
636.645	42564.9
636.999	42495.75
637.352	42679.47
637.706	42491.45
638.06	42509.76
638.413	42556.99
638.767	42455.52
639.121	42537.33
639.474	42365.35
639.828	42477.44
640.181	42551.34
640.534	42487.84
640.888	42428.4
641.241	42181.18
641.594	42355.86
641.947	42582.52
642.301	42310.22
642.654	42244.68
643.007	42396.77
643.36	42332.59
643.713	42440.38
644.066	42353.15
644.419	42191.12
644.771	41920.17
645.124	41530.8
645.477	41554.75
645.83	41229.57
646.182	41159.51
646.535	41146.18
646.888	41136.46
647.24	40779.86
647.593	41117.7
647.945	41135.1
648.298	40947.54
648.65	40795.9
649.002	40671.39
649.355	41013.53
649.707	41019.85
650.059	41121.77
650.411	41508.88
650.763	41449.67
651.115	41814.63
651.467	41648.09
651.819	41836.33
652.171	41602.44
652.523	41636.79
652.875	41702.55
653.227	41532.38
653.578	41765.6
653.93	41618.93
654.282	41574.87
654.633	41552.72
654.985	41598.82
655.337	41573.06
655.688	41533.74
656.039	41862.32
656.391	41503.46
656.742	41342.56
657.094	41490.8
657.445	41573.29
657.796	41524.47
658.147	41478.15
658.498	41402.67
658.849	41462.78
659.2	41325.83
659.551	41343.69
659.902	41509.56
660.253	41399.96
660.604	41482.67
660.955	41181.21
661.306	41401.31
661.656	41240.86
662.007	41246.29
662.358	41414.87
662.708	41297.13
663.059	41415.32
663.409	40993.19
663.76	41271.6
664.11	41303.24
664.461	41369.67
664.811	41377.36
665.161	41254.65
665.511	41171.49
665.862	41234.99
666.212	41359.05
666.562	41250.13
666.912	41179.85
667.262	40993.87
667.612	41088.33
667.962	41154.54
668.312	41062.56
668.662	41257.81
669.011	41205.61
669.361	41054.65
669.711	41118.83
670.06	41107.53
670.41	41021.44
670.76	40995.45
671.109	41074.54
671.459	41025.5
671.808	40968.78
672.157	41025.73
672.507	40759.07
672.856	40902.12
673.205	40864.15
673.554	41008.55
673.904	40827.77
674.253	41116.12
674.602	40994.54
674.951	40406.99
675.3	40126.32
675.649	40832.74
675.998	40669.13
676.346	40856.69
676.695	40959.74
677.044	40645.85
677.393	40741.22
677.741	40618.06
678.09	40616.47
678.438	40532.63
678.787	40632.97
679.135	40632.52
679.484	40314.34
679.832	40516.36
680.181	40325.41
680.529	40505.29
680.877	40283.38
681.225	40229.37
681.573	40536.02
681.922	40136.49
682.27	40042.25
682.618	40095.58
682.966	40105.08
683.314	40268.69
683.661	40012.42
684.009	39813.56
684.357	39830.28
684.705	39718.42
685.053	39756.38
685.4	39697.85
685.748	39553.68
686.095	39541.7
686.443	39424.87
686.79	39265.55
687.138	39445.21
687.485	39514.81
687.832	39227.13
688.18	39202.73
688.527	38960.92
688.874	39111.43
689.221	38986.46
689.568	38983.3
689.915	38632.12
690.262	38819.01
690.609	38605.23
690.956	38477.1
691.303	38476.64
691.65	38326.14
691.997	38381.73
692.344	38060.16
692.69	38092.25
693.037	38135.86
693.383	37756.89
693.73	37843.44
694.077	37748.08
694.423	37718.92
694.769	37617.68
695.116	37475.09
695.462	37554.18
695.808	37431.47
696.155	37420.17
696.501	37127.98
696.847	37251.59
697.193	36798.27
697.539	36975.44
697.885	36847.08
698.231	36746.29
698.577	36725.28
698.923	36737.71
699.269	36490.03
699.614	36319.41
699.96	36297.94
700.306	36288.9
700.651	36055.92
700.997	35915.81
701.342	35897.05
701.688	35808.69
702.033	35664.51
702.379	35809.82
702.724	35445.31
703.069	35727.11
703.415	35230.63
703.76	35320.79
704.105	35330.96
704.45	35189.95
704.795	34921.48
705.14	34945.66
705.485	34960.35
705.83	34735.27
706.175	34828.6
706.52	34676.07
706.865	34356.07
707.209	34503.41
707.554	34346.13
707.899	34512
708.243	34220.48
708.588	34175.06
708.932	33928.97
709.277	34055.07
709.621	34136.42
709.966	33764.9
710.31	33788.86
710.654	33533.72
710.998	33552.71
711.342	33588.86
711.687	33554.06
712.031	33481.97
712.375	33235.88
712.719	33325.82
713.063	33279.94
713.407	33311.58
713.75	33219.83
714.094	33152.04
714.438	33132.15
714.782	32989.1
715.125	32950.91
715.469	33034.53
715.812	32725.83
716.156	32677.25
716.499	32565.39
716.843	32618.72
717.186	32457.59
717.53	32536.46
717.873	32474.54
718.216	32449.01
718.559	32265.96
718.902	32142.12
719.246	32183.02
719.589	32074.33
719.932	31991.39
720.275	32011.28
720.617	31796.14
720.96	31978.06
721.303	31830.26
721.646	31949.36
721.989	31638.86
722.331	31711.85
722.674	31810.15
723.016	31577.84
723.359	31651.29
723.701	31630.04
724.044	31426.89
724.386	31342.82
724.729	31505.98
725.071	31240.22
725.413	31375.81
725.755	31235.7
726.097	31189.83
726.439	30956.62
726.782	31041.13
727.124	31234.35
727.465	30880.23
727.807	30861.02
728.149	30869.84
728.491	30869.84
728.833	30873
729.175	30798.65
729.516	30617.19
729.858	30653.12
730.199	30717.3
730.541	30560.47
730.882	30395.5
731.224	30609.51
731.565	30383.3
731.906	30406.57
732.248	30449.06
732.589	30150.08
732.93	30086.36
733.271	30120.25
733.612	30205.45
733.953	30159.8
734.294	30110.08
734.635	29944.21
734.976	30091.33
735.317	29831.22
735.658	29776.99
735.999	29742.86
736.339	29744.9
736.68	29871.9
737.021	29745.12
737.361	29593.04
737.702	29791.22
738.042	29568.18
738.383	29628.97
738.723	29650.89
739.063	29555.75
739.404	29686.14
739.744	29488.41
740.084	29463.55
740.424	29375.19
740.764	29333.61
741.104	29550.55
741.444	29274.4
741.784	29224.23
742.124	29296.77
742.464	29117.57
742.804	29059.94
743.143	29095.2
743.483	29034.63
743.823	28871.92
744.162	28901.75
744.502	29001.64
744.841	28821.76
745.181	28866.27
745.52	28830.12
745.86	28775.88
746.199	28759.61
746.538	28754.64
746.877	28797.12
747.216	28762.77
747.556	28629.67
747.895	28614.76
748.234	28458.6
748.573	28457.25
748.911	28487.3
749.25	28442.11
749.589	28181.55
749.928	28336.8
750.267	28363.24
750.605	28361.2
750.944	28237.14
751.283	28033.98
751.621	28152.4
751.96	27918.73
752.298	27991.04
752.636	27945.62
752.975	27886.87
753.313	27837.15
753.651	27781.33
753.989	27728
754.327	27708.11
754.666	27649.81
755.004	27618.85
755.342	27641.9
755.679	27513.32
756.017	27392.42
756.355	27448.69
756.693	27270.84
757.031	27354.68
757.368	27210.5
757.706	27125.3
758.044	27089.15
