Data from hue_310_FLMS001491_10.txt Node
Date: Mon Feb 06 15:48:24 GMT 2017
User: dcchb
Spectrometer: FLMS00149
Trigger mode: 0
Integration Time (sec): 2.000000E-2
Scans to average: 10
Electric dark correction enabled: true
Nonlinearity correction enabled: false
Boxcar width: 0
XAxis mode: Wavelengths
Number of Pixels in Spectrum: 2048
>>>>>Begin Spectral Data<<<<<
341.393	-14.36
341.776	-14.36
342.16	-14.36
342.543	-49.62
342.927	-62.27
343.31	-93.68
343.693	-75.83
344.077	-70.18
344.46	-63.4
344.843	-37.87
345.226	-32.22
345.61	-16.4
345.993	-8.71
346.376	4.17
346.759	7.1
347.142	11.62
347.525	56.37
347.908	38.74
348.291	75.58
348.674	96.82
349.057	107.89
349.44	141.56
349.823	131.62
350.206	164.16
350.588	202.58
350.971	216.59
351.354	213.88
351.737	258.4
352.119	253.65
352.502	248.91
352.884	288
353.267	276.7
353.65	293.88
354.032	304.27
354.414	298.17
354.797	317.15
355.179	318.28
355.562	315.12
355.944	329.81
356.326	346.3
356.709	341.56
357.091	336.14
357.473	363.93
357.855	330.94
358.238	324.16
358.62	333.88
359.002	342.24
359.384	336.81
359.766	322.35
360.148	359.19
360.53	358.96
360.912	336.14
361.294	321.22
361.676	344.04
362.057	330.26
362.439	324.61
362.821	342.91
363.203	324.38
363.584	320.99
363.966	330.26
364.348	310.6
364.729	328.68
365.111	298.62
365.493	324.61
365.874	313.76
366.256	314.89
366.637	333.42
367.019	325.74
367.4	322.35
367.781	306.98
368.163	320.77
368.544	323.03
368.925	311.5
369.306	302.69
369.688	329.13
370.069	306.08
370.45	321.45
370.831	308.57
371.212	331.16
371.593	306.08
371.974	296.14
372.355	333.2
372.736	333.42
373.117	319.64
373.498	317.83
373.879	314.21
374.26	309.24
374.641	305.18
375.021	300.88
375.402	331.62
375.783	329.36
376.163	342.46
376.544	320.99
376.925	331.62
377.305	343.14
377.686	338.62
378.066	321.22
378.447	336.36
378.827	337.49
379.208	331.62
379.588	342.46
379.968	343.59
380.349	331.62
380.729	326.64
381.109	315.34
381.489	348.56
381.87	349.92
382.25	336.59
382.63	365.29
383.01	337.27
383.39	348.34
383.77	361.9
384.15	352.41
384.53	329.13
384.91	363.25
385.29	333.2
385.67	364.61
386.049	350.37
386.429	363.48
386.809	368
387.189	362.8
387.568	376.13
387.948	358.73
388.328	358.28
388.707	347.66
389.087	357.15
389.466	354.67
389.846	358.28
390.225	341.56
390.605	366.19
390.984	358.06
391.363	363.93
391.743	360.32
392.122	366.42
392.501	366.87
392.881	366.87
393.26	379.75
393.639	387.66
394.018	394.89
394.397	379.52
394.776	381.56
395.155	408.45
395.534	391.28
395.913	397.83
396.292	367.77
396.671	396.47
397.05	390.15
397.429	382.24
397.808	409.58
398.186	386.3
398.565	388.56
398.944	434.21
399.323	407.55
399.701	394.89
400.08	389.24
400.458	418.84
400.837	403.93
401.215	412.52
401.594	389.92
401.972	428.56
402.351	423.59
402.729	420.65
403.107	416.59
403.486	399.64
403.864	435.79
404.242	433.53
404.62	440.77
404.999	438.73
405.377	421.78
405.755	450.26
406.133	450.71
406.511	463.59
406.889	461.1
407.267	488.9
407.645	473.31
408.023	489.58
408.401	462.23
408.779	480.09
409.156	491.39
409.534	486.64
409.912	490.93
410.29	497.03
410.667	503.36
411.045	507.2
411.422	507.43
411.8	532.51
412.178	547.2
412.555	559.86
412.933	552.4
413.31	553.98
413.687	539.75
414.065	565.51
414.442	586.07
414.819	580.2
415.197	567.77
415.574	573.87
415.951	612.74
416.328	617.03
416.705	605.28
417.082	617.94
417.46	611.16
417.837	627.88
418.214	627.88
418.591	643.02
418.967	672.62
419.344	662.23
419.721	690.7
420.098	671.49
420.475	694.54
420.852	692.51
421.228	692.96
421.605	716.46
421.982	735.22
422.358	733.19
422.735	732.73
423.111	772.73
423.488	750.36
423.864	760.76
424.241	767.08
424.617	812.28
424.994	794.88
425.37	778.61
425.746	800.98
426.123	808.67
426.499	815.9
426.875	812.96
427.251	832.17
427.627	849.79
428.003	863.13
428.379	872.62
428.756	882.11
429.132	868.32
429.507	897.93
429.883	915.1
430.259	931.37
430.635	909
431.011	929.34
431.387	968.66
431.763	980.41
432.138	946.06
432.514	957.14
432.89	970.02
433.265	1019.96
433.641	1029.9
434.016	1020.19
434.392	1054.76
434.767	1047.98
435.143	1075.55
435.518	1050.47
435.894	1070.81
436.269	1069.9
436.644	1085.49
437.02	1102.22
437.395	1066.51
437.77	1140.86
438.145	1149.45
438.52	1151.03
438.895	1146.51
439.271	1182.21
439.646	1208.43
440.021	1185.6
440.395	1186.96
440.77	1177.24
441.145	1244.81
441.52	1221.54
441.895	1208.2
442.27	1228.99
442.645	1220.86
443.019	1247.52
443.394	1239.16
443.769	1264.02
444.143	1245.94
444.518	1264.92
444.892	1284.36
445.267	1270.35
445.641	1282.1
446.016	1309.22
446.39	1306.05
446.764	1304.02
447.139	1299.73
447.513	1307.41
447.887	1296.34
448.262	1297.92
448.636	1319.61
449.01	1320.74
449.384	1324.81
449.758	1314.19
450.132	1338.59
450.506	1346.05
450.88	1347.18
451.254	1355.09
451.628	1354.41
452.002	1388.76
452.376	1378.82
452.75	1391.7
453.123	1377.24
453.497	1406.16
453.871	1388.08
454.244	1440.06
454.618	1431.93
454.992	1447.07
455.365	1437.8
455.739	1464.92
456.112	1473.96
456.486	1471.7
456.859	1462.21
457.232	1522.77
457.606	1495.43
457.979	1526.39
458.352	1540.62
458.725	1567.52
459.099	1584.69
459.472	1594.41
459.845	1582.66
460.218	1594.63
460.591	1615.2
460.964	1624.24
461.337	1648.19
461.71	1640.51
462.083	1652.03
462.456	1661.52
462.829	1665.14
463.201	1675.76
463.574	1709.88
463.947	1724.8
464.32	1722.77
464.692	1754.18
465.065	1750.11
465.438	1775.87
465.81	1787.85
466.183	1795.31
466.555	1847.06
466.928	1826.27
467.3	1800.28
467.672	1829.66
468.045	1873.72
468.417	1897.45
468.789	1893.83
469.161	1900.16
469.534	1911.24
469.906	1988.75
470.278	1953.27
470.65	1991.23
471.022	1993.94
471.394	2029.2
471.766	2047.05
472.138	2047.05
472.51	2061.51
472.882	2082.3
473.253	2112.59
473.625	2112.81
473.997	2196.43
474.369	2140.16
474.74	2165.24
475.112	2171.34
475.484	2165.47
475.855	2257.89
476.227	2234.62
476.598	2323.65
476.97	2320.49
477.341	2365.91
477.713	2407.49
478.084	2379.7
478.455	2431.45
478.827	2444.33
479.198	2493.37
479.569	2464.67
479.94	2571.1
480.311	2596.41
480.682	2613.14
481.053	2646.81
481.424	2673.93
481.795	2664.66
482.166	2735.17
482.537	2752.57
482.908	2765.22
483.279	2769.07
483.65	2815.39
484.021	2843.87
484.391	2896.75
484.762	2885.9
485.133	2968.83
485.503	2920.02
485.874	2967.48
486.244	3001.15
486.615	3049.06
486.985	3059.23
487.356	3101.26
487.726	3098.1
488.097	3166.34
488.467	3152.11
488.837	3211.99
489.207	3249.05
489.578	3248.6
489.948	3304.42
490.318	3303.29
490.688	3310.29
491.058	3391.42
491.428	3437.75
491.798	3433.23
492.168	3469.84
492.538	3499.89
492.908	3489.27
493.278	3514.36
493.648	3580.8
494.017	3581.7
494.387	3583.96
494.757	3600.23
495.126	3605.88
495.496	3650.4
495.866	3661.25
496.235	3708.93
496.605	3737.63
496.974	3728.36
497.344	3793.9
497.713	3727.23
498.082	3781.92
498.452	3819.66
498.821	3875.48
499.19	3863.73
499.559	3881.35
499.928	3901.01
500.298	3903.95
500.667	3933.33
501.036	3892.43
501.405	3962.71
501.774	3921.8
502.143	3959.99
502.512	3981.92
502.88	4056.49
503.249	4016.04
503.618	4052.87
503.987	4045.64
504.356	4049.26
504.724	4096.71
505.093	4111.86
505.462	4154.11
505.83	4147.33
506.199	4193.21
506.567	4179.88
506.936	4104.4
507.304	4228.24
507.672	4241.12
508.041	4228.91
508.409	4285.18
508.777	4294.68
509.145	4278.4
509.514	4243.6
509.882	4327.44
510.25	4303.94
510.618	4327.89
510.986	4348.01
511.354	4319.08
511.722	4350.27
512.09	4415.35
512.458	4357.72
512.826	4439.3
513.193	4410.6
513.561	4442.92
513.929	4459.64
514.297	4436.59
514.664	4498.96
515.032	4464.16
515.4	4529.02
515.767	4565.63
516.135	4499.64
516.502	4516.14
516.869	4588.68
517.237	4575.57
517.604	4573.54
517.972	4615.34
518.339	4569.7
518.706	4608.57
519.073	4606.31
519.44	4633.88
519.808	4709.35
520.175	4690.15
520.542	4668.68
520.909	4722.23
521.276	4703.48
521.643	4793.87
522.009	4749.35
522.376	4756.81
522.743	4790.03
523.11	4810.37
523.477	4839.07
523.843	4875.68
524.21	4895.11
524.577	4910.93
524.943	4945.51
525.31	4928.33
525.676	5010.59
526.043	5025.96
526.409	5025.5
526.776	5066.41
527.142	5057.14
527.508	5063.47
527.874	5095.56
528.241	5124.71
528.607	5161.55
528.973	5192.05
529.339	5225.05
529.705	5264.59
530.071	5284.93
530.437	5256.91
530.803	5314.08
531.169	5352.73
531.535	5358.6
531.901	5338.94
532.267	5384.59
532.632	5373.97
532.998	5470.01
533.364	5414.42
533.73	5497.13
534.095	5516.34
534.461	5486.51
534.826	5595.21
535.192	5585.04
535.557	5627.07
535.923	5626.84
536.288	5627.75
536.653	5688.54
537.019	5597.92
537.384	5627.97
537.749	5710.23
538.114	5684.7
538.479	5763.34
538.845	5747.97
539.21	5747.29
539.575	5828.19
539.94	5839.04
540.305	5846.05
540.67	5851.24
541.034	5855.76
541.399	5888.31
541.764	5930.56
542.129	5988.42
542.494	6001.52
542.858	5994.97
543.223	6019.83
543.587	6070.9
543.952	6080.84
544.316	6149.32
544.681	6116.1
545.045	6177.56
545.41	6199.48
545.774	6301.85
546.138	6184.8
546.503	6275.41
546.867	6265.47
547.231	6307.5
547.595	6328.29
547.959	6337.33
548.324	6303.44
548.688	6351.57
549.052	6400.83
549.416	6423.66
549.779	6440.83
550.143	6469.76
550.507	6488.74
550.871	6482.41
551.235	6535.75
551.599	6571.9
551.962	6568.51
552.326	6595.86
552.689	6610.09
553.053	6620.04
553.417	6616.87
553.78	6724.89
554.143	6669.75
554.507	6715.4
554.87	6695.74
555.234	6773.93
555.597	6768.28
555.96	6790.88
556.323	6803.54
556.686	6825.46
557.05	6840.37
557.413	6802.63
557.776	6881.05
558.139	6915.4
558.502	6892.12
558.865	6930.54
559.228	6999.24
559.59	7044.43
559.953	7033.81
560.316	7100.48
560.679	7020.71
561.041	7055.28
561.404	7115.17
561.767	7173.7
562.129	7145.22
562.492	7193.58
562.854	7213.69
563.217	7200.14
563.579	7147.93
563.941	7286.46
564.304	7328.95
564.666	7310.87
565.028	7344.76
565.39	7387.02
565.753	7438.1
566.115	7426.34
566.477	7414.59
566.839	7439.68
567.201	7459.11
567.563	7513.57
567.925	7530.07
568.287	7545.21
568.648	7618.66
569.01	7663.85
569.372	7691.87
569.734	7661.14
570.095	7781.59
570.457	7789.05
570.819	7832.44
571.18	7776.39
571.542	7882.38
571.903	7941.58
572.265	7942.94
572.626	7921.47
572.987	8045.54
573.349	8056.61
573.71	8125.31
574.071	8178.64
574.432	8198.3
574.794	8384.29
575.155	8318.75
575.516	8415.24
575.877	8458.18
576.238	8424.96
576.599	8611.17
576.96	8601
577.32	8669.93
577.681	8770.49
578.042	8815.46
578.403	8922.35
578.763	8956.7
579.124	9139.52
579.485	9202.79
579.845	9316.24
580.206	9434.65
580.566	9547.64
580.927	9597.13
581.287	9762.78
581.648	9915.77
582.008	10093.17
582.368	10178.14
582.728	10365.48
583.089	10519.14
583.449	10689.99
583.809	10819.48
584.169	11047.04
584.529	11160.26
584.889	11400.03
585.249	11578.1
585.609	11691.32
585.969	11955.72
586.329	12208.82
586.688	12405.65
587.048	12615.36
587.408	12801.8
587.768	13066.65
588.127	13352.52
588.487	13550.48
588.846	13924.03
589.206	14106.85
589.565	14322.66
589.925	14647.17
590.284	14886.49
590.643	15158.12
591.003	15420.03
591.362	15840.36
591.721	16011.66
592.08	16358.99
592.44	16710.39
592.799	16953.55
593.158	17257.95
593.517	17603.7
593.876	17824.49
594.235	18127.76
594.593	18411.14
594.952	18809.77
595.311	19060.39
595.67	19377.89
596.029	19754.16
596.387	20178.78
596.746	20539.22
597.104	20653.12
597.463	20941.7
597.822	21430.5
598.18	21687.66
598.538	21900.31
598.897	22360.64
599.255	22473.86
599.613	23085.37
599.972	23190.22
600.33	23567.39
600.688	23689.42
601.046	24122.4
601.404	24476.52
601.762	24695.04
602.12	25163.05
602.478	25474.91
602.836	25706.99
603.194	25831.51
603.552	26280.09
603.91	26361.21
604.268	26898.6
604.625	26959.62
604.983	27346.27
605.341	27484.12
605.698	27912.13
606.056	28254.72
606.413	28426.92
606.771	28782.62
607.128	28941.48
607.485	29101.25
607.843	29408.37
608.2	29772.65
608.557	30034.34
608.914	30183.49
609.272	30545.51
609.629	30827.31
609.986	31056.23
610.343	31126.06
610.7	31592.94
611.057	31742.54
611.414	31966.04
611.771	32071.35
612.127	32344.56
612.484	32544.55
612.841	32839.24
613.198	32693.25
613.554	33082.39
613.911	33436.51
614.267	33558.09
614.624	33657.07
614.98	33894.12
615.337	34194
615.693	34260.67
616.05	34421.79
616.406	34789.47
616.762	34720.99
617.118	34937.03
617.475	35124.37
617.831	35273.3
618.187	35475.1
618.543	35700.86
618.899	35883.68
619.255	36082.54
619.611	35992.6
619.967	36282.53
620.323	36416.77
620.678	36410.44
621.034	36528.63
621.39	36709.19
621.746	36678.68
622.101	37181.27
622.457	37025.79
622.812	37160.48
623.168	37360.02
623.523	37334.94
623.879	37695.6
624.234	37589.84
624.589	37659.9
624.945	37855.83
625.3	38001.36
625.655	38074.58
626.01	38142.6
626.365	38145.76
626.72	38300.33
627.075	38308.7
627.43	38346.89
627.785	38501.91
628.14	38554.34
628.495	38625.75
628.85	38656.03
629.205	38592.98
629.559	38837.27
629.914	38779.64
630.269	38803.37
630.623	38846.08
630.978	38717.5
631.332	39032.74
631.687	39118.62
632.041	38865.29
632.396	39065.29
632.75	38946.19
633.104	39016.25
633.459	38860.32
633.813	38993.65
634.167	38948
634.521	39173.98
634.875	39031.16
635.229	39038.17
635.583	38916.59
635.937	39048.79
636.291	38971.28
636.645	39063.03
636.999	39073.65
637.352	39270.48
637.706	38924.5
638.06	39112.52
638.413	38929.47
638.767	39079.07
639.121	39226.41
639.474	39027.77
639.828	38990.26
640.181	39105.96
640.534	38984.61
640.888	38981.67
641.241	38895.57
641.594	38949.58
641.947	39246.98
642.301	39115.45
642.654	38985.29
643.007	39068.68
643.36	39022.58
643.713	39020.99
644.066	39053.08
644.419	38816.71
644.771	38671.62
645.124	38173.56
645.477	38226.66
645.83	37957.97
646.182	37940.12
646.535	37729.73
646.888	37945.77
647.24	37814.47
647.593	37925.2
647.945	37953.23
648.298	37818.54
648.65	37732.44
649.002	37612.9
649.355	37695.6
649.707	37826.45
650.059	37957.29
650.411	38263.05
650.763	38247
651.115	38642.92
651.467	38512.98
651.819	38591.85
652.171	38679.99
652.523	38459.2
652.875	38540.55
653.227	38341.46
653.578	38586.2
653.93	38471.18
654.282	38355.93
654.633	38329.49
654.985	38375.59
655.337	38445.87
655.688	38480.22
656.039	38640.89
656.391	38220.79
656.742	38255.82
657.094	38261.69
657.445	38365.19
657.796	38285.19
658.147	38338.75
658.498	38216.27
658.849	38396.38
659.2	38310.05
659.551	38338.53
659.902	38242.71
660.253	38274.8
660.604	38310.73
660.955	38083.62
661.306	38288.81
661.656	38229.38
662.007	38186.21
662.358	38169.49
662.708	38163.84
663.059	38273.89
663.409	37988.93
663.76	38235.93
664.11	38257.62
664.461	38266.89
664.811	38180.34
665.161	38245.19
665.511	38130.62
665.862	38048.14
666.212	38308.92
666.562	38204.74
666.912	38189.15
667.262	38086.1
667.612	38189.38
667.962	38161.81
668.312	38114.12
668.662	38169.49
669.011	38201.13
669.361	38192.09
669.711	38078.19
670.06	37994.58
670.41	37935.37
670.76	37945.32
671.109	38147.57
671.459	37991.19
671.808	38038.42
672.157	38116.61
672.507	37808.82
672.856	37782.83
673.205	37989.38
673.554	37995.71
673.904	37787.13
674.253	37880.68
674.602	37913.68
674.951	37421.04
675.3	37153.47
675.649	37867.8
675.998	37611.77
676.346	37730.63
676.695	37905.99
677.044	37583.52
677.393	37758.65
677.741	37701.25
678.09	37620.35
678.438	37656.06
678.787	37590.3
679.135	37587.59
679.484	37416.97
679.832	37513.46
680.181	37266.69
680.529	37496.74
680.877	37337.2
681.225	37237.76
681.573	37456.06
681.922	37339.46
682.27	37196.63
682.618	37121.38
682.966	37030.54
683.314	37118.9
683.661	37019.69
684.009	36852.92
684.357	36858.11
684.705	36704.44
685.053	36918.45
685.4	36733.6
685.748	36612.7
686.095	36621.51
686.443	36371.8
686.79	36391.23
687.138	36451.57
687.485	36470.55
687.832	36313.27
688.18	36350.1
688.527	36155.53
688.874	36168.19
689.221	36114.86
689.568	36021.3
689.915	35936.33
690.262	36026.04
690.609	35801.42
690.956	35639.84
691.303	35662.89
691.65	35609.11
691.997	35424.7
692.344	35275.33
692.69	35252.51
693.037	35315.1
693.383	35094.32
693.73	35154.88
694.077	34947.65
694.423	34889.13
694.769	34950.14
695.116	34709.02
695.462	34512.41
695.808	34512.41
696.155	34696.14
696.501	34392.41
696.847	34398.97
697.193	34121.69
697.539	34302.02
697.885	33978.19
698.231	33825.88
698.577	33921.47
698.923	33892.77
699.269	33682.6
699.614	33534.58
699.96	33573.68
700.306	33455.94
700.651	33451.65
700.997	33213.01
701.342	33179.79
701.688	33196.97
702.033	33037.87
702.379	33061.83
702.724	32975.5
703.069	33030.42
703.415	32726.7
703.76	32811.21
704.105	32699.13
704.45	32717.88
704.795	32445.8
705.14	32346.37
705.485	32349.98
705.83	32296.88
706.175	32382.98
706.52	32203.09
706.865	32126.26
707.209	32153.38
707.554	32028.18
707.899	31919.03
708.243	31709.77
708.588	31780.96
708.932	31660.74
709.277	31526.73
709.621	31488.76
709.966	31317.24
710.31	31409.44
710.654	31194.53
710.998	31243.8
711.342	31222.55
711.687	31097.13
712.031	30954.09
712.375	30995.67
712.719	30952.73
713.063	30853.52
713.407	30973.52
713.75	30836.35
714.094	30745.51
714.438	30520.2
714.782	30614.89
715.125	30439.52
715.469	30673.42
715.812	30359.75
716.156	30222.58
716.499	30107.56
716.843	30215.35
717.186	30055.13
717.53	30237.5
717.873	30110.27
718.216	30101
718.559	29922.25
718.902	29861.69
719.246	29961.57
719.589	29702.82
719.932	29620.11
720.275	29670.51
720.617	29618.98
720.96	29593.9
721.303	29400.23
721.646	29519.77
721.989	29345.77
722.331	29508.48
722.674	29274.36
723.016	29417.18
723.359	29211.31
723.701	29256.73
724.044	29137.86
724.386	28852.45
724.729	29148.94
725.071	28939.68
725.413	28932.9
725.755	28943.29
726.097	28910.3
726.439	28676.41
726.782	28863.75
727.124	28778.33
727.465	28691.1
727.807	28618.56
728.149	28618.33
728.491	28487.94
728.833	28513.25
729.175	28432.57
729.516	28421.5
729.858	28415.4
730.199	28364.55
730.541	28246.14
730.882	28160.94
731.224	28230.77
731.565	28153.03
731.906	28194.16
732.248	28066.93
732.589	27970.21
732.93	28011.11
733.271	27967.27
733.612	28013.83
733.953	27910.1
734.294	27923.88
734.635	27750.78
734.976	27825.13
735.317	27746.94
735.658	27637.79
735.999	27545.82
736.339	27496.33
736.68	27637.79
737.021	27649.99
737.361	27501.97
737.702	27448.64
738.042	27418.59
738.383	27313.73
738.723	27332.26
739.063	27313.73
739.404	27406.61
739.744	27070.35
740.084	27129.1
740.424	27244.13
740.764	27073.51
741.104	27279.16
741.444	27016.56
741.784	27070.57
742.124	27106.28
742.464	26937.7
742.804	26932.5
743.143	26830.58
743.483	26759.17
743.823	26602.56
744.162	26734.31
744.502	26732.73
744.841	26646.4
745.181	26697.93
745.52	26536.35
745.86	26473.75
746.199	26449.8
746.538	26426.52
746.877	26495.9
747.216	26418.16
747.556	26394.66
747.895	26400.53
748.234	26146.3
748.573	26200.09
748.911	26081
749.25	26167.77
749.589	26076.93
749.928	26146.98
750.267	26151.95
750.605	25984.05
750.944	25931.62
751.283	25688.46
751.621	25908.57
751.96	25765.98
752.298	25744.51
752.636	25657.96
752.975	25412.99
753.313	25549.71
753.651	25552.42
753.989	25492.31
754.327	25417.74
754.666	25194.92
755.004	25366.44
755.342	25320.11
755.679	25388.13
756.017	25114.69
756.355	25143.39
756.693	25003.96
757.031	25068.14
757.368	24877.64
757.706	24850.97
758.044	24718.77
758.381	24809.62
758.719	24652.78
759.056	24709.05
759.394	24606.23
759.731	24350.19
