Data from hue_26_FLMS001491_00100.txt Node
Date: Tue Feb 07 17:14:51 GMT 2017
User: dcchb
Spectrometer: FLMS00149
Trigger mode: 0
Integration Time (sec): 2.000000E-2
Scans to average: 10
Electric dark correction enabled: true
Nonlinearity correction enabled: false
Boxcar width: 0
XAxis mode: Wavelengths
Number of Pixels in Spectrum: 2048
>>>>>Begin Spectral Data<<<<<
341.393	-16.67
341.776	-16.67
342.16	-16.67
342.543	-70.9
342.927	-73.16
343.31	-74.52
343.693	-69.77
344.077	-72.71
344.46	-55.08
344.843	-67.51
345.226	-36.33
345.61	-40.39
345.993	-2.43
346.376	10.9
346.759	10.23
347.142	33.05
347.525	50.68
347.908	42.99
348.291	78.7
348.674	93.61
349.057	98.58
349.44	156.44
349.823	115.31
350.206	189.43
350.588	199.83
350.971	219.26
351.354	262.2
351.737	257.22
352.119	250.22
352.502	277.11
352.884	281.63
353.267	299.26
353.65	306.26
354.032	308.52
354.414	319.6
354.797	320.27
355.179	328.64
355.562	342.42
355.944	329.09
356.326	342.87
356.709	351.23
357.091	342.19
357.473	372.02
357.855	359.37
358.238	381.52
358.62	355.75
359.002	357.11
359.384	365.24
359.766	372.02
360.148	358.92
360.53	372.25
360.912	357.11
361.294	350.33
361.676	346.04
362.057	336.09
362.439	349.65
362.821	325.47
363.203	352.59
363.584	366.37
363.966	347.84
364.348	372.25
364.729	352.82
365.111	341.06
365.493	353.04
365.874	331.57
366.256	339.48
366.637	341.74
367.019	340.84
367.4	341.74
367.781	342.19
368.163	320.95
368.544	320.5
368.925	337
369.306	336.32
369.688	333.16
370.069	339.03
370.45	346.49
370.831	353.27
371.212	329.31
371.593	348.75
371.974	328.64
372.355	360.5
372.736	340.61
373.117	344.91
373.498	355.3
373.879	353.27
374.26	350.33
374.641	329.77
375.021	348.97
375.402	329.77
375.783	337.22
376.163	357.11
376.544	362.98
376.925	341.74
377.305	365.47
377.686	352.14
378.066	357.11
378.447	347.39
378.827	337
379.208	351.91
379.588	358.24
379.968	384.68
380.349	361.4
380.729	346.71
381.109	373.38
381.489	369.76
381.87	358.69
382.25	370.67
382.63	369.76
383.01	384
383.39	374.06
383.77	358.69
384.15	384.45
384.53	392.81
384.91	368.18
385.29	374.28
385.67	377.67
386.049	403.66
386.429	390.1
386.809	386.49
387.189	388.07
387.568	391.23
387.948	409.99
388.328	397.56
388.707	405.02
389.087	414.28
389.466	409.99
389.846	409.31
390.225	393.49
390.605	399.14
390.984	412.25
391.363	428.97
391.743	405.24
392.122	416.54
392.501	424.9
392.881	427.84
393.26	423.55
393.639	431.01
394.018	443.21
394.397	442.3
394.776	438.46
395.155	425.58
395.534	481.17
395.913	427.84
396.292	437.56
396.671	461.97
397.05	445.02
397.429	416.99
397.808	427.84
398.186	441.85
398.565	455.19
398.944	434.85
399.323	458.12
399.701	449.54
400.08	429.2
400.458	454.96
400.837	469.65
401.215	496.77
401.594	483.89
401.972	488.41
402.351	462.42
402.729	484.34
403.107	488.41
403.486	483.21
403.864	470.1
404.242	493.38
404.62	493.38
404.999	507.39
405.377	485.02
405.755	498.8
406.133	503.32
406.511	503.09
406.889	523.66
407.267	511.46
407.645	509.42
408.023	539.03
408.401	550.32
408.779	528.86
409.156	571.57
409.534	553.94
409.912	526.14
410.29	535.41
410.667	560.95
411.045	573.15
411.422	573.15
411.8	565.01
412.178	580.61
412.555	593.94
412.933	573.37
413.31	565.24
413.687	586.93
414.065	599.36
414.442	602.98
414.819	592.13
415.197	616.99
415.574	609.31
415.951	620.15
416.328	628.29
416.705	616.09
417.082	617.89
417.46	626.03
417.837	645.46
418.214	637.78
418.591	631
418.967	656.54
419.344	654.5
419.721	662.41
420.098	642.75
420.475	663.77
420.852	671.23
421.228	686.82
421.605	682.07
421.982	689.98
422.358	695.41
422.735	694.05
423.111	694.95
423.488	708.29
423.864	714.61
424.241	728.62
424.617	723.2
424.994	698.34
425.37	712.81
425.746	725.01
426.123	739.92
426.499	789.19
426.875	764.33
427.251	782.63
427.627	776.08
428.003	788.06
428.379	779.02
428.756	767.72
429.132	785.8
429.507	827.38
429.883	810.66
430.259	845.46
430.635	828.96
431.011	812.92
431.387	843.42
431.763	849.07
432.138	878.9
432.514	877.55
432.89	884.55
433.265	895.85
433.641	906.25
434.016	883.2
434.392	942.86
434.767	939.24
435.143	927.04
435.518	964.32
435.894	943.76
436.269	933.59
436.644	979.01
437.02	970.65
437.395	962.29
437.77	983.53
438.145	997.54
438.52	1004.78
438.895	1009.97
439.271	1005.23
439.646	1028.05
440.021	1028.5
440.395	1038.22
440.77	1040.71
441.145	1084.55
441.52	1067.37
441.895	1067.83
442.27	1095.17
442.645	1100.59
443.019	1087.03
443.394	1104.21
443.769	1127.03
444.143	1102.85
444.518	1132.91
444.892	1105.79
445.267	1122.06
445.641	1147.82
446.016	1137.65
446.39	1145.11
446.764	1160.25
447.139	1130.2
447.513	1179.69
447.887	1165.9
448.262	1197.31
448.636	1190.53
449.01	1175.62
449.384	1197.31
449.758	1204.32
450.132	1232.11
450.506	1231.44
450.88	1265.79
451.254	1236.41
451.628	1283.19
452.002	1273.92
452.376	1296.29
452.75	1287.03
453.123	1291.77
453.497	1301.49
453.871	1338.78
454.244	1348.04
454.618	1373.13
454.992	1358.44
455.365	1382.39
455.739	1416.29
456.112	1423.52
456.486	1435.72
456.859	1459
457.232	1482.73
457.606	1500.58
457.979	1480.92
458.352	1511.43
458.725	1557.3
459.099	1559.79
459.472	1599.34
459.845	1579
460.218	1608.15
460.591	1630.52
460.964	1640.47
461.337	1633.23
461.71	1651.76
462.083	1690.18
462.456	1695.61
462.829	1705.55
463.201	1758.88
463.574	1758.2
463.947	1772.44
464.32	1820.12
464.692	1807.92
465.065	1844.3
465.438	1875.26
465.81	1905.32
466.183	1901.25
466.555	1960.46
466.928	1962.72
467.3	1976.28
467.672	2033.22
468.045	2066.44
468.417	2045.2
468.789	2054.24
469.161	2111.64
469.534	2131.75
469.906	2186.21
470.278	2216.95
470.65	2235.48
471.022	2278.87
471.394	2301.46
471.766	2344.63
472.138	2383.72
472.51	2452.2
472.882	2450.16
473.253	2490.39
473.625	2515.24
473.997	2543.49
474.369	2622.81
474.74	2669.14
475.112	2684.28
475.484	2755.69
475.855	2754.33
476.227	2797.05
476.598	2921.34
476.97	2928.57
477.341	3000.66
477.713	3045.63
478.084	3050.37
478.455	3133.53
478.827	3179.41
479.198	3289.01
479.569	3323.36
479.94	3452.85
480.311	3453.53
480.682	3579.85
481.053	3611.49
481.424	3656.01
481.795	3706.85
482.166	3780.52
482.537	3875.66
482.908	3906.62
483.279	3947.75
483.65	4069.1
484.021	4139.38
484.391	4241.53
484.762	4248.76
485.133	4327.85
485.503	4382.09
485.874	4494.4
486.244	4528.07
486.615	4615.98
486.985	4674.28
487.356	4808.97
487.726	4865.47
488.097	4921.51
488.467	4982.98
488.837	5089.87
489.207	5160.6
489.578	5263.19
489.948	5311.56
490.318	5416.86
490.688	5441.27
491.058	5541.61
491.428	5638.33
491.798	5674.03
492.168	5831.32
492.538	5837.19
492.908	5909.28
493.278	6006.23
493.648	6011.65
494.017	6159.22
494.387	6149.05
494.757	6265.88
495.126	6336.16
495.496	6333.22
495.866	6455.48
496.235	6481.24
496.605	6600.56
496.974	6608.47
497.344	6694.57
497.713	6759.2
498.082	6782.03
498.452	6860.89
498.821	6897.5
499.19	6926.43
499.559	7010.49
499.928	7046.65
500.298	7095.92
500.667	7245.06
501.036	7200.55
501.405	7291.62
501.774	7316.02
502.143	7349.47
502.512	7367.55
502.88	7453.19
503.249	7554.89
503.618	7502.46
503.987	7586.07
504.356	7725.05
504.724	7657.93
505.093	7702.23
505.462	7728.21
505.83	7864.71
506.199	7906.29
506.567	7957.81
506.936	7965.5
507.304	8081.43
507.672	8083.91
508.041	8097.02
508.409	8239.39
508.777	8183.8
509.145	8260.86
509.514	8308.54
509.882	8342.44
510.25	8348.09
510.618	8398.48
510.986	8424.47
511.354	8548.31
511.722	8574.97
512.09	8654.29
512.458	8676.21
512.826	8711.24
513.193	8746.95
513.561	8789.88
513.929	8833.04
514.297	8875.08
514.664	9035.75
515.032	8994.62
515.4	9015.64
515.767	9012.25
516.135	9135.64
516.502	9080.27
516.869	9262.64
517.237	9207.27
517.604	9223.77
517.972	9239.14
518.339	9354.39
518.706	9367.49
519.073	9393.48
519.44	9518.9
519.808	9501.05
520.175	9553.48
520.542	9594.83
520.909	9661.5
521.276	9748.05
521.643	9783.53
522.009	9850.87
522.376	9919.57
522.743	9925.22
523.11	9971.55
523.477	10121.82
523.843	10195.04
524.21	10240.24
524.577	10330.63
524.943	10355.04
525.31	10348.94
525.676	10476.84
526.043	10516.39
526.409	10589.38
526.776	10726.1
527.142	10671.19
527.508	10673.67
527.874	10818.08
528.241	10840.45
528.607	10944.85
528.973	10984.63
529.339	10941.01
529.705	11138.07
530.071	11229.14
530.437	11201.8
530.803	11279.53
531.169	11322.7
531.535	11380.77
531.901	11407.67
532.267	11431.85
532.632	11517.49
532.998	11566.31
533.364	11679.07
533.73	11679.98
534.095	11711.39
534.461	11777.83
534.826	11777.15
535.192	11974.2
535.557	12034.32
535.923	11980.53
536.288	12069.57
536.653	12165.16
537.019	12048.78
537.384	12170.36
537.749	12209.23
538.114	12264.14
538.479	12286.29
538.845	12391.6
539.21	12400.63
539.575	12491.03
539.94	12521.99
540.305	12650.35
540.67	12639.05
541.034	12661.87
541.399	12713.39
541.764	12736.67
542.129	12758.14
542.494	12841.07
542.858	12941.64
543.223	12958.59
543.587	13001.97
543.952	13027.06
544.316	13102.54
544.681	13101.86
545.045	13221.4
545.41	13234.06
545.774	13320.61
546.138	13382.53
546.503	13472.92
546.867	13468.4
547.231	13544.11
547.595	13625.91
547.959	13653.71
548.324	13719.7
548.688	13713.37
549.052	13753.59
549.416	13807.38
549.779	13796.3
550.143	13878.11
550.507	13993.13
550.871	14066.81
551.235	13969.63
551.599	14089.63
551.962	14128.95
552.326	14158.1
552.689	14264.09
553.053	14216.63
553.417	14235.16
553.78	14438.55
554.143	14434.25
554.507	14455.95
554.87	14483.74
555.234	14662.5
555.597	14623.63
555.96	14602.16
556.323	14811.19
556.686	14723.06
557.05	14770.74
557.413	14849.38
557.776	14932.77
558.139	15034.46
558.502	15032.88
558.865	15058.87
559.228	15202.59
559.59	15175.02
559.953	15142.03
560.316	15401.23
560.679	15469.48
561.041	15425.19
561.404	15515.35
561.767	15669.25
562.129	15617.5
562.492	15647.78
562.854	15685.07
563.217	15669.7
563.579	15774.56
563.941	15911.5
564.304	15953.08
564.666	16070.59
565.028	16110.37
565.39	16095.68
565.753	16162.8
566.115	16279.63
566.477	16331.83
566.839	16350.81
567.201	16487.76
567.563	16498.83
567.925	16658.6
568.287	16581.09
568.648	16647.98
569.01	16775.43
569.372	16826.96
569.734	16834.87
570.095	16958.03
570.457	17018.82
570.819	17125.48
571.18	17077.35
571.542	17266.27
571.903	17308.53
572.265	17365.93
572.626	17456.32
572.987	17458.58
573.349	17550.56
573.71	17600.5
574.071	17813.15
574.432	17856.54
574.794	18060.15
575.155	18004.78
575.516	18073.48
575.877	18197.09
576.238	18295.39
576.599	18362.96
576.96	18506.91
577.32	18601.15
577.681	18717.53
578.042	18852.89
578.403	19016.28
578.763	19026
579.124	19305.76
579.485	19397.74
579.845	19574.68
580.206	19758.86
580.566	19904.39
580.927	20040.66
581.287	20244.27
581.648	20304.61
582.008	20641.55
582.368	20819.85
582.728	20923.35
583.089	21088.32
583.449	21320.17
583.809	21671.8
584.169	21945.69
584.529	22043.09
584.889	22396.08
585.249	22580.93
585.609	22770.31
585.969	23145.44
586.329	23310.4
586.688	23610.06
587.048	23831.75
587.408	24132.76
587.768	24384.05
588.127	24704.27
588.487	25037.14
588.846	25407.3
589.206	25563.23
589.565	25957.57
589.925	26436.65
590.284	26616.08
590.643	27061.49
591.003	27419.22
591.362	27791.87
591.721	28133.1
592.08	28518.63
592.44	28917.49
592.799	29204.49
593.158	29517.7
593.517	29929.67
593.876	30374.4
594.235	30598.57
594.593	30918.11
594.952	31517.65
595.311	31735.49
595.67	32243.05
596.029	32750.16
596.387	33091.62
596.746	33488.89
597.104	33697.48
597.463	34102.44
597.822	34597.34
598.18	34831.46
598.538	35097.21
598.897	35779
599.255	35834.37
599.613	36611.52
599.972	36882.02
600.33	37311.84
600.688	37414.44
601.046	37947.76
601.404	38411.48
601.762	38656.89
602.12	39121.97
602.478	39448.96
602.836	39740.71
603.194	39940.02
603.552	40353.12
603.91	40569.84
604.268	41062.71
604.625	41253.44
604.983	41650.03
605.341	41919.18
605.698	42262.67
606.056	42620.4
606.413	42737.46
606.771	43293.61
607.128	43515.3
607.485	43665.12
607.843	43972.01
608.2	44515.95
608.557	44753
608.914	45010.85
609.272	45431.63
609.629	45639.53
609.986	45817.61
610.343	45933.99
610.7	46448.55
611.057	46634.76
611.414	46618.72
611.771	46988.88
612.127	47368.3
612.484	47428.41
612.841	47751.12
613.198	47790.44
613.554	47916.54
613.911	48341.84
614.267	48471.78
614.624	48469.29
614.98	48824.08
615.337	49159.22
615.693	49140.01
616.05	49262.04
616.406	49641.69
616.762	49661.8
617.118	49684.17
617.475	49827.67
617.831	50005.07
618.187	50242.13
618.543	50232.86
618.899	50438.05
619.255	50610.7
619.611	50558.95
619.967	50870.13
620.323	51099.96
620.678	51003.24
621.034	51020.18
621.39	51081.65
621.746	51228.99
622.101	51677.57
622.457	51376.78
622.812	51644.35
623.168	51717.57
623.523	51732.48
623.879	51893.38
624.234	51923.44
624.589	51885.47
624.945	51967.05
625.3	52079.82
625.655	52167.05
626.01	52210.89
626.365	52254.28
626.72	52283.43
627.075	52252.92
627.43	52341.51
627.785	52408.17
628.14	52511.44
628.495	52538.79
628.85	52620.59
629.205	52539.01
629.559	52744.66
629.914	52666.02
630.269	52706.47
630.623	52638.22
630.978	52652.01
631.332	52729.97
631.687	52799.57
632.041	52740.14
632.396	52867.59
632.75	52677.09
633.104	52783.75
633.459	52714.15
633.813	52721.61
634.167	52876.86
634.521	52746.92
634.875	52762.96
635.229	52819.91
635.583	52740.36
635.937	52777.43
636.291	52677.32
636.645	52781.95
636.999	52769.29
637.352	52887.93
637.706	52632.12
638.06	52809.74
638.413	52764.09
638.767	52760.25
639.121	52717.31
639.474	52609.75
639.828	52667.6
640.181	52727.03
640.534	52715.96
640.888	52652.46
641.241	52518.22
641.594	52687.26
641.947	52697.88
642.301	52718.9
642.654	52543.08
643.007	52614.72
643.36	52656.53
643.713	52562.74
644.066	52686.35
644.419	52557.32
644.771	52417.66
645.124	52027.62
645.477	51864.68
645.83	51665.36
646.182	51753.72
646.535	51592.6
646.888	51682.99
647.24	51560.51
647.593	51788.98
647.945	51636.89
648.298	51486.16
648.65	51571.36
649.002	51374.07
649.355	51598.93
649.707	51464.24
650.059	51708.53
650.411	52118.01
650.763	51966.15
651.115	52393.71
651.467	52279.13
651.819	52258.34
652.171	52282.75
652.523	52153.26
652.875	52194.62
653.227	52039.14
653.578	52211.34
653.93	52173.15
654.282	52033.49
654.633	52008.63
654.985	52057.67
655.337	52148.52
655.688	52178.12
656.039	52139.48
656.391	51938.8
656.742	51912.14
657.094	51875.53
657.445	52085.47
657.796	52089.99
658.147	51928.41
658.498	51972.7
658.849	51998.69
659.2	51957.33
659.551	51890.9
659.902	52008.41
660.253	51911.23
660.604	51991.91
660.955	51712.6
661.306	51910.78
661.656	51790.11
662.007	51916.66
662.358	51886.83
662.708	51887.73
663.059	51874.17
663.409	51703.1
663.76	51980.61
664.11	51937.22
664.461	51969.54
664.811	52003.21
665.161	51899.48
665.511	51878.24
665.862	51779.03
666.212	51857.9
666.562	51903.32
666.912	51808.41
667.262	51822.87
667.612	51849.31
667.962	51832.82
668.312	51796.89
668.662	51990.33
669.011	51711.69
669.361	51660.85
669.711	51709.66
670.06	51690
670.41	51622.2
670.76	51621.75
671.109	51702.43
671.459	51684.8
671.808	51560.96
672.157	51653.16
672.507	51378.59
672.856	51499.49
673.205	51488.42
673.554	51630.79
673.904	51444.13
674.253	51686.16
674.602	51633.5
674.951	51148.77
675.3	50933.18
675.649	51446.39
675.998	51475.09
676.346	51542.66
676.695	51608.19
677.044	51339.72
677.393	51460.85
677.741	51437.8
678.09	51430.34
678.438	51227.41
678.787	51299.27
679.135	51350.34
679.484	51048.88
679.832	51239.84
680.181	51051.14
680.529	51052.27
680.877	51047.53
681.225	50945.16
681.573	51236.45
681.922	50926.4
682.27	50777.03
682.618	50864.93
682.966	50691.15
683.314	50774.31
683.661	50725.95
684.009	50603.25
684.357	50544.26
684.705	50412.97
685.053	50446.64
685.4	50485.06
685.748	50346.08
686.095	50269.7
686.443	50195.12
686.79	50074.67
687.138	50097.72
687.485	50214.1
687.832	50012.3
688.18	50045.52
688.527	49942.47
688.874	49818.63
689.221	49787
689.568	49575.25
689.915	49593.78
690.262	49634.91
690.609	49521.24
690.956	49371.87
691.303	49348.14
691.65	49161.48
691.997	49204.19
692.344	48921.93
692.69	48899.34
693.037	48890.07
693.383	48664.54
693.73	48770.07
694.077	48559.46
694.423	48542.28
694.769	48363.76
695.116	48317.43
695.462	48101.84
695.808	48221.84
696.155	48138
696.501	47848.06
696.847	47917.44
697.193	47665.92
697.539	47707.5
697.885	47514.06
698.231	47384.35
698.577	47425.7
698.923	47411.47
699.269	47226.84
699.614	47112.04
699.96	46879.28
700.306	46996.33
700.651	46853.97
700.997	46587.98
701.342	46617.14
701.688	46569.45
702.033	46415.33
702.379	46354.09
702.724	46329.91
703.069	46345.28
703.415	45987.55
703.76	45987.1
704.105	45861.22
704.45	45866.65
704.795	45606.31
705.14	45484.96
705.485	45467.56
705.83	45260.34
706.175	45336.49
706.52	45273.89
706.865	45101.47
707.209	45140.56
707.554	44884.98
707.899	44888.82
708.243	44690.86
708.588	44685.66
708.932	44356.4
709.277	44415.84
709.621	44354.14
709.966	44137.2
710.31	44269.63
710.654	43954.16
710.998	43973.14
711.342	44001.84
711.687	43827.6
712.031	43694.95
712.375	43611.79
712.719	43644.33
713.063	43626.03
713.407	43671.45
713.75	43314.85
714.094	43465.35
714.438	43148.98
714.782	43341.06
715.125	43073.5
715.469	43051.81
715.812	42922.32
716.156	42699.5
716.499	42876.22
716.843	42751.7
717.186	42455.21
717.53	42836.9
717.873	42591.25
718.216	42577.47
718.559	42430.58
718.902	42090.93
719.246	42258.83
719.589	42051.61
719.932	41964.15
720.275	42060.19
720.617	41874.44
720.96	41853.87
721.303	41822.23
721.646	41958.05
721.989	41492.75
722.331	41667.66
722.674	41660.43
723.016	41620.21
723.359	41459.53
723.701	41601.45
724.044	41202.81
724.386	41206.88
724.729	41264.28
725.071	41157.84
725.413	41061.12
725.755	41050.5
726.097	40897.51
726.439	40771.41
726.782	40705.88
727.124	40839.43
727.465	40566.9
727.807	40566.9
728.149	40367.81
728.491	40335.72
728.833	40505.43
729.175	40416.62
729.516	40235.83
729.858	40187.02
730.199	40227.93
730.541	40226.8
730.882	40088.72
731.224	40192.22
731.565	39899.8
731.906	40046.91
732.248	40001.26
732.589	39830.2
732.93	39688.28
733.271	39548.4
733.612	39804.66
733.953	39657.77
734.294	39507.94
734.635	39440.15
734.976	39498.45
735.317	39434.73
735.658	39337.1
735.999	39296.42
736.339	39241.51
736.68	39383.43
737.021	39255.52
737.361	38952.93
737.702	39187.95
738.042	38948.18
738.383	39009.88
738.723	38968.52
739.063	38759.94
739.404	38745.48
739.744	38721.07
740.084	38561.3
740.424	38707.51
740.764	38597.91
741.104	38694.41
741.444	38472.94
741.784	38337.81
742.124	38320.63
742.464	38321.53
742.804	38219.62
743.143	38186.17
743.483	38086.29
743.823	37999.74
744.162	37908.44
744.502	38116.79
744.841	37845.62
745.181	38110.01
745.52	37854.88
745.86	37933.52
746.199	37816.24
746.538	37690.59
746.877	37732.4
747.216	37701.44
747.556	37691.04
747.895	37693.08
748.234	37438.39
748.573	37493.53
748.911	37392.52
749.25	37227.78
749.589	37138.52
749.928	37261
750.267	37338.06
750.605	37166.31
750.944	37014
751.283	36878.41
751.621	36956.15
751.96	36839.54
752.298	36812.65
752.636	36814.46
752.975	36548.02
753.313	36508.25
753.651	36555.03
753.989	36465.76
754.327	36313.68
754.666	36094.93
755.004	36276.62
755.342	36287.92
755.679	36138.77
756.017	35910.07
756.355	35930.86
756.693	35898.32
757.031	35912.11
