Data from hue_00_FLMS001491_64.txt Node
Date: Mon Feb 06 15:30:03 GMT 2017
User: dcchb
Spectrometer: FLMS00149
Trigger mode: 0
Integration Time (sec): 2.000000E-2
Scans to average: 10
Electric dark correction enabled: true
Nonlinearity correction enabled: false
Boxcar width: 0
XAxis mode: Wavelengths
Number of Pixels in Spectrum: 2048
>>>>>Begin Spectral Data<<<<<
341.393	-2.33
341.776	-2.33
342.16	-2.33
342.543	-75.32
342.927	-52.72
343.31	-52.72
343.693	-66.74
344.077	-74.42
344.46	-64.7
344.843	-52.27
345.226	-35.55
345.61	-15.89
345.993	-22.89
346.376	-1.88
346.759	12.81
347.142	17.56
347.525	22.3
347.908	55.52
348.291	76.76
348.674	84.45
349.057	117.67
349.44	108.18
349.823	124.45
350.206	148.17
350.588	187.5
350.971	196.99
351.354	225.01
351.737	229.08
352.119	258.68
352.502	262.3
352.884	268.4
353.267	272.69
353.65	283.54
354.032	304.78
354.414	295.29
354.797	310.88
355.179	312.24
355.562	334.38
355.944	326.25
356.326	335.29
356.709	330.54
357.091	323.99
357.473	321.73
357.855	335.29
358.238	333.48
358.62	337.55
359.002	341.62
359.384	321.73
359.766	307.49
360.148	344.1
360.53	341.62
360.912	328.96
361.294	332.35
361.676	325.12
362.057	324.67
362.439	337.1
362.821	316.98
363.203	320.37
363.584	332.58
363.966	320.37
364.348	327.38
364.729	329.19
365.111	302.29
365.493	307.04
365.874	308.4
366.256	304.55
366.637	295.29
367.019	329.19
367.4	320.6
367.781	311.11
368.163	304.55
368.544	293.71
368.925	315.18
369.306	330.77
369.688	309.3
370.069	302.75
370.45	323.99
370.831	311.33
371.212	312.46
371.593	311.33
371.974	293.48
372.355	305.01
372.736	330.77
373.117	314.95
373.498	322.86
373.879	305.68
374.26	316.98
374.641	325.12
375.021	312.92
375.402	321.95
375.783	315.4
376.163	311.56
376.544	324.44
376.925	299.13
377.305	340.03
377.686	324.21
378.066	315.85
378.447	321.73
378.827	326.93
379.208	322.18
379.588	321.28
379.968	325.12
380.349	299.13
380.729	325.8
381.109	327.83
381.489	328.51
381.87	317.66
382.25	351.56
382.63	330.77
383.01	349.07
383.39	346.36
383.77	336.87
384.15	328.96
384.53	322.41
384.91	346.59
385.29	340.49
385.67	346.36
386.049	355.63
386.429	334.16
386.809	333.03
387.189	350.88
387.568	348.62
387.948	341.84
388.328	338.68
388.707	339.13
389.087	345.01
389.466	354.95
389.846	369.86
390.225	370.32
390.605	338.9
390.984	349.07
391.363	343.88
391.743	357.89
392.122	346.59
392.501	361.05
392.881	360.37
393.26	366.02
393.639	350.2
394.018	361.73
394.397	372.57
394.776	356.76
395.155	370.09
395.534	369.19
395.913	368.51
396.292	377.32
396.671	369.86
397.05	370.77
397.429	362.63
397.808	361.28
398.186	353.14
398.565	371.67
398.944	383.2
399.323	382.52
399.701	397.66
400.08	398.34
400.458	378.22
400.837	398.34
401.215	395.85
401.594	388.85
401.972	370.32
402.351	382.52
402.729	397.21
403.107	373.7
403.486	383.65
403.864	393.14
404.242	390.2
404.62	411.44
404.999	391.33
405.377	422.74
405.755	392.69
406.133	411.44
406.511	402.4
406.889	412.35
407.267	395.85
407.645	408.73
408.023	425.23
408.401	436.98
408.779	424.33
409.156	431.56
409.534	422.97
409.912	423.42
410.29	418.68
410.667	436.53
411.045	434.27
411.422	420.71
411.8	434.72
412.178	440.82
412.555	448.28
412.933	445.57
413.31	457.09
413.687	457.54
414.065	451.89
414.442	481.72
414.819	463.87
415.197	460.93
415.574	455.06
415.951	480.14
416.328	484.89
416.705	481.05
417.082	455.06
417.46	498.67
417.837	502.29
418.214	474.72
418.591	475.85
418.967	487.37
419.344	486.02
419.721	474.95
420.098	483.76
420.475	534.15
420.852	506.81
421.228	523.53
421.605	512.23
421.982	518.33
422.358	512.68
422.735	524.66
423.111	516.3
423.488	513.59
423.864	512.23
424.241	537.99
424.617	513.59
424.994	544.55
425.37	541.84
425.746	539.12
426.123	534.38
426.499	543.64
426.875	535.06
427.251	546.13
427.627	550.2
428.003	580.03
428.379	575.51
428.756	583.42
429.132	567.6
429.507	569.63
429.883	575.73
430.259	577.09
430.635	585
431.011	592.91
431.387	581.16
431.763	612.57
432.138	607.37
432.514	641.95
432.89	635.62
433.265	616.41
433.641	648.95
434.016	634.49
434.392	627.71
434.767	647.37
435.143	629.74
435.518	652.79
435.894	662.51
436.269	665.67
436.644	666.35
437.02	672
437.395	666.58
437.77	695.73
438.145	683.53
438.52	694.37
438.895	692.57
439.271	674.94
439.646	701.15
440.021	725.11
440.395	724.66
440.77	702.74
441.145	714.71
441.52	714.71
441.895	731.21
442.27	714.94
442.645	732.79
443.019	742.06
443.394	744.32
443.769	766.01
444.143	756.52
444.518	747.48
444.892	746.35
445.267	736.41
445.641	753.58
446.016	770.3
446.39	773.24
446.764	775.95
447.139	760.36
447.513	759.91
447.887	788.38
448.262	802.85
448.636	803.75
449.01	827.03
449.384	769.4
449.758	807.82
450.132	795.61
450.506	785.9
450.88	821.38
451.254	810.08
451.628	823.64
452.002	825.22
452.376	824.99
452.75	814.15
453.123	827.48
453.497	873.13
453.871	849.62
454.244	872.9
454.618	850.53
454.992	894.37
455.365	905.89
455.739	892.56
456.112	871.77
456.486	893.69
456.859	926.23
457.232	905.22
457.606	918.1
457.979	917.19
458.352	960.81
458.725	950.41
459.099	979.56
459.472	970.07
459.845	981.6
460.218	989.73
460.591	987.25
460.964	993.58
461.337	996.29
461.71	1043.07
462.083	1069.28
462.456	1004.65
462.829	1047.36
463.201	1086.68
463.574	1066.34
463.947	1085.78
464.32	1104.31
464.692	1107.47
465.065	1121.26
465.438	1140.92
465.81	1140.92
466.183	1158.54
466.555	1186.11
466.928	1193.12
467.3	1170.75
467.672	1191.31
468.045	1205.1
468.417	1235.15
468.789	1254.81
469.161	1249.61
469.534	1280.35
469.906	1311.99
470.278	1286.22
470.65	1316.05
471.022	1355.83
471.394	1357.63
471.766	1319.67
472.138	1374.58
472.51	1401.25
472.882	1416.16
473.253	1439.89
473.625	1466.78
473.997	1509.27
474.369	1504.07
474.74	1518.31
475.112	1535.26
475.484	1579.77
475.855	1618.87
476.227	1617.51
476.598	1629.27
476.97	1688.02
477.341	1725.53
477.713	1748.36
478.084	1758.53
478.455	1777.74
478.827	1785.42
479.198	1834.68
479.569	1884.85
479.94	1911.07
480.311	1916.72
480.682	1974.57
481.053	2024.28
481.424	2028.8
481.795	2066.54
482.166	2111.29
482.537	2140.66
482.908	2159.65
483.279	2186.54
483.65	2243.49
484.021	2298.63
484.391	2310.6
484.762	2333.88
485.133	2380.21
485.503	2423.59
485.874	2449.58
486.244	2509.47
486.615	2516.93
486.985	2561.9
487.356	2587.88
487.726	2626.08
488.097	2667.66
488.467	2670.14
488.837	2743.36
489.207	2790.82
489.578	2850.7
489.948	2863.58
490.318	2902.9
490.688	2946.29
491.058	2982.68
491.428	3041.21
491.798	3067.87
492.168	3151.03
492.538	3110.81
492.908	3152.16
493.278	3202.56
493.648	3184.25
494.017	3275.1
494.387	3294.53
494.757	3340.41
495.126	3356.68
495.496	3358.94
495.866	3408.2
496.235	3445.49
496.605	3486.62
496.974	3508.99
497.344	3543.79
497.713	3546.5
498.082	3568.88
498.452	3648.87
498.821	3627.4
499.19	3648.2
499.559	3664.24
499.928	3694.97
500.298	3722.32
500.667	3790.34
501.036	3754.41
501.405	3802.99
501.774	3757.57
502.143	3820.62
502.512	3851.58
502.88	3863.78
503.249	3879.6
503.618	3930.67
503.987	3896.55
504.356	3951.46
504.724	3954.18
505.093	3985.14
505.462	4005.7
505.83	4020.16
506.199	4067.17
506.567	4085.7
506.936	4066.04
507.304	4130.44
507.672	4135.64
508.041	4192.81
508.409	4188.97
508.777	4184
509.145	4214.51
509.514	4233.04
509.882	4243.43
510.25	4221.74
510.618	4268.74
510.986	4310.55
511.354	4326.14
511.722	4376.09
512.09	4368.18
512.458	4365.24
512.826	4411.34
513.193	4401.4
513.561	4449.76
513.929	4451.56
514.297	4493.82
514.664	4517.1
515.032	4513.26
515.4	4572.24
515.767	4519.58
516.135	4552.13
516.502	4545.35
516.869	4579.92
517.237	4621.5
517.604	4604.1
517.972	4636.64
518.339	4643.2
518.706	4692.91
519.073	4643.88
519.44	4692.46
519.808	4773.59
520.175	4676.42
520.542	4754.61
520.909	4790.09
521.276	4779.01
521.643	4815.85
522.009	4840.25
522.376	4856.75
522.743	4881.83
523.11	4910.08
523.477	4960.25
523.843	4979.23
524.21	4993.02
524.577	5062.4
524.943	5026.24
525.31	5093.13
525.676	5103.3
526.043	5081.83
526.409	5125.44
526.776	5154.14
527.142	5182.39
527.508	5190.53
527.874	5199.79
528.241	5262.84
528.607	5223.75
528.973	5328.15
529.339	5328.83
529.705	5414.02
530.071	5342.39
530.437	5389.39
530.803	5428.26
531.169	5451.09
531.535	5440.01
531.901	5535.6
532.267	5502.61
532.632	5564.75
532.998	5563.4
533.364	5572.21
533.73	5670.74
534.095	5665.54
534.461	5676.62
534.826	5686.56
535.192	5678.88
535.557	5783.96
535.923	5718.88
536.288	5788.03
536.653	5789.61
537.019	5797.07
537.384	5833.22
537.749	5862.6
538.114	5854.24
538.479	5925.88
538.845	5957.29
539.21	5945.99
539.575	5940.34
539.94	6013.78
540.305	6080
540.67	6059.21
541.034	6049.94
541.399	6117.06
541.764	6097.85
542.129	6141.91
542.494	6127
542.858	6191.18
543.223	6200.44
543.587	6270.95
543.952	6247.45
544.316	6298.97
544.681	6310.72
545.045	6322.25
545.41	6318.63
545.774	6415.58
546.138	6354.56
546.503	6454.67
546.867	6417.39
547.231	6446.09
547.595	6403.15
547.959	6521.11
548.324	6528.12
548.688	6554.56
549.052	6568.12
549.416	6626.42
549.779	6637.95
550.143	6600.89
550.507	6661.68
550.871	6706.65
551.235	6702.58
551.599	6750.03
551.962	6745.06
552.326	6734.89
552.689	6839.75
553.053	6771.73
553.417	6832.74
553.78	6897.6
554.143	6896.47
554.507	6934.21
554.87	6923.82
555.234	7018.05
555.597	6964.49
555.96	7028.9
556.323	7037.48
556.686	7034.55
557.05	7060.76
557.413	7068.67
557.776	7103.92
558.139	7121.55
558.502	7159.29
558.865	7154.77
559.228	7187.31
559.59	7243.13
559.953	7255.56
560.316	7282.45
560.679	7310.47
561.041	7309.79
561.404	7311.38
561.767	7355.89
562.129	7416.01
562.492	7440.19
562.854	7450.35
563.217	7421.43
563.579	7445.38
563.941	7473.18
564.304	7537.13
564.666	7583.23
565.028	7568.09
565.39	7653.29
565.753	7593.4
566.115	7716.79
566.477	7686.05
566.839	7785.49
567.201	7749.33
567.563	7808.99
567.925	7774.87
568.287	7801.76
568.648	7877.46
569.01	7908.65
569.372	7952.49
569.734	7977.12
570.095	8011.24
570.457	8015.31
570.819	8083.56
571.18	8103.9
571.542	8110.9
571.903	8166.04
572.265	8223.67
572.626	8246.27
572.987	8286.49
573.349	8301.86
573.71	8392.03
574.071	8409.43
574.432	8474.73
574.794	8561.74
575.155	8618.23
575.516	8584.79
575.877	8637.89
576.238	8707.27
576.599	8825.46
576.96	8887.15
577.32	8908.62
577.681	8996.75
578.042	9114.04
578.403	9132.57
578.763	9204.66
579.124	9343.64
579.485	9484.43
579.845	9510.19
580.206	9659.11
580.566	9748.83
580.927	9795.83
581.287	10002.15
581.648	10059.78
582.008	10236.27
582.368	10321.47
582.728	10477.85
583.089	10511.52
583.449	10701.12
583.809	10898.17
584.169	11098.62
584.529	11215
584.889	11440.08
585.249	11546.74
585.609	11681.2
585.969	11920.75
586.329	12141.53
586.688	12278.7
587.048	12539.49
587.408	12687.05
587.768	12951.23
588.127	13104.9
588.487	13337.66
588.846	13625.11
589.206	13725.44
589.565	14073.01
589.925	14262.15
590.284	14633.22
590.643	14772.65
591.003	15093.09
591.362	15366.53
591.721	15561.33
592.08	15878.16
592.44	16136.23
592.799	16364.47
593.158	16565.82
593.517	16986.6
593.876	17225.24
594.235	17408.96
594.593	17627.71
594.952	18031.32
595.311	18318.32
595.67	18608.03
596.029	18915.36
596.387	19137.05
596.746	19528.68
597.104	19589.7
597.463	19904.26
597.822	20237.59
598.18	20574.3
598.538	20812.72
598.897	21213.83
599.255	21249.09
599.613	21820.15
599.972	21944.89
600.33	22270.76
600.688	22442.05
601.046	22874.81
601.404	23231.86
601.762	23455.58
602.12	23737.61
602.478	23877.27
602.836	24182.8
603.194	24249.46
603.552	24648.55
603.91	24761.99
604.268	25158.59
604.625	25410.56
604.983	25639.71
605.341	25820.27
605.698	26110.88
606.056	26362.63
606.413	26637.65
606.771	26955.83
607.128	27090.06
607.485	27341.36
607.843	27591.52
608.2	27742.93
608.557	28158.06
608.914	28241.9
609.272	28520.76
609.629	28661.77
609.986	29066.96
610.343	28971.6
610.7	29499.94
611.057	29464.92
611.414	29697.68
611.771	29887.96
612.127	30118.01
612.484	30377.21
612.841	30600.03
613.198	30557.54
613.554	30683.87
613.911	31152.1
614.267	31291.31
614.624	31337.41
614.98	31583.28
615.337	31833.89
615.693	31914.57
616.05	31943.04
616.406	32343.26
616.762	32265.97
617.118	32539.86
617.475	32701.44
617.831	32889.01
618.187	33106.86
618.543	33258.26
618.899	33409.22
619.255	33435.89
619.611	33543.91
619.967	33681.98
620.323	33839.49
620.678	33788.42
621.034	33782.09
621.39	33952.93
621.746	33998.58
622.101	34474.5
622.457	34323.77
622.812	34433.6
623.168	34626.82
623.523	34479.25
623.879	34709.75
624.234	34648.28
624.589	34920.59
624.945	35013.25
625.3	35055.28
625.655	35085.56
626.01	35400.58
626.365	35336.18
626.72	35253.47
627.075	35352.45
627.43	35408.94
627.785	35447.58
628.14	35689.61
628.495	35700.91
628.85	35705.66
629.205	35556.73
629.559	35803.51
629.914	35754.7
630.269	35826.78
630.623	35870.17
630.978	35698.65
631.332	35925.09
631.687	35976.16
632.041	35980
632.396	36092.54
632.75	35932.09
633.104	36031.07
633.459	35866.33
633.813	35876.73
634.167	35975.93
634.521	36109.71
634.875	36061.81
635.229	36034.46
635.583	35846.67
635.937	35894.8
636.291	35983.39
636.645	36119.88
636.999	35976.16
637.352	36132.09
637.706	35890.06
638.06	36045.54
638.413	36063.61
638.767	36062.48
639.121	36018.42
639.474	35815.03
639.828	35991.75
640.181	35973.67
640.534	36081.24
640.888	35948.14
641.241	35845.31
641.594	35925.31
641.947	35929.15
642.301	35763.96
642.654	35940.23
643.007	35813.68
643.36	35810.29
643.713	35893.22
644.066	35941.81
644.419	35702.04
644.771	35629.5
645.124	35180.25
645.477	35158.78
645.83	35039.91
646.182	34858.22
646.535	34838.34
646.888	34872.46
647.24	34758.56
647.593	34906.58
647.945	34846.24
648.298	34740.48
648.65	34634.95
649.002	34555.18
649.355	34617.1
649.707	34690.77
650.059	34843.53
650.411	35154.03
650.763	35231.09
651.115	35457.08
651.467	35417.53
651.819	35385.21
652.171	35501.82
652.523	35338.21
652.875	35288.27
653.227	35097.54
653.578	35467.47
653.93	35412.78
654.282	35285.1
654.633	35075.17
654.985	35154.71
655.337	35227.25
655.688	35333.01
656.039	35348.38
656.391	35112.45
656.742	35149.51
657.094	35190.19
657.445	35292.56
657.796	35214.14
658.147	35112
658.498	35162.85
658.849	35155.62
659.2	35161.26
659.551	35074.49
659.902	35179.8
660.253	35081.04
660.604	35135.28
660.955	34957.65
661.306	35324.42
661.656	35055.73
662.007	35040.59
662.358	35144.54
662.708	34974.15
663.059	35036.97
663.409	34877.2
663.76	35152
664.11	34863.87
664.461	35167.59
664.811	34994.04
665.161	35012.34
665.511	34905.45
665.862	35055.96
666.212	34997.2
666.562	35067.03
666.912	34956.07
667.262	34982.96
667.612	35039.01
667.962	35055.28
668.312	34818.9
668.662	35109.51
669.011	34961.72
669.361	34978.67
669.711	34869.52
670.06	34959.24
670.41	34772.35
670.76	34749.52
671.109	35047.14
671.459	34892.57
671.808	34716.08
672.157	34863.65
672.507	34531.45
672.856	34649.87
673.205	34633.37
673.554	34730.09
673.904	34663.88
674.253	34723.99
674.602	34740.03
674.951	34178.92
675.3	34107.73
675.649	34657.55
675.998	34571
676.346	34654.61
676.695	34770.31
677.044	34477.67
677.393	34638.79
677.741	34627.27
678.09	34522.41
678.438	34471.34
678.787	34489.42
679.135	34471.57
679.484	34299.37
679.832	34399.25
680.181	34183.66
680.529	34282.42
680.877	34288.29
681.225	34125.59
681.573	34285.36
681.922	34163.55
682.27	33966.27
682.618	33933.27
682.966	33834.07
683.314	34077.23
683.661	33809.21
684.009	33748.42
684.357	33547.97
684.705	33526.73
685.053	33698.25
685.4	33549.33
685.748	33504.36
686.095	33394.31
686.443	33387.75
686.79	33304.36
687.138	33395.66
687.485	33229.79
687.832	33099.85
688.18	33289.45
688.527	33047.65
688.874	33086.52
689.221	33090.58
689.568	32882
689.915	32924.71
690.262	32854.43
690.609	32805.17
690.956	32650.82
691.303	32719.97
691.65	32462.35
691.997	32445.4
692.344	32286.76
692.69	32275.46
693.037	32363.15
693.383	32003.16
693.73	32168.12
694.077	32028.92
694.423	32000.44
694.769	31821.24
695.116	31811.52
695.462	31774.46
695.808	31697.85
696.155	31686.55
696.501	31438.2
696.847	31396.84
697.193	31342.38
697.539	31342.61
697.885	31130.41
698.231	30998.66
698.577	31024.42
698.923	31027.36
699.269	30836.18
699.614	30753.47
699.96	30562.74
700.306	30748.95
700.651	30480.26
700.997	30408.17
701.342	30382.86
701.688	30421.73
702.033	30200.04
702.379	30095.86
702.724	30170.66
703.069	30162.07
703.415	29825.81
703.76	29825.13
704.105	29961.85
704.45	29802.76
704.795	29590.11
705.14	29507.85
705.485	29511.02
705.83	29470.79
706.175	29411.36
706.52	29319.61
706.865	29234.41
707.209	29078.94
707.554	29149.67
707.899	29230.57
708.243	29012.05
708.588	28918.27
708.932	28830.58
709.277	28769.34
709.621	28785.16
709.966	28606.86
710.31	28773.86
710.654	28343.36
710.998	28422.68
711.342	28388.34
711.687	28307.21
712.031	28218.17
712.375	28053.66
712.719	28244.61
713.063	28097.27
713.407	28207.32
713.75	28016.37
714.094	27967.1
714.438	27925.3
714.782	27977.05
715.125	27746.77
715.469	27791.29
715.812	27547.91
716.156	27515.36
716.499	27547.91
716.843	27673.55
717.186	27452.31
717.53	27474.24
717.873	27570.96
718.216	27482.14
718.559	27332.09
718.902	27218.87
719.246	27237.86
719.589	27152.66
719.932	27074.92
720.275	27092.55
720.617	27051.87
720.96	26935.94
721.303	26936.85
721.646	27006.9
721.989	26827.02
722.331	26864.99
722.674	26807.81
723.016	26873.8
723.359	26740.92
723.701	26747.93
724.044	26625.22
724.386	26506.13
724.729	26606.24
725.071	26432
725.413	26411.21
725.755	26322.63
726.097	26335.96
726.439	26254.83
726.782	26351.33
727.124	26340.25
727.465	26145.23
727.807	26163.31
728.149	26127.83
728.491	25965.8
728.833	26072.01
729.175	25908.85
729.516	25845.35
729.858	25970.09
730.199	25951.79
730.541	25865.92
730.882	25794.05
731.224	25822.98
731.565	25614.4
731.906	25595.19
732.248	25705.47
732.589	25598.8
732.93	25461.63
733.271	25515.19
733.612	25535.53
733.953	25458.47
734.294	25427.96
734.635	25490.33
734.976	25417.57
735.317	25217.57
735.658	25247.85
735.999	25273.16
736.339	25235.65
736.68	25199.72
737.021	25086.28
737.361	25073.62
737.702	25177.8
738.042	25021.19
738.383	25035.66
738.723	25079.72
739.063	24893.74
739.404	25013.28
739.744	24770.13
740.084	24747.3
740.424	24865.72
740.764	24723.57
741.104	24798.6
741.444	24722.67
741.784	24671.6
742.124	24603.8
742.464	24617.14
742.804	24462.11
743.143	24537.59
743.483	24552.96
743.823	24474.09
744.162	24481.09
744.502	24450.81
744.841	24313.41
745.181	24442.68
745.52	24317.71
745.86	24375.11
746.199	24251.72
746.538	24142.35
746.877	24239.74
747.216	24249.91
747.556	24075
747.895	24142.57
748.234	24009.47
748.573	23920.66
748.911	23937.83
749.25	23857.61
749.589	23855.35
749.928	23777.38
750.267	23840.21
750.605	23837.95
750.944	23673.66
751.283	23611.06
751.621	23775.35
751.96	23560.21
752.298	23507.11
752.636	23526.77
752.975	23442.93
753.313	23329.49
753.651	23430.73
753.989	23338.3
754.327	23352.08
754.666	23126.33
755.004	23345.08
755.342	23190.96
755.679	23221.69
756.017	23049.27
756.355	23198.19
756.693	22917.97
757.031	22994.58
757.368	22816.73
757.706	22779.44
758.044	22715.26
758.381	22720.69
758.719	22679.79
759.056	22708.94
759.394	22601.59
759.731	22462.39
760.068	22458.77
760.405	22378.55
760.743	22334.48
761.08	22330.64
