Data from hue_140_FLMS001491_00064.txt Node
Date: Tue Feb 07 16:56:15 GMT 2017
User: dcchb
Spectrometer: FLMS00149
Trigger mode: 0
Integration Time (sec): 2.000000E-2
Scans to average: 10
Electric dark correction enabled: true
Nonlinearity correction enabled: false
Boxcar width: 0
XAxis mode: Wavelengths
Number of Pixels in Spectrum: 2048
>>>>>Begin Spectral Data<<<<<
341.393	-24.83
341.776	-24.83
342.16	-24.83
342.543	-54.21
342.927	-64.83
343.31	-78.16
343.693	-67.09
344.077	-81.33
344.46	-56.24
344.843	-45.62
345.226	-60.31
345.61	-7.66
345.993	-11.72
346.376	-4.72
346.759	13.59
347.142	22.63
347.525	51.33
347.908	54.26
348.291	84.77
348.674	64.89
349.057	121.38
349.44	144.66
349.823	137.43
350.206	182.62
350.588	184.2
350.971	194.83
351.354	223.3
351.737	246.8
352.119	236.63
352.502	256.07
352.884	268.27
353.267	265.11
353.65	297.65
354.032	272.34
354.414	287.03
354.797	312.34
355.179	304.2
355.562	328.61
355.944	347.59
356.326	318.66
356.709	339.68
357.091	320.02
357.473	328.38
357.855	314.82
358.238	344.65
358.62	329.74
359.002	337.42
359.384	336.74
359.766	354.82
360.148	344.65
360.53	350.98
360.912	337.87
361.294	348.72
361.676	334.03
362.057	298.33
362.439	320.92
362.821	333.35
363.203	310.75
363.584	317.53
363.966	317.31
364.348	318.21
364.729	330.42
365.111	331.09
365.493	315.5
365.874	300.81
366.256	329.96
366.637	325.67
367.019	301.49
367.4	330.87
367.781	305.33
368.163	306.23
368.544	319.57
368.925	309.4
369.306	323.86
369.688	319.57
370.069	316.63
370.45	313.47
370.831	299.46
371.212	303.52
371.593	319.79
371.974	308.95
372.355	308.49
372.736	314.82
373.117	327.03
373.498	312.11
373.879	319.12
374.26	306.69
374.641	293.58
375.021	328.83
375.402	317.99
375.783	318.21
376.163	334.03
376.544	324.77
376.925	348.04
377.305	327.25
377.686	342.62
378.066	320.92
378.447	331.77
378.827	329.06
379.208	325.22
379.588	329.06
379.968	325.9
380.349	320.47
380.729	318.21
381.109	317.76
381.489	327.25
381.87	332.67
382.25	330.64
382.63	333.13
383.01	337.65
383.39	335.16
383.77	313.24
384.15	349.62
384.53	355.05
384.91	350.3
385.29	345.78
385.67	350.75
386.049	341.04
386.429	343.97
386.809	370.19
387.189	371.09
387.568	339.23
387.948	353.92
388.328	353.47
388.707	366.8
389.087	360.7
389.466	344.43
389.846	370.19
390.225	356.63
390.605	357.76
390.984	367.48
391.363	350.3
391.743	374.26
392.122	367.02
392.501	369.96
392.881	370.64
393.26	378.32
393.639	378.55
394.018	374.93
394.397	369.51
394.776	364.31
395.155	363.86
395.534	356.4
395.913	379.91
396.292	398.66
396.671	372
397.05	378.78
397.429	375.61
397.808	381.04
398.186	374.48
398.565	378.78
398.944	414.25
399.323	369.28
399.701	376.97
400.08	386.68
400.458	393.69
400.837	395.72
401.215	399.57
401.594	416.29
401.972	393.69
402.351	419.23
402.729	397.53
403.107	403.41
403.486	410.64
403.864	416.29
404.242	414.25
404.62	408.15
404.999	415.61
405.377	450.41
405.755	426.68
406.133	435.72
406.511	427.81
406.889	432.11
407.267	427.81
407.645	449.51
408.023	451.54
408.401	444.76
408.779	444.31
409.156	445.44
409.534	451.77
409.912	452.45
410.29	462.61
410.667	449.06
411.045	432.79
411.422	447.7
411.8	475.95
412.178	467.59
412.555	472.33
412.933	482.05
413.31	476.17
413.687	482.73
414.065	500.81
414.442	487.47
414.819	480.47
415.197	473.24
415.574	480.24
415.951	496.29
416.328	497.64
416.705	476.17
417.082	500.58
417.46	493.35
417.837	524.08
418.214	507.59
418.591	514.37
418.967	514.37
419.344	518.21
419.721	531.54
420.098	504.65
420.475	517.98
420.852	532.22
421.228	536.29
421.605	548.71
421.982	522.5
422.358	526.79
422.735	533.8
423.111	522.95
423.488	560.47
423.864	566.34
424.241	579
424.617	557.75
424.994	583.06
425.37	554.82
425.746	580.58
426.123	582.16
426.499	563.86
426.875	572.89
427.251	590.07
427.627	592.33
428.003	607.92
428.379	598.66
428.756	607.7
429.132	611.31
429.507	616.06
429.883	624.19
430.259	642.05
430.635	628.71
431.011	620.58
431.387	629.16
431.763	637.07
432.138	644.08
432.514	651.76
432.89	649.5
433.265	663.97
433.641	680.91
434.016	666.9
434.392	705.09
434.767	703.74
435.143	703.29
435.518	706.68
435.894	699.67
436.269	716.62
436.644	748.48
437.02	747.13
437.395	721.14
437.77	740.57
438.145	737.41
438.52	746.22
438.895	745.77
439.271	762.49
439.646	770.86
440.021	774.92
440.395	766.11
440.77	785.09
441.145	766.79
441.52	756.17
441.895	798.43
442.27	806.11
442.645	794.58
443.019	804.3
443.394	796.17
443.769	817.86
444.143	831.64
444.518	829.16
444.892	845.43
445.267	835.26
445.641	851.98
446.016	852.66
446.39	853.57
446.764	838.65
447.139	863.96
447.513	866.22
447.887	887.91
448.262	868.03
448.636	869.61
449.01	906.9
449.384	894.92
449.758	910.74
450.132	916.39
450.506	925.2
450.88	899.89
451.254	922.94
451.628	940.57
452.002	955.71
452.376	966.56
452.75	946.44
453.123	960.45
453.497	976.27
453.871	990.96
454.244	1008.36
454.618	983.28
454.992	1013.56
455.365	1020.57
455.739	1030.06
456.112	1029.15
456.486	1059.44
456.859	1067.34
457.232	1063.96
457.606	1105.76
457.979	1106.44
458.352	1120
458.725	1126.33
459.099	1134.01
459.472	1163.61
459.845	1155.7
460.218	1176.27
460.591	1172.2
460.964	1209.04
461.337	1204.29
461.71	1244.06
462.083	1249.49
462.456	1273.67
462.829	1263.5
463.201	1296.72
463.574	1265.08
463.947	1296.04
464.32	1347.56
464.692	1341.01
465.065	1366.55
465.438	1401.57
465.81	1443.38
466.183	1425.75
466.555	1463.04
466.928	1478.18
467.3	1494.68
467.672	1492.64
468.045	1528.12
468.417	1548.24
468.789	1565.18
469.161	1626.65
469.534	1641.57
469.906	1675.01
470.278	1682.47
470.65	1708.68
471.022	1759.08
471.394	1796.37
471.766	1828.68
472.138	1840.43
472.51	1918.85
472.882	1909.13
473.253	1948.45
473.625	2008.34
473.997	2059.86
474.369	2094.89
474.74	2118.39
475.112	2169.01
475.484	2235.68
475.855	2269.12
476.227	2306.18
476.598	2363.13
476.97	2416.01
477.341	2492.62
477.713	2575.1
478.084	2585.72
478.455	2677.7
478.827	2763.12
479.198	2830.24
479.569	2867.75
479.94	2990.46
480.311	3014.64
480.682	3106.84
481.053	3228.42
481.424	3301.18
481.795	3383.44
482.166	3430.22
482.537	3533.95
482.908	3658.01
483.279	3723.55
483.65	3851
484.021	3999.25
484.391	4028.62
484.762	4172.57
485.133	4192.91
485.503	4360.82
485.874	4485.79
486.244	4600.81
486.615	4738.66
486.985	4770.98
487.356	4948.15
487.726	5084.87
488.097	5211.64
488.467	5302.49
488.837	5424.52
489.207	5544.06
489.578	5732.76
489.948	5815.02
490.318	5938.18
490.688	6036.48
491.058	6183.59
491.428	6342.01
491.798	6468.78
492.168	6610.93
492.538	6712.62
492.908	6808.21
493.278	6970.92
493.648	7051.14
494.017	7248.65
494.387	7325.26
494.757	7453.84
495.126	7621.52
495.496	7670.56
495.866	7799.6
496.235	7947.39
496.605	8058.57
496.974	8197.55
497.344	8269.42
497.713	8374.95
498.082	8517.32
498.452	8627.15
498.821	8699.46
499.19	8763.87
499.559	8943.3
499.928	9060.81
500.298	9112.78
500.667	9199.79
501.036	9291.54
501.405	9373.12
501.774	9487.69
502.143	9568.36
502.512	9589.38
502.88	9759.77
503.249	9793.22
503.618	9895.36
503.987	9888.13
504.356	10103.27
504.724	10144.17
505.093	10250.38
505.462	10279.31
505.83	10349.59
506.199	10458.74
506.567	10601.11
506.936	10599.07
507.304	10759.75
507.672	10750.25
508.041	10836.13
508.409	10962.9
508.777	10951.38
509.145	11025.05
509.514	11082.67
509.882	11195.67
510.25	11208.55
510.618	11286.29
510.986	11269.34
511.354	11428.2
511.722	11485.38
512.09	11561.76
512.458	11547.3
512.826	11565.15
513.193	11658.7
513.561	11597.69
513.929	11775.76
514.297	11845.14
514.664	11842.88
515.032	11891.24
515.4	11968.53
515.767	12011.46
516.135	12052.82
516.502	11910.9
516.869	12158.35
517.237	12206.26
517.604	12098.69
517.972	12242.64
518.339	12273.15
518.706	12185.7
519.073	12335.98
519.44	12290.78
519.808	12428.85
520.175	12360.83
520.542	12505.69
520.909	12490.32
521.276	12470.89
521.643	12632.69
522.009	12557.44
522.376	12644.44
522.743	12651.67
523.11	12679.24
523.477	12828.17
523.843	12810.09
524.21	12809.86
524.577	12894.83
524.943	12920.82
525.31	12827.49
525.676	12963.98
526.043	13067.93
526.409	13032.91
526.776	13121.72
527.142	13111.77
527.508	13135.95
527.874	13224.99
528.241	13089.4
528.607	13210.3
528.973	13168.04
529.339	13145.67
529.705	13185.67
530.071	13214.82
530.437	13264.76
530.803	13278.32
531.169	13255.05
531.535	13126.24
531.901	13154.26
532.267	13243.07
532.632	13223.86
532.998	13095.28
533.364	13177.53
533.73	13213.24
534.095	13215.27
534.461	13166.01
534.826	13308.6
535.192	13167.59
535.557	13229.96
535.923	13103.19
536.288	13179.57
536.653	13075.16
537.019	13130.53
537.384	13024.54
537.749	13135.73
538.114	13020.02
538.479	13012.79
538.845	13004.43
539.21	12950.2
539.575	12852.35
539.94	12975.73
540.305	12869.52
540.67	12833.14
541.034	12818.45
541.399	12848.05
541.764	12792.23
542.129	12858.67
542.494	12708.17
542.858	12725.57
543.223	12718.56
543.587	12675.63
543.952	12636.76
544.316	12565.35
544.681	12592.47
545.045	12545.01
545.41	12526.7
545.774	12545.69
546.138	12528.29
546.503	12409.19
546.867	12384.56
547.231	12357.9
547.595	12343.21
547.959	12409.87
548.324	12282.42
548.688	12244
549.052	12294.85
549.416	12243.55
549.779	12159.48
550.143	12095.53
550.507	12141.86
550.871	12172.59
551.235	12043.55
551.599	12127.62
551.962	12066.38
552.326	12029.09
552.689	12073.38
553.053	12014.63
553.417	11962.43
553.78	12085.81
554.143	11902.99
554.507	11933.73
554.87	12001.29
555.234	11992.03
555.597	11933.73
555.96	11895.31
556.323	11935.08
556.686	11867.96
557.05	11895.53
557.413	11854.63
557.776	11912.94
558.139	11904.35
558.502	11879.49
558.865	11841.52
559.228	11944.57
559.59	11898.25
559.953	11841.98
560.316	11872.26
560.679	11888.98
561.041	11866.16
561.404	11848.98
561.767	11905.93
562.129	11893.05
562.492	11913.16
562.854	11897.12
563.217	11879.49
563.579	11887.63
563.941	11913.16
564.304	11875.87
564.666	12054.17
565.028	11971.46
565.39	11933.73
565.753	12019.83
566.115	12071.35
566.477	12076.55
566.839	12081.52
567.201	12126.72
567.563	12069.54
567.925	12102.31
568.287	12107.28
568.648	12091.24
569.01	12166.26
569.372	12123.78
569.734	12107.96
570.095	12190.22
570.457	12179.6
570.819	12204.23
571.18	12159.71
571.542	12271.12
571.903	12218.24
572.265	12295.3
572.626	12291
572.987	12255.07
573.349	12253.72
573.71	12235.19
574.071	12326.94
574.432	12258.69
574.794	12354.73
575.155	12385.92
575.516	12307.73
575.877	12329.65
576.238	12327.39
576.599	12388.86
576.96	12314.05
577.32	12478.57
577.681	12390.66
578.042	12390.66
578.403	12352.47
578.763	12322.42
579.124	12333.94
579.485	12384.56
579.845	12469.76
580.206	12418.23
580.566	12458.46
580.927	12413.04
581.287	12466.14
581.648	12370.1
582.008	12435.41
582.368	12376.2
582.728	12455.52
583.089	12386.82
583.449	12307.28
583.809	12323.55
584.169	12364.67
584.529	12380.95
584.889	12367.84
585.249	12290.55
585.609	12258.69
585.969	12307.28
586.329	12373.04
586.688	12394.28
587.048	12237.67
587.408	12238.35
587.768	12334.17
588.127	12295.98
588.487	12211.01
588.846	12347.95
589.206	12201.29
589.565	12249.88
589.925	12212.36
590.284	12271.8
590.643	12271.8
591.003	12212.36
591.362	12227.28
591.721	12220.72
592.08	12182.31
592.44	12180.95
592.799	12239.71
593.158	12236.54
593.517	12175.3
593.876	12212.14
594.235	12197.45
594.593	12239.71
594.952	12191.8
595.311	12130.78
595.67	12155.64
596.029	12232.93
596.387	12142.31
596.746	12224.11
597.104	12145.47
597.463	12143.89
597.822	12120.39
598.18	12114.96
598.538	12137.34
598.897	12202.19
599.255	12040.62
599.613	12222.53
599.972	12088.52
600.33	12236.32
600.688	12128.97
601.046	12133.04
601.404	12148.64
601.762	12182.76
602.12	12189.76
602.478	12100.28
602.836	12152.48
603.194	12109.31
603.552	12170.56
603.91	12171.91
604.268	12186.15
604.625	12119.71
604.983	12121.97
605.341	12088.52
605.698	12142.31
606.056	12183.44
606.413	12210.1
606.771	12165.13
607.128	12266.6
607.485	12196.54
607.843	12220.05
608.2	12244.23
608.557	12255.53
608.914	12265.24
609.272	12287.61
609.629	12326.48
609.986	12322.19
610.343	12266.37
610.7	12349.53
611.057	12325.13
611.414	12276.54
611.771	12321.96
612.127	12406.93
612.484	12347.05
612.841	12389.53
613.198	12271.34
613.554	12334.17
613.911	12405.13
614.267	12403.32
614.624	12345.24
614.98	12350.44
615.337	12421.4
615.693	12361.96
616.05	12397.67
616.406	12508.85
616.762	12390.66
617.118	12468.4
617.475	12449.87
617.831	12518.57
618.187	12521.73
618.543	12544.33
618.899	12513.82
619.255	12559.47
619.611	12513.6
619.967	12619.36
620.323	12591.34
620.678	12602.41
621.034	12575.06
621.39	12563.09
621.746	12554.5
622.101	12671.79
622.457	12536.87
622.812	12594.05
623.168	12573.71
623.523	12613.48
623.879	12565.8
624.234	12589.3
624.589	12579.36
624.945	12579.36
625.3	12612.8
625.655	12550.21
626.01	12583.65
626.365	12622.52
626.72	12538.23
627.075	12542.3
627.43	12551.11
627.785	12474.5
628.14	12556.76
628.495	12498.91
628.85	12448.06
629.205	12495.29
629.559	12578.23
629.914	12473.82
630.269	12460.72
630.623	12468.63
630.978	12430.44
631.332	12505.24
631.687	12512.02
632.041	12488.97
632.396	12489.87
632.75	12337.33
633.104	12420.04
633.459	12320.38
633.813	12380.49
634.167	12360.16
634.521	12320.38
634.875	12361.96
635.229	12228.86
635.583	12277.67
635.937	12151.12
636.291	12148.64
636.645	12305.47
636.999	12215.75
637.352	12256.2
637.706	12180.95
638.06	12250.33
638.413	12096.66
638.767	12174.17
639.121	12122.87
639.474	12042.65
639.828	12121.07
640.181	12133.49
640.534	12111.12
640.888	12115.64
641.241	12039.94
641.594	12088.07
641.947	12056.43
642.301	11965.82
642.654	12118.13
643.007	12130.1
643.36	12045.59
643.713	11970.11
644.066	12137.79
644.419	11984.57
644.771	11947.28
645.124	11824.8
645.477	11858.47
645.83	11739.61
646.182	11697.8
646.535	11661.64
646.888	11704.13
647.24	11646.95
647.593	11635.2
647.945	11643.79
648.298	11632.49
648.65	11638.14
649.002	11536.9
649.355	11579.84
649.707	11588.88
650.059	11603.34
650.411	11851.24
650.763	11786.84
651.115	11906.38
651.467	11904.57
651.819	11913.84
652.171	11907.51
652.523	11787.51
652.875	11812.37
653.227	11870.9
653.578	11909.55
653.93	11826.16
654.282	11846.72
654.633	11863.9
654.985	11885.59
655.337	11811.02
655.688	11826.84
656.039	11902.54
656.391	11836.33
656.742	11811.47
657.094	11900.51
657.445	11913.84
657.796	11865.48
658.147	11837.23
658.498	11810.34
658.849	11886.04
659.2	11900.28
659.551	11859.15
659.902	11871.13
660.253	11829.77
660.604	11916.78
660.955	11898.02
661.306	11849.21
661.656	11808.76
662.007	11900.51
662.358	11879.04
662.708	11878.81
663.059	11859.6
663.409	11876.78
663.76	11933.5
664.11	11894.4
664.461	11934.18
664.811	11915.87
665.161	11785.71
665.511	11897.79
665.862	11841.07
666.212	11974.4
666.562	11888.76
666.912	11845.37
667.262	11832.94
667.612	11903.9
667.962	11865.93
668.312	11902.31
668.662	11874.29
669.011	11802.66
669.361	11840.17
669.711	11862.99
670.06	11825.25
670.41	11771.92
670.76	11781.19
671.109	11843.33
671.459	11813.5
671.808	11825.25
672.157	11859.15
672.507	11743
672.856	11745.03
673.205	11801.07
673.554	11770.79
673.904	11745.48
674.253	11779.61
674.602	11779.38
674.951	11622.32
675.3	11583.23
675.649	11745.93
675.998	11681.3
676.346	11772.6
676.695	11672.04
677.044	11611.7
677.393	11675.65
677.741	11670.68
678.09	11647.18
678.438	11531.93
678.787	11634.98
679.135	11595.2
679.484	11535.77
679.832	11641.3
680.181	11476.79
680.529	11527.63
680.877	11571.02
681.225	11491.93
681.573	11476.34
681.922	11450.8
682.27	11479.05
682.618	11463
682.966	11441.31
683.314	11407.64
683.661	11415.55
684.009	11350.69
684.357	11347.75
684.705	11361.09
685.053	11307.98
685.4	11286.96
685.748	11247.87
686.095	11246.74
686.443	11243.57
686.79	11183.46
687.138	11222.11
687.485	11217.81
687.832	11105.72
688.18	11132.39
688.527	11049
688.874	11030.92
689.221	11032.73
689.568	10935.79
689.915	10904.83
690.262	10883.58
690.609	10943.02
690.956	10859.4
691.303	10799.74
691.65	10701.44
691.997	10798.16
692.344	10691.5
692.69	10651.73
693.037	10691.5
693.383	10616.92
693.73	10569.92
694.077	10544.84
694.423	10497.61
694.769	10462.8
695.116	10388.91
695.462	10491.5
695.808	10368.34
696.155	10384.16
696.501	10318.63
696.847	10281.11
697.193	10255.8
697.539	10263.26
697.885	10199.99
698.231	10164.73
698.577	10104.4
698.923	10069.14
699.269	10016.26
699.614	9978.75
699.96	9943.5
700.306	9944.63
700.651	9906.21
700.997	9848.36
701.342	9870.05
701.688	9812.88
702.033	9738.98
702.379	9814.91
702.724	9721.81
703.069	9774.91
703.415	9625.54
703.76	9594.13
704.105	9717.51
704.45	9636.39
704.795	9513.45
705.14	9507.8
705.485	9508.25
705.83	9501.47
706.175	9528.14
706.52	9470.29
706.865	9376.28
707.209	9464.64
707.554	9359.78
707.899	9392.1
708.243	9278.65
708.588	9282.72
708.932	9267.58
709.277	9163.86
709.621	9197.53
709.966	9099.45
710.31	9200.92
710.654	9050.86
710.998	9105.78
711.342	9049.06
711.687	9042.05
712.031	9034.37
712.375	8988.49
712.719	8969.28
713.063	8978.55
713.407	8958.66
713.75	8965.22
714.094	8884.31
714.438	8829.17
714.782	8841.6
715.125	8812.68
715.469	8837.31
715.812	8785.11
716.156	8743.98
716.499	8733.58
716.843	8798.44
717.186	8713.7
717.53	8744.21
717.873	8788.05
718.216	8688.39
718.559	8670.99
718.902	8689.97
719.246	8724.54
719.589	8666.02
719.932	8674.15
720.275	8590.54
720.617	8593.47
720.96	8599.58
721.303	8611.78
721.646	8594.83
721.989	8559.58
722.331	8616.52
722.674	8515.28
723.016	8565.68
723.359	8540.37
723.701	8489.3
724.044	8517.09
724.386	8474.61
724.729	8529.97
725.071	8430.77
725.413	8460.37
725.755	8473.93
726.097	8425.12
726.439	8401.16
726.782	8420.15
727.124	8478.45
727.465	8459.92
727.807	8385.12
728.149	8391.9
728.491	8367.27
728.833	8355.51
729.175	8379.02
729.516	8364.78
729.858	8357.55
730.199	8335.63
730.541	8288.4
730.882	8409.07
731.224	8373.82
731.565	8318.68
731.906	8371.56
732.248	8319.36
732.589	8326.14
732.93	8315.06
733.271	8350.09
733.612	8364.33
733.953	8307.61
734.294	8300.83
734.635	8292.69
734.976	8304.89
735.317	8348.06
735.658	8304.67
735.999	8329.75
736.339	8344.44
736.68	8380.15
737.021	8353.93
737.361	8302.41
737.702	8376.76
738.042	8349.64
738.383	8348.28
738.723	8339.02
739.063	8320.71
739.404	8397.1
739.744	8390.54
740.084	8314.16
740.424	8359.58
740.764	8355.97
741.104	8462.86
741.444	8349.87
741.784	8409.3
742.124	8456.98
742.464	8455.4
742.804	8397.77
743.143	8485.45
743.483	8470.77
743.823	8463.08
744.162	8593.25
744.502	8569.52
744.841	8578.79
745.181	8582.63
745.52	8634.15
745.86	8648.61
746.199	8702.4
746.538	8768.16
746.877	8794.83
747.216	8806.58
747.556	8868.27
747.895	8905.56
748.234	8926.57
748.573	9002.73
748.911	9055.84
749.25	9103.97
749.589	9147.81
749.928	9166.11
750.267	9274.59
750.605	9300.12
750.944	9384.19
751.283	9425.09
751.621	9542.15
751.96	9609.04
752.298	9737.17
752.636	9822.37
752.975	9837.06
753.313	9945.3
753.651	10083.38
753.989	10065.07
754.327	10168.57
754.666	10304.16
755.004	10398.62
755.342	10507.32
755.679	10637.71
756.017	10715.45
756.355	10837.94
756.693	10960.42
757.031	11138.72
757.368	11171.71
757.706	11359.5
758.044	11546.39
758.381	11622.55
758.719	11772.83
759.056	11947.06
759.394	12107.51
