Data from hue_180_FLMS001491_00094.txt Node
Date: Tue Feb 07 16:47:44 GMT 2017
User: dcchb
Spectrometer: FLMS00149
Trigger mode: 0
Integration Time (sec): 2.000000E-2
Scans to average: 10
Electric dark correction enabled: true
Nonlinearity correction enabled: false
Boxcar width: 0
XAxis mode: Wavelengths
Number of Pixels in Spectrum: 2048
>>>>>Begin Spectral Data<<<<<
341.393	-5.17
341.776	-5.17
342.16	-5.17
342.543	-44.94
342.927	-63.92
343.31	-47.43
343.693	-84.04
344.077	-64.6
344.46	-54.89
344.843	-60.54
345.226	-52.17
345.61	-33.19
345.993	-31.38
346.376	5
346.759	10.88
347.142	38.9
347.525	38.45
347.908	62.85
348.291	80.48
348.674	90.2
349.057	101.49
349.44	123.87
349.823	154.37
350.206	143.3
350.588	191.89
350.971	214.26
351.354	215.16
351.737	224.88
352.119	261.49
352.502	247.03
352.884	269.17
353.267	308.72
353.65	307.59
354.032	290.64
354.414	297.65
354.797	296.29
355.179	311.21
355.562	302.17
355.944	338.1
356.326	342.62
356.709	324.54
357.091	322.96
357.473	331.09
357.855	332.67
358.238	332.22
358.62	330.64
359.002	313.47
359.384	329.29
359.766	339.45
360.148	342.62
360.53	331.54
360.912	317.99
361.294	345.78
361.676	322.96
362.057	326.8
362.439	326.12
362.821	337.87
363.203	332.22
363.584	328.38
363.966	302.85
364.348	341.94
364.729	324.31
365.111	322.96
365.493	337.87
365.874	314.37
366.256	326.8
366.637	313.01
367.019	309.17
367.4	303.52
367.781	308.95
368.163	287.25
368.544	306.23
368.925	317.31
369.306	333.8
369.688	315.05
370.069	311.43
370.45	301.26
370.831	305.33
371.212	296.52
371.593	303.3
371.974	304.2
372.355	280.92
372.736	291.77
373.117	314.6
373.498	302.62
373.879	323.18
374.26	302.39
374.641	333.35
375.021	302.39
375.402	313.92
375.783	311.66
376.163	311.43
376.544	321.15
376.925	313.24
377.305	314.82
377.686	303.75
378.066	339.68
378.447	345.33
378.827	309.17
379.208	303.98
379.588	329.06
379.968	337.42
380.349	326.57
380.729	324.31
381.109	330.64
381.489	305.1
381.87	339
382.25	362.28
382.63	320.92
383.01	331.77
383.39	337.65
383.77	344.2
384.15	346.23
384.53	334.03
384.91	332.22
385.29	336.52
385.67	346.46
386.049	332.45
386.429	343.3
386.809	327.03
387.189	334.03
387.568	354.37
387.948	350.3
388.328	361.37
388.707	343.07
389.087	357.31
389.466	372
389.846	366.8
390.225	356.86
390.605	337.19
390.984	387.81
391.363	372
391.743	357.76
392.122	374.03
392.501	383.3
392.881	360.24
393.26	368.61
393.639	360.02
394.018	374.48
394.397	367.7
394.776	353.47
395.155	368.83
395.534	380.36
395.913	385.78
396.292	386.23
396.671	381.26
397.05	375.16
397.429	356.4
397.808	392.11
398.186	407.02
398.565	419.9
398.944	401.37
399.323	384.42
399.701	383.07
400.08	395.72
400.458	393.92
400.837	420.81
401.215	410.64
401.594	386.01
401.972	412.45
402.351	424.65
402.729	417.64
403.107	415.61
403.486	416.51
403.864	411.77
404.242	414.71
404.62	429.17
404.999	456.97
405.377	459
405.755	453.8
406.133	436.17
406.511	435.95
406.889	448.15
407.267	466.68
407.645	461.49
408.023	463.52
408.401	469.39
408.779	477.76
409.156	497.42
409.534	488.6
409.912	484.76
410.29	517.75
410.667	482.28
411.045	524.76
411.422	504.42
411.8	539.22
412.178	531.09
412.555	527.47
412.933	541.93
413.31	564.08
413.687	560.01
414.065	566.12
414.442	586.23
414.819	551.88
415.197	574.25
415.574	595.94
415.951	576.51
416.328	601.59
416.705	587.13
417.082	625.1
417.46	611.54
417.837	641.14
418.214	656.51
418.591	632.33
418.967	641.82
419.344	652.44
419.721	675.04
420.098	677.98
420.475	689.28
420.852	689.73
421.228	710.52
421.605	701.48
421.982	736.73
422.358	723.4
422.735	738.09
423.111	734.02
423.488	770.63
423.864	743.29
424.241	772.21
424.617	795.26
424.994	786.22
425.37	798.43
425.746	788.71
426.123	833.23
426.499	825.54
426.875	851.08
427.251	858.54
427.627	875.49
428.003	865.32
428.379	894.92
428.756	913.22
429.132	874.36
429.507	889.04
429.883	879.1
430.259	940.57
430.635	917.74
431.011	934.69
431.387	945.54
431.763	985.99
432.138	975.14
432.514	967.91
432.89	995.93
433.265	1040
433.641	1051.75
434.016	1059.66
434.392	1081.13
434.767	1083.39
435.143	1116.84
435.518	1136.27
435.894	1118.42
436.269	1157.74
436.644	1190.73
437.02	1197.51
437.395	1181.01
437.77	1239.32
438.145	1241.35
438.52	1253.55
438.895	1287.9
439.271	1284.06
439.646	1334.23
440.021	1328.35
440.395	1344.85
440.77	1337.17
441.145	1382.59
441.52	1360.67
441.895	1381.01
442.27	1420.1
442.645	1403.38
443.019	1443.61
443.394	1456.49
443.769	1459.88
444.143	1446.54
444.518	1488.12
444.892	1479.54
445.267	1480.67
445.641	1529.71
446.016	1515.24
446.39	1539.42
446.764	1599.76
447.139	1568.57
447.513	1591.62
447.887	1571.29
448.262	1616.48
448.636	1626.43
449.01	1612.42
449.384	1655.13
449.758	1655.58
450.132	1661.45
450.506	1674.56
450.88	1714.56
451.254	1693.32
451.628	1733.54
452.002	1767.21
452.376	1755.69
452.75	1794.78
453.123	1781
453.497	1831.62
453.871	1822.81
454.244	1854.89
454.618	1894.67
454.992	1902.8
455.365	1894.22
455.739	2006.53
456.112	1980.99
456.486	1997.72
456.859	2038.39
457.232	2047.88
457.606	2051.73
457.979	2071.16
458.352	2117.71
458.725	2133.31
459.099	2164.27
459.472	2229.8
459.845	2189.58
460.218	2234.32
460.591	2256.24
460.964	2275.9
461.337	2293.53
461.71	2384.15
462.083	2418.95
462.456	2416.01
462.829	2419.17
463.201	2444.71
463.574	2477.25
463.947	2516.8
464.32	2569.9
464.692	2616
465.065	2617.59
465.438	2664.36
465.81	2683.12
466.183	2718.83
466.555	2835.43
466.928	2797.02
467.3	2815.77
467.672	2834.76
468.045	2911.36
468.417	2977.58
468.789	2994.98
469.161	3034.52
469.534	3109.55
469.906	3143
470.278	3156.33
470.65	3223.9
471.022	3276.1
471.394	3320.17
471.766	3393.16
472.138	3431.35
472.51	3507.73
472.882	3545.7
473.253	3630.22
473.625	3665.02
473.997	3748.4
474.369	3811.91
474.74	3837.89
475.112	3890.55
475.484	4001.96
475.855	4079.69
476.227	4100.26
476.598	4198.79
476.97	4259.58
477.341	4380.7
477.713	4463.19
478.084	4551.1
478.455	4575.5
478.827	4641.71
479.198	4782.95
479.569	4859.34
479.94	4967.81
480.311	5054.13
480.682	5147.46
481.053	5276.05
481.424	5336.84
481.795	5451.64
482.166	5552.65
482.537	5599.43
482.908	5743.83
483.279	5830.16
483.65	5897.95
484.021	6103.82
484.391	6153.99
484.762	6164.61
485.133	6271.5
485.503	6398.28
485.874	6499.74
486.244	6616.35
486.615	6722.56
486.985	6782.22
487.356	6949
487.726	7038.94
488.097	7200.97
488.467	7204.81
488.837	7378.14
489.207	7536.55
489.578	7630.34
489.948	7709.2
490.318	7819.94
490.688	7871.01
491.058	8057.9
491.428	8112.36
491.798	8218.34
492.168	8376.98
492.538	8430.77
492.908	8523.19
493.278	8586.92
493.648	8640.03
494.017	8760.25
494.387	8930.41
494.757	8908.95
495.126	8979.23
495.496	9037.08
495.866	9051.09
496.235	9268.26
496.605	9290.63
496.974	9295.83
497.344	9430.51
497.713	9482.04
498.082	9482.49
498.452	9604.75
498.821	9656.5
499.19	9666.44
499.559	9784.63
499.928	9782.14
500.298	9880.9
500.667	10009.03
501.036	9950.28
501.405	9973.33
501.774	10052.19
502.143	10098.97
502.512	10165.18
502.88	10232.08
503.249	10211.06
503.618	10289.48
503.987	10345.74
504.356	10404.95
504.724	10432.3
505.093	10389.59
505.462	10435.46
505.83	10564.95
506.199	10574.67
506.567	10751.16
506.936	10625.29
507.304	10720.65
507.672	10711.61
508.041	10779.41
508.409	10835.68
508.777	10823.02
509.145	10939.85
509.514	10909.8
509.882	10901.21
510.25	10952.96
510.618	10986.63
510.986	10965.16
511.354	11046.07
511.722	11115.67
512.09	11184.59
512.458	11112.5
512.826	11187.53
513.193	11276.57
513.561	11209.9
513.929	11298.94
514.297	11332.39
514.664	11359.5
515.032	11354.98
515.4	11466.39
515.767	11472.49
516.135	11401.31
516.502	11392.05
516.869	11455.32
517.237	11550.01
517.604	11470.01
517.972	11477.24
518.339	11529.22
518.706	11446.51
519.073	11553.4
519.44	11553.17
519.808	11575.54
520.175	11582.77
520.542	11615.99
520.909	11646.28
521.276	11632.49
521.643	11719.72
522.009	11638.82
522.376	11673.17
522.743	11684.24
523.11	11833.39
523.477	11779.38
523.843	11901.64
524.21	11859.83
524.577	11978.24
524.943	11922.43
525.31	11992.48
525.676	11952.93
526.043	11958.81
526.409	11973.95
526.776	11982.09
527.142	11888.3
527.508	11989.77
527.874	12017.11
528.241	12020.5
528.607	11984.35
528.973	11973.27
529.339	11973.95
529.705	12001.75
530.071	12019.83
530.437	11976.66
530.803	11955.19
531.169	11984.57
531.535	11917.46
531.901	11909.77
532.267	11830
532.632	11921.07
532.998	11954.97
533.364	11869.32
533.73	11804.46
534.095	11872.94
534.461	11868.19
534.826	11835.42
535.192	11758.82
535.557	11757.01
535.923	11691.7
536.288	11696.22
536.653	11684.24
537.019	11585.71
537.384	11621.87
537.749	11606.73
538.114	11481.31
538.479	11396.34
538.845	11400.86
539.21	11421.65
539.575	11336.68
539.94	11358.15
540.305	11380.97
540.67	11286.51
541.034	11234.99
541.399	11248.09
541.764	11142.33
542.129	11179.62
542.494	11111.83
542.858	11090.13
543.223	10970.81
543.587	11023.47
543.952	10894.66
544.316	10989.34
544.681	10904.15
545.045	10813.98
545.41	10789.12
545.774	10766.07
546.138	10766.3
546.503	10734.21
546.867	10647.21
547.231	10797.48
547.595	10626.19
547.959	10651.27
548.324	10505.51
548.688	10504.16
549.052	10520.66
549.416	10405.63
549.779	10312.98
550.143	10329.93
550.507	10312.3
550.871	10247.22
551.235	10197.73
551.599	10268.46
551.962	10209.7
552.326	10175.13
552.689	10110.5
553.053	10046.09
553.417	10058.52
553.78	10091.74
554.143	10093.1
554.507	10066.88
554.87	9932.42
555.234	10013.78
555.597	9903.95
555.96	9850.62
556.323	9854.23
556.686	9840.67
557.05	9862.37
557.413	9760.22
557.776	9767
558.139	9861.46
558.502	9753.22
558.865	9753.22
559.228	9706.21
559.59	9733.56
559.953	9677.51
560.316	9767
560.679	9692.65
561.041	9741.24
561.404	9755.25
561.767	9727
562.129	9660.79
562.492	9694.01
562.854	9681.36
563.217	9606.33
563.579	9649.27
563.941	9636.84
564.304	9669.38
564.666	9687.91
565.028	9692.43
565.39	9627.35
565.753	9675.71
566.115	9700.56
566.477	9692.65
566.839	9662.37
567.201	9759.55
567.563	9642.94
567.925	9726.1
568.287	9641.13
568.648	9715.25
569.01	9721.81
569.372	9721.35
569.734	9710.96
570.095	9751.18
570.457	9742.82
570.819	9752.99
571.18	9749.15
571.542	9701.47
571.903	9709.83
572.265	9736.5
572.626	9667.34
572.987	9740.79
573.349	9787.79
573.71	9746.21
574.071	9716.38
574.432	9713.45
574.794	9818.3
575.155	9804.74
575.516	9729.49
575.877	9757.51
576.238	9696.04
576.599	9737.63
576.96	9784.4
577.32	9765.87
577.681	9778.08
578.042	9731.75
578.403	9704.86
578.763	9785.53
579.124	9763.61
579.485	9779.88
579.845	9763.61
580.206	9788.7
580.566	9698.08
580.927	9699.89
581.287	9728.36
581.648	9681.81
582.008	9737.63
582.368	9778.53
582.728	9765.87
583.089	9728.36
583.449	9671.86
583.809	9678.19
584.169	9656.5
584.529	9732.65
584.889	9778.08
585.249	9654.24
585.609	9628.93
585.969	9656.05
586.329	9644.97
586.688	9626.22
587.048	9593.67
587.408	9605.2
587.768	9526.78
588.127	9571.53
588.487	9483.62
588.846	9541.92
589.206	9524.52
589.565	9479.55
589.925	9525.88
590.284	9558.65
590.643	9527.46
591.003	9501.93
591.362	9562.26
591.721	9545.99
592.08	9419.44
592.44	9403.85
592.799	9484.52
593.158	9409.5
593.517	9394.36
593.876	9464.64
594.235	9513.68
594.593	9502.15
594.952	9461.02
595.311	9432.55
595.67	9417.63
596.029	9434.36
596.387	9512.55
596.746	9505.99
597.104	9392.32
597.463	9368.82
597.822	9431.42
598.18	9378.54
598.538	9376.05
598.897	9450.18
599.255	9419.44
599.613	9424.41
599.972	9339.22
600.33	9371.31
600.688	9348.03
601.046	9330.4
601.404	9364.3
601.762	9260.8
602.12	9419.22
602.478	9421.02
602.836	9395.49
603.194	9327.92
603.552	9364.3
603.91	9280.24
604.268	9347.58
604.625	9373.12
604.983	9353
605.341	9305.55
605.698	9339.44
606.056	9306.22
606.413	9315.04
606.771	9314.81
607.128	9342.83
607.485	9347.58
607.843	9347.35
608.2	9350.06
608.557	9374.25
608.914	9398.88
609.272	9355.94
609.629	9393.68
609.986	9407.92
610.343	9342.38
610.7	9413.57
611.057	9378.76
611.414	9392.1
611.771	9397.75
612.127	9402.94
612.484	9411.53
612.841	9388.26
613.198	9434.36
613.554	9404.75
613.911	9423.28
614.267	9490.4
614.624	9460.34
614.98	9437.07
615.337	9480.91
615.693	9447.92
616.05	9458.31
616.406	9500.34
616.762	9471.42
617.118	9420.35
617.475	9479.1
617.831	9484.52
618.187	9513.9
618.543	9493.11
618.899	9532.66
619.255	9491.76
619.611	9546.44
619.967	9532.21
620.323	9612.43
620.678	9515.26
621.034	9485.2
621.39	9497.63
621.746	9481.13
622.101	9578.08
622.457	9514.81
622.812	9477.07
623.168	9537.86
623.523	9585.99
623.879	9545.99
624.234	9522.49
624.589	9527.46
624.945	9532.43
625.3	9543.28
625.655	9519.78
626.01	9551.42
626.365	9533.34
626.72	9542.6
627.075	9457.86
627.43	9522.04
627.785	9492.66
628.14	9505.32
628.495	9521.59
628.85	9474.13
629.205	9518.42
629.559	9502.83
629.914	9513.68
630.269	9473.23
630.623	9484.07
630.978	9452.89
631.332	9428.25
631.687	9480.23
632.041	9471.87
632.396	9367.24
632.75	9452.44
633.104	9401.36
633.459	9355.26
633.813	9373.79
634.167	9389.16
634.521	9324.3
634.875	9354.81
635.229	9368.82
635.583	9254.25
635.937	9367.01
636.291	9312.33
636.645	9242.72
636.999	9244.53
637.352	9313
637.706	9142.16
638.06	9274.81
638.413	9204.98
638.767	9189.62
639.121	9216.28
639.474	9143.06
639.828	9172.67
640.181	9126.57
640.534	9185.1
640.888	9159.56
641.241	9088.83
641.594	9118.88
641.947	9149.17
642.301	9092.9
642.654	9120.69
643.007	9119.79
643.36	9062.39
643.713	9133.8
644.066	9065.1
644.419	9065.78
644.771	9078.66
645.124	8880.02
645.477	8921.15
645.83	8854.03
646.182	8895.61
646.535	8821.94
646.888	8782.85
647.24	8699.01
647.593	8773.36
647.945	8779.23
648.298	8788.95
648.65	8740.14
649.002	8775.62
649.355	8786.01
649.707	8757.76
650.059	8845.9
650.411	8928.16
650.763	8926.35
651.115	9025.1
651.467	9024.88
651.819	8971.09
652.171	9012.45
652.523	8900.13
652.875	8954.6
653.227	8985.55
653.578	8939
653.93	8913.92
654.282	8934.71
654.633	8955.05
654.985	8931.77
655.337	8973.13
655.688	8971.54
656.039	9002.28
656.391	8943.3
656.742	9018.55
657.094	8927.48
657.445	9000.47
657.796	9003.86
658.147	8939.23
658.498	9022.62
658.849	9064.42
659.2	9043.86
659.551	8982.39
659.902	9045.21
660.253	9008.15
660.604	9043.63
660.955	8987.14
661.306	8995.05
661.656	9005.89
662.007	9012.45
662.358	9064.42
662.708	9029.62
663.059	9148.71
663.409	9024.65
663.76	9054.71
664.11	9051.09
664.461	9009.06
664.811	9117.3
665.161	9080.69
665.511	8997.08
665.862	9049.28
666.212	9116.17
666.562	9063.29
666.912	9047.25
667.262	9077.76
667.612	9053.58
667.962	9084.54
668.312	9077.98
668.662	9099.22
669.011	9056.51
669.361	9030.98
669.711	9019.45
670.06	8979.45
670.41	9051.77
670.76	9040.92
671.109	9089.96
671.459	8992.11
671.808	9000.92
672.157	9035.5
672.507	8943.75
672.856	8944.65
673.205	8915.73
673.554	9005.22
673.904	8931.09
674.253	8974.93
674.602	8979.45
674.951	8861.26
675.3	8859.68
675.649	8884.99
675.998	8947.36
676.346	8865.33
676.695	8880.7
677.044	8850.87
677.393	8889.96
677.741	8910.3
678.09	8826.46
678.438	8818.55
678.787	8814.94
679.135	8890.19
679.484	8727.26
679.832	8795.5
680.181	8758.22
680.529	8786.46
680.877	8702.17
681.225	8695.39
681.573	8742.85
681.922	8687.26
682.27	8689.07
682.618	8698.78
682.966	8695.39
683.314	8613.59
683.661	8628.73
684.009	8559.13
684.357	8612.01
684.705	8556.41
685.053	8564.1
685.4	8618.78
685.748	8529.07
686.095	8527.71
686.443	8476.64
686.79	8457.66
687.138	8452.24
687.485	8459.47
687.832	8414.27
688.18	8428.28
688.527	8354.38
688.874	8309.41
689.221	8339.47
689.568	8250.66
689.915	8258.34
690.262	8301.5
690.609	8238
690.956	8236.65
691.303	8220.83
691.65	8114.39
691.997	8162.3
692.344	8094.73
692.69	8105.13
693.037	8058.57
693.383	7978.35
693.73	8017.22
694.077	8009.08
694.423	7934.28
694.769	7922.08
695.116	7890.44
695.462	7851.57
695.808	7860.61
696.155	7830.56
696.501	7802.31
696.847	7741.52
697.193	7698.13
697.539	7735.42
697.885	7748.53
698.231	7658.58
698.577	7629.66
698.923	7658.36
699.269	7562.54
699.614	7591.02
699.96	7512.6
700.306	7491.58
700.651	7407.97
700.997	7404.35
701.342	7369.1
701.688	7323.45
702.033	7314.86
702.379	7342.43
702.724	7270.12
703.069	7351.7
703.415	7212.04
703.76	7271.93
704.105	7202.1
704.45	7133.63
704.795	7125.72
705.14	7158.71
705.485	7139.05
705.83	7032.84
706.175	7068.77
706.52	7047.3
706.865	7094.76
707.209	7022.89
707.554	6965.04
707.899	7003.69
708.243	6883.46
708.588	6863.35
708.932	6842.33
709.277	6840.53
709.621	6866.74
709.966	6740.64
710.31	6801.21
710.654	6763.01
710.998	6735.44
711.342	6733.41
711.687	6727.99
712.031	6666.29
712.375	6670.36
712.719	6647.54
713.063	6686.86
713.407	6649.12
713.75	6634.43
714.094	6694.54
714.438	6644.37
714.782	6640.08
715.125	6609.12
715.469	6580.42
715.812	6572.74
716.156	6598.27
716.499	6560.76
716.843	6544.04
717.186	6503.59
717.53	6509.24
717.873	6531.38
718.216	6447.99
718.559	6438.95
718.902	6449.12
719.246	6497.71
719.589	6466.75
719.932	6390.59
720.275	6461.78
720.617	6414.1
720.96	6377.71
721.303	6373.65
721.646	6406.19
721.989	6371.16
722.331	6377.94
722.674	6416.58
723.016	6343.59
723.359	6347.43
723.701	6358.73
724.044	6364.83
724.386	6324.16
724.729	6346.3
725.071	6331.16
725.413	6341.56
725.755	6335.23
726.097	6313.76
726.439	6279.19
726.782	6309.92
727.124	6276.7
727.465	6305.63
727.807	6312.86
728.149	6280.77
728.491	6222.46
728.833	6271.05
729.175	6285.74
729.516	6290.26
729.858	6292.52
730.199	6309.01
730.541	6251.16
730.882	6237.38
731.224	6278.28
731.565	6292.29
731.906	6267.66
732.248	6290.71
732.589	6223.37
732.93	6212.52
733.271	6306.98
733.612	6236.93
733.953	6253.88
734.294	6295
734.635	6254.78
734.976	6282.12
735.317	6311.95
735.658	6242.58
735.999	6323.93
736.339	6255.91
736.68	6278.28
737.021	6266.53
737.361	6298.85
737.702	6311.95
738.042	6262.24
738.383	6317.15
738.723	6352.86
739.063	6307.21
739.404	6327.09
739.744	6356.25
740.084	6313.31
740.424	6372.74
740.764	6351.95
741.104	6406.64
741.444	6371.16
741.784	6386.08
742.124	6428.11
742.464	6413.19
742.804	6447.99
743.143	6466.3
743.483	6478.28
743.823	6469.46
744.162	6480.31
744.502	6532.74
744.841	6552.17
745.181	6626.97
745.52	6629.23
745.86	6650.02
746.199	6741.77
746.538	6725.05
746.877	6792.62
747.216	6802.79
747.556	6888.66
747.895	6855.89
748.234	6917.13
748.573	6984.03
748.911	7005.27
749.25	7089.79
749.589	7138.15
749.928	7214.75
750.267	7280.29
750.605	7326.16
750.944	7380.63
751.283	7434.64
751.621	7556.44
751.96	7589.66
752.298	7688.87
752.636	7812.93
752.975	7854.06
753.313	7924.11
753.651	8031.46
753.989	8128.18
754.327	8242.3
754.666	8313.48
755.004	8432.8
755.342	8534.95
755.679	8705.34
756.017	8743.75
756.355	8963.63
756.693	9001.37
757.031	9204.76
757.368	9308.03
757.706	9457.18
758.044	9551.87
758.381	9762.48
758.719	9828.7
759.056	10007.67
759.394	10154.11
759.731	10253.09
760.068	10372.86
760.405	10538.51
760.743	10723.14
761.08	10812.63
761.417	11000.64
761.754	11212.84
762.091	11337.13
762.428	11442.89
762.765	11640.17
763.102	11849.21
763.438	11958.58
763.775	12062.76
764.112	12261.85
764.449	12457.55
764.785	12588.17
765.122	12733.03
765.458	12822.74
765.795	13005.11
766.131	13140.93
766.467	13305.67
766.804	13396.96
