Data from hue_140_FLMS001491_00043.txt Node
Date: Tue Feb 07 16:55:58 GMT 2017
User: dcchb
Spectrometer: FLMS00149
Trigger mode: 0
Integration Time (sec): 2.000000E-2
Scans to average: 10
Electric dark correction enabled: true
Nonlinearity correction enabled: false
Boxcar width: 0
XAxis mode: Wavelengths
Number of Pixels in Spectrum: 2048
>>>>>Begin Spectral Data<<<<<
341.393	0.27
341.776	0.27
342.16	0.27
342.543	-48.77
342.927	-64.36
343.31	-85.38
343.693	-54.87
344.077	-70.46
344.46	-58.94
344.843	-75.44
345.226	-36.11
345.61	-30.24
345.993	-20.97
346.376	6.6
346.759	18.57
347.142	24.9
347.525	41.85
347.908	44.11
348.291	79.81
348.674	99.7
349.057	116.88
349.44	136.08
349.823	147.84
350.206	180.6
350.588	193.26
350.971	213.14
351.354	221.73
351.737	245.01
352.119	238.91
352.502	272.8
352.884	261.96
353.267	305.8
353.65	267.15
354.032	287.27
354.414	291.79
354.797	301.28
355.179	317.77
355.562	328.4
355.944	336.76
356.326	327.94
356.709	308.96
357.091	342.63
357.473	339.47
357.855	352.35
358.238	319.81
358.62	336.76
359.002	335.17
359.384	336.08
359.766	316.87
360.148	319.36
360.53	333.14
360.912	329.07
361.294	359.58
361.676	321.84
362.057	319.81
362.439	323.2
362.821	327.27
363.203	329.3
363.584	302.63
363.966	329.07
364.348	333.37
364.729	346.47
365.111	316.42
365.493	328.62
365.874	333.37
366.256	307.38
366.637	333.37
367.019	316.42
367.4	311.45
367.781	300.6
368.163	285.68
368.544	309.64
368.925	309.86
369.306	313.25
369.688	292.92
370.069	311.45
370.45	306.25
370.831	298.11
371.212	320.03
371.593	293.37
371.974	299.92
372.355	310.54
372.736	324.1
373.117	298.79
373.498	307.83
373.879	311.67
374.26	321.39
374.641	311.9
375.021	305.8
375.402	332.91
375.783	299.7
376.163	345.12
376.544	307.38
376.925	326.81
377.305	321.62
377.686	336.76
378.066	314.16
378.447	335.17
378.827	339.69
379.208	332.91
379.588	333.59
379.968	319.81
380.349	330.43
380.729	329.53
381.109	343.54
381.489	317.1
381.87	344.44
382.25	346.93
382.63	333.14
383.01	331.79
383.39	366.13
383.77	348.28
384.15	339.47
384.53	326.81
384.91	351.45
385.29	340.82
385.67	350.77
386.049	336.3
386.429	356.64
386.809	355.29
387.189	343.76
387.568	336.53
387.948	352.8
388.328	370.2
388.707	340.15
389.087	352.58
389.466	350.09
389.846	359.13
390.225	350.32
390.605	358.23
390.984	367.26
391.363	331.33
391.743	350.99
392.122	361.84
392.501	382.86
392.881	368.85
393.26	390.54
393.639	379.24
394.018	379.24
394.397	361.84
394.776	360.71
395.155	359.35
395.534	403.42
395.913	389.86
396.292	369.07
396.671	407.94
397.05	371.56
397.429	380.82
397.808	371.33
398.186	380.15
398.565	393.25
398.944	379.69
399.323	390.09
399.701	377.89
400.08	413.14
400.458	399.13
400.837	390.99
401.215	390.31
401.594	412.91
401.972	405.46
402.351	409.98
402.729	393.48
403.107	413.14
403.486	410.43
403.864	404.1
404.242	398.9
404.62	430.99
404.999	418.56
405.377	431.9
405.755	412.69
406.133	423.08
406.511	414.49
406.889	430.09
407.267	451.78
407.645	454.72
408.023	443.42
408.401	441.16
408.779	454.27
409.156	429.86
409.534	441.39
409.912	445.91
410.29	450.65
410.667	468.05
411.045	456.53
411.422	494.94
411.8	447.49
412.178	468.5
412.555	467.15
412.933	472.57
413.31	458.79
413.687	470.54
414.065	478.45
414.442	474.15
414.819	456.3
415.197	509.18
415.574	488.39
415.951	503.53
416.328	491.55
416.705	489.3
417.082	498.11
417.46	515.74
417.837	498.79
418.214	499.69
418.591	516.64
418.967	539.69
419.344	529.97
419.721	503.98
420.098	513.25
420.475	507.83
420.852	517.77
421.228	531.33
421.605	527.26
421.982	525.45
422.358	519.35
422.735	540.14
423.111	529.07
423.488	525.68
423.864	543.53
424.241	542.18
424.617	579.46
424.994	549.63
425.37	564.1
425.746	540.82
426.123	580.82
426.499	590.99
426.875	593.93
427.251	567.49
427.627	592.12
428.003	584.43
428.379	572.46
428.756	602.06
429.132	622.17
429.507	630.53
429.883	612.91
430.259	633.25
430.635	623.08
431.011	620.82
431.387	638.67
431.763	636.86
432.138	658.33
432.514	653.13
432.89	636.41
433.265	670.99
433.641	655.17
434.016	685.9
434.392	701.94
434.767	675.96
435.143	685
435.518	668.73
435.894	693.58
436.269	700.59
436.644	699.23
437.02	714.6
437.395	717.99
437.77	728.84
438.145	725
438.52	742.85
438.895	740.59
439.271	753.69
439.646	751.66
440.021	762.28
440.395	764.32
440.77	760.25
441.145	756.63
441.52	764.32
441.895	766.35
442.27	761.38
442.645	765.45
443.019	800.02
443.394	776.97
443.769	803.41
444.143	806.8
444.518	807.93
444.892	833.69
445.267	828.72
445.641	828.72
446.016	834.14
446.39	828.04
446.764	837.99
447.139	855.61
447.513	845.9
447.887	827.37
448.262	853.35
448.636	864.43
449.01	882.28
449.384	878.89
449.758	866.46
450.132	895.61
450.506	888.83
450.88	873.47
451.254	893.35
451.628	916.4
452.002	904.88
452.376	950.53
452.75	919.11
453.123	917.53
453.497	935.39
453.871	969.51
454.244	971.77
454.618	972.9
454.992	970.64
455.365	971.99
455.739	1021.71
456.112	1017.64
456.486	1037.3
456.859	1037.76
457.232	1021.26
457.606	1029.85
457.979	1028.04
458.352	1067.36
458.725	1094.7
459.099	1091.31
459.472	1129.96
459.845	1128.6
460.218	1136.96
460.591	1133.8
460.964	1143.52
461.337	1197.3
461.71	1197.07
462.083	1239.56
462.456	1196.4
462.829	1224.42
463.201	1242.27
463.574	1235.94
463.947	1255.6
464.32	1279.1
464.692	1287.92
465.065	1306.45
465.438	1366.79
465.81	1351.19
466.183	1381.93
466.555	1387.58
466.928	1423.06
467.3	1423.28
467.672	1432.1
468.045	1461.7
468.417	1491.98
468.789	1506.22
469.161	1561.58
469.534	1556.39
469.906	1597.74
470.278	1636.38
470.65	1624.41
471.022	1668.02
471.394	1683.16
471.766	1733.1
472.138	1747.79
472.51	1800.9
472.882	1821.01
473.253	1830.73
473.625	1903.72
473.997	1958.41
474.369	1975.13
474.74	1993.66
475.112	2071.4
475.484	2104.17
475.855	2148.46
476.227	2199.53
476.598	2252.19
476.97	2332.64
477.341	2363.37
477.713	2401.56
478.084	2443.14
478.455	2533.54
478.827	2587.32
479.198	2631.61
479.569	2747.31
479.94	2844.94
480.311	2882.45
480.682	2941.66
481.053	3067.31
481.424	3147.76
481.795	3222.33
482.166	3239.28
482.537	3380.97
482.908	3490.57
483.279	3549.33
483.65	3636.78
484.021	3768.3
484.391	3880.39
484.762	3911.13
485.133	4038.58
485.503	4114.96
485.874	4243.77
486.244	4344.11
486.615	4462.07
486.985	4613.71
487.356	4720.37
487.726	4766.92
488.097	4998.78
488.467	4969.86
488.837	5213.46
489.207	5306.12
489.578	5418.2
489.948	5481.03
490.318	5644.41
490.688	5768.93
491.058	5920.11
491.428	6091.18
491.798	6192.42
492.168	6359.42
492.538	6422.25
492.908	6516.93
493.278	6775.46
493.648	6814.33
494.017	6963.02
494.387	7085.51
494.757	7163.24
495.126	7289.57
495.496	7361.43
495.866	7499.28
496.235	7655.89
496.605	7800.97
496.974	7904.02
497.344	7946.05
497.713	8136.33
498.082	8275.98
498.452	8329.09
498.821	8412.02
499.19	8495.86
499.559	8687.05
499.928	8797.55
500.298	8883.42
500.667	8921.62
501.036	9020.82
501.405	9133.14
501.774	9226.24
502.143	9285.22
502.512	9393.24
502.88	9536.06
503.249	9550.75
503.618	9667.81
503.987	9713.46
504.356	9872.1
504.724	9888.37
505.093	9935.37
505.462	10038.2
505.83	10067.12
506.199	10205.42
506.567	10402.25
506.936	10389.83
507.304	10522.48
507.672	10510.95
508.041	10566.54
508.409	10596.15
508.777	10705.3
509.145	10763.6
509.514	10812.64
509.882	10878.4
510.25	10875.69
510.618	11028.23
510.986	11031.39
511.354	11189.13
511.722	11255.57
512.09	11246.98
512.458	11279.29
512.826	11331.72
513.193	11418.95
513.561	11389.35
513.929	11464.83
514.297	11517.71
514.664	11578.72
515.032	11602.45
515.4	11664.59
515.767	11698.04
516.135	11738.94
516.502	11660.3
516.869	11741.65
517.237	11842.44
517.604	11811.71
517.972	11849.67
518.339	11936.45
518.706	11912.5
519.073	11964.25
519.44	11903.68
519.808	12117.69
520.175	12082.44
520.542	12126.5
520.909	12166.28
521.276	12173.51
521.643	12274.75
522.009	12374.63
522.376	12291.92
522.743	12280.85
523.11	12323.11
523.477	12467.51
523.843	12422.31
524.21	12515.87
524.577	12590.67
524.943	12578.02
525.31	12589.54
525.676	12692.14
526.043	12651.01
526.409	12707.96
526.776	12778.92
527.142	12700.05
527.508	12715.41
527.874	12718.8
528.241	12779.14
528.607	12794.73
528.973	12874.96
529.339	12848.29
529.705	12803.32
530.071	12884.68
530.437	12898.69
530.803	12940.04
531.169	12851.23
531.535	12779.14
531.901	12815.07
532.267	12855.52
532.632	12885.35
532.998	12833.38
533.364	12847.16
533.73	12815.3
534.095	12799.93
534.461	12809.2
534.826	12898.69
535.192	12853.26
535.557	12875.86
535.923	12780.72
536.288	12728.3
536.653	12775.98
537.019	12601.52
537.384	12730.56
537.749	12736.88
538.114	12690.56
538.479	12609.65
538.845	12614.63
539.21	12528.98
539.575	12510.67
539.94	12512.03
540.305	12610.11
540.67	12500.5
541.034	12446.95
541.399	12423.44
541.764	12448.53
542.129	12373.05
542.494	12351.36
542.858	12422.54
543.223	12331.92
543.587	12287.85
543.952	12282.21
544.316	12239.95
544.681	12227.97
545.045	12150.01
545.41	12235.2
545.774	12117.46
546.138	12128.09
546.503	12127.41
546.867	11975.55
547.231	12080.4
547.595	12043.57
547.959	11928.77
548.324	11948.43
548.688	11884.25
549.052	11896.68
549.416	11872.72
549.779	11870.01
550.143	11774.87
550.507	11746.4
550.871	11762.67
551.235	11658.04
551.599	11750.92
551.962	11721.99
552.326	11751.37
552.689	11693.07
553.053	11583.24
553.417	11606.29
553.78	11667.76
554.143	11543.02
554.507	11609.91
554.87	11530.13
555.234	11567.87
555.597	11491.04
555.96	11496.01
556.323	11534.65
556.686	11464.37
557.05	11529.23
557.413	11476.58
557.776	11474.77
558.139	11504.6
558.502	11475.67
558.865	11476.58
559.228	11507.76
559.59	11473.19
559.953	11485.39
560.316	11547.08
560.679	11496.24
561.041	11514.32
561.404	11501.21
561.767	11578.95
562.129	11497.59
562.492	11555.44
562.854	11466.63
563.217	11520.19
563.579	11542.34
563.941	11497.37
564.304	11533.07
564.666	11578.49
565.028	11641.09
565.39	11528.55
565.753	11592.51
566.115	11566.97
566.477	11656.69
566.839	11572.17
567.201	11751.15
567.563	11595.9
567.925	11739.17
568.287	11647.19
568.648	11658.49
569.01	11658.49
569.372	11731.94
569.734	11735.78
570.095	11712.73
570.457	11773.74
570.819	11758.15
571.18	11781.88
571.542	11870.92
571.903	11833.86
572.265	11831.82
572.626	11842.44
572.987	11824.82
573.349	11823.46
573.71	11847.41
574.071	11850.58
574.432	11901.42
574.794	11931.03
575.155	11938.94
575.516	11876.11
575.877	11969.67
576.238	11984.36
576.599	11906.4
576.96	11910.01
577.32	11979.61
577.681	11981.65
578.042	11997.47
578.403	11991.37
578.763	11979.16
579.124	11987.52
579.485	12082.44
579.845	12045.6
580.206	11994.98
580.566	11929.67
580.927	11945.49
581.287	11987.75
581.648	11909.79
582.008	12094.19
582.368	11955.21
582.728	12036.79
583.089	11958.37
583.449	11934.64
583.809	11976.9
584.169	11922.67
584.529	11916.11
584.889	12088.31
585.249	11919.5
585.609	11911.37
585.969	11970.58
586.329	11905.27
586.688	11890.13
587.048	11917.92
587.408	11822.78
587.768	11827.08
588.127	11831.37
588.487	11832.95
588.846	11848.54
589.206	11843.8
589.565	11758.38
589.925	11804.48
590.284	11793.18
590.643	11755.67
591.003	11858.49
591.362	11883.35
591.721	11764.93
592.08	11784.14
592.44	11735.33
592.799	11803.8
593.158	11752.05
593.517	11822.33
593.876	11846.74
594.235	11791.14
594.593	11720.41
594.952	11767.64
595.311	11721.54
595.67	11730.58
596.029	11778.04
596.387	11836.79
596.746	11734.2
597.104	11802.9
597.463	11735.78
597.822	11741.88
598.18	11665.27
598.538	11738.04
598.897	11804.25
599.255	11693.07
599.613	11801.09
599.972	11737.81
600.33	11819.17
600.688	11770.58
601.046	11780.07
601.404	11779.85
601.762	11785.5
602.12	11776.68
602.478	11801.54
602.836	11790.01
603.194	11746.17
603.552	11737.36
603.91	11738.49
604.268	11753.41
604.625	11706.85
604.983	11718.6
605.341	11711.15
605.698	11780.07
606.056	11786.63
606.413	11763.35
606.771	11721.77
607.128	11797.92
607.485	11808.32
607.843	11800.86
608.2	11840.63
608.557	11828.66
608.914	11745.5
609.272	11898.03
609.629	11932.84
609.986	11948.88
610.343	11819.84
610.7	11917.02
611.057	11897.36
611.414	11917.47
611.771	11894.87
612.127	11944.59
612.484	11898.26
612.841	11945.94
613.198	11925.38
613.554	11860.07
613.911	11957.47
614.267	11983.23
614.624	11938.26
614.98	11958.6
615.337	12011.7
615.693	12099.16
616.05	11896
616.406	12096.9
616.762	12030.23
617.118	12019.16
617.475	11974.64
617.831	12023.68
618.187	12100.52
618.543	12097.35
618.899	12124.92
619.255	12135.77
619.611	12082.44
619.967	12121.98
620.323	12135.99
620.678	12136.67
621.034	12093.51
621.39	12128.31
621.746	12097.58
622.101	12225.26
622.457	12140.74
622.812	12112.94
623.168	12143.45
623.523	12186.84
623.879	12051.02
624.234	12072.72
624.589	12159.04
624.945	12050.57
625.3	12172.15
625.655	12134.64
626.01	12124.02
626.365	12153.62
626.72	12118.59
627.075	12226.16
627.43	12149.78
627.785	12132.83
628.14	12052.83
628.495	12132.6
628.85	12147.97
629.205	12017.81
629.559	12163.11
629.914	12053.74
630.269	12118.37
630.623	12063.91
630.978	12028.2
631.332	12132.15
631.687	12022.78
632.041	12043.79
632.396	12049.22
632.75	11886.28
633.104	11920.18
633.459	11898.49
633.813	11889.22
634.167	11968.09
634.521	12000.4
634.875	11932.84
635.229	11873.85
635.583	11868.43
635.937	11876.11
636.291	11822.56
636.645	11850.8
636.999	11815.55
637.352	11807.87
637.706	11774.42
638.06	11803.8
638.413	11731.49
638.767	11775.78
639.121	11721.99
639.474	11748.43
639.828	11808.32
640.181	11780.3
640.534	11758.83
640.888	11710.69
641.241	11639.74
641.594	11658.72
641.947	11719.06
642.301	11675.89
642.654	11690.36
643.007	11693.52
643.36	11681.09
643.713	11689
644.066	11629.34
644.419	11599.29
644.771	11524.71
645.124	11399.74
645.477	11434.32
645.83	11272.97
646.182	11258.5
646.535	11270.71
646.888	11345.28
647.24	11187.77
647.593	11312.29
647.945	11296.02
648.298	11205.62
648.65	11161.33
649.002	11139.18
649.355	11224.83
649.707	11230.71
650.059	11253.98
650.411	11388.22
650.763	11434.09
651.115	11567.87
651.467	11479.51
651.819	11536.91
652.171	11495.79
652.523	11460.31
652.875	11497.59
653.227	11453.3
653.578	11513.86
653.93	11454.88
654.282	11393.64
654.633	11368.78
654.985	11449.46
655.337	11407.2
655.688	11417.6
656.039	11491.49
656.391	11402.23
656.742	11440.19
657.094	11472.96
657.445	11389.35
657.796	11443.36
658.147	11437.71
658.498	11445.17
658.849	11453.07
659.2	11423.92
659.551	11416.92
659.902	11522.68
660.253	11432.74
660.604	11437.93
660.955	11421.66
661.306	11519.97
661.656	11438.16
662.007	11375.56
662.358	11427.99
662.708	11484.03
663.059	11427.09
663.409	11423.92
663.76	11480.42
664.11	11531.49
664.461	11476.35
664.811	11580.75
665.161	11381.21
665.511	11449.68
665.862	11538.72
666.212	11556.57
666.562	11533.07
666.912	11463.02
667.262	11440.87
667.612	11520.64
667.962	11489.23
668.312	11479.29
668.662	11564.26
669.011	11479.06
669.361	11445.84
669.711	11403.58
670.06	11489.23
670.41	11486.07
670.76	11387.31
671.109	11433.87
671.459	11361.1
671.808	11384.6
672.157	11417.6
672.507	11387.77
672.856	11372.17
673.205	11430.7
673.554	11407.65
673.904	11388.67
674.253	11428.22
674.602	11312.06
674.951	11186.64
675.3	11143.03
675.649	11326.3
675.998	11339.86
676.346	11317.94
676.695	11306.19
677.044	11281.55
677.393	11305.28
677.741	11254.66
678.09	11248.56
678.438	11209.69
678.787	11214.89
679.135	11215.34
679.484	11046.08
679.832	11223.7
680.181	11060.09
680.529	11222.57
680.877	11028.45
681.225	11064.16
681.573	11216.24
681.922	11145.74
682.27	11014.67
682.618	11066.87
682.966	10965.18
683.314	11115.46
683.661	10949.36
684.009	10949.81
684.357	10856.93
684.705	10868.91
685.053	10927.21
685.4	10877.5
685.748	10791.62
686.095	10828.91
686.443	10732.87
686.79	10679.76
687.138	10807.89
687.485	10766.99
687.832	10692.87
688.18	10706.88
688.527	10694.9
688.874	10620.33
689.221	10615.36
689.568	10587.11
689.915	10583.94
690.262	10548.24
690.609	10499.43
690.956	10475.7
691.303	10404.74
691.65	10400.67
691.997	10421.46
692.344	10333.33
692.69	10350.96
693.037	10309.6
693.383	10225.31
693.73	10277.51
694.077	10192.32
694.423	10241.36
694.769	10157.74
695.116	10160.91
695.462	10069.83
695.808	10051.53
696.155	10007.24
696.501	9953.45
696.847	9964.75
697.193	9840.91
697.539	9925.88
697.885	9841.37
698.231	9808.15
698.577	9772.21
698.923	9750.52
699.269	9681.82
699.614	9687.92
699.96	9665.32
700.306	9634.59
700.651	9602.28
700.997	9562.73
701.342	9558.89
701.688	9508.72
702.033	9473.92
702.379	9437.08
702.724	9440.47
703.069	9358.21
703.415	9366.12
703.76	9298.78
704.105	9320.7
704.45	9298.33
704.795	9263.08
705.14	9207.94
705.485	9186.24
705.83	9164.77
706.175	9163.64
706.52	9132.01
706.865	9097.43
707.209	9066.7
707.554	8987.6
707.899	9045.45
708.243	9053.59
708.588	8946.7
708.932	8983.53
709.277	8925.46
709.621	8884.55
709.966	8871
710.31	8846.82
710.654	8751
710.998	8767.72
711.342	8763.88
711.687	8771.34
712.031	8747.83
712.375	8648.4
712.719	8671.68
713.063	8727.04
713.407	8697.89
713.75	8616.76
714.094	8595.07
714.438	8558.01
714.782	8505.36
715.125	8496.32
715.469	8566.14
715.812	8555.75
716.156	8488.63
716.499	8435.98
716.843	8498.12
717.186	8379.71
717.53	8460.38
717.873	8449.99
718.216	8434.4
718.559	8442.08
718.902	8346.26
719.246	8408.41
719.589	8358.69
719.932	8316.43
720.275	8307.39
720.617	8288.64
720.96	8302.87
721.303	8323.21
721.646	8331.57
721.989	8276.66
722.331	8270.79
722.674	8269.43
723.016	8329.77
723.359	8246.83
723.701	8293.16
724.044	8234.4
724.386	8227.4
724.729	8201.86
725.071	8228.07
725.413	8173.16
725.755	8161.18
726.097	8122.99
726.439	8080.96
726.782	8152.37
727.124	8170.45
727.465	8165.25
727.807	8099.04
728.149	8115.99
728.491	8167.96
728.833	8164.8
729.175	8104.24
729.516	8065.37
729.858	8051.81
730.199	8157.79
730.541	8150.11
730.882	8120.51
731.224	8132.48
731.565	8042.77
731.906	8098.81
732.248	8120.51
732.589	8024.24
732.93	8045.48
733.271	8041.86
733.612	8092.26
733.953	8058.14
734.294	8072.82
734.635	8021.53
734.976	8040.73
735.317	7994.41
735.658	7974.75
735.999	8061.75
736.339	8113.05
736.68	8059.49
737.021	8050.9
737.361	8052.26
737.702	8134.29
738.042	8030.79
738.383	8107.85
738.723	8149.43
739.063	8114.41
739.404	8134.52
739.744	8082.32
740.084	8111.92
740.424	8144.91
740.764	8123.67
741.104	8186.72
741.444	8164.8
741.784	8159.15
742.124	8210.67
742.464	8235.53
742.804	8243.67
743.143	8178.13
743.483	8249.99
743.823	8259.03
744.162	8242.31
744.502	8285.93
744.841	8335.87
745.181	8345.36
745.52	8401.4
745.86	8353.27
746.199	8438.01
746.538	8453.61
746.877	8583.32
747.216	8587.61
747.556	8644.56
747.895	8630.32
748.234	8637.33
748.573	8697.44
748.911	8803.88
749.25	8813.6
749.589	8837.78
749.928	8945.57
750.267	9014.04
750.605	9076.87
750.944	9093.59
751.283	9134.27
751.621	9278.89
751.96	9310.31
752.298	9395.05
752.636	9553.24
752.975	9584.65
753.313	9611.77
753.651	9762.95
753.989	9792.55
754.327	9913.91
754.666	9975.37
755.004	10190.28
755.342	10255.14
755.679	10327.91
756.017	10432.31
756.355	10581.01
756.693	10699.87
757.031	10851.96
757.368	10936.48
757.706	11057.15
758.044	11214.66
758.381	11364.94
758.719	11510.7
759.056	11680.64
759.394	11773.07
759.731	11935.55
