Data from hue_170_FLMS001491_00006.txt Node
Date: Tue Feb 07 16:48:10 GMT 2017
User: dcchb
Spectrometer: FLMS00149
Trigger mode: 0
Integration Time (sec): 2.000000E-2
Scans to average: 10
Electric dark correction enabled: true
Nonlinearity correction enabled: false
Boxcar width: 0
XAxis mode: Wavelengths
Number of Pixels in Spectrum: 2048
>>>>>Begin Spectral Data<<<<<
341.393	-16.64
341.776	-16.64
342.16	-16.64
342.543	-74.94
342.927	-56.18
343.31	-84.66
343.693	-75.85
344.077	-68.39
344.46	-61.83
344.843	-55.96
345.226	-29.97
345.61	-33.59
345.993	4.15
346.376	-17.99
346.759	9.58
347.142	15.23
347.525	54.32
347.908	56.58
348.291	59.29
348.674	114.21
349.057	114.88
349.44	137.48
349.823	163.02
350.206	164.37
350.588	203.47
350.971	232.17
351.354	225.62
351.737	221.55
352.119	255.67
352.502	254.77
352.884	279.4
353.267	298.16
353.65	296.35
354.032	310.59
354.414	309
354.797	338.61
355.179	340.87
355.562	333.18
355.944	332.51
356.326	330.7
356.709	342.22
357.091	343.13
357.473	348.32
357.855	339.28
358.238	356.91
358.62	353.97
359.002	328.44
359.384	345.16
359.766	358.95
360.148	356.46
360.53	383.58
360.912	344.03
361.294	342.9
361.676	347.87
362.057	331.15
362.439	339.74
362.821	341.09
363.203	325.05
363.584	345.61
363.966	345.84
364.348	331.38
364.729	321.43
365.111	325.27
365.493	310.59
365.874	336.57
366.256	323.69
366.637	324.14
367.019	325.05
367.4	310.81
367.781	307.2
368.163	307.2
368.544	304.03
368.925	319.85
369.306	321.66
369.688	314.43
370.069	308.1
370.45	311.49
370.831	319.85
371.212	321.66
371.593	305.16
371.974	320.75
372.355	330.02
372.736	335.22
373.117	313.75
373.498	322.79
373.879	327.08
374.26	336.8
374.641	336.8
375.021	338.38
375.402	327.31
375.783	325.95
376.163	329.12
376.544	333.64
376.925	343.8
377.305	329.34
377.686	328.44
378.066	341.09
378.447	337.93
378.827	349.45
379.208	353.3
379.588	335.67
379.968	314.88
380.349	345.16
380.729	329.57
381.109	353.07
381.489	368.44
381.87	344.71
382.25	341.54
382.63	346.52
383.01	361.43
383.39	347.42
383.77	364.14
384.15	352.84
384.53	325.05
384.91	330.7
385.29	365.27
385.67	340.87
386.049	375.67
386.429	365.95
386.809	370.47
387.189	351.26
387.568	353.3
387.948	367.31
388.328	366.18
388.707	337.48
389.087	355.33
389.466	372.5
389.846	371.15
390.225	367.98
390.605	382.9
390.984	395.1
391.363	369.11
391.743	390.36
392.122	369.57
392.501	373.18
392.881	380.64
393.26	396.23
393.639	407.31
394.018	374.99
394.397	408.21
394.776	384.71
395.155	400.98
395.534	381.77
395.913	389.91
396.292	403.92
396.671	392.16
397.05	406.18
397.429	405.05
397.808	412.5
398.186	402.79
398.565	411.6
398.944	430.58
399.323	417.93
399.701	404.59
400.08	402.33
400.458	396.91
400.837	421.99
401.215	417.7
401.594	429.23
401.972	433.07
402.351	431.26
402.729	417.25
403.107	430.58
403.486	450.69
403.864	451.15
404.242	449.34
404.62	448.43
404.999	444.14
405.377	458.15
405.755	443.46
406.133	431.94
406.511	455.67
406.889	434.42
407.267	459.51
407.645	465.16
408.023	457.02
408.401	466.51
408.779	465.16
409.156	469.68
409.534	494.76
409.912	465.61
410.29	503.57
410.667	497.02
411.045	504.48
411.422	510.35
411.8	516.46
412.178	518.26
412.555	527.98
412.933	544.03
413.31	524.36
413.687	546.96
414.065	538.15
414.442	542.67
414.819	554.65
415.197	562.1
415.574	551.71
415.951	569.79
416.328	591.93
416.705	565.95
417.082	586.06
417.46	570.69
417.837	584.02
418.214	596.91
418.591	606.85
418.967	593.74
419.344	625.83
419.721	623.57
420.098	614.08
420.475	623.8
420.852	637.13
421.228	661.99
421.605	641.42
421.982	633.51
422.358	644.81
422.735	664.93
423.111	660.18
423.488	679.16
423.864	686.85
424.241	669.9
424.617	686.85
424.994	703.34
425.37	705.38
425.746	700.41
426.123	723
426.499	750.57
426.875	746.05
427.251	729.56
427.627	748.31
428.003	753.29
428.379	790.8
428.756	791.93
429.132	779.5
429.507	814.3
429.883	818.82
430.259	818.37
430.635	820.63
431.011	806.62
431.387	826.5
431.763	853.62
432.138	854.75
432.514	856.11
432.89	869.89
433.265	887.29
433.641	911.7
434.016	900.17
434.392	926.16
434.767	940.85
435.143	922.32
435.518	966.84
435.894	965.71
436.269	995.99
436.644	975.88
437.02	1007.97
437.395	996.89
437.77	1000.96
438.145	1031.92
438.52	1067.85
438.895	1044.35
439.271	1049.77
439.646	1078.25
440.021	1100.39
440.395	1074.41
440.77	1077.57
441.145	1082.77
441.52	1121.64
441.895	1133.84
442.27	1173.61
442.645	1156.89
443.019	1170.68
443.394	1170.45
443.769	1171.35
444.143	1184.46
444.518	1209.77
444.892	1187.62
445.267	1230.33
445.641	1207.06
446.016	1238.47
446.39	1253.16
446.764	1264.01
447.139	1243.67
447.513	1255.64
447.887	1265.36
448.262	1296.55
448.636	1271.92
449.01	1284.57
449.384	1319.15
449.758	1332.48
450.132	1327.06
450.506	1381.07
450.88	1342.65
451.254	1351.91
451.628	1382.42
452.002	1417.22
452.376	1427.39
452.75	1417.67
453.123	1414.51
453.497	1455.87
453.871	1478.69
454.244	1494.73
454.618	1506.49
454.992	1559.14
455.365	1533.15
455.739	1563.89
456.112	1569.08
456.486	1571.79
456.859	1591.68
457.232	1654.73
457.606	1636.88
457.979	1672.58
458.352	1702.41
458.725	1690.66
459.099	1745.12
459.472	1783.31
459.845	1788.29
460.218	1827.61
460.591	1824.9
460.964	1813.14
461.337	1852.47
461.71	1885.91
462.083	1909.41
462.456	1936.76
462.829	1926.59
463.201	1957.32
463.574	2035.06
463.947	2048.62
464.32	2077.54
464.692	2099.92
465.065	2132.91
465.438	2147.37
465.81	2202.29
466.183	2211.78
466.555	2266.24
466.928	2299.01
467.3	2306.92
467.672	2372.23
468.045	2376.75
468.417	2428.5
468.789	2460.36
469.161	2474.37
469.534	2542.62
469.906	2596.85
470.278	2620.35
470.65	2647.25
471.022	2702.16
471.394	2765.89
471.766	2807.24
472.138	2853.57
472.51	2912.32
472.882	2969.5
473.253	3009.72
473.625	3085.2
473.997	3159.78
474.369	3231.64
474.74	3266.21
475.112	3322.26
475.484	3392.99
475.855	3464.4
476.227	3549.14
476.598	3715.02
476.97	3715.92
477.341	3806.31
477.713	3856.71
478.084	3919.3
478.455	4053.09
478.827	4137.38
479.198	4265.51
479.569	4301.21
479.94	4445.84
480.311	4478.39
480.682	4595.9
481.053	4771.26
481.424	4879.5
481.795	4933.74
482.166	4990.46
482.537	5081.76
482.908	5279.04
483.279	5355.88
483.65	5513.39
484.021	5616.21
484.391	5722.65
484.762	5882.42
485.133	5916.77
485.503	6071.56
485.874	6241.28
486.244	6331.9
486.615	6501.38
486.985	6589.52
487.356	6815.05
487.726	6870.64
488.097	7048.04
488.467	7144.08
488.837	7339.33
489.207	7427.46
489.578	7589.04
489.948	7733.21
490.318	7836.94
490.688	7924.85
491.058	8051.62
491.428	8239.87
491.798	8350.37
492.168	8554.66
492.538	8557.15
492.908	8706.75
493.278	8880.53
493.648	8972.28
494.017	9162.56
494.387	9224.25
494.757	9369.1
495.126	9490.91
495.496	9549.44
495.866	9661.98
496.235	9836.21
496.605	9898.36
496.974	9975.64
497.344	10123.21
497.713	10169.76
498.082	10300.83
498.452	10444.33
498.821	10444.33
499.19	10562.52
499.559	10676.87
499.928	10743.31
500.298	10914.83
500.667	11006.12
501.036	10986.46
501.405	11169.28
501.774	11182.16
502.143	11257.64
502.512	11315.49
502.88	11517.75
503.249	11442.95
503.618	11588.03
503.987	11557.52
504.356	11690.4
504.724	11740.12
505.093	11842.71
505.462	11892.43
505.83	12000.22
506.199	12096.49
506.567	12216.71
506.936	12127.22
507.304	12346.2
507.672	12330.16
508.041	12407.44
508.409	12437.27
508.777	12504.61
509.145	12611.96
509.514	12580.77
509.882	12647.44
510.25	12648.11
510.618	12788
510.986	12766.3
511.354	12836.13
511.722	12884.04
512.09	12993.42
512.458	12878.84
512.826	13039.29
513.193	13126.29
513.561	13154.32
513.929	13171.72
514.297	13252.62
514.664	13317.25
515.032	13323.8
515.4	13439.28
515.767	13504.59
516.135	13531.71
516.502	13358.83
516.869	13619.84
517.237	13536.9
517.604	13469.11
517.972	13657.35
518.339	13642.44
518.706	13650.35
519.073	13762.66
519.44	13707.97
519.808	13818.03
520.175	13760.17
520.542	13835.2
520.909	13864.13
521.276	13834.07
521.643	13913.84
522.009	13982.32
522.376	14038.13
522.743	14059.38
523.11	14163.78
523.477	14135.53
523.843	14227.96
524.21	14206.94
524.577	14280.16
524.943	14256.66
525.31	14354.51
525.676	14413.94
526.043	14500.72
526.409	14420.95
526.776	14446.94
527.142	14502.98
527.508	14472.25
527.874	14538.23
528.241	14525.35
528.607	14547.5
528.973	14538.23
529.339	14483.77
529.705	14522.87
530.071	14585.01
530.437	14598.57
530.803	14584.79
531.169	14571.9
531.535	14526.26
531.901	14497.56
532.267	14510.44
532.632	14601.96
532.998	14578.23
533.364	14563.77
533.73	14472.25
534.095	14519.25
534.461	14470.44
534.826	14504.79
535.192	14519.25
535.557	14532.13
535.923	14430.21
536.288	14408.75
536.653	14420.95
537.019	14291.46
537.384	14284.68
537.749	14251.01
538.114	14282.65
538.479	14215.08
538.845	14170.79
539.21	14112.48
539.575	14102.09
539.94	14076.32
540.305	14043.78
540.67	14073.84
541.034	14003.33
541.399	13941.64
541.764	13915.43
542.129	13803.11
542.494	13941.41
542.858	13830.46
543.223	13809.21
543.587	13823.45
543.952	13695.32
544.316	13664.81
544.681	13649.67
545.045	13648.77
545.41	13662.55
545.774	13590.46
546.138	13496.23
546.503	13450.8
546.867	13381.43
547.231	13385.5
547.595	13434.99
547.959	13418.71
548.324	13256.91
548.688	13253.97
549.052	13234.09
549.416	13184.6
549.779	13227.31
550.143	13141.21
550.507	13140.08
550.871	13149.34
551.235	13050.14
551.599	13088.33
551.962	12931.5
552.326	12959.74
552.689	12938.5
553.053	12817.15
553.417	12840.2
553.78	12919.29
554.143	12815.57
554.507	12822.8
554.87	12797.04
555.234	12856.92
555.597	12741.22
555.96	12747.32
556.323	12783.93
556.686	12621.22
557.05	12691.28
557.413	12682.46
557.776	12673.42
558.139	12651.5
558.502	12540.77
558.865	12609.47
559.228	12617.15
559.59	12577.83
559.953	12603.37
560.316	12698.28
560.679	12665.06
561.041	12653.09
561.404	12661.45
561.767	12668.23
562.129	12532.64
562.492	12717.49
562.854	12609.92
563.217	12631.17
563.579	12579.19
563.941	12616.48
564.304	12644.72
564.666	12708.9
565.028	12606.53
565.39	12613.54
565.753	12637.49
566.115	12703.71
566.477	12727.89
566.839	12714.78
567.201	12725.4
567.563	12656.25
567.925	12707.1
568.287	12680.88
568.648	12736.7
569.01	12734.89
569.372	12785.74
569.734	12765.62
570.095	12771.73
570.457	12753.42
570.819	12793.65
571.18	12742.57
571.542	12779.64
571.903	12870.25
572.265	12885.4
572.626	12896.24
572.987	12865.96
573.349	12965.85
573.71	12882.68
574.071	12834.78
574.432	12867.77
574.794	13007.88
575.155	12968.56
575.516	12879.75
575.877	12903.02
576.238	12859.41
576.599	12879.07
576.96	12881.1
577.32	12939.18
577.681	12886.3
578.042	12911.84
578.403	12873.87
578.763	12881.78
579.124	12969.69
579.485	12957.26
579.845	12904.6
580.206	12916.13
580.566	12909.35
580.927	12869.35
581.287	12945.96
581.648	12889.46
582.008	12927.88
582.368	12870.48
582.728	12937.82
583.089	12824.38
583.449	12866.19
583.809	12838.84
584.169	12883.81
584.529	12827.77
584.889	12881.55
585.249	12756.81
585.609	12790.03
585.969	12803.59
586.329	12773.53
586.688	12698.73
587.048	12758.39
587.408	12707.1
587.768	12764.04
588.127	12800.2
588.487	12655.35
588.846	12766.08
589.206	12706.42
589.565	12690.15
589.925	12740.09
590.284	12724.04
590.643	12690.6
591.003	12703.71
591.362	12811.05
591.721	12726.3
592.08	12698.96
592.44	12688.79
592.799	12734.67
593.158	12621.45
593.517	12633.88
593.876	12605.4
594.235	12559.98
594.593	12589.81
594.952	12551.39
595.311	12573.99
595.67	12506.42
596.029	12619.87
596.387	12597.72
596.746	12616.25
597.104	12548.46
597.463	12509.36
597.822	12601.79
598.18	12472.3
598.538	12510.26
598.897	12593.2
599.255	12488.34
599.613	12676.14
599.972	12597.27
600.33	12571.05
600.688	12505.52
601.046	12581.9
601.404	12641.11
601.762	12600.66
602.12	12688.34
602.478	12603.14
602.836	12588.23
603.194	12456.03
603.552	12564.27
603.91	12485.18
604.268	12572.41
604.625	12511.17
604.983	12585.74
605.341	12449.47
605.698	12552.75
606.056	12598.62
606.413	12562.24
606.771	12564.95
607.128	12572.86
607.485	12480.89
607.843	12517.5
608.2	12517.95
608.557	12620.32
608.914	12526.08
609.272	12623.71
609.629	12637.94
609.986	12689.02
610.343	12582.13
610.7	12686.76
611.057	12703.71
611.414	12697.38
611.771	12647.66
612.127	12744.61
612.484	12644.72
612.841	12608.11
613.198	12682.46
613.554	12591.17
613.911	12724.72
614.267	12696.7
614.624	12763.36
614.98	12675.23
615.337	12787.77
615.693	12786.87
616.05	12679.07
616.406	12833.19
616.762	12785.96
617.118	12678.4
617.475	12730.37
617.831	12836.36
618.187	12818.5
618.543	12772.86
618.899	12845.85
619.255	12811.27
619.611	12810.14
619.967	12896.92
620.323	13005.39
620.678	12797.04
621.034	12859.86
621.39	12840.88
621.746	12873.64
622.101	12931.72
622.457	12815.79
622.812	12846.75
623.168	12928.56
623.523	12894.43
623.879	12918.16
624.234	12784.83
624.589	12792.74
624.945	12912.29
625.3	12912.74
625.655	12868.45
626.01	12869.58
626.365	12915.23
626.72	12849.69
627.075	12888.56
627.43	12853.53
627.785	12853.31
628.14	12822.35
628.495	12872.29
628.85	12881.33
629.205	12790.48
629.559	12827.77
629.914	12787.77
630.269	12789.8
630.623	12728.34
630.978	12708.68
631.332	12809.47
631.687	12792.29
632.041	12726.3
632.396	12743.48
632.75	12716.36
633.104	12672.52
633.459	12646.08
633.813	12659.64
634.167	12642.92
634.521	12627.55
634.875	12747.09
635.229	12609.47
635.583	12631.84
635.937	12593.65
636.291	12600.88
636.645	12528.79
636.999	12568.79
637.352	12586.42
637.706	12440.66
638.06	12539.87
638.413	12479.53
638.767	12454.22
639.121	12468.46
639.474	12341.91
639.828	12406.76
640.181	12366.54
640.534	12424.39
640.888	12381.91
641.241	12281.34
641.594	12354.56
641.947	12414.67
642.301	12317.73
642.654	12285.41
643.007	12263.04
643.36	12344.17
643.713	12306.2
644.066	12272.08
644.419	12207.45
644.771	12088.58
645.124	12065.08
645.477	12115.7
645.83	11958.87
646.182	11900.79
646.535	11903.27
646.888	11946.21
647.24	11782.83
647.593	11892.88
647.945	11848.36
648.298	11846.55
648.65	11774.92
649.002	11800.9
649.355	11913.9
649.707	11911.18
650.059	11906.21
650.411	12087.68
650.763	12096.49
651.115	12211.29
651.467	12146.43
651.819	12106.66
652.171	12086.55
652.523	12106.43
652.875	12076.38
653.227	12093.1
653.578	12212.87
653.93	12171.97
654.282	12083.16
654.633	12117.96
654.985	12087.68
655.337	12131.97
655.688	12171.06
656.039	12102.14
656.391	12092.65
656.742	12135.13
657.094	12144.17
657.445	12204.51
657.796	12141.46
658.147	12070.28
658.498	12160.44
658.849	12165.41
659.2	12166.32
659.551	12156.15
659.902	12160.44
660.253	12155.25
660.604	12203.38
660.955	12107.79
661.306	12194.11
661.656	12169.26
662.007	12186.66
662.358	12134.68
662.708	12207.22
663.059	12123.83
663.409	12070.73
663.76	12232.31
664.11	12164.96
664.461	12219.42
664.811	12217.84
665.161	12190.5
665.511	12175.36
665.862	12177.84
666.212	12173.78
666.562	12146.88
666.912	12228.46
667.262	12128.13
667.612	12246.32
667.962	12176.04
668.312	12202.7
668.662	12291.29
669.011	12148.24
669.361	12243.38
669.711	12242.93
670.06	12186.43
670.41	12123.38
670.76	12196.6
671.109	12257.84
671.459	12276.82
671.808	12114.79
672.157	12212.42
672.507	12059.65
672.856	12107.34
673.205	12187.33
673.554	12074.34
673.904	12128.81
674.253	12113.44
674.602	12059.65
674.951	11942.6
675.3	11823.73
675.649	12035.25
675.998	12060.11
676.346	12020.11
676.695	11977.17
677.044	11990.5
677.393	12041.12
677.741	11931.07
678.09	11975.82
678.438	11872.31
678.787	11895.14
679.135	11933.33
679.484	11875.25
679.832	11873.22
680.181	11814.92
680.529	11850.17
680.877	11751.19
681.225	11727.69
681.573	11881.35
681.922	11785.09
682.27	11767.91
682.618	11705.77
682.966	11656.95
683.314	11665.09
683.661	11647.91
684.009	11574.92
684.357	11611.53
684.705	11535.37
685.053	11520.69
685.4	11505.54
685.748	11452.89
686.095	11460.12
686.443	11447.02
686.79	11405.66
687.138	11470.52
687.485	11350.75
687.832	11363.18
688.18	11341.71
688.527	11299.9
688.874	11256.51
689.221	11205.89
689.568	11218.09
689.915	11254.25
690.262	11186.68
690.609	11161.37
690.956	11082.28
691.303	11092.45
691.65	11016.74
691.997	10994.15
692.344	10853.36
692.69	10902.17
693.037	10912.34
693.383	10768.62
693.73	10836.18
694.077	10814.72
694.423	10828.73
694.769	10650.43
695.116	10727.26
695.462	10650.43
695.808	10621.95
696.155	10590.09
696.501	10610.2
696.847	10514.61
697.193	10425.35
697.539	10530.66
697.885	10379.92
698.231	10314.39
698.577	10296.76
698.923	10302.64
699.269	10255.41
699.614	10179.03
699.96	10149.2
700.306	10135.86
700.651	10058.8
700.997	10055.41
701.342	10040.27
701.688	9991.91
702.033	9918.24
702.379	9942.2
702.724	9885.02
703.069	9913.95
703.415	9812.93
703.76	9781.52
704.105	9847.74
704.45	9734.52
704.795	9632.83
705.14	9669.21
705.485	9663.79
705.83	9626.05
706.175	9570
706.52	9532.72
706.865	9518.93
707.209	9475.54
707.554	9464.69
707.899	9419.05
708.243	9431.48
708.588	9327.75
708.932	9311.03
709.277	9333.4
709.621	9287.52
709.966	9241.2
710.31	9287.98
710.654	9151.48
710.998	9191.93
711.342	9171.6
711.687	9134.76
712.031	9116.68
712.375	9095.21
712.719	9124.14
713.063	9069.68
713.407	9127.3
713.75	9013.18
714.094	9025.61
714.438	9014.76
714.782	8991.71
715.125	9002.79
715.469	8951.04
715.812	8951.26
716.156	8898.61
716.499	8909.91
716.843	8902.22
717.186	8871.49
717.53	8860.42
717.873	8912.84
718.216	8819.51
718.559	8769.35
718.902	8703.58
719.246	8750.36
719.589	8770.48
719.932	8701.1
720.275	8671.04
720.617	8690.7
720.96	8677.14
721.303	8639.41
721.646	8688.22
721.989	8622.91
722.331	8649.35
722.674	8591.5
723.016	8657.71
723.359	8623.13
723.701	8600.99
724.044	8606.64
724.386	8562.12
724.729	8593.53
725.071	8590.14
725.413	8583.36
725.755	8550.59
726.097	8530.48
726.439	8516.7
726.782	8530.26
727.124	8577.94
727.465	8521.44
727.807	8502.91
728.149	8519.18
728.491	8429.02
728.833	8518.96
729.175	8450.94
729.516	8478.28
729.858	8419.98
730.199	8469.24
730.541	8452.07
730.882	8452.07
731.224	8469.24
731.565	8461.11
731.906	8503.14
732.248	8399.41
732.589	8411.16
732.93	8381.11
733.271	8430.82
733.612	8382.01
733.953	8496.58
734.294	8374.78
734.635	8450.26
734.976	8503.36
735.317	8402.58
735.658	8470.14
735.999	8439.18
736.339	8460.88
736.68	8514.89
737.021	8510.82
737.361	8504.95
737.702	8506.08
738.042	8534.32
738.383	8527.09
738.723	8537.04
739.063	8488.68
739.404	8567.32
739.744	8507.43
740.084	8541.33
740.424	8543.81
740.764	8613.64
741.104	8625.85
741.444	8563.02
741.784	8570.03
742.124	8630.59
742.464	8590.82
742.804	8611.84
743.143	8693.42
743.483	8691.61
743.823	8643.7
744.162	8736.35
744.502	8738.84
744.841	8802.11
745.181	8873.52
745.52	8834.88
745.86	8946.97
746.199	8922.34
746.538	9002.11
746.877	9073.97
747.216	9081.43
747.556	9160.52
747.895	9196.45
748.234	9136.79
748.573	9249.33
748.911	9295.21
749.25	9348.99
749.589	9402.32
749.928	9528.87
750.267	9551.92
750.605	9683.22
750.944	9682.77
751.283	9790.11
751.621	9869.88
751.96	9973.61
752.298	10048.63
752.636	10174.28
752.975	10238.91
753.313	10339.25
753.651	10513.48
753.989	10524.33
754.327	10666.7
754.666	10796.41
755.004	10903.75
755.342	11104.2
755.679	11145.55
756.017	11296.51
756.355	11457.86
756.693	11552.32
757.031	11729.95
757.368	11857.63
757.706	12036.15
