Data from hue_24_FLMS001491_00063.txt Node
Date: Tue Feb 07 17:12:35 GMT 2017
User: dcchb
Spectrometer: FLMS00149
Trigger mode: 0
Integration Time (sec): 2.000000E-2
Scans to average: 10
Electric dark correction enabled: true
Nonlinearity correction enabled: false
Boxcar width: 0
XAxis mode: Wavelengths
Number of Pixels in Spectrum: 2048
>>>>>Begin Spectral Data<<<<<
341.393	-24.73
341.776	-24.73
342.16	-24.73
342.543	-62.24
342.927	-70.15
343.31	-57.05
343.693	-84.84
344.077	-67.22
344.46	-56.14
344.843	-54.11
345.226	-33.77
345.61	-40.55
345.993	-26.31
346.376	-7.1
346.759	20.01
347.142	16.85
347.525	36.28
347.908	56.62
348.291	81.93
348.674	110.41
349.057	104.98
349.44	142.04
349.823	168.26
350.206	170.97
350.588	189.5
350.971	214.58
351.354	223.62
351.737	261.59
352.119	262.04
352.502	293.9
352.884	281.93
353.267	300.01
353.65	312.21
354.032	322.38
354.414	321.02
354.797	328.03
355.179	331.64
355.562	320.12
355.944	362.83
356.326	342.94
356.709	339.33
357.091	359.67
357.473	349.72
357.855	346.11
358.238	354.69
358.62	322.15
359.002	360.12
359.384	341.36
359.766	347.69
360.148	361.25
360.53	336.16
360.912	382.04
361.294	334.81
361.676	356.5
362.057	348.14
362.439	335.49
362.821	354.02
363.203	347.91
363.584	354.47
363.966	352.89
364.348	341.14
364.729	342.04
365.111	340.91
365.493	335.71
365.874	322.15
366.256	309.05
366.637	320.34
367.019	333.9
367.4	319.44
367.781	343.62
368.163	345.43
368.544	331.42
368.925	323.28
369.306	349.72
369.688	333.68
370.069	337.52
370.45	324.41
370.831	332.77
371.212	314.7
371.593	318.31
371.974	338.42
372.355	307.92
372.736	326.67
373.117	353.56
373.498	323.73
373.879	341.14
374.26	338.88
374.641	355.82
375.021	356.05
375.402	350.63
375.783	348.82
376.163	340.91
376.544	351.76
376.925	365.32
377.305	351.98
377.686	351.3
378.066	342.49
378.447	364.86
378.827	349.72
379.208	330.29
379.588	350.85
379.968	346.33
380.349	357.63
380.729	361.47
381.109	355.37
381.489	360.34
381.87	357.41
382.25	360.12
382.63	367.58
383.01	381.36
383.39	375.03
383.77	356.95
384.15	391.53
384.53	370.29
384.91	365.77
385.29	354.47
385.67	368.03
386.049	375.48
386.429	369.83
386.809	384.75
387.189	396.5
387.568	387.24
387.948	402.6
388.328	402.83
388.707	409.61
389.087	384.3
389.466	395.82
389.846	413
390.225	389.5
390.605	391.98
390.984	391.76
391.363	397.63
391.743	413
392.122	412.32
392.501	428.59
392.881	413.22
393.26	399.21
393.639	423.84
394.018	420.23
394.397	422.26
394.776	414.35
395.155	426.56
395.534	410.51
395.913	409.16
396.292	437.18
396.671	412.55
397.05	438.08
397.429	425.88
397.808	446.22
398.186	417.29
398.565	441.25
398.944	446.67
399.323	424.75
399.701	455.03
400.08	460.23
400.458	446.22
400.837	447.57
401.215	437.63
401.594	438.31
401.972	468.36
402.351	448.93
402.729	448.25
403.107	443.28
403.486	471.75
403.864	449.15
404.242	464.75
404.62	476.95
404.999	457.97
405.377	514.69
405.755	469.95
406.133	473.79
406.511	471.3
406.889	481.7
407.267	489.83
407.645	512.66
408.023	490.06
408.401	490.28
408.779	475.14
409.156	485.09
409.534	513.33
409.912	497.74
410.29	491.64
410.667	507.91
411.045	521.02
411.422	516.72
411.8	521.24
412.178	545.42
412.555	551.53
412.933	558.3
413.31	557.85
413.687	555.59
414.065	554.69
414.442	568.02
414.819	565.31
415.197	554.46
415.574	548.36
415.951	582.71
416.328	589.04
416.705	563.95
417.082	565.76
417.46	601.02
417.837	590.62
418.214	606.89
418.591	585.42
418.967	588.36
419.344	617.96
419.721	600.34
420.098	608.47
420.475	633.56
420.852	618.64
421.228	627.68
421.605	653.67
421.982	624.97
422.358	671.52
422.735	663.61
423.111	655.93
423.488	629.72
423.864	680.34
424.241	636.95
424.617	669.49
424.994	671.3
425.37	685.31
425.746	664.06
426.123	695.93
426.499	690.5
426.875	689.83
427.251	714.91
427.627	699.77
428.003	685.08
428.379	714.68
428.756	717.4
429.132	740.45
429.507	752.65
429.883	767.11
430.259	775.02
430.635	759.2
431.011	764.17
431.387	780.22
431.763	780.22
432.138	793.55
432.514	801.24
432.89	808.47
433.265	812.99
433.641	802.59
434.016	789.48
434.392	859.31
434.767	834.91
435.143	833.78
435.518	841.46
435.894	868.35
436.269	871.97
436.644	897.28
437.02	884.85
437.395	867.9
437.77	909.71
438.145	909.71
438.52	916.71
438.895	924.85
439.271	921.68
439.646	936.6
440.021	962.36
440.395	949.03
440.77	933.44
441.145	951.06
441.52	968.92
441.895	949.93
442.27	979.31
442.645	982.25
443.019	994
443.394	996.94
443.769	1009.82
444.143	1003.72
444.518	1015.24
444.892	1027.44
445.267	1034.68
445.641	1025.41
446.016	1036.03
446.39	1037.16
446.764	1030.38
447.139	1026.09
447.513	1062.25
447.887	1070.61
448.262	1085.97
448.636	1057.73
449.01	1078.29
449.384	1093.66
449.758	1109.48
450.132	1128.23
450.506	1114.22
450.88	1144.05
451.254	1144.96
451.628	1131.62
452.002	1147.44
452.376	1145.86
452.75	1174.79
453.123	1173.2
453.497	1207.78
453.871	1233.09
454.244	1205.75
454.618	1243.48
454.992	1245.52
455.365	1241
455.739	1276.48
456.112	1286.19
456.486	1295.46
456.859	1309.7
457.232	1323.26
457.606	1329.58
457.979	1318.96
458.352	1368.23
458.725	1409.81
459.099	1395.34
459.472	1426.3
459.845	1405.29
460.218	1433.31
460.591	1431.28
460.964	1431.5
461.337	1474.66
461.71	1532.97
462.083	1555.11
462.456	1530.71
462.829	1558.28
463.201	1586.53
463.574	1565.96
463.947	1592.63
464.32	1621.1
464.692	1613.64
465.065	1649.35
465.438	1687.54
465.81	1704.94
466.183	1694.09
466.555	1731.61
466.928	1753.3
467.3	1727.77
467.672	1810.25
468.045	1850.7
468.417	1854.77
468.789	1851.15
469.161	1880.08
469.534	1875.33
469.906	1951.04
470.278	1986.06
470.65	1988.1
471.022	2019.74
471.394	2043.01
471.766	2095.67
472.138	2127.75
472.51	2151.48
472.882	2184.93
473.253	2228.32
473.625	2205.49
473.997	2288.65
474.369	2291.37
474.74	2339.95
475.112	2398.03
475.484	2442.1
475.855	2474.86
476.227	2503.56
476.598	2600.51
476.97	2588.99
477.341	2649.77
477.713	2707.4
478.084	2755.99
478.455	2793.73
478.827	2866.49
479.198	2933.61
479.569	2901.52
479.94	2992.82
480.311	3048.86
480.682	3115.3
481.053	3195.07
481.424	3258.8
481.795	3260.15
482.166	3338.34
482.537	3422.86
482.908	3515.06
483.279	3552.8
483.65	3598.22
484.021	3684.55
484.391	3722.06
484.762	3757.32
485.133	3808.39
485.503	3872.57
485.874	3968.84
486.244	3986.91
486.615	4105.33
486.985	4195.95
487.356	4275.04
487.726	4308.71
488.097	4371.54
488.467	4406.56
488.837	4528.14
489.207	4611.53
489.578	4701.92
489.948	4749.38
490.318	4793.45
490.688	4772.66
491.058	4898.76
491.428	4974.01
491.798	5061.01
492.168	5179.88
492.538	5144.4
492.908	5250.84
493.278	5331.74
493.648	5385.97
494.017	5480.43
494.387	5511.62
494.757	5523.37
495.126	5608.57
495.496	5656.48
495.866	5719.07
496.235	5745.06
496.605	5832.52
496.974	5861.67
497.344	5922.01
497.713	5978.28
498.082	5980.99
498.452	6094.88
498.821	6094.88
499.19	6178.95
499.559	6221.88
499.928	6293.52
500.298	6274.09
500.667	6371.26
501.036	6339.62
501.405	6452.16
501.774	6472.27
502.143	6553.4
502.512	6561.08
502.88	6679.5
503.249	6605.6
503.618	6682.44
503.987	6672.72
504.356	6787.07
504.724	6805.37
505.093	6857.8
505.462	6882.66
505.83	6887.63
506.199	6877.91
506.567	7047.17
506.936	7044.69
507.304	7072.26
507.672	7173.05
508.041	7185.47
508.409	7298.47
508.777	7307.51
509.145	7322.65
509.514	7344.79
509.882	7386.6
510.25	7434.28
510.618	7440.16
510.986	7428.63
511.354	7571.45
511.722	7619.81
512.09	7663.88
512.458	7650.1
512.826	7751.11
513.193	7717.89
513.561	7797.44
513.929	7888.51
514.297	7900.03
514.664	7925.12
515.032	7909.52
515.4	8052.57
515.767	8060.03
516.135	8085.34
516.502	8059.58
516.869	8202.4
517.237	8221.38
517.604	8188.39
517.972	8270.42
518.339	8310.19
518.706	8320.13
519.073	8347.25
519.44	8402.62
519.808	8450.98
520.175	8450.98
520.542	8620.24
520.909	8607.36
521.276	8602.39
521.643	8693.91
522.009	8733.23
522.376	8806
522.743	8837.41
523.11	8945.43
523.477	8949.04
523.843	8987.91
524.21	9148.14
524.577	9115.82
524.943	9155.37
525.31	9261.58
525.676	9337.96
526.043	9411.41
526.409	9382.03
526.776	9504.96
527.142	9526.88
527.508	9561.01
527.874	9577.73
528.241	9729.59
528.607	9729.14
528.973	9834.22
529.339	9751.96
529.705	9830.6
530.071	9961
530.437	10002.58
530.803	10042.35
531.169	10023.82
531.535	10078.05
531.901	10125.28
532.267	10217.71
532.632	10258.16
532.998	10243.47
533.364	10384.26
533.73	10365.05
534.095	10471.26
534.461	10533.64
534.826	10529.57
535.192	10581.54
535.557	10726.4
535.923	10685.27
536.288	10680.07
536.653	10811.82
537.019	10730.24
537.384	10853.63
537.749	10934.53
538.114	10897.02
538.479	10975.21
538.845	11095.43
539.21	11010.69
539.575	11036.9
539.94	11142.88
540.305	11127.29
540.67	11207.06
541.034	11209.78
541.399	11215.2
541.764	11320.51
542.129	11352.37
542.494	11350.79
542.858	11488.41
543.223	11474.85
543.587	11610.22
543.952	11505.36
544.316	11606.38
544.681	11628.07
545.045	11705.58
545.41	11762.76
545.774	11839.82
546.138	11831.45
546.503	11861.28
546.867	11876.65
547.231	11923.88
547.595	12043.65
547.959	12012.69
548.324	12157.32
548.688	12148.06
549.052	12115.74
549.416	12211.33
549.779	12271.67
550.143	12261.95
550.507	12388.28
550.871	12428.73
551.235	12429.4
551.599	12433.92
551.962	12557.09
552.326	12489.52
552.689	12652
553.053	12587.14
553.417	12628.27
553.78	12876.62
554.143	12717.53
554.507	12824.42
554.87	12817.42
555.234	12917.75
555.597	12817.87
555.96	13002.95
556.323	13034.36
556.686	13088.82
557.05	13112.78
557.413	13146.45
557.776	13154.13
558.139	13240.46
558.502	13192.1
558.865	13308.7
559.228	13470.06
559.59	13438.19
559.953	13495.14
560.316	13617.62
560.679	13639.54
561.041	13658.53
561.404	13718.41
561.767	13788.92
562.129	13681.12
562.492	13917.73
562.854	13882.93
563.217	13877.05
563.579	13963.15
563.941	14007.89
564.304	14023.94
564.666	14137.61
565.028	14169.47
565.39	14189.36
565.753	14290.82
566.115	14411.95
566.477	14410.37
566.839	14468.22
567.201	14605.62
567.563	14553.42
567.925	14667.76
568.287	14533.98
568.648	14628.44
569.01	14826.86
569.372	14935.55
569.734	14877.48
570.095	14920.64
570.457	15040.41
570.819	15052.16
571.18	15082.67
571.542	15241.31
571.903	15257.58
572.265	15295.32
572.626	15293.96
572.987	15475.43
573.349	15464.35
573.71	15621.19
574.071	15702.31
574.432	15731.46
574.794	15894.85
575.155	15879.48
575.516	15815.3
575.877	15956.32
576.238	16141.62
576.599	16288.74
576.96	16295.97
577.32	16367.61
577.681	16486.25
578.042	16641.95
578.403	16756.97
578.763	16890.98
579.124	16911.77
579.485	17067.7
579.845	17207.36
580.206	17308.6
580.566	17382.27
580.927	17573.22
581.287	17819.55
581.648	17891.86
582.008	18064.06
582.368	18208.69
582.728	18466.53
583.089	18591.05
583.449	18759.41
583.809	18960.76
584.169	19228.77
584.529	19335.66
584.889	19651.14
585.249	19791.92
585.609	19862.43
585.969	20296.99
586.329	20402.75
586.688	20769.75
587.048	20919.13
587.408	21106.46
587.768	21284.31
588.127	21706.9
588.487	21942.83
588.846	22319.99
589.206	22509.82
589.565	22829.81
589.925	23176.24
590.284	23371.49
590.643	23731.03
591.003	23944.13
591.362	24371.01
591.721	24654.39
592.08	24961.05
592.44	25346.58
592.799	25535.27
593.158	25968.48
593.517	26253
593.876	26540.67
594.235	26860.89
594.593	27245.96
594.952	27569.12
595.311	27784.48
595.67	28241.64
596.029	28626.49
596.387	28987.84
596.746	29377.89
597.104	29530.2
597.463	29873.69
597.822	30426.45
598.18	30516.39
598.538	30945.53
598.897	31336.93
599.255	31564.49
599.613	32272.05
599.972	32309.56
600.33	32765.82
600.688	32937.79
601.046	33343.21
601.404	33812.57
601.762	34005.56
602.12	34272.67
602.478	34666.56
602.836	35014.35
603.194	35076.27
603.552	35579.53
603.91	35736.59
604.268	36212.06
604.625	36343.35
604.983	36843.9
605.341	36766.84
605.698	37340.39
606.056	37575.86
606.413	37888.85
606.771	38199.8
607.128	38650.64
607.485	38575.61
607.843	38910.52
608.2	39315.48
608.557	39620.55
608.914	39808.57
609.272	40271.84
609.629	40408.1
609.986	40733.07
610.343	40845.15
610.7	41281.98
611.057	41457.79
611.414	41496.21
611.771	41747.5
612.127	42075.63
612.484	42340.48
612.841	42436.75
613.198	42655.73
613.554	42811.88
613.911	43183.62
614.267	43234.7
614.624	43398.31
614.98	43671.97
615.337	43903.15
615.693	44161.68
616.05	44193.99
616.406	44654.09
616.762	44674.88
617.118	44783.36
617.475	44946.29
617.831	45051.6
618.187	45203.01
618.543	45421.31
618.899	45824.46
619.255	45901.29
619.611	45914.63
619.967	46125.69
620.323	46334.05
620.678	46292.92
621.034	46199.14
621.39	46415.4
621.746	46446.82
622.101	47012.45
622.457	46609.98
622.812	46840.03
623.168	47048.16
623.523	47155.27
623.879	47370.86
624.234	47066.91
624.589	47343.52
624.945	47553
625.3	47627.35
625.655	47771.98
626.01	47787.35
626.365	47862.15
626.72	47750.51
627.075	47797.51
627.43	47872.77
627.785	47907.57
628.14	48091.07
628.495	48155.92
628.85	48020.56
629.205	47913.67
629.559	48384.84
629.914	48263.26
630.269	48243.38
630.623	48190.72
630.978	48160.89
631.332	48441.79
631.687	48471.62
632.041	48305.75
632.396	48469.36
632.75	48291.96
633.104	48452.41
633.459	48316.37
633.813	48400.21
634.167	48486.08
634.521	48496.03
634.875	48615.8
635.229	48573.77
635.583	48345.97
635.937	48322.02
636.291	48407.89
636.645	48417.16
636.999	48388.91
637.352	48520.43
637.706	48318.63
638.06	48602.69
638.413	48376.26
638.767	48434.11
639.121	48435.69
639.474	48167.45
639.828	48331.96
640.181	48326.31
640.534	48343.26
640.888	48349.14
641.241	48212.64
641.594	48268.24
641.947	48384.84
642.301	48164.74
642.654	48325.86
643.007	48240.44
643.36	48167.67
643.713	48214.68
644.066	48286.54
644.419	48076.6
644.771	48003.16
645.124	47515.49
645.477	47663.28
645.83	47212.22
646.182	47190.98
646.535	47225.1
646.888	47093.58
647.24	46888.61
647.593	47230.75
647.945	47177.87
648.298	47079.79
648.65	46988.5
649.002	46828.27
649.355	47040.92
649.707	46990.3
650.059	47224.87
650.411	47624.19
650.763	47552.78
651.115	47960.45
651.467	47765.88
651.819	47765.88
652.171	47754.8
652.523	47807.01
652.875	47762.71
653.227	47489.5
653.578	47757.74
653.93	47734.69
654.282	47576.73
654.633	47422.61
654.985	47513.68
655.337	47610.17
655.688	47612.43
656.039	47808.81
656.391	47271.88
656.742	47423.96
657.094	47533.57
657.445	47675.03
657.796	47586.22
658.147	47544.19
658.498	47537.41
658.849	47543.28
659.2	47450.18
659.551	47380.58
659.902	47567.46
660.253	47383.51
660.604	47562.04
660.955	47376.73
661.306	47538.54
661.656	47516.84
662.007	47422.83
662.358	47466
662.708	47402.04
663.059	47402.95
663.409	47271.88
663.76	47526.34
664.11	47472.78
664.461	47437.75
664.811	47276.4
665.161	47365.89
665.511	47293.57
665.862	47240.92
666.212	47440.24
666.562	47292.22
666.912	47359.11
667.262	47298.54
667.612	47364.76
667.962	47262.61
668.312	47172.67
668.662	47414.7
669.011	47097.42
669.361	47188.26
669.711	47067.59
670.06	47176.29
670.41	47063.97
670.76	47007.03
671.109	47182.62
671.459	47113.24
671.808	47162.73
672.157	47072.56
672.507	46822.62
672.856	46995.05
673.205	46971.77
673.554	47166.8
673.904	46958.44
674.253	47136.29
674.602	47126.12
674.951	46561.16
675.3	46308.97
675.649	46877.99
675.998	46853.13
676.346	46809.74
676.695	47003.19
677.044	46647.04
677.393	46764.32
677.741	46681.84
678.09	46753.93
678.438	46754.38
678.787	46924.77
679.135	46774.26
679.484	46523.2
679.832	46726.58
680.181	46456.98
680.529	46676.19
680.877	46480.49
681.225	46300.38
681.573	46632.35
681.922	46279.36
682.27	46217.89
682.618	46269.87
682.966	46158.46
683.314	46196.2
683.661	46092.25
684.009	46048.41
684.357	45860.39
684.705	45805.7
685.053	45881.86
685.4	45804.8
685.748	45581.3
686.095	45512.83
686.443	45438.03
686.79	45351.03
687.138	45557.35
687.485	45395.54
687.832	45224.93
688.18	45250.46
688.527	45132.5
688.874	45144.25
689.221	44935.67
689.568	44978.61
689.915	44655.22
690.262	44903.13
690.609	44750.59
690.956	44561.89
691.303	44504.04
691.65	44307.66
691.997	44268.57
692.344	44135.69
692.69	44039.2
693.037	44101.34
693.383	43739.99
693.73	43773.44
694.077	43692.54
694.423	43707.45
694.769	43466.1
695.116	43423.39
695.462	43286.9
695.808	43207.35
696.155	43371.42
696.501	43117.64
696.847	43055.72
697.193	42746.12
697.539	42853.92
697.885	42725.56
698.231	42701.83
698.577	42566.24
698.923	42474.72
699.269	42341.84
699.614	42140.71
699.96	42141.62
700.306	42077.44
700.651	41885.81
700.997	41747.28
701.342	41739.82
701.688	41762.19
702.033	41621.41
702.379	41511.58
702.724	41267.29
703.069	41462.09
703.415	40980.74
703.76	41040.18
704.105	40998.37
704.45	40978.03
704.795	40603.81
705.14	40596.57
705.485	40625.5
705.83	40516.35
706.175	40470.02
706.52	40277.26
706.865	40173.99
707.209	40115.68
707.554	40004.27
707.899	40149.81
708.243	39863.71
708.588	39912.75
708.932	39709.14
709.277	39588.69
709.621	39729.25
709.966	39456.04
710.31	39672.53
710.654	39220.79
710.998	39200.9
711.342	39223.05
711.687	39123.84
712.031	38963.4
712.375	38855.6
712.719	39025.77
713.063	38904.64
713.407	38863.74
713.75	38811.08
714.094	38688.38
714.438	38534.71
714.782	38662.84
715.125	38286.35
715.469	38501.71
715.812	38271.21
716.156	38124.32
716.499	38070.31
716.843	38155.06
717.186	37819.92
717.53	38098.33
717.873	38008.62
718.216	37811.79
718.559	37576.99
718.902	37416.54
719.246	37546.26
719.589	37466.71
719.932	37375.19
720.275	37330.9
720.617	37214.29
720.96	37178.13
721.303	37236.89
721.646	37196.44
721.989	37049.77
722.331	37147.85
722.674	36984.01
723.016	37146.95
723.359	36892.72
723.701	36961.87
724.044	36714.19
724.386	36611.37
724.729	36667.19
725.071	36546.74
725.413	36540.86
725.755	36512.84
726.097	36375.22
726.439	36152.17
726.782	36085.05
727.124	36464.93
727.465	36115.79
727.807	36082.34
728.149	36016.81
728.491	35878.73
728.833	35905.85
729.175	35826.98
729.516	35844.38
729.858	35685.74
730.199	35677.61
730.541	35682.58
730.882	35615.01
731.224	35668.57
731.565	35508.35
731.906	35529.59
732.248	35526.2
732.589	35260.22
732.93	35087.79
733.271	35157.17
733.612	35194.23
733.953	35256.38
734.294	35034.69
734.635	34983.16
734.976	35037.4
735.317	34926.44
735.658	34936.61
735.999	34879.66
736.339	34812.32
736.68	34987.91
737.021	34897.06
737.361	34599.22
737.702	34864.75
738.042	34612.78
738.383	34688.93
738.723	34678.76
739.063	34392.44
739.404	34533.23
739.744	34389.96
740.084	34406.23
740.424	34305.67
740.764	34229.74
741.104	34410.3
741.444	34192
741.784	34141.83
742.124	34165.33
742.464	34199.91
742.804	33916.52
743.143	33868.39
743.483	33904.09
743.823	33745.68
744.162	33726.7
744.502	33846.47
744.841	33735.74
745.181	33829.29
745.52	33604.89
745.86	33656.64
746.199	33625.01
746.538	33757.88
746.877	33539.13
747.216	33492.35
747.556	33436.54
747.895	33496.65
748.234	33351.11
748.573	33251
748.911	33241.74
749.25	33229.99
749.589	33094.62
749.928	33040.61
750.267	33153.15
750.605	33017.79
750.944	32946.61
751.283	32903.89
751.621	32968.75
751.96	32761.3
752.298	32776.44
752.636	32785.03
752.975	32671.36
753.313	32633.62
753.651	32700.96
753.989	32461.65
754.327	32419.39
754.666	32279.05
755.004	32306.4
755.342	32278.83
755.679	32279.5
756.017	32010.58
756.355	32107.98
756.693	31859.4
757.031	31910.02
