Data from hue_90_FLMS001491_7.txt Node
Date: Mon Feb 06 15:24:36 GMT 2017
User: dcchb
Spectrometer: FLMS00149
Trigger mode: 0
Integration Time (sec): 2.000000E-2
Scans to average: 10
Electric dark correction enabled: true
Nonlinearity correction enabled: false
Boxcar width: 0
XAxis mode: Wavelengths
Number of Pixels in Spectrum: 2048
>>>>>Begin Spectral Data<<<<<
341.393	6.09
341.776	6.09
342.16	6.09
342.543	-51.54
342.927	-37.08
343.31	-72.1
343.693	-63.97
344.077	-66.23
344.46	-65.78
344.843	-41.37
345.226	-53.57
345.61	-35.04
345.993	-5.44
346.376	-1.37
346.759	1.79
347.142	18.06
347.525	42.7
347.908	69.81
348.291	89.48
348.674	80.44
349.057	102.58
349.44	131.28
349.823	152.98
350.206	144.39
350.588	181.9
350.971	222.13
351.354	213.31
351.737	225.06
352.119	238.4
352.502	245.63
352.884	275.23
353.267	292.41
353.65	274.33
354.032	294.67
354.414	320.2
354.797	324.72
355.179	331.5
355.562	315.91
355.944	310.26
356.326	344.61
356.709	360.65
357.091	345.51
357.473	327.89
357.855	324.72
358.238	353.65
358.62	349.13
359.002	348.9
359.384	350.26
359.766	353.65
360.148	329.24
360.53	358.85
360.912	347.32
361.294	343.03
361.676	318.4
362.057	334.67
362.439	335.34
362.821	336.93
363.203	322.46
363.584	323.82
363.966	319.75
364.348	314.55
364.729	334.89
365.111	324.5
365.493	309.13
365.874	297.83
366.256	321.11
366.637	314.55
367.019	327.66
367.4	332.41
367.781	323.82
368.163	293.31
368.544	318.85
368.925	299.19
369.306	308.23
369.688	301.67
370.069	302.58
370.45	306.42
370.831	319.53
371.212	328.11
371.593	288.34
371.974	308.45
372.355	311.39
372.736	308.45
373.117	308
373.498	315.68
373.879	296.93
374.26	312.29
374.641	327.43
375.021	323.59
375.402	329.02
375.783	313.2
376.163	316.14
376.544	327.21
376.925	334.44
377.305	325.18
377.686	325.4
378.066	328.11
378.447	324.27
378.827	319.07
379.208	338.73
379.588	311.16
379.968	303.71
380.349	310.26
380.729	325.4
381.109	315.23
381.489	317.72
381.87	340.54
382.25	352.74
382.63	355.91
383.01	328.56
383.39	326.76
383.77	336.25
384.15	353.2
384.53	336.47
384.91	337.15
385.29	325.85
385.67	348.45
386.049	362.46
386.429	350.71
386.809	351.62
387.189	338.96
387.568	351.39
387.948	333.08
388.328	343.93
388.707	348.45
389.087	347.32
389.466	351.39
389.846	358.17
390.225	347.77
390.605	376.47
390.984	355.91
391.363	349.58
391.743	349.13
392.122	339.19
392.501	356.81
392.881	368.56
393.26	378.73
393.639	370.82
394.018	350.49
394.397	375.12
394.776	387.77
395.155	404.5
395.534	375.57
395.913	383.03
396.292	378.28
396.671	390.94
397.05	401.11
397.429	377.15
397.808	377.15
398.186	387.55
398.565	386.87
398.944	377.6
399.323	386.87
399.701	391.84
400.08	402.46
400.458	396.81
400.837	421.22
401.215	402.69
401.594	398.85
401.972	392.29
402.351	412.18
402.729	401.78
403.107	414.66
403.486	406.08
403.864	431.16
404.242	416.02
404.62	413.53
404.999	428
405.377	418.51
405.755	397.94
406.133	429.13
406.511	396.81
406.889	440.43
407.267	444.72
407.645	420.99
408.023	441.56
408.401	442.46
408.779	442.91
409.156	449.69
409.534	453.53
409.912	449.47
410.29	456.47
410.667	446.08
411.045	455.34
411.422	484.27
411.8	469.35
412.178	465.06
412.555	468.22
412.933	461.67
413.31	473.19
413.687	471.61
414.065	479.75
414.442	476.58
414.819	485.85
415.197	502.57
415.574	487.88
415.951	477.49
416.328	493.31
416.705	502.12
417.082	520.42
417.46	498.05
417.837	488.33
418.214	505.51
418.591	522.46
418.967	514.1
419.344	526.98
419.721	513.64
420.098	519.97
420.475	534.89
420.852	532.18
421.228	540.54
421.605	521.55
421.982	524.04
422.358	525.17
422.735	531.72
423.111	532.63
423.488	560.65
423.864	557.26
424.241	549.8
424.617	548.45
424.994	551.16
425.37	567.65
425.746	547.99
426.123	559.29
426.499	586.64
426.875	595.22
427.251	586.19
427.627	594.09
428.003	583.7
428.379	603.36
428.756	617.14
429.132	600.2
429.507	597.26
429.883	626.64
430.259	619.18
430.635	613.76
431.011	619.86
431.387	620.99
431.763	629.35
432.138	649.69
432.514	635.9
432.89	666.18
433.265	648.78
433.641	678.16
434.016	680.65
434.392	673.87
434.767	691.95
435.143	712.51
435.518	692.17
435.894	713.87
436.269	702.57
436.644	727.2
437.02	709.57
437.395	689.46
437.77	717.03
438.145	733.53
438.52	753.86
438.895	753.19
439.271	728.1
439.646	747.99
440.021	766.29
440.395	776.91
440.77	761.55
441.145	770.81
441.52	797.25
441.895	792.96
442.27	799.06
442.645	827.76
443.019	784.82
443.394	783.02
443.769	794.32
444.143	777.14
444.518	813.07
444.892	821.89
445.267	835.44
445.641	846.52
446.016	857.14
446.39	833.41
446.764	832.28
447.139	855.1
447.513	854.65
447.887	852.84
448.262	872.28
448.636	873.64
449.01	867.76
449.384	879.96
449.758	883.58
450.132	885.16
450.506	891.04
450.88	890.58
451.254	894.43
451.628	902.79
452.002	932.84
452.376	931.94
452.75	929.45
453.123	937.81
453.497	968.1
453.871	969.9
454.244	971.26
454.618	984.14
454.992	996.34
455.365	983.69
455.739	1032.73
456.112	1031.15
456.486	1051.71
456.859	1028.66
457.232	1055.33
457.606	1063.91
457.979	1061.65
458.352	1073.63
458.725	1093.52
459.099	1126.06
459.472	1131.48
459.845	1139.39
460.218	1135.55
460.591	1161.54
460.964	1127.19
461.337	1218.48
461.71	1227.98
462.083	1211.93
462.456	1241.54
462.829	1221.42
463.201	1277.47
463.574	1254.87
463.947	1288.77
464.32	1306.62
464.692	1309.1
465.065	1335.54
465.438	1356.56
465.81	1364.47
466.183	1381.19
466.555	1413.51
466.928	1423.9
467.3	1421.64
467.672	1440.85
468.045	1483.56
468.417	1491.92
468.789	1521.98
469.161	1538.93
469.534	1553.62
469.906	1626.61
470.278	1607.4
470.65	1662.32
471.022	1675.2
471.394	1721.52
471.766	1715.42
472.138	1754.06
472.51	1813.05
472.882	1858.47
473.253	1895.3
473.625	1906.6
473.997	1964.91
474.369	1978.69
474.74	1999.48
475.112	2080.16
475.484	2128.52
475.855	2161.96
476.227	2164.9
476.598	2258.68
476.97	2286.71
477.341	2341.85
477.713	2404.22
478.084	2452.58
478.455	2560.14
478.827	2592.23
479.198	2697.54
479.569	2724.21
479.94	2808.73
480.311	2858.44
480.682	2915.39
481.053	3042.84
481.424	3095.72
481.795	3128.49
482.166	3220.01
482.537	3328.94
482.908	3416.62
483.279	3459.33
483.65	3573.45
484.021	3671.08
484.391	3768.7
484.762	3802.82
485.133	3942.48
485.503	4035.36
485.874	4136.37
486.244	4256.6
486.615	4321.68
486.985	4439.64
487.356	4578.85
487.726	4631.28
488.097	4783.14
488.467	4895.22
488.837	4984.71
489.207	5106.29
489.578	5248.21
489.948	5334.31
490.318	5498.6
490.688	5515.32
491.058	5696.33
491.428	5796.22
491.798	5910.34
492.168	6032.37
492.538	6105.36
492.908	6258.58
493.278	6383.32
493.648	6468.52
494.017	6637.55
494.387	6746.48
494.757	6798.23
495.126	6937.2
495.496	6990.54
495.866	7116.18
496.235	7268.5
496.605	7364.31
496.974	7449.28
497.344	7655.38
497.713	7629.62
498.082	7776.28
498.452	7898.08
498.821	8027.8
499.19	8062.6
499.559	8179.88
499.928	8256.49
500.298	8322.25
500.667	8456.71
501.036	8521.57
501.405	8644.96
501.774	8682.92
502.143	8805.86
502.512	8861
502.88	8902.58
503.249	9040.2
503.618	9114.77
503.987	9135.79
504.356	9325.84
504.724	9305.05
505.093	9410.36
505.462	9429.34
505.83	9510.24
506.199	9614.42
506.567	9709.11
506.936	9669.79
507.304	9839.5
507.672	9982.32
508.041	9978.93
508.409	10019.38
508.777	10133.28
509.145	10134.18
509.514	10208.08
509.882	10341.63
510.25	10313.84
510.618	10335.08
510.986	10449.43
511.354	10492.59
511.722	10560.39
512.09	10610.78
512.458	10610.78
512.826	10666.37
513.193	10721.29
513.561	10766.71
513.929	10831.34
514.297	10874.95
514.664	10962.86
515.032	10979.13
515.4	11010.77
515.767	11111.33
516.135	11070.43
516.502	11011.67
516.869	11225
517.237	11177.77
517.604	11226.13
517.972	11250.31
518.339	11270.42
518.706	11338.44
519.073	11351.78
519.44	11407.82
519.808	11486.92
520.175	11419.35
520.542	11524.43
520.909	11583.64
521.276	11576.86
521.643	11598.78
522.009	11646.23
522.376	11727.14
522.743	11751.09
523.11	11857.75
523.477	11866.11
523.843	11880.58
524.21	11954.47
524.577	12003.74
524.943	11961.93
525.31	11956.51
525.676	12010.29
526.043	12001.48
526.409	12089.61
526.776	12142.27
527.142	12162.6
527.508	12161.02
527.874	12236.73
528.241	12205.99
528.607	12257.74
528.973	12321.02
529.339	12192.43
529.705	12338.87
530.071	12352.88
530.437	12337.51
530.803	12372.09
531.169	12306.1
531.535	12290.06
531.901	12281.02
532.267	12288.02
532.632	12372.32
532.998	12257.29
533.364	12291.41
533.73	12304.97
534.095	12324.86
534.461	12276.05
534.826	12339.1
535.192	12240.79
535.557	12356.72
535.923	12261.36
536.288	12252.32
536.653	12276.27
537.019	12210.96
537.384	12170.51
537.749	12161.25
538.114	12151.76
538.479	12109.05
538.845	12183.85
539.21	12124.19
539.575	12052.1
539.94	12112.44
540.305	12092.78
540.67	12007.35
541.034	11994.02
541.399	12108.82
541.764	12080.57
542.129	12024.75
542.494	12008.26
542.858	11934.36
543.223	11894.81
543.587	11876.06
543.952	11864.98
544.316	11829.51
544.681	11798.09
545.045	11744.99
545.41	11799
545.774	11842.61
546.138	11737.53
546.503	11643.97
546.867	11671.09
547.231	11728.94
547.595	11712.22
547.959	11723.97
548.324	11592.68
548.688	11590.64
549.052	11619.12
549.416	11529.85
549.779	11474.94
550.143	11458.67
550.507	11531.21
550.871	11494.6
551.235	11463.87
551.599	11507.71
551.962	11409.18
552.326	11427.71
552.689	11420.93
553.053	11321.95
553.417	11420.48
553.78	11490.08
554.143	11340.93
554.507	11370.99
554.87	11315.62
555.234	11362.85
555.597	11300.48
555.96	11326.24
556.323	11323.3
556.686	11243.98
557.05	11236.75
557.413	11310.42
557.776	11233.14
558.139	11284.21
558.502	11160.82
558.865	11303.87
559.228	11311.1
559.59	11233.14
559.953	11314.94
560.316	11420.25
560.679	11262.51
561.041	11298.22
561.404	11385.9
561.767	11367.82
562.129	11275.17
562.492	11340.03
562.854	11352
563.217	11309.29
563.579	11305
563.941	11384.77
564.304	11376.18
564.666	11462.74
565.028	11423.41
565.39	11383.87
565.753	11494.82
566.115	11474.94
566.477	11411.66
566.839	11434.94
567.201	11562.39
567.563	11480.36
567.925	11595.84
568.287	11586.35
568.648	11566.24
569.01	11650.3
569.372	11636.74
569.734	11491.21
570.095	11538.21
570.457	11647.82
570.819	11634.48
571.18	11652.79
571.542	11680.81
571.903	11662.28
572.265	11636.29
572.626	11688.72
572.987	11740.47
573.349	11637.65
573.71	11762.39
574.071	11743.41
574.432	11783.86
574.794	11924.87
575.155	11844.87
575.516	11766.91
575.877	11782.27
576.238	11843.74
576.599	11820.24
576.96	11804.65
577.32	11853.46
577.681	11925.55
578.042	11914.25
578.403	11843.52
578.763	11950.86
579.124	11930.75
579.485	11864.98
579.845	11958.32
580.206	11899.56
580.566	11922.16
580.927	11859.11
581.287	11922.84
581.648	11823.4
582.008	11914.47
582.368	11838.54
582.728	11905.44
583.089	11798.32
583.449	11866.11
583.809	11815.49
584.169	11771.2
584.529	11859.11
584.889	11961.48
585.249	11820.47
585.609	11779.56
585.969	11821.37
586.329	11885.78
586.688	11849.17
587.048	11826.34
587.408	11797.87
587.768	11791.54
588.127	11797.19
588.487	11764.42
588.846	11825.89
589.206	11711.54
589.565	11738.21
589.925	11763.07
590.284	11740.02
590.643	11698.44
591.003	11803.52
591.362	11750.64
591.721	11729.85
592.08	11736.63
592.44	11757.64
592.799	11726.23
593.158	11661.15
593.517	11655.27
593.876	11693.69
594.235	11652.79
594.593	11740.69
594.952	11755.61
595.311	11633.35
595.67	11719.68
596.029	11718.32
596.387	11755.61
596.746	11678.77
597.104	11602.17
597.463	11623.18
597.822	11704.99
598.18	11712.22
598.538	11613.24
598.897	11691.66
599.255	11550.19
599.613	11775.27
599.972	11667.48
600.33	11701.15
600.688	11663.41
601.046	11720.81
601.404	11736.85
601.762	11686.91
602.12	11655.5
602.478	11728.49
602.836	11715.84
603.194	11587.93
603.552	11561.94
603.91	11654.14
604.268	11692.11
604.625	11637.42
604.983	11724.88
605.341	11582.96
605.698	11653.46
606.056	11744.54
606.413	11644.43
606.771	11728.72
607.128	11707.02
607.485	11664.09
607.843	11691.66
608.2	11753.35
608.557	11760.35
608.914	11634.93
609.272	11748.38
609.629	11696.85
609.986	11813.69
610.343	11825.44
610.7	11871.76
611.057	11795.61
611.414	11744.08
611.771	11871.54
612.127	11803.74
612.484	11814.82
612.841	11894.14
613.198	11827.25
613.554	11809.62
613.911	11876.96
614.267	11804.87
614.624	11903.63
614.98	11910.18
615.337	11974.13
615.693	11949.95
616.05	11925.77
616.406	11973.91
616.762	11910.41
617.118	11922.38
617.475	11943.4
617.831	12013.46
618.187	12027.01
618.543	11969.84
618.899	12083.28
619.255	12039.44
619.611	11941.59
619.967	12116.73
620.323	12097.52
620.678	12032.66
621.034	11996.51
621.39	11977.3
621.746	11973.91
622.101	12077.18
622.457	11996.05
622.812	12037.86
623.168	11964.64
623.523	12077.18
623.879	12130.51
624.234	12088.48
624.589	12136.39
624.945	12049.61
625.3	12022.95
625.655	12143.85
626.01	12100.23
626.365	12081.25
626.72	12007.58
627.075	11973.68
627.43	12021.14
627.785	12000.57
628.14	12022.49
628.495	11981.37
628.85	11991.53
629.205	11909.73
629.559	11984.3
629.914	12000.35
630.269	11955.15
630.623	11921.25
630.978	11868.6
631.332	11946.11
631.687	11973.46
632.041	11945.43
632.396	11943.63
632.75	11948.6
633.104	11909.28
633.459	11847.13
633.813	11848.71
634.167	11823.86
634.521	11851.65
634.875	11821.6
635.229	11772.78
635.583	11755.38
635.937	11726.68
636.291	11708.6
636.645	11790.86
636.999	11725.55
637.352	11741.82
637.706	11670.87
638.06	11704.76
638.413	11635.16
638.767	11670.87
639.121	11702.28
639.474	11561.94
639.828	11595.61
640.181	11670.87
640.534	11612.79
640.888	11595.16
641.241	11566.46
641.594	11621.83
641.947	11569.85
642.301	11574.37
642.654	11568.5
643.007	11592
643.36	11565.33
643.713	11487.59
644.066	11582.51
644.419	11401.49
644.771	11406.47
645.124	11332.34
645.477	11217.54
645.83	11232.68
646.182	11200.6
646.535	11093.93
646.888	11226.13
647.24	11133.25
647.593	11216.19
647.945	11139.35
648.298	11117.21
648.65	11068.62
649.002	11101.16
649.355	11100.71
649.707	11042.41
650.059	11113.59
650.411	11316.3
650.763	11212.8
651.115	11372.79
651.467	11298.22
651.819	11318.11
652.171	11330.54
652.523	11290.76
652.875	11321.04
653.227	11273.81
653.578	11387.03
653.93	11387.03
654.282	11330.54
654.633	11230.65
654.985	11278.79
655.337	11277.66
655.688	11268.39
656.039	11284.89
656.391	11307.49
656.742	11310.2
657.094	11246.92
657.445	11329.86
657.796	11294.38
658.147	11296.41
658.498	11272.91
658.849	11326.92
659.2	11327.15
659.551	11276.53
659.902	11339.57
660.253	11299.35
660.604	11355.85
660.955	11210.31
661.306	11279.69
661.656	11286.47
662.007	11291.21
662.358	11347.94
662.708	11293.93
663.059	11328.95
663.409	11251.44
663.76	11415.96
664.11	11394.49
664.461	11408.27
664.811	11337.54
665.161	11338.22
665.511	11341.61
665.862	11340.03
666.212	11349.29
666.562	11320.37
666.912	11264.32
667.262	11267.49
667.612	11350.65
667.962	11319.69
668.312	11321.5
668.662	11382.29
669.011	11319.24
669.361	11276.3
669.711	11292.8
670.06	11322.17
670.41	11343.64
670.76	11266.36
671.109	11376.64
671.459	11291.89
671.808	11250.31
672.157	11288.28
672.507	11220.71
672.856	11250.99
673.205	11244.66
673.554	11286.69
673.904	11221.16
674.253	11323.08
674.602	11280.37
674.951	11107.04
675.3	11082.63
675.649	11211.22
675.998	11208.96
676.346	11117.43
676.695	11265.23
677.044	11065.46
677.393	11179.8
677.741	11178.22
678.09	11063.2
678.438	11098.23
678.787	11152.46
679.135	11073.82
679.484	11066.59
679.832	11090.99
680.181	10935.52
680.529	11052.58
680.877	10979.36
681.225	10974.61
681.573	11044.67
681.922	10969.87
682.27	10911.34
682.618	10890.32
682.966	10830.44
683.314	10895.97
683.661	10819.81
684.009	10792.92
684.357	10808.97
684.705	10738.91
685.053	10768.97
685.4	10729.42
685.748	10730.1
686.095	10693.26
686.443	10626.6
686.79	10534.17
687.138	10628.41
687.485	10570.1
687.832	10579.59
688.18	10521.74
688.527	10458.02
688.874	10495.3
689.221	10498.92
689.568	10415.98
689.915	10360.84
690.262	10442.42
690.609	10331.69
690.956	10309.32
691.303	10355.87
691.65	10269.55
691.997	10240.85
692.344	10146.16
692.69	10232.94
693.037	10174.18
693.383	10118.36
693.73	10141.87
694.077	10081.75
694.423	10037.46
694.769	10006.73
695.116	9982.1
695.462	9919.5
695.808	9907.07
696.155	9949.1
696.501	9814.19
696.847	9769.45
697.193	9727.19
697.539	9793.85
697.885	9713.63
698.231	9695.32
698.577	9612.39
698.923	9650.58
699.269	9543.46
699.614	9504.14
699.96	9566.74
700.306	9507.98
700.651	9444.48
700.997	9430.02
701.342	9406.97
701.688	9397.48
702.033	9359.29
702.379	9361.55
702.724	9279.97
703.069	9333.07
703.415	9150.25
703.76	9206.98
704.105	9214.21
704.45	9157.94
704.795	9118.39
705.14	9095.34
705.485	9085.62
705.83	9011.5
706.175	8995.68
706.52	9011.5
706.865	8996.81
707.209	8935.57
707.554	8898.96
707.899	8912.97
708.243	8826.42
708.588	8798.62
708.932	8784.61
709.277	8773.09
709.621	8741.22
709.966	8701.45
710.31	8702.58
710.654	8597.27
710.998	8708.68
711.342	8628.69
711.687	8642.47
712.031	8597.73
712.375	8591.4
712.719	8554.79
713.063	8545.75
713.407	8568.57
713.75	8522.93
714.094	8562.92
714.438	8524.73
714.782	8521.34
715.125	8449.93
715.469	8417.62
715.812	8351.63
716.156	8332.42
716.499	8325.19
716.843	8392.08
717.186	8340.11
717.53	8391.18
717.873	8352.31
718.216	8299.2
718.559	8360.9
718.902	8241.35
719.246	8298.98
719.589	8287.45
719.932	8207
720.275	8247.45
720.617	8205.87
720.96	8194.8
721.303	8265.76
721.646	8159.77
721.989	8195.02
722.331	8158.19
722.674	8114.12
723.016	8161.58
723.359	8211.97
723.701	8125.42
724.044	8154.12
724.386	8085.42
724.729	8176.49
725.071	8114.57
725.413	8131.3
725.755	8099.43
726.097	8158.42
726.439	8032.54
726.782	8027.12
727.124	8096.27
727.465	8029.15
727.807	8013.33
728.149	8021.7
728.491	7976.27
728.833	8051.53
729.175	7969.04
729.516	7993.22
729.858	8008.36
730.199	8017.85
730.541	8009.72
730.882	7984.86
731.224	7981.24
731.565	7971.53
731.906	7948.25
732.248	7920.23
732.589	7891.53
732.93	7929.95
733.271	7881.59
733.612	7933.79
733.953	7912.77
734.294	7936.95
734.635	7890.63
734.976	7981.02
735.317	7917.74
735.658	7987.12
735.999	7953.68
736.339	7926.78
736.68	7954.8
737.021	7983.73
737.361	7962.94
737.702	8013.33
738.042	7994.58
738.383	7961.36
738.723	8028.25
739.063	8034.35
739.404	7943.28
739.744	7994.35
740.084	7958.19
740.424	7973.34
740.764	7943.51
741.104	8029.83
741.444	7983.05
741.784	7998.65
742.124	8060.11
742.464	8069.83
742.804	8036.16
743.143	8044.29
743.483	8022.6
743.823	8051.75
744.162	8102.6
744.502	8144.18
744.841	8166.55
745.181	8180.34
745.52	8205.87
745.86	8220.56
746.199	8301.24
746.538	8186.44
746.877	8358.64
747.216	8324.74
747.556	8386.88
747.895	8417.17
748.234	8432.08
748.573	8481.8
748.911	8519.31
749.25	8537.16
749.589	8597.73
749.928	8580.55
750.267	8771.28
750.605	8758.17
750.944	8870.04
751.283	8865.06
751.621	8973.76
751.96	9019.86
752.298	9120.65
752.636	9223.7
752.975	9231.16
753.313	9311.15
753.651	9445.39
753.989	9494.88
754.327	9571.94
754.666	9590.69
755.004	9768.09
755.342	9866.62
755.679	9952.04
756.017	10039.5
756.355	10204.46
756.693	10288.3
757.031	10399.03
757.368	10524.23
757.706	10561.97
758.044	10714.73
758.381	10871.79
758.719	10962.64
759.056	11116.98
759.394	11192.69
759.731	11304.77
760.068	11411.66
