Data from hue_60_FLMS001491_79.txt Node
Date: Mon Feb 06 15:17:55 GMT 2017
User: dcchb
Spectrometer: FLMS00149
Trigger mode: 0
Integration Time (sec): 2.000000E-2
Scans to average: 10
Electric dark correction enabled: true
Nonlinearity correction enabled: false
Boxcar width: 0
XAxis mode: Wavelengths
Number of Pixels in Spectrum: 2048
>>>>>Begin Spectral Data<<<<<
341.393	-5.52
341.776	-5.52
342.16	-5.52
342.543	-52.98
342.927	-80.55
343.31	-56.14
343.693	-77.61
344.077	-81
344.46	-47.33
344.843	-47.56
345.226	-45.75
345.61	-26.76
345.993	-45.07
346.376	-8.23
346.759	5.78
347.142	29.96
347.525	39.45
347.908	76.96
348.291	79.67
348.674	84.19
349.057	119.45
349.44	136.85
349.823	147.69
350.206	153.8
350.588	208.94
350.971	190.4
351.354	224.53
351.737	241.25
352.119	242.15
352.502	282.61
352.884	271.53
353.267	277.86
353.65	308.82
354.032	301.36
354.414	309.5
354.797	330.06
355.179	314.24
355.562	326.9
355.944	322.15
356.326	324.41
356.709	328.25
357.091	365.32
357.473	323.73
357.855	352.43
358.238	343.39
358.62	357.63
359.002	343.85
359.384	340.68
359.766	328.48
360.148	362.83
360.53	328.03
360.912	338.42
361.294	329.61
361.676	339.1
362.057	345.88
362.439	346.78
362.821	336.84
363.203	335.03
363.584	342.04
363.966	351.53
364.348	332.1
364.729	326.67
365.111	334.58
365.493	339.33
365.874	313.11
366.256	319.44
366.637	311.76
367.019	311.08
367.4	310.18
367.781	340.46
368.163	320.8
368.544	298.88
368.925	325.99
369.306	333.23
369.688	322.15
370.069	300.01
370.45	324.41
370.831	306.11
371.212	304.3
371.593	291.64
371.974	308.59
372.355	313.11
372.736	319.89
373.117	315.15
373.498	300.46
373.879	305.66
374.26	330.06
374.641	323.51
375.021	309.72
375.402	316.73
375.783	328.48
376.163	317.18
376.544	353.79
376.925	324.19
377.305	340.91
377.686	351.53
378.066	335.71
378.447	316.73
378.827	350.63
379.208	318.99
379.588	344.3
379.968	324.86
380.349	349.27
380.729	321.7
381.109	328.48
381.489	325.32
381.87	339.1
382.25	341.59
382.63	346.78
383.01	337.29
383.39	316.5
383.77	328.03
384.15	340.46
384.53	346.11
384.91	348.59
385.29	365.09
385.67	353.79
386.049	370.74
386.429	346.11
386.809	338.42
387.189	336.84
387.568	359.44
387.948	356.73
388.328	353.11
388.707	361.7
389.087	347.24
389.466	372.09
389.846	354.02
390.225	370.96
390.605	337.29
390.984	370.06
391.363	358.54
391.743	376.39
392.122	381.81
392.501	371.19
392.881	374.13
393.26	376.84
393.639	370.96
394.018	365.77
394.397	361.7
394.776	385.2
395.155	368.03
395.534	384.75
395.913	378.65
396.292	399.89
396.671	369.38
397.05	373.9
397.429	389.72
397.808	401.92
398.186	399.21
398.565	393.56
398.944	413.68
399.323	390.85
399.701	381.81
400.08	387.69
400.458	410.96
400.837	382.49
401.215	395.6
401.594	405.54
401.972	406.22
402.351	387.69
402.729	408.48
403.107	399.89
403.486	405.99
403.864	396.95
404.242	417.07
404.62	403.05
404.999	415.94
405.377	412.09
405.755	399.89
406.133	425.43
406.511	407.35
406.889	409.38
407.267	435.82
407.645	431.98
408.023	425.88
408.401	440.12
408.779	429.27
409.156	424.3
409.534	436.05
409.912	433.56
410.29	436.05
410.667	464.07
411.045	447.8
411.422	457.52
411.8	454.13
412.178	448.25
412.555	456.61
412.933	486.67
413.31	458.42
413.687	472.88
414.065	472.88
414.442	486.89
414.819	450.06
415.197	479.21
415.574	472.43
415.951	511.98
416.328	483.5
416.705	484.41
417.082	491.41
417.46	522.37
417.837	504.52
418.214	516.05
418.591	513.56
418.967	496.39
419.344	526.44
419.721	508.36
420.098	509.94
420.475	527.12
420.852	499.55
421.228	538.42
421.605	536.38
421.982	532.99
422.358	528.25
422.735	542.03
423.111	539.55
423.488	528.47
423.864	534.35
424.241	555.59
424.617	546.78
424.994	565.31
425.37	577.97
425.746	570.51
426.123	561.24
426.499	582.48
426.875	576.16
427.251	579.09
427.627	595.82
428.003	576.61
428.379	566.89
428.756	592.88
429.132	613.67
429.507	600.79
429.883	603.73
430.259	613.9
430.635	611.41
431.011	619.09
431.387	599.21
431.763	609.15
432.138	596.27
432.514	641.24
432.89	627.68
433.265	625.87
433.641	653.9
434.016	643.05
434.392	672.2
434.767	697.06
435.143	670.62
435.518	657.06
435.894	679.66
436.269	680.34
436.644	666.78
437.02	687.34
437.395	678.98
437.77	708.81
438.145	709.26
438.52	704.97
438.895	717.62
439.271	707.45
439.646	749.26
440.021	726.89
440.395	732.09
440.77	730.96
441.145	728.7
441.52	729.83
441.895	754.91
442.27	744.97
442.645	760.56
443.019	761.91
443.394	783.84
443.769	780.9
444.143	769.6
444.518	790.84
444.892	784.06
445.267	786.1
445.641	777.06
446.016	801.91
446.39	778.64
446.764	799.88
447.139	785.42
447.513	806.89
447.887	829.94
448.262	817.96
448.636	829.71
449.01	833.78
449.384	843.49
449.758	836.72
450.132	843.95
450.506	837.17
450.88	834
451.254	858.18
451.628	881.01
452.002	867.9
452.376	889.6
452.75	888.01
453.123	890.95
453.497	920.55
453.871	947.22
454.244	941.35
454.618	916.04
454.992	932.76
455.365	937.28
455.739	968.01
456.112	969.37
456.486	970.05
456.859	972.53
457.232	977.95
457.606	1000.55
457.979	1002.36
458.352	1006.43
458.725	1028.8
459.099	1029.7
459.472	1069.25
459.845	1055.92
460.218	1095.24
460.591	1063.83
460.964	1086.88
461.337	1101.12
461.71	1113.09
462.083	1133.66
462.456	1142.92
462.829	1164.84
463.201	1161.23
463.574	1180.66
463.947	1206.42
464.32	1241.22
464.692	1245.52
465.065	1232.19
465.438	1247.1
465.81	1283.03
466.183	1302.69
466.555	1335.69
466.928	1338.17
467.3	1335.46
467.672	1334.33
468.045	1403.48
468.417	1406.19
468.789	1400.77
469.161	1451.61
469.534	1475.34
469.906	1503.36
470.278	1525.74
470.65	1557.83
471.022	1569.13
471.394	1624.49
471.766	1623.36
472.138	1680.53
472.51	1678.73
472.882	1709.69
473.253	1775.45
473.625	1809.8
473.997	1867.2
474.369	1882.11
474.74	1921.88
475.112	1974.76
475.484	2034.65
475.855	2063.8
476.227	2101.09
476.598	2141.77
476.97	2234.64
477.341	2303.12
477.713	2336.79
478.084	2379.27
478.455	2464.7
478.827	2519.61
479.198	2609.1
479.569	2633.96
479.94	2768.87
480.311	2817.91
480.682	2901.29
481.053	2999.82
481.424	3076.66
481.795	3139.48
482.166	3236.88
482.537	3299.93
482.908	3423.31
483.279	3516.87
483.65	3621.95
484.021	3754.15
484.391	3833.92
484.762	3911.44
485.133	4038.44
485.503	4128.83
485.874	4278.21
486.244	4366.57
486.615	4479.33
486.985	4660.12
487.356	4782.6
487.726	4927.23
488.097	5065.08
488.467	5140.78
488.837	5305.07
489.207	5444.96
489.578	5642.24
489.948	5764.5
490.318	5850.14
490.688	5971.04
491.058	6211.94
491.428	6338.27
491.798	6518.6
492.168	6727.63
492.538	6791.13
492.908	6933.5
493.278	7078.81
493.648	7252.59
494.017	7392.7
494.387	7581.4
494.757	7774.16
495.126	7908.62
495.496	8089.63
495.866	8235.84
496.235	8366.46
496.605	8587.25
496.974	8629.96
497.344	8819.56
497.713	8926.67
498.082	9088.02
498.452	9306.32
498.821	9441.91
499.19	9534.34
499.559	9774.33
499.928	9884.84
500.298	10069.92
500.667	10194.66
501.036	10279.18
501.405	10532.73
501.774	10630.81
502.143	10842.33
502.512	10978.37
502.88	11170
503.249	11249.32
503.618	11384.01
503.987	11434.18
504.356	11651.8
504.724	11770.67
505.093	11933.37
505.462	11983.31
505.83	12244.78
506.199	12397.32
506.567	12628.5
506.936	12718.44
507.304	12857.42
507.672	12958.2
508.041	13079.11
508.409	13300.12
508.777	13470.51
509.145	13569.26
509.514	13634.12
509.882	13837.96
510.25	13907.11
510.618	13996.6
510.986	14213.09
511.354	14337.15
511.722	14627.31
512.09	14690.14
512.458	14787.76
512.826	14945.95
513.193	15088.77
513.561	15198.6
513.929	15326.73
514.297	15577.34
514.664	15604.91
515.032	15837.45
515.4	15938.69
515.767	16095.3
516.135	16157.44
516.502	16095.3
516.869	16511.11
517.237	16600.14
517.604	16612.12
517.972	16853.02
518.339	17003.75
518.706	17087.59
519.073	17151.31
519.44	17331.42
519.808	17537.52
520.175	17625.2
520.542	17884.4
520.909	18011.86
521.276	18000.56
521.643	18226.09
522.009	18466.76
522.376	18460.66
522.743	18627.89
523.11	18902.23
523.477	19074.2
523.843	19181.09
524.21	19362.33
524.577	19659.95
524.943	19727.97
525.31	19849.32
525.676	20039.15
526.043	20209.09
526.409	20277.56
526.776	20474.17
527.142	20583.09
527.508	20616.99
527.874	20810.2
528.241	20979.24
528.607	21122.96
528.973	21291.54
529.339	21316.4
529.705	21604.53
530.071	21724.98
530.437	21851.76
530.803	21945.31
531.169	22091.07
531.535	22141.24
531.901	22207
532.267	22280.67
532.632	22448.8
532.998	22636.82
533.364	22747.78
533.73	22769.25
534.095	22933.54
534.461	23016.7
534.826	23118.84
535.192	23160.42
535.557	23500.53
535.923	23489
536.288	23561.77
536.653	23625.49
537.019	23595.44
537.384	23763.57
537.749	23921.98
538.114	23882.44
538.479	23967.18
538.845	24062.32
539.21	24010.8
539.575	24240.62
539.94	24413.04
540.305	24436.77
540.67	24513.15
541.034	24497.56
541.399	24720.16
541.764	24840.15
542.129	24909.98
542.494	24965.35
542.858	25023.88
543.223	25067.04
543.587	25334.83
543.952	25265.9
544.316	25433.58
544.681	25305.45
545.045	25499.34
545.41	25667.02
545.774	25694.82
546.138	25699.79
546.503	25817.98
546.867	25863.18
547.231	26065.88
547.595	26138.65
547.959	26273.79
548.324	26146.11
548.688	26255.26
549.052	26421.58
549.416	26464.97
549.779	26467
550.143	26602.59
550.507	26776.15
550.871	26871.06
551.235	26947.44
551.599	27028.79
551.962	27177.49
552.326	27200.77
552.689	27417.71
553.053	27313.08
553.417	27414.32
553.78	27712.17
554.143	27635.78
554.507	27893.63
554.87	27883.46
555.234	28152.16
555.597	27916.46
555.96	28183.11
556.323	28293.39
556.686	28321.19
557.05	28517.8
557.413	28703.78
557.776	28661.29
558.139	28825.36
558.502	28935.19
558.865	29005.47
559.228	29249.53
559.59	29296.53
559.953	29278
560.316	29699.91
560.679	29659.23
561.041	29847.48
561.404	30019.45
561.767	30179.45
562.129	29978.55
562.492	30349.39
562.854	30461.25
563.217	30472.32
563.579	30516.61
563.941	30794.35
564.304	31043.15
564.666	31169.7
565.028	31172.87
565.39	31263.03
565.753	31479.75
566.115	31565.62
566.477	31690.59
566.839	31721.55
567.201	31955.67
567.563	31961.55
567.925	32256
568.287	32287.87
568.648	32303.68
569.01	32581.42
569.372	32746.38
569.734	32603.11
570.095	32942.99
570.457	33044.23
570.819	33025.47
571.18	33146.6
571.542	33376.42
571.903	33349.31
572.265	33423.88
572.626	33571.67
572.987	33595.85
573.349	33778.9
573.71	33808.5
574.071	33915.62
574.432	34168.72
574.794	34231.54
575.155	34252.79
575.516	34240.81
575.877	34281.49
576.238	34547.47
576.599	34612.1
576.96	34649.61
577.32	34622.72
577.681	34826.1
578.042	34789.72
578.403	35006.66
578.763	34907.46
579.124	34925.54
579.485	35233.55
579.845	35275.81
580.206	35250.5
580.566	35094.8
580.927	35203.5
581.287	35487.33
581.648	35230.39
582.008	35535.69
582.368	35318.75
582.728	35544.96
583.089	35416.15
583.449	35434.9
583.809	35640.09
584.169	35621.79
584.529	35506.31
584.889	35807.32
585.249	35572.75
585.609	35683.48
585.969	35591.96
586.329	35603.03
586.688	35763.25
587.048	35663.14
587.408	35659.3
587.768	35665.18
588.127	35746.08
588.487	35629.47
588.846	35943.59
589.206	35659.75
589.565	35713.09
589.925	35869.01
590.284	35810.71
590.643	35909.24
591.003	35877.38
591.362	35873.99
591.721	35988.11
592.08	36066.98
592.44	36139.29
592.799	36031.27
593.158	36033.3
593.517	36023.59
593.876	36153.53
594.235	36013.64
594.593	35922.12
594.952	36201.44
595.311	36117.82
595.67	36230.59
596.029	36484.82
596.387	36428.1
596.746	36548.77
597.104	36392.84
597.463	36348.1
597.822	36571.82
598.18	36461.54
598.538	36494.08
598.897	36617.7
599.255	36348.1
599.613	37008.65
599.972	36672.84
600.33	36889.55
600.688	36642.1
601.046	36821.08
601.404	37022.43
601.762	36959.83
602.12	37022.2
602.478	37039.38
602.836	37187.4
603.194	36834.19
603.552	36982.88
603.91	36806.84
604.268	37142.43
604.625	37036.89
604.983	37119.38
605.341	37030.11
605.698	37285.93
606.056	37316.66
606.413	37392.14
606.771	37449.76
607.128	37555.75
607.485	37423.55
607.843	37261.52
608.2	37639.82
608.557	37831.45
608.914	37688.18
609.272	37952.12
609.629	38009.07
609.986	37979.69
610.343	37855.63
610.7	38140.82
611.057	38186.24
611.414	38084.1
611.771	38091.78
612.127	38292.91
612.484	38374.03
612.841	38511.43
613.198	38450.87
613.554	38323.19
613.911	38655.61
614.267	38647.25
614.624	38709.39
614.98	38777.41
615.337	38895.6
615.693	38688.6
616.05	38878.65
616.406	39093.56
616.762	38951.42
617.118	39030.06
617.475	38984.41
617.831	39068.93
618.187	39138.31
618.543	39258.08
618.899	39427.79
619.255	39377.85
619.611	39428.02
619.967	39453.55
620.323	39548.69
620.678	39494
621.034	39442.93
621.39	39448.81
621.746	39376.72
622.101	39819.87
622.457	39531.52
622.812	39593.44
623.168	39735.81
623.523	39725.64
623.879	39859.42
624.234	39699.87
624.589	39822.58
624.945	39876.14
625.3	40031.39
625.655	39938.51
626.01	39986.65
626.365	40054.44
626.72	39857.16
627.075	40039.3
627.43	39849.93
627.785	39941.68
628.14	39890.6
628.495	39938.51
628.85	39887.67
629.205	39843.15
629.559	40186.87
629.914	39935.35
630.269	39990.94
630.623	39961.34
630.978	39929.92
631.332	39993.88
631.687	40015.12
632.041	39973.54
632.396	40006.53
632.75	39772.64
633.104	39936.93
633.459	39766.09
633.813	39899.87
634.167	39710.27
634.521	39736.03
634.875	39792.75
635.229	39820.77
635.583	39658.75
635.937	39705.3
636.291	39526.77
636.645	39673.43
636.999	39701.68
637.352	39609.71
637.706	39439.32
638.06	39645.64
638.413	39421.46
638.767	39429.15
639.121	39499.43
639.474	39262.82
639.828	39243.62
640.181	39279.55
640.534	39428.92
640.888	39344.63
641.241	39150.74
641.594	39133.79
641.947	39295.59
642.301	39071.42
642.654	39166.55
643.007	39094.01
643.36	39180.11
643.713	39118.87
644.066	39287
644.419	38988.71
644.771	38833.91
645.124	38384.43
645.477	38340.36
645.83	38105.79
646.182	37978.11
646.535	37964.1
646.888	37882.29
647.24	37774.05
647.593	37929.3
647.945	37851.11
648.298	37569.08
648.65	37437.11
649.002	37600.04
649.355	37746.48
649.707	37654.05
650.059	37800.94
650.411	38172.91
650.763	38253.13
651.115	38576.51
651.467	38422.39
651.819	38489.06
652.171	38402.06
652.523	38357.76
652.875	38401.38
653.227	38346.01
653.578	38428.04
653.93	38440.7
654.282	38280.02
654.633	38126.81
654.985	38227.14
655.337	38230.08
655.688	38219.24
656.039	38414.26
656.391	37852.24
656.742	37985.79
657.094	38078.9
657.445	38196.18
657.796	38075.74
658.147	38073.02
658.498	38027.38
658.849	38144.21
659.2	38010.43
659.551	37866.25
659.902	38023.53
660.253	37870.77
660.604	37931.79
660.955	37732.47
661.306	37727.27
661.656	37839.13
662.007	37758.23
662.358	37852.47
662.708	37864.67
663.059	37706.03
663.409	37687.95
663.76	37925.46
664.11	37840.94
664.461	37872.35
664.811	37895.18
665.161	37828.29
665.511	37687.27
665.862	37847.72
666.212	37883.2
666.562	37966.36
666.912	37804.56
667.262	37653.6
667.612	37859.92
667.962	37813.37
668.312	37687.27
668.662	37887.94
669.011	37814.5
669.361	37742.41
669.711	37623.54
670.06	37614.96
670.41	37527.05
670.76	37489.99
671.109	37559.82
671.459	37569.08
671.808	37613.83
672.157	37691.79
672.507	37339.71
672.856	37485.7
673.205	37570.89
673.554	37586.03
673.904	37396.43
674.253	37580.38
674.602	37593.94
674.951	36945.14
675.3	36961.19
675.649	37325.93
675.998	37279.82
676.346	37320.28
676.695	37429.43
677.044	37143.56
677.393	37371.35
677.741	37436.66
678.09	37327.28
678.438	37136.55
678.787	37331.12
679.135	37261.97
679.484	36998.48
679.832	37151.69
680.181	36703.57
680.529	37009.55
680.877	36830.57
681.225	36885.48
681.573	36969.32
681.922	36728.65
682.27	36665.6
682.618	36702.66
682.966	36509.45
683.314	36707.41
683.661	36530.01
684.009	36360.98
684.357	36255.45
684.705	36261.09
685.053	36283.92
685.4	36321.88
685.748	36062.68
686.095	36029.24
686.443	35878.73
686.79	35761.22
687.138	35906.3
687.485	35921.44
687.832	35864.72
688.18	35812.29
688.527	35624.28
688.874	35718.74
689.221	35655.23
689.568	35514.9
689.915	35346.32
690.262	35406.65
690.609	35216.83
690.956	35208.92
691.303	35163.5
691.65	35029.49
691.997	35049.15
692.344	34831.3
692.69	34788.59
693.037	34747.69
693.383	34566
693.73	34596.05
694.077	34516.51
694.423	34517.19
694.769	34230.19
695.116	34333.01
695.462	34216.63
695.808	34147.03
696.155	34176.18
696.501	33802.63
696.847	33971.89
697.193	33679.69
697.539	33715.4
697.885	33524.22
698.231	33489.19
698.577	33565.8
698.923	33454.61
699.269	33307.95
699.614	32984.34
699.96	33008.52
700.306	33075.87
700.651	32790.23
700.997	32765.82
701.342	32737.8
701.688	32671.13
702.033	32615.31
702.379	32550.91
702.724	32427.3
703.069	32391.59
703.415	32038.15
703.76	32165.16
704.105	32165.61
704.45	32072.28
704.795	31980.98
705.14	31872.74
705.485	31763.13
705.83	31616.7
706.175	31678.39
706.52	31647.66
706.865	31590.71
707.209	31542.57
707.554	31238.63
707.899	31427.32
708.243	31219.42
708.588	31225.07
708.932	30986.88
709.277	31021.91
709.621	31063.27
709.966	30822.59
710.31	30850.62
710.654	30582.37
710.998	30793.22
711.342	30765.87
711.687	30483.85
712.031	30486.78
712.375	30424.86
712.719	30387.58
713.063	30367.24
713.407	30440
713.75	30209.95
714.094	30226
714.438	30038.89
714.782	30131.99
715.125	29975.84
715.469	30126.11
715.812	29750.76
716.156	29638.22
716.499	29756.41
716.843	29774.71
717.186	29632.34
717.53	29701.27
717.873	29604.32
718.216	29547.37
718.559	29471.44
718.902	29166.59
719.246	29291.56
719.589	29205.23
719.932	29020.16
720.275	29087.72
720.617	29033.26
720.96	28906.26
721.303	29012.7
721.646	28912.14
721.989	28793.27
722.331	28871.01
722.674	28797.34
723.016	28801.63
723.359	28612.48
723.701	28685.47
724.044	28544.01
724.386	28406.61
724.729	28544.01
725.071	28498.36
725.413	28490.68
725.755	28413.39
726.097	28315.99
726.439	28170.91
726.782	28144.47
727.124	28214.53
727.465	28188.31
727.807	28016.57
728.149	27971.14
728.491	27958.71
728.833	28108.77
729.175	27837.59
729.516	27885.5
729.858	27774.54
730.199	27807.76
730.541	27758.72
730.882	27676.69
731.224	27852.28
731.565	27670.36
731.906	27580.64
732.248	27620.64
732.589	27469.24
732.93	27385.62
733.271	27407.32
733.612	27462.23
733.953	27397.6
734.294	27359.41
734.635	27266.08
734.976	27193.76
735.317	27139.75
735.658	27134.1
735.999	27145.63
736.339	27081.9
736.68	27109.24
737.021	27068.34
737.361	26844.39
737.702	26956.25
738.042	26919.42
738.383	26986.31
738.723	26910.38
739.063	26772.53
739.404	26712.42
739.744	26749.93
740.084	26669.26
740.424	26657.73
740.764	26578.86
741.104	26715.58
741.444	26419.55
741.784	26459.09
742.124	26471.3
742.464	26298.64
742.804	26318.98
743.143	26223.62
743.483	26245.54
743.823	26226.78
744.162	26077.63
744.502	26143.17
744.841	26130.29
745.181	26097.75
745.52	25969.84
745.86	26078.09
746.199	25901.14
746.538	26007.58
746.877	26032.44
747.216	25916.73
747.556	25799.9
747.895	25900.01
748.234	25680.58
748.573	25619.11
748.911	25679
749.25	25625.67
749.589	25513.81
749.928	25607.36
750.267	25466.12
750.605	25451.21
750.944	25418.89
751.283	25313.36
751.621	25351.78
751.96	25205.11
752.298	25218.22
752.636	25245.34
752.975	25082.18
753.313	24948.85
753.651	25062.07
753.989	24848.51
754.327	24973.93
754.666	24820.49
755.004	24745.01
755.342	24741.62
755.679	24723.77
756.017	24587.5
756.355	24644.9
756.693	24544.79
757.031	24539.59
