Data from hue_100_FLMS001491_00020.txt Node
Date: Tue Feb 07 17:02:44 GMT 2017
User: dcchb
Spectrometer: FLMS00149
Trigger mode: 0
Integration Time (sec): 2.000000E-2
Scans to average: 10
Electric dark correction enabled: true
Nonlinearity correction enabled: false
Boxcar width: 0
XAxis mode: Wavelengths
Number of Pixels in Spectrum: 2048
>>>>>Begin Spectral Data<<<<<
341.393	0.11
341.776	0.11
342.16	0.11
342.543	-74.46
342.927	-71.75
343.31	-62.48
343.693	-78.3
344.077	-87.12
344.46	-43.05
344.843	-55.48
345.226	-56.38
345.61	-20.23
345.993	-20.68
346.376	1.69
346.759	7.57
347.142	38.3
347.525	55.48
347.908	36.72
348.291	78.08
348.674	102.26
349.057	103.61
349.44	114.01
349.823	146.32
350.206	151.97
350.588	197.4
350.971	201.46
351.354	236.49
351.737	225.64
352.119	244.17
352.502	284.17
352.884	277.85
353.267	289.82
353.65	310.84
354.032	288.92
354.414	317.17
354.797	302.93
355.179	355.36
355.562	319.2
355.944	322.14
356.326	344.96
356.709	341.57
357.091	360.33
357.473	334.79
357.855	336.83
358.238	337.28
358.62	344.74
359.002	353.55
359.384	339.31
359.766	372.31
360.148	352.65
360.53	324.62
360.912	348.58
361.294	361.69
361.676	339.31
362.057	361.01
362.439	351.74
362.821	310.16
363.203	330.05
363.584	329.82
363.966	349.48
364.348	325.53
364.729	315.36
365.111	327.34
365.493	339.09
365.874	339.09
366.256	311.97
366.637	301.8
367.019	324.4
367.4	316.26
367.781	312.42
368.163	324.85
368.544	316.71
368.925	303.83
369.306	325.53
369.688	325.75
370.069	301.12
370.45	322.82
370.831	331.63
371.212	307.45
371.593	310.16
371.974	327.79
372.355	322.14
372.736	351.52
373.117	326.66
373.498	311.29
373.879	332.53
374.26	305.64
374.641	318.52
375.021	327.34
375.402	324.17
375.783	323.27
376.163	321.01
376.544	337.51
376.925	339.77
377.305	338.86
377.686	325.98
378.066	329.82
378.447	326.66
378.827	325.75
379.208	335.25
379.588	351.52
379.968	340.67
380.349	339.99
380.729	323.72
381.109	354.91
381.489	333.21
381.87	342.93
382.25	345.19
382.63	342.25
383.01	340.67
383.39	350.84
383.77	346.09
384.15	341.8
384.53	345.64
384.91	359.43
385.29	368.46
385.67	374.34
386.049	361.23
386.429	355.13
386.809	368.69
387.189	377.96
387.568	369.14
387.948	367.33
388.328	355.13
388.707	360.33
389.087	363.49
389.466	389.26
389.846	363.72
390.225	376.15
390.605	382.48
390.984	350.61
391.363	367.79
391.743	370.27
392.122	382.48
392.501	402.36
392.881	387
393.26	385.64
393.639	401.68
394.018	393.32
394.397	396.71
394.776	393.32
395.155	375.7
395.534	402.59
395.913	386.32
396.292	399.88
396.671	389.71
397.05	411.85
397.429	394.23
397.808	402.81
398.186	415.02
398.565	407.11
398.944	404.85
399.323	400.33
399.701	421.34
400.08	424.28
400.458	417.28
400.837	409.14
401.215	436.49
401.594	430.16
401.972	421.8
402.351	424.73
402.729	421.8
403.107	433.1
403.486	458.63
403.864	439.2
404.242	449.37
404.62	433.55
404.999	443.04
405.377	451.63
405.755	452.53
406.133	441.91
406.511	430.16
406.889	424.96
407.267	465.64
407.645	461.57
408.023	451.17
408.401	464.51
408.779	487.78
409.156	460.89
409.534	470.38
409.912	474.22
410.29	465.41
410.667	464.06
411.045	492.3
411.422	478.97
411.8	500.21
412.178	497.28
412.555	497.5
412.933	480.55
413.31	499.08
413.687	512.87
414.065	523.72
414.442	508.57
414.819	526.65
415.197	522.36
415.574	513.09
415.951	553.32
416.328	532.3
416.705	528.91
417.082	522.36
417.46	547.9
417.837	563.49
418.214	524.17
418.591	550.38
418.967	556.26
419.344	551.74
419.721	536.82
420.098	558.97
420.475	558.06
420.852	590.15
421.228	587.67
421.605	557.16
421.982	579.31
422.358	594.45
422.735	582.02
423.111	587.67
423.488	590.15
423.864	617.72
424.241	611.4
424.617	598.74
424.994	593.32
425.37	626.09
425.746	632.86
426.123	644.16
426.499	624.5
426.875	615.24
427.251	634.45
427.627	658.85
428.003	666.99
428.379	671.51
428.756	656.59
429.132	691.85
429.507	678.51
429.883	680.55
430.259	685.97
430.635	704.5
431.011	692.3
431.387	701.11
431.763	718.74
432.138	700.89
432.514	722.35
432.89	712.18
433.265	734.78
433.641	731.85
434.016	731.85
434.392	753.54
434.767	761.67
435.143	769.13
435.518	765.74
435.894	776.82
436.269	801
436.644	788.11
437.02	789.47
437.395	803.48
437.77	859.75
438.145	828.79
438.52	823.37
438.895	838.06
439.271	838.74
439.646	843.03
440.021	853.88
440.395	821.56
440.77	865.85
441.145	873.31
441.52	887.1
441.895	890.26
442.27	908.56
442.645	895.91
443.019	908.34
443.394	885.51
443.769	911.95
444.143	923.03
444.518	923.93
444.892	946.53
445.267	939.98
445.641	952.86
446.016	951.95
446.39	954.44
446.764	953.08
447.139	968.45
447.513	946.75
447.887	1009.35
448.262	984.27
448.636	991.5
449.01	1016.58
449.384	1011.84
449.758	988.79
450.132	1034.89
450.506	1013.65
450.88	1044.15
451.254	1031.27
451.628	1025.85
452.002	1081.21
452.376	1042.8
452.75	1051.16
453.123	1099.75
453.497	1110.14
453.871	1129.35
454.244	1146.07
454.618	1146.52
454.992	1149.91
455.365	1156.69
455.739	1172.29
456.112	1217.26
456.486	1193.08
456.859	1218.84
457.232	1240.98
457.606	1238.72
457.979	1230.14
458.352	1272.4
458.725	1275.79
459.099	1294.09
459.472	1324.15
459.845	1339.51
460.218	1348.55
460.591	1361.89
460.964	1362.11
461.337	1387.42
461.71	1415.44
462.083	1408.66
462.456	1453.63
462.829	1417.02
463.201	1497.93
463.574	1494.31
463.947	1494.99
464.32	1548.32
464.692	1549.9
465.065	1555.1
465.438	1598.72
465.81	1624.7
466.183	1631.93
466.555	1696.34
466.928	1683.46
467.3	1661.09
467.672	1726.17
468.045	1795.09
468.417	1773.17
468.789	1802.55
469.161	1859.73
469.534	1866.96
469.906	1902.44
470.278	1937.92
470.65	2008.2
471.022	2015.43
471.394	2092.26
471.766	2085.71
472.138	2128.42
472.51	2176.33
472.882	2237.57
473.253	2294.06
473.625	2302.43
473.997	2387.85
474.369	2398.47
474.74	2487.05
475.112	2510.1
475.484	2545.13
475.855	2584.23
476.227	2670.55
476.598	2790.77
476.97	2810.21
477.341	2866.25
477.713	2959.58
478.084	2978.79
478.455	3097.66
478.827	3162.52
479.198	3304.21
479.569	3316.64
479.94	3479.34
480.311	3541.94
480.682	3622.39
481.053	3775.61
481.424	3837.75
481.795	3903.51
482.166	4043.85
482.537	4104.64
482.908	4270.74
483.279	4353.9
483.65	4476.83
484.021	4655.13
484.391	4726.99
484.762	4824.39
485.133	4923.15
485.503	5040.66
485.874	5228.9
486.244	5313.19
486.615	5484.04
486.985	5619.63
487.356	5777.36
487.726	5882.44
488.097	6045.83
488.467	6240.63
488.837	6372.37
489.207	6469.55
489.578	6649.43
489.948	6777.56
490.318	6928.29
490.688	7048.52
491.058	7232.47
491.428	7408.96
491.798	7571.44
492.168	7759.91
492.538	7876.97
492.908	8057.08
493.278	8193.12
493.648	8317.86
494.017	8448.48
494.387	8613.45
494.757	8801.46
495.126	8918.3
495.496	9047.33
495.866	9198.06
496.235	9262.47
496.605	9499.3
496.974	9550.37
497.344	9686.64
497.713	9892.73
498.082	9983.13
498.452	10165.04
498.821	10262.67
499.19	10375.89
499.559	10578.82
499.928	10697.91
500.298	10735.42
500.667	10930.45
501.036	10935.42
501.405	11113.49
501.774	11203.43
502.143	11364.56
502.512	11372.24
502.88	11543.99
503.249	11595.29
503.618	11692.69
503.987	11833.93
504.356	11892.68
504.724	12050.64
505.093	12059.46
505.462	12134.03
505.83	12182.39
506.199	12471.2
506.567	12568.82
506.936	12635.71
507.304	12744.86
507.672	12815.6
508.041	12878.19
508.409	12996.83
508.777	13025.99
509.145	13181.69
509.514	13213.32
509.882	13314.34
510.25	13308.24
510.618	13443.38
510.986	13485.41
511.354	13608.34
511.722	13695.8
512.09	13783.71
512.458	13679.08
512.826	13891.05
513.193	13969.69
513.561	13980.08
513.929	14101.44
514.297	14124.26
514.664	14222.34
515.032	14236.35
515.4	14378.49
515.767	14429.79
516.135	14376.68
516.502	14377.59
516.869	14579.16
517.237	14538.49
517.604	14550.01
517.972	14707.75
518.339	14746.17
518.706	14838.82
519.073	14766.28
519.44	14857.8
519.808	14950.23
520.175	14912.04
520.542	15015.31
520.909	15114.52
521.276	15061.86
521.643	15098.7
522.009	15200.17
522.376	15260.5
522.743	15369.43
523.11	15391.8
523.477	15532.36
523.843	15419.14
524.21	15647.61
524.577	15625.24
524.943	15702.75
525.31	15685.35
525.676	15787.27
526.043	15872.69
526.409	15856.42
526.776	15990.88
527.142	15928.28
527.508	15951.56
527.874	16070.2
528.241	16008.28
528.607	15978
528.973	16028.17
529.339	15989.75
529.705	16070.65
530.071	16127.15
530.437	16142.51
530.803	16199.69
531.169	16247.14
531.535	16171.44
531.901	16151.33
532.267	16164.43
532.632	16147.94
532.998	16118.56
533.364	16222.51
533.73	16180.48
534.095	16250.76
534.461	16181.38
534.826	16221.16
535.192	16267.03
535.557	16227.48
535.923	16134.38
536.288	16243.98
536.653	16171.44
537.019	16069.97
537.384	16078.11
537.749	16140.93
538.114	16014.83
538.479	16025.68
538.845	16101.84
539.21	15984.78
539.575	16054.15
539.94	15958.34
540.305	16050.09
540.67	15933.93
541.034	15938.22
541.399	15758.79
541.764	15925.8
542.129	15844.22
542.494	15847.15
542.858	15806.93
543.223	15788.85
543.587	15787.95
543.952	15703.88
544.316	15728.29
544.681	15662.3
545.045	15571.68
545.41	15684.9
545.774	15639.48
546.138	15562.87
546.503	15519.03
546.867	15399.48
547.231	15545.47
547.595	15437.67
547.959	15451.46
548.324	15408.97
548.688	15372.59
549.052	15351.57
549.416	15382.76
549.779	15255.08
550.143	15246.94
550.507	15208.75
550.871	15253.72
551.235	15166.72
551.599	15256.89
551.962	15198.13
552.326	15102.77
552.689	15092.82
553.053	15029.32
553.417	15049.43
553.78	15168.53
554.143	15002.66
554.507	15063.45
554.87	15030
555.234	15085.82
555.597	14986.16
555.96	14890.79
556.323	15078.36
556.686	14860.97
557.05	14997.01
557.413	14935.99
557.776	14931.92
558.139	14947.52
558.502	14925.14
558.865	14907.97
559.228	14999.94
559.59	14927.63
559.953	14971.24
560.316	15070.45
560.679	14922.43
561.041	15068.19
561.404	14964.01
561.767	14978.7
562.129	14973.05
562.492	15038.14
562.854	14966.95
563.217	15006.05
563.579	15011.92
563.941	15009.21
564.304	15091.69
564.666	15100.51
565.028	15048.53
565.39	15137.12
565.753	15131.69
566.115	15067.29
566.477	15196.32
566.839	15219.83
567.201	15218.92
567.563	15204.23
567.925	15221.63
568.287	15291.24
568.648	15277
569.01	15279.71
569.372	15388.18
569.734	15194.74
570.095	15348.41
570.457	15354.96
570.819	15389.76
571.18	15349.09
571.542	15409.65
571.903	15402.19
572.265	15557.22
572.626	15490.1
572.987	15476.09
573.349	15427.96
573.71	15454.4
574.071	15571.23
574.432	15541.17
574.794	15567.39
575.155	15460.05
575.516	15483.1
575.877	15453.94
576.238	15553.83
576.599	15639.7
576.96	15587.05
577.32	15638.12
577.681	15680.38
578.042	15607.61
578.403	15601.51
578.763	15636.31
579.124	15672.47
579.485	15715.18
579.845	15679.25
580.206	15672.47
580.566	15659.14
580.927	15631.79
581.287	15703.88
581.648	15661.85
582.008	15589.76
582.368	15620.49
582.728	15657.33
583.089	15616.2
583.449	15524.22
583.809	15575.52
584.169	15609.65
584.529	15509.76
584.889	15621.85
585.249	15518.35
585.609	15467.95
585.969	15520.61
586.329	15529.87
586.688	15530.1
587.048	15474.51
587.408	15554.96
587.768	15387.51
588.127	15510.44
588.487	15433.61
588.846	15552.92
589.206	15373.27
589.565	15422.31
589.925	15532.13
590.284	15482.64
590.643	15500.04
591.003	15493.94
591.362	15460.27
591.721	15367.17
592.08	15455.53
592.44	15381.18
592.799	15317.68
593.158	15327.85
593.517	15355.64
593.876	15362.19
594.235	15283.78
594.593	15372.82
594.952	15385.7
595.311	15282.87
595.67	15429.76
596.029	15474.06
596.387	15371.46
596.746	15343.21
597.104	15317.68
597.463	15266.38
597.822	15360.84
598.18	15250.56
598.538	15278.58
598.897	15365.13
599.255	15177.12
599.613	15333.72
599.972	15328.75
600.33	15407.39
600.688	15211.46
601.046	15288.3
601.404	15343.44
601.762	15197.45
602.12	15408.52
602.478	15289.43
602.836	15294.4
603.194	15331.46
603.552	15364.91
603.91	15255.76
604.268	15300.73
604.625	15304.57
604.983	15258.24
605.341	15273.84
605.698	15296.66
606.056	15411.23
606.413	15287.62
606.771	15386.83
607.128	15437.45
607.485	15325.13
607.843	15320.84
608.2	15375.08
608.557	15460.5
608.914	15375.53
609.272	15363.32
609.629	15466.15
609.986	15492.81
610.343	15412.14
610.7	15508.41
611.057	15460.5
611.414	15378.01
611.771	15391.8
612.127	15517.67
612.484	15495.3
612.841	15533.72
613.198	15440.61
613.554	15441.51
613.911	15638.57
614.267	15521.96
614.624	15525.13
614.98	15627.05
615.337	15670.44
615.693	15583.66
616.05	15623.43
616.406	15691
616.762	15689.42
617.118	15613.04
617.475	15619.59
617.831	15707.27
618.187	15668.18
618.543	15708.17
618.899	15762.86
619.255	15801.28
619.611	15679.47
619.967	15825.69
620.323	15790.88
620.678	15711.11
621.034	15725.35
621.39	15710.66
621.746	15677.21
622.101	15867.94
622.457	15760.83
622.812	15693.26
623.168	15795.86
623.523	15775.97
623.879	15813.26
624.234	15683.77
624.589	15839.92
624.945	15828.17
625.3	15817.78
625.655	15769.19
626.01	15815.52
626.365	15785.23
626.72	15697.55
627.075	15683.32
627.43	15791.34
627.785	15723.77
628.14	15780.26
628.495	15916.3
628.85	15753.15
629.205	15633.6
629.559	15711.11
629.914	15597.89
630.269	15757.66
630.623	15685.12
630.978	15572.58
631.332	15644
631.687	15704.56
632.041	15620.72
632.396	15649.87
632.75	15594.05
633.104	15559.03
633.459	15481.29
633.813	15542.53
634.167	15547.05
634.521	15520.61
634.875	15502.53
635.229	15475.41
635.583	15326.94
635.937	15396.32
636.291	15415.3
636.645	15392.48
636.999	15325.81
637.352	15399.26
637.706	15326.26
638.06	15357.45
638.413	15298.24
638.767	15288.07
639.121	15238.13
639.474	15090.56
639.828	15164.01
640.181	15258.69
640.534	15250.79
640.888	15233.61
641.241	15069.32
641.594	15133.5
641.947	15176.21
642.301	15138.92
642.654	15071.36
643.007	15134.63
643.36	15145.03
643.713	15113.16
644.066	15171.47
644.419	15100.96
644.771	14967.18
645.124	14911.81
645.477	14829.1
645.83	14724.92
646.182	14650.58
646.535	14606.28
646.888	14604.25
647.24	14505.95
647.593	14692.16
647.945	14598.15
648.298	14591.37
648.65	14596.11
649.002	14506.17
649.355	14635.21
649.707	14561.31
650.059	14697.81
650.411	14819.16
650.763	14878.59
651.115	15022.99
651.467	15028.42
651.819	14914.07
652.171	14898.25
652.523	14874.07
652.875	14902.32
653.227	14829.1
653.578	14881.76
653.93	14907.07
654.282	14876.78
654.633	14874.98
654.985	14876.33
655.337	14942.77
655.688	14840.4
656.039	14840.17
656.391	14878.37
656.742	14765.37
657.094	14870.91
657.445	14920.17
657.796	14849.67
658.147	14950.45
658.498	14771.02
658.849	14940.74
659.2	14921.08
659.551	14836.79
659.902	14919.27
660.253	14833.17
660.604	14921.08
660.955	14882.21
661.306	14956.33
661.656	14898.25
662.007	14975.99
662.358	14964.01
662.708	14941.87
663.059	14972.15
663.409	14825.94
663.76	14928.31
664.11	14979.61
664.461	14967.63
664.811	15038.14
665.161	14970.11
665.511	14905.03
665.862	14920.17
666.212	14946.84
666.562	14996.78
666.912	14903.45
667.262	14898.25
667.612	14973.28
667.962	14986.84
668.312	14959.27
668.662	15060.28
669.011	14999.94
669.361	14951.13
669.711	14936.67
670.06	14888.99
670.41	14891.47
670.76	14904.58
671.109	14893.28
671.459	14886.73
671.808	14834.53
672.157	14877.01
672.507	14904.81
672.856	14866.84
673.205	14856.22
673.554	14912.94
673.904	14869.78
674.253	14886.28
674.602	14825.26
674.951	14664.13
675.3	14491.71
675.649	14763.57
675.998	14699.16
676.346	14712.49
676.695	14767.41
677.044	14697.35
677.393	14792.04
677.741	14652.84
678.09	14623.68
678.438	14575.77
678.787	14630.24
679.135	14657.81
679.484	14595.21
679.832	14625.04
680.181	14471.37
680.529	14493.74
680.877	14445.16
681.225	14392.73
681.573	14549.33
681.922	14359.96
682.27	14349.79
682.618	14385.05
682.966	14288.32
683.314	14379.4
683.661	14343.69
684.009	14208.1
684.357	14180.98
684.705	14189.8
685.053	14159.97
685.4	14149.35
685.748	14055.11
686.095	14060.31
686.443	14019.86
686.79	13996.13
687.138	14056.01
687.485	14035.9
687.832	13959.07
688.18	13796.81
688.527	13839.52
688.874	13853.53
689.221	13759.98
689.568	13686.98
689.915	13732.86
690.262	13767.43
690.609	13762.01
690.956	13694.67
691.303	13602.47
691.65	13551.85
691.997	13519.98
692.344	13429.82
692.69	13416.71
693.037	13414.68
693.383	13238.86
693.73	13330.38
694.077	13171.74
694.423	13308.24
694.769	13167.22
695.116	13194.79
695.462	13083.84
695.808	13028.92
696.155	13091.29
696.501	12890.17
696.847	12978.3
697.193	12794.35
697.539	12847.01
697.885	12739.21
698.231	12713.68
698.577	12718.42
698.923	12698.31
699.269	12573.57
699.614	12564.75
699.96	12485.89
700.306	12436.17
700.651	12420.35
700.997	12416.06
701.342	12359.79
701.688	12314.37
702.033	12261.03
702.379	12210.64
702.724	12246.34
703.069	12249.28
703.415	12054.26
703.76	12019.01
704.105	12034.6
704.45	12007.71
704.795	11874.38
705.14	11942.85
705.485	11843.64
705.83	11833.02
706.175	11826.69
706.52	11714.16
706.865	11698.11
707.209	11700.37
707.554	11623.99
707.899	11687.26
708.243	11592.58
708.588	11551
708.932	11449.53
709.277	11540.6
709.621	11490.66
709.966	11418.8
710.31	11383.32
710.654	11278.69
710.998	11319.36
711.342	11260.16
711.687	11320.27
712.031	11192.81
712.375	11166.15
712.719	11194.62
713.063	11181.97
713.407	11158.69
713.75	11127.28
714.094	11106.71
714.438	11045.25
714.782	11016.32
715.125	11028.98
715.469	11039.14
715.812	10970.22
716.156	10977.45
716.499	10884.12
716.843	11005.25
717.186	10876.21
717.53	10853.39
717.873	10881.86
718.216	10852.48
718.559	10799.15
718.902	10741.98
719.246	10789.66
719.589	10751.69
719.932	10782.43
720.275	10785.59
720.617	10723.22
720.96	10721.64
721.303	10716.89
721.646	10727.97
721.989	10600.74
722.331	10707.18
722.674	10637.35
723.016	10688.19
723.359	10645.03
723.701	10703.79
724.044	10606.61
724.386	10507.86
724.729	10638.25
725.071	10605.26
725.413	10508.09
725.755	10541.76
726.097	10546.95
726.439	10472.61
726.782	10476
727.124	10528.42
727.465	10506.96
727.807	10489.1
728.149	10440.74
728.491	10460.4
728.833	10489.55
729.175	10433.74
729.516	10454.98
729.858	10462.66
730.199	10424.25
730.541	10412.04
730.882	10477.58
731.224	10494.53
731.565	10436
731.906	10378.6
732.248	10454.75
732.589	10329.11
732.93	10344.7
733.271	10326.17
733.612	10311.48
733.953	10373.17
734.294	10376.34
734.635	10336.34
734.976	10412.72
735.317	10350.35
735.658	10353.97
735.999	10318.71
736.339	10359.84
736.68	10337.47
737.021	10383.34
737.361	10318.49
737.702	10405.04
738.042	10376.11
738.383	10348.09
738.723	10431.48
739.063	10461.08
739.404	10478.71
739.744	10418.14
740.084	10394.42
740.424	10447.52
740.764	10486.16
741.104	10527.07
741.444	10442.55
741.784	10469.22
742.124	10555.09
742.464	10504.7
742.804	10489.78
743.143	10572.72
743.483	10588.99
743.823	10526.62
744.162	10629.44
744.502	10787.85
744.841	10718.93
745.181	10731.13
745.52	10737.23
745.86	10763.22
746.199	10866.27
746.538	10899.94
746.877	10970.9
747.216	11033.04
747.556	11063.78
747.895	11092.48
748.234	11123.89
748.573	11220.16
748.911	11190.55
749.25	11251.79
749.589	11351.9
749.928	11403.65
750.267	11491.79
750.605	11625.34
750.944	11683.42
751.283	11738.11
751.621	11837.54
751.96	11847.26
752.298	12034.6
752.636	12195.27
752.975	12143.3
753.313	12242.28
753.651	12478.2
753.989	12503.51
754.327	12613.11
754.666	12672.1
755.004	12889.72
755.342	13010.62
755.679	13211.29
