Data from hue_38_FLMS001491_00008.txt Node
Date: Tue Feb 07 17:30:58 GMT 2017
User: dcchb
Spectrometer: FLMS00149
Trigger mode: 0
Integration Time (sec): 2.000000E-2
Scans to average: 10
Electric dark correction enabled: true
Nonlinearity correction enabled: false
Boxcar width: 0
XAxis mode: Wavelengths
Number of Pixels in Spectrum: 2048
>>>>>Begin Spectral Data<<<<<
341.393	-26.34
341.776	-26.34
342.16	-26.34
342.543	-66.57
342.927	-73.57
343.31	-72.22
343.693	-46.23
344.077	-44.87
344.46	-70.18
344.843	-71.54
345.226	-40.35
345.61	-31.09
345.993	-16.17
346.376	-9.62
346.759	14.34
347.142	12.98
347.525	44.17
347.908	58.18
348.291	67.89
348.674	103.37
349.057	101.34
349.44	120.32
349.823	144.05
350.206	163.94
350.588	188.12
350.971	203.71
351.354	243.48
351.737	253.2
352.119	254.78
352.502	264.05
352.884	259.08
353.267	283.26
353.65	283.71
354.032	289.81
354.414	306.98
354.797	317.6
355.179	308.79
355.562	329.58
355.944	321.22
356.326	327.55
356.709	329.13
357.091	351.95
357.473	329.13
357.855	343.37
358.238	354.67
358.62	343.14
359.002	345.63
359.384	349.69
359.766	344.27
360.148	323.48
360.53	350.15
360.912	352.63
361.294	328.45
361.676	332.52
362.057	319.19
362.439	321.22
362.821	344.5
363.203	309.92
363.584	314.44
363.966	330.71
364.348	333.42
364.729	344.95
365.111	328.9
365.493	313.08
365.874	309.7
366.256	325.97
366.637	317.15
367.019	300.88
367.4	324.84
367.781	312.63
368.163	314.67
368.544	308.57
368.925	328
369.306	316.93
369.688	313.54
370.069	298.62
370.45	327.55
370.831	321.67
371.212	302.92
371.593	323.25
371.974	319.41
372.355	323.25
372.736	332.97
373.117	313.76
373.498	318.06
373.879	328
374.26	323.03
374.641	312.86
375.021	321.67
375.402	306.08
375.783	288
376.163	334.33
376.544	311.5
376.925	332.97
377.305	338.4
377.686	329.81
378.066	340.2
378.447	332.52
378.827	327.77
379.208	342.46
379.588	345.4
379.968	335.46
380.349	340.2
380.729	325.74
381.109	349.02
381.489	326.87
381.87	355.34
382.25	339.3
382.63	358.51
383.01	346.3
383.39	345.17
383.77	351.28
384.15	345.63
384.53	336.59
384.91	358.28
385.29	344.04
385.67	352.41
386.049	351.73
386.429	347.89
386.809	368.22
387.189	338.62
387.568	365.96
387.948	357.15
388.328	355.12
388.707	369.58
389.087	342.69
389.466	348.79
389.846	342.69
390.225	366.19
390.605	376.13
390.984	369.13
391.363	376.36
391.743	359.19
392.122	358.28
392.501	376.13
392.881	412.97
393.26	368.9
393.639	369.35
394.018	386.3
394.397	377.94
394.776	375.23
395.155	368.22
395.534	375.91
395.913	362.8
396.292	375.68
396.671	405.06
397.05	377.72
397.429	391.28
397.808	389.47
398.186	394.66
398.565	370.48
398.944	393.76
399.323	394.21
399.701	392.4
400.08	410.48
400.458	387.21
400.837	390.6
401.215	407.09
401.594	407.32
401.972	402.57
402.351	400.77
402.729	417.94
403.107	417.94
403.486	431.5
403.864	429.47
404.242	424.04
404.62	429.92
404.999	430.82
405.377	424.27
405.755	428.11
406.133	436.7
406.511	427.66
406.889	444.15
407.267	416.81
407.645	453.65
408.023	454.32
408.401	462.23
408.779	442.57
409.156	450.48
409.534	433.53
409.912	460.2
410.29	459.75
410.667	463.14
411.045	472.4
411.422	464.49
411.8	485.74
412.178	467.43
412.555	486.87
412.933	482.35
413.31	481.67
413.687	476.02
414.065	483.93
414.442	477.6
414.819	496.81
415.197	483.7
415.574	476.7
415.951	514.89
416.328	514.44
416.705	498.16
417.082	518.5
417.46	525.28
417.837	513.98
418.214	525.06
418.591	517.6
418.967	513.08
419.344	515.57
419.721	529.8
420.098	539.52
420.475	549.01
420.852	565.51
421.228	554.66
421.605	552.85
421.982	540.88
422.358	527.99
422.735	543.14
423.111	583.81
423.488	576.35
423.864	558.05
424.241	559.41
424.617	594.21
424.994	592.63
425.37	581.55
425.746	594.66
426.123	582.91
426.499	598.5
426.875	600.99
427.251	580.2
427.627	606.86
428.003	621.78
428.379	610.25
428.756	609.12
429.132	620.87
429.507	637.37
429.883	617.94
430.259	643.7
430.635	632.62
431.011	666.75
431.387	691.38
431.763	642.57
432.138	686.86
432.514	665.17
432.89	695.22
433.265	683.02
433.641	692.28
434.016	685.05
434.392	665.84
434.767	707.42
435.143	703.58
435.518	709.91
435.894	777.03
436.269	744.26
436.644	741.32
437.02	727.09
437.395	743.36
437.77	743.81
438.145	747.65
438.52	772.06
438.895	758.05
439.271	785.39
439.646	780.64
440.021	786.74
440.395	786.52
440.77	793.07
441.145	816.35
441.52	812.73
441.895	799.4
442.27	799.17
442.645	824.71
443.019	811.38
443.394	834.2
443.769	848.44
444.143	811.15
444.518	851.83
444.892	832.17
445.267	829.91
445.641	832.39
446.016	866.97
446.39	850.25
446.764	848.89
447.139	883.24
447.513	857.48
447.887	852.28
448.262	871.94
448.636	882.79
449.01	900.87
449.384	913.52
449.758	905.16
450.132	874.88
450.506	921.43
450.88	920.75
451.254	942
451.628	944.25
452.002	945.61
452.376	959.62
452.75	953.52
453.123	980.19
453.497	995.78
453.871	944.03
454.244	1000.52
454.618	1005.5
454.992	1029.68
455.365	991.03
455.739	1024.03
456.112	1031.48
456.486	1052.5
456.859	1064.7
457.232	1068.55
457.606	1070.58
457.979	1082.56
458.352	1116
458.725	1097.92
459.099	1123.69
459.472	1144.02
459.845	1157.13
460.218	1148.32
460.591	1172.27
460.964	1182.89
461.337	1200.52
461.71	1224.7
462.083	1236.9
462.456	1236.45
462.829	1247.98
463.201	1257.47
463.574	1266.73
463.947	1284.81
464.32	1312.38
464.692	1325.94
465.065	1317.35
465.438	1363.45
465.81	1377.01
466.183	1388.99
466.555	1407.75
466.928	1438.71
467.3	1443.9
467.672	1460.63
468.045	1467.4
468.417	1499.72
468.789	1502.88
469.161	1585.82
469.534	1574.75
469.906	1596.67
470.278	1577.46
470.65	1624.01
471.022	1715.76
471.394	1700.85
471.766	1734.52
472.138	1735.65
472.51	1741.97
472.882	1790.11
473.253	1835.76
473.625	1875.08
473.997	1917.56
474.369	1925.92
474.74	1955.53
475.112	2015.41
475.484	2075.98
475.855	2093.83
476.227	2152.36
476.598	2160.04
476.97	2221.06
477.341	2307.16
477.713	2344.67
478.084	2412.69
478.455	2456.53
478.827	2479.36
479.198	2561.39
479.569	2628.5
479.94	2674.83
480.311	2697.2
480.682	2827.37
481.053	2886.12
481.424	2932.45
481.795	2986.24
482.166	3073.69
482.537	3144.87
482.908	3273.91
483.279	3310.75
483.65	3407.24
484.021	3466.9
484.391	3545.99
484.762	3638.2
485.133	3700.79
485.503	3735.59
485.874	3889.71
486.244	3974.46
486.615	4075.02
486.985	4115.92
487.356	4207.67
487.726	4305.97
488.097	4435.69
488.467	4477.27
488.837	4638.85
489.207	4711.39
489.578	4757.49
489.948	4906.18
490.318	5018.05
490.688	5086.29
491.058	5169.23
491.428	5345.95
491.798	5411.48
492.168	5530.12
492.538	5623.45
492.908	5714.07
493.278	5815.99
493.648	5894.18
494.017	5987.29
494.387	6083.55
494.757	6217.56
495.126	6333.04
495.496	6382.98
495.866	6467.05
496.235	6615.07
496.605	6711.33
496.974	6785.46
497.344	6907.71
497.713	6953.36
498.082	7054.38
498.452	7135.73
498.821	7255.5
499.19	7299.57
499.559	7382.5
499.928	7480.58
500.298	7528.94
500.667	7731.65
501.036	7743.62
501.405	7754.02
501.774	7852.77
502.143	7982.26
502.512	8060.68
502.88	8100.68
503.249	8164.63
503.618	8271.07
503.987	8345.87
504.356	8455.7
504.724	8524.17
505.093	8553.09
505.462	8674.67
505.83	8738.85
506.199	8859.3
506.567	8972.97
506.936	8968.45
507.304	9155.11
507.672	9106.53
508.041	9200.99
508.409	9248.22
508.777	9363.47
509.145	9472.17
509.514	9498.83
509.882	9601.88
510.25	9657.92
510.618	9734.08
510.986	9734.53
511.354	9846.17
511.722	9941.53
512.09	9976.33
512.458	10046.61
512.826	10132.04
513.193	10205.03
513.561	10296.78
513.929	10391.92
514.297	10346.04
514.664	10502.2
515.032	10538.8
515.4	10600.95
515.767	10605.02
516.135	10751
516.502	10699.25
516.869	10875.29
517.237	10985.8
517.604	10930.88
517.972	11046.59
518.339	11179.24
518.706	11128.39
519.073	11204.78
519.44	11288.84
519.808	11430.53
520.175	11492
520.542	11582.62
520.909	11624.2
521.276	11595.95
521.643	11767.93
522.009	11764.99
522.376	11868.04
522.743	11874.14
523.11	12103.51
523.477	12189.38
523.843	12153
524.21	12352.77
524.577	12463.05
524.943	12485.42
525.31	12476.16
525.676	12686.32
526.043	12759.76
526.409	12758.41
526.776	12874.11
527.142	12904.39
527.508	13003.15
527.874	13156.36
528.241	13195.68
528.607	13229.36
528.973	13329.01
529.339	13334.21
529.705	13477.94
530.071	13581.21
530.437	13662.34
530.803	13713.41
531.169	13832.73
531.535	13906.85
531.901	13832.28
532.267	13934.65
532.632	14048.54
532.998	14042.67
533.364	14178.48
533.73	14218.71
534.095	14376.9
534.461	14347.29
534.826	14487.4
535.192	14551.81
535.557	14538.93
535.923	14609.43
536.288	14645.14
536.653	14698.47
537.019	14728.53
537.384	14837.67
537.749	14932.81
538.114	14878.13
538.479	14947.73
538.845	15034.05
539.21	15113.37
539.575	15142.53
539.94	15230.21
540.305	15252.58
540.67	15267.49
541.034	15327.15
541.399	15418.9
541.764	15460.03
542.129	15525.11
542.494	15598.33
542.858	15685.56
543.223	15584.1
543.587	15792.9
543.952	15787.48
544.316	15872.68
544.681	15868.83
545.045	15954.48
545.41	16032.9
545.774	16196.74
546.138	16134.14
546.503	16156.96
546.867	16328.94
547.231	16380.69
547.595	16457.75
547.959	16385.43
548.324	16515.6
548.688	16536.16
549.052	16595.82
549.416	16643.5
549.779	16748.81
550.143	16774.12
550.507	16846.44
550.871	16942.25
551.235	16930.28
551.599	17066.77
551.962	17130.5
552.326	17129.59
552.689	17151.51
553.053	17245.75
553.417	17214.56
553.78	17428.34
554.143	17371.85
554.507	17535.01
554.87	17519.19
555.234	17761.44
555.597	17543.59
555.96	17698.84
556.323	17825.62
556.686	17714.44
557.05	17885.73
557.413	17918.05
557.776	17971.15
558.139	18134.31
558.502	18187.42
558.865	18192.84
559.228	18198.94
559.59	18374.76
559.953	18408.65
560.316	18623.11
560.679	18616.56
561.041	18724.8
561.404	18694.07
561.767	18832.15
562.129	18874.86
562.492	19061.97
562.854	18982.42
563.217	18960.28
563.579	19074.17
563.941	19156.66
564.304	19261.29
564.666	19341.74
565.028	19333.38
565.39	19412.02
565.753	19545.57
566.115	19721.39
566.477	19667.15
566.839	19760.48
567.201	19833.48
567.563	19839.13
567.925	20065.11
568.287	20085.9
568.648	20130.87
569.01	20200.25
569.372	20368.6
569.734	20312.11
570.095	20562.04
570.457	20541.25
570.819	20676.62
571.18	20626.22
571.542	20825.09
571.903	20824.86
572.265	20891.98
572.626	21061.92
572.987	21014.01
573.349	21205.42
573.71	21260.78
574.071	21387.56
574.432	21379.42
574.794	21604.95
575.155	21743.48
575.516	21730.15
575.877	21876.81
576.238	22006.3
576.599	22211.04
576.96	22101.89
577.32	22275.22
577.681	22413.29
578.042	22666.17
578.403	22717.47
578.763	22658.03
579.124	22924.47
579.485	23069.1
579.845	23319.03
580.206	23362.42
580.566	23492.14
580.927	23679.02
581.287	23944.78
581.648	23869.98
582.008	24089.41
582.368	24343.64
582.728	24373.7
583.089	24530.53
583.449	24715.16
583.809	24868.15
584.169	25125.31
584.529	25204.63
584.889	25551.29
585.249	25604.62
585.609	25712.42
585.969	26003.93
586.329	26170.71
586.688	26368.22
587.048	26569.8
587.408	26801.88
587.768	26994.64
588.127	27236.67
588.487	27371.36
588.846	27761.18
589.206	27675.76
589.565	27912.81
589.925	28324.1
590.284	28429.18
590.643	28532.23
591.003	28831.66
591.362	29263.28
591.721	29282.72
592.08	29460.79
592.44	29781.24
592.799	29995.69
593.158	30020.1
593.517	30308.45
593.876	30548.45
594.235	30809.23
594.593	31030.02
594.952	31341.87
595.311	31415.32
595.67	31715.2
596.029	32037.67
596.387	32153.15
596.746	32356.54
597.104	32484.67
597.463	32567.6
597.822	33034.71
598.18	32992.45
598.538	33210.07
598.897	33589.5
599.255	33472.21
599.613	34134.34
599.972	34009.37
600.33	34356.48
600.688	34432.19
601.046	34600.77
601.404	34875.11
601.762	34915.11
602.12	35205.73
602.478	35344.71
602.836	35581.08
603.194	35434.87
603.552	35745.83
603.91	35871.7
604.268	36200.73
604.625	36127.28
604.983	36469.42
605.341	36460.84
605.698	36803.65
606.056	36841.16
606.413	36910.77
606.771	37182.85
607.128	37286.8
607.485	37314.15
607.843	37397.31
608.2	37837.75
608.557	38056.73
608.914	38035.71
609.272	38253.1
609.629	38398.19
609.986	38579.88
610.343	38550.27
610.7	38867.33
611.057	38976.93
611.414	38982.12
611.771	39099.86
612.127	39413.3
612.484	39450.59
612.841	39741.88
613.198	39538.04
613.554	39724.25
613.911	40032.04
614.267	40015.77
614.624	39963.12
614.98	40167.86
615.337	40526.04
615.693	40592.93
616.05	40428.19
616.406	40832.7
616.762	40733.94
617.118	40744.56
617.475	40834.28
617.831	40938.01
618.187	40951.34
618.543	41342.97
618.899	41394.72
619.255	41425.45
619.611	41429.52
619.967	41749.96
620.323	41847.13
620.678	41673.58
621.034	41680.58
621.39	41716.52
621.746	41776.85
622.101	42273.56
622.457	42203.73
622.812	42113.34
623.168	42176.84
623.523	42207.35
623.879	42324.64
624.234	42153.57
624.589	42337.74
624.945	42506.33
625.3	42614.57
625.655	42527.79
626.01	42568.47
626.365	42632.2
626.72	42641.24
627.075	42627
627.43	42676.49
627.785	42614.35
628.14	42786.54
628.495	42691.63
628.85	42808.46
629.205	42698.41
629.559	42894.79
629.914	42871.51
630.269	42770.27
630.623	42724.4
630.978	42763.49
631.332	43036.03
631.687	43018.18
632.041	42853.66
632.396	42926.88
632.75	42700.22
633.104	42973.66
633.459	42678.75
633.813	42709.94
634.167	42738.18
634.521	42827.67
634.875	42727.56
635.229	42795.58
635.583	42679.65
635.937	42647.34
636.291	42714
636.645	42804.4
636.999	42643.72
637.352	42829.26
637.706	42608.24
638.06	42632.42
638.413	42681.24
638.767	42558.3
639.121	42525.31
639.474	42455.25
639.828	42502.48
640.181	42540.45
640.534	42554.91
640.888	42320.79
641.241	42212.55
641.594	42285.99
641.947	42349.04
642.301	42324.86
642.654	42514.91
643.007	42262.72
643.36	42309.95
643.713	42217.75
644.066	42390.4
644.419	42087.81
644.771	41901.14
645.124	41516.07
645.477	41386.36
645.83	41386.81
646.182	41221.16
646.535	41015.97
646.888	41038.79
647.24	40887.39
647.593	41142.52
647.945	41042.18
648.298	40895.75
648.65	40836.31
649.002	40817.1
649.355	41016.65
649.707	40970.32
650.059	40979.81
650.411	41554.26
650.763	41474.94
651.115	41924.19
651.467	41848.49
651.819	41799.68
652.171	41730.08
652.523	41589.97
652.875	41685.33
653.227	41425.68
653.578	41695.05
653.93	41655.5
654.282	41489.18
654.633	41308.17
654.985	41437.2
655.337	41502.06
655.688	41515.84
656.039	41722.39
656.391	41302.06
656.742	41342.51
657.094	41472.91
657.445	41584.99
657.796	41439.24
658.147	41453.47
658.498	41458.9
658.849	41494.6
659.2	41479.46
659.551	41241.05
659.902	41393.36
660.253	41262.06
660.604	41390.42
660.955	41264.1
661.306	41421.83
661.656	41274.27
662.007	41188.62
662.358	41242.63
662.708	41182.97
663.059	41172.35
663.409	41077.44
663.76	41378.22
664.11	41287.15
664.461	41298
664.811	41193.82
665.161	41234.49
665.511	41192.91
665.862	41110.2
666.212	41220.48
666.562	41306.58
666.912	41206.7
667.262	41109.3
667.612	41099.36
667.962	41072.24
668.312	41199.92
668.662	41318.11
669.011	41195.4
669.361	41022.52
669.711	41117.44
670.06	40889.42
670.41	41027.49
670.76	40985.46
671.109	41046.25
671.459	40969.19
671.808	40877.89
672.157	40952.92
672.507	40721.51
672.856	40760.61
673.205	40806.71
673.554	41001.73
673.904	40872.02
674.253	41077.89
674.602	40839.25
674.951	40331.92
675.3	40082.66
675.649	40860.95
675.998	40752.02
676.346	40651.46
676.695	40821.17
677.044	40438.36
677.393	40619.37
677.741	40522.65
678.09	40552.03
678.438	40551.12
678.787	40585.02
679.135	40574.17
679.484	40246.95
679.832	40477.68
680.181	40265.48
680.529	40403.56
680.877	40272.49
681.225	40155.2
681.573	40412.14
681.922	40148.42
682.27	40059.16
682.618	40055.77
682.966	40008.76
683.314	40002.89
683.661	39932.61
684.009	39775.32
684.357	39731.71
684.705	39642.67
685.053	39702.78
685.4	39725.61
685.748	39505.5
686.095	39451.49
686.443	39336.69
686.79	39353.87
687.138	39326.75
687.485	39313.87
687.832	39187.54
688.18	39237.03
688.527	38955.68
688.874	38954.33
689.221	38934.89
689.568	38902.58
689.915	38690.16
690.262	38777.38
690.609	38647.9
690.956	38550.95
691.303	38480.89
691.65	38248.13
691.997	38320.22
692.344	37987.35
692.69	38055.14
693.037	37956.61
693.383	37734.7
693.73	37903.51
694.077	37625.32
694.423	37545.78
694.769	37540.58
695.116	37456.74
695.462	37423.97
695.808	37309.4
696.155	37550.3
696.501	37067.82
696.847	37054.04
697.193	36792.35
697.539	36980.82
697.885	36703.31
698.231	36601.17
698.577	36623.09
698.923	36561.17
699.269	36504.45
699.614	36219.71
699.96	36090.22
700.306	36233.04
700.651	36019.94
700.997	35888.65
701.342	35902.43
701.688	35860.62
702.033	35679.84
702.379	35813.62
702.724	35518.49
703.069	35636.22
703.415	35350.13
703.76	35301.54
704.105	35334.54
704.45	35321.88
704.795	34983.81
705.14	34859.75
705.485	34871.72
705.83	34816.58
706.175	34918.5
706.52	34665.4
706.865	34578.4
707.209	34493.2
707.554	34410.72
707.899	34432.64
708.243	34228.58
708.588	34320.33
708.932	34093.21
709.277	34035.36
709.621	33927.12
709.966	33807.57
710.31	33821.36
710.654	33638.08
710.998	33682.38
711.342	33689.83
711.687	33451.87
712.031	33407.58
712.375	33320.58
712.719	33203.29
713.063	33199.45
713.407	33343.18
713.75	33142.96
714.094	33132.79
714.438	33023.19
714.782	33036.74
715.125	32782.06
715.469	32911.78
715.812	32744.55
716.156	32742.51
716.499	32752.46
716.843	32635.62
717.186	32494.84
717.53	32615.51
717.873	32569.19
718.216	32389.76
718.559	32352.02
718.902	32201.51
719.246	32178.91
719.589	32044.23
719.932	32028.86
720.275	32099.82
720.617	31946.38
720.96	31923.55
721.303	31818.02
721.646	31897.11
721.989	31673.16
722.331	31682.2
722.674	31618.48
723.016	31700.96
723.359	31548.65
723.701	31672.03
724.044	31407.63
724.386	31283.12
724.729	31541.64
725.071	31301.2
725.413	31395.66
725.755	31310.01
726.097	31020.53
726.439	31009
726.782	31021.2
727.124	31176
727.465	30884.94
727.807	30897.59
728.149	30765.84
728.491	30952.73
728.833	30829.57
729.175	30751.15
729.516	30616.47
729.858	30648.33
730.199	30591.84
730.541	30584.61
730.882	30453.54
731.224	30653.3
731.565	30437.94
731.906	30398.85
732.248	30361.79
732.589	30215.35
732.93	30079.08
733.271	30134.45
733.612	30225.07
733.953	30215.8
734.294	30055.58
734.635	30085.86
734.976	30218.51
735.317	29876.83
735.658	29934.68
735.999	29871.18
736.339	29875.02
736.68	29831.63
737.021	29760.9
737.361	29603.16
737.702	29840.67
738.042	29761.58
738.383	29588.7
738.723	29593.22
739.063	29565.88
739.404	29480.68
739.744	29504.18
740.084	29294.24
740.424	29365.65
740.764	29284.98
741.104	29352.1
741.444	29117.53
741.784	29123.85
742.124	29168.37
742.464	29107.81
742.804	29090.86
743.143	29142.38
743.483	29069.17
743.823	28965.44
744.162	28947.36
744.502	28859.23
744.841	28633.47
745.181	28852.9
745.52	28727.48
745.86	28730.42
746.199	28669.18
746.538	28616.97
746.877	28726.8
747.216	28719.12
747.556	28430.76
747.895	28494.72
748.234	28394.15
748.573	28390.99
748.911	28253.14
749.25	28299.47
749.589	28142.18
749.928	28189.64
750.267	28313.7
750.605	28101.05
750.944	27996.65
751.283	28050.43
751.621	28016.99
751.96	27894.51
752.298	27858.35
752.636	27914.17
752.975	27649.99
753.313	27478.25
753.651	27824.9
753.989	27483.22
754.327	27598.24
754.666	27404.12
755.004	27480.28
755.342	27421.75
755.679	27440.06
756.017	27238.93
756.355	27305.6
756.693	27174.98
757.031	27183.11
757.368	27075.55
