Data from hue_260_FLMS001491_00078.txt Node
Date: Tue Feb 07 15:59:35 GMT 2017
User: dcchb
Spectrometer: FLMS00149
Trigger mode: 0
Integration Time (sec): 2.000000E-2
Scans to average: 10
Electric dark correction enabled: true
Nonlinearity correction enabled: false
Boxcar width: 0
XAxis mode: Wavelengths
Number of Pixels in Spectrum: 2048
>>>>>Begin Spectral Data<<<<<
341.393	-4.86
341.776	-4.86
342.16	-4.86
342.543	-52.32
342.927	-61.58
343.31	-73.33
343.693	-72.43
344.077	-77.85
344.46	-64.74
344.843	-45.99
345.226	-27
345.61	-21.81
345.993	-30.39
346.376	-7.12
346.759	18.19
347.142	39.66
347.525	37.17
347.908	44.63
348.291	84.18
348.674	88.92
349.057	107.91
349.44	121.47
349.823	143.84
350.206	151.07
350.588	190.84
350.971	187.23
351.354	226.1
351.737	235.81
352.119	248.47
352.502	246.89
352.884	256.38
353.267	267.9
353.65	282.37
354.032	281.24
354.414	295.92
354.797	300.22
355.179	317.62
355.562	301.12
355.944	332.76
356.326	318.07
356.709	329.37
357.091	342.48
357.473	340.89
357.855	318.52
358.238	345.64
358.62	324.85
359.002	321.23
359.384	322.82
359.766	343.61
360.148	339.77
360.53	343.83
360.912	337.73
361.294	351.97
361.676	344.06
362.057	329.37
362.439	311.52
362.821	332.31
363.203	325.75
363.584	302.7
363.966	319.88
364.348	324.17
364.729	322.82
365.111	325.3
365.493	319.88
365.874	309.94
366.256	312.42
366.637	327.34
367.019	292.76
367.4	317.84
367.781	320.78
368.163	290.5
368.544	312.42
368.925	296.83
369.306	298.41
369.688	307.45
370.069	289.14
370.45	326.66
370.831	313.55
371.212	284.85
371.593	334.12
371.974	326.66
372.355	304.51
372.736	298.18
373.117	316.71
373.498	332.31
373.879	313.1
374.26	313.55
374.641	303.61
375.021	318.52
375.402	294.34
375.783	338.18
376.163	323.49
376.544	316.94
376.925	325.53
377.305	322.82
377.686	312.65
378.066	324.62
378.447	349.03
378.827	316.26
379.208	327.56
379.588	340.22
379.968	332.08
380.349	329.6
380.729	317.17
381.109	318.97
381.489	314.23
381.87	320.33
382.25	344.51
382.63	333.21
383.01	351.97
383.39	318.3
383.77	349.26
384.15	342.48
384.53	347.67
384.91	343.15
385.29	334.57
385.67	337.51
386.049	358.75
386.429	362.59
386.809	349.93
387.189	343.61
387.568	355.13
387.948	352.87
388.328	347.67
388.707	364.17
389.087	364.4
389.466	358.97
389.846	358.52
390.225	378.41
390.605	353.32
390.984	345.87
391.363	371.18
391.743	363.49
392.122	372.76
392.501	382.48
392.881	370.72
393.26	373.21
393.639	381.35
394.018	383.15
394.397	407.56
394.776	368.46
395.155	397.62
395.534	378.18
395.913	386.32
396.292	374.57
396.671	382.93
397.05	381.57
397.429	406.2
397.808	401.01
398.186	392.65
398.565	416.83
398.944	412.98
399.323	413.66
399.701	398.75
400.08	411.18
400.458	422.02
400.837	413.21
401.215	438.97
401.594	418.63
401.972	411.63
402.351	432.87
402.729	410.5
403.107	432.42
403.486	430.38
403.864	429.03
404.242	436.49
404.62	443.49
404.999	467.67
405.377	445.07
405.755	463.38
406.133	449.37
406.511	473.09
406.889	468.12
407.267	473.55
407.645	477.61
408.023	475.13
408.401	494.56
408.779	484.85
409.156	491.4
409.534	505.18
409.912	505.18
410.29	502.92
410.667	538.63
411.045	525.75
411.422	509.93
411.8	529.59
412.178	551.51
412.555	546.09
412.933	575.01
413.31	531.85
413.687	562.36
414.065	596.71
414.442	583.37
414.819	589.48
415.197	589.7
415.574	592.41
415.951	622.47
416.328	607.33
416.705	609.59
417.082	624.73
417.46	651.4
417.837	644.39
418.214	645.97
418.591	669.7
418.967	654.11
419.344	671.96
419.721	702.24
420.098	685.74
420.475	690.72
420.852	685.74
421.228	723.03
421.605	728.46
421.982	731.85
422.358	737.27
422.735	763.03
423.111	742.24
423.488	770.49
423.864	763.03
424.241	805.52
424.617	806.42
424.994	810.49
425.37	823.14
425.746	808
426.123	835.35
426.499	835.35
426.875	873.54
427.251	876.25
427.627	877.15
428.003	870.6
428.379	897.26
428.756	911.95
429.132	915.57
429.507	932.74
429.883	933.65
430.259	947.88
430.635	950.37
431.011	963.93
431.387	975.45
431.763	997.83
432.138	1018.84
432.514	1027.88
432.89	1040.76
433.265	1056.36
433.641	1062.68
434.016	1095.9
434.392	1098.39
434.767	1093.42
435.143	1113.3
435.518	1150.14
435.894	1172.74
436.269	1197.6
436.644	1217.48
437.02	1204.6
437.395	1221.1
437.77	1263.58
438.145	1269.68
438.52	1312.39
438.895	1298.61
439.271	1303.58
439.646	1332.51
440.021	1348.78
440.395	1352.62
440.77	1361.43
441.145	1367.31
441.52	1398.04
441.895	1396.23
442.27	1429.23
442.645	1422.45
443.019	1472.62
443.394	1462.45
443.769	1463.35
444.143	1471.94
444.518	1496.34
444.892	1530.47
445.267	1511.26
445.641	1519.62
446.016	1534.54
446.39	1556.68
446.764	1563.91
447.139	1583.12
447.513	1586.51
447.887	1599.84
448.262	1615.89
448.636	1588.09
449.01	1605.49
449.384	1674.19
449.758	1656.34
450.132	1668.77
450.506	1684.59
450.88	1683.68
451.254	1714.87
451.628	1714.19
452.002	1716
452.376	1753.06
452.75	1760.07
453.123	1789.67
453.497	1803
453.871	1806.39
454.244	1869.89
454.618	1863.79
454.992	1846.39
455.365	1843
455.739	1900.18
456.112	1950.12
456.486	1947.41
456.859	1959.61
457.232	2000.29
457.606	1973.85
457.979	2057.01
458.352	2062.43
458.725	2062.43
459.099	2089.78
459.472	2098.14
459.845	2111.92
460.218	2152.15
460.591	2133.16
460.964	2206.38
461.337	2233.27
461.71	2231.24
462.083	2285.48
462.456	2266.04
462.829	2262.43
463.201	2277.79
463.574	2323.44
463.947	2356.44
464.32	2399.82
464.692	2395.98
465.065	2454.51
465.438	2414.96
465.81	2492.48
466.183	2470.78
466.555	2567.05
466.928	2555.53
467.3	2605.92
467.672	2610.67
468.045	2662.87
468.417	2687.5
468.789	2710.32
469.161	2696.09
469.534	2751.45
469.906	2781.51
470.278	2846.59
470.65	2887.49
471.022	2901.73
471.394	2957.78
471.766	2927.49
472.138	2998
472.51	3083.42
472.882	3087.72
473.253	3108.28
473.625	3127.49
473.997	3239.12
474.369	3211.78
474.74	3256.75
475.112	3277.54
475.484	3370.87
475.855	3404.09
476.227	3437.54
476.598	3495.39
476.97	3488.61
477.341	3609.28
477.713	3619.23
478.084	3623.75
478.455	3737.42
478.827	3731.09
479.198	3850.41
479.569	3811.09
479.94	3944.19
480.311	3998.65
480.682	4066.45
481.053	4180.12
481.424	4158.2
481.795	4169.27
482.166	4260.34
482.537	4329.94
482.908	4320.9
483.279	4418.98
483.65	4484.51
484.021	4531.07
484.391	4566.77
484.762	4614
485.133	4725.41
485.503	4676.15
485.874	4781.91
486.244	4837.95
486.615	4907.33
486.985	4906.88
487.356	5024.84
487.726	5034.1
488.097	5159.98
488.467	5138.51
488.837	5215.34
489.207	5292.63
489.578	5376.24
489.948	5376.92
490.318	5484.49
490.688	5489.69
491.058	5541.89
491.428	5619.85
491.798	5671.83
492.168	5689.45
492.538	5683.13
492.908	5735.78
493.278	5822.78
493.648	5838.6
494.017	5872.27
494.387	5986.85
494.757	5938.26
495.126	6030.91
495.496	5988.43
495.866	6110.91
496.235	6137.35
496.605	6181.42
496.974	6206.96
497.344	6229.33
497.713	6298.25
498.082	6312.49
498.452	6369.44
498.821	6379.61
499.19	6423.45
499.559	6425.03
499.928	6422.54
500.298	6443.11
500.667	6506.61
501.036	6494.63
501.405	6634.51
501.774	6578.47
502.143	6610.56
502.512	6629.09
502.88	6726.49
503.249	6670.67
503.618	6746.38
503.987	6696.89
504.356	6734.63
504.724	6783.66
505.093	6788.86
505.462	6854.4
505.83	6891.46
506.199	6863.44
506.567	6992.92
506.936	6881.74
507.304	6936.65
507.672	6992.02
508.041	7021.4
508.409	7041.51
508.777	7049.65
509.145	7131.45
509.514	7123.77
509.882	7119.47
510.25	7140.94
510.618	7120.38
510.986	7126.48
511.354	7252.8
511.722	7248.06
512.09	7274.72
512.458	7260.26
512.826	7278.34
513.193	7332.12
513.561	7300.26
513.929	7305.01
514.297	7380.26
514.664	7462.74
515.032	7388.62
515.4	7386.59
515.767	7458
516.135	7438.11
516.502	7389.3
516.869	7532.8
517.237	7462.29
517.604	7493.25
517.972	7532.34
518.339	7558.33
518.706	7532.8
519.073	7507.03
519.44	7612.34
519.808	7637.65
520.175	7638.78
520.542	7633.13
520.909	7690.76
521.276	7632.45
521.643	7695.05
522.009	7717.88
522.376	7764.2
522.743	7730.76
523.11	7795.61
523.477	7768.5
523.843	7896.63
524.21	7859.12
524.577	7930.75
524.943	7861.38
525.31	7853.24
525.676	7970.98
526.043	7916.29
526.409	7995.16
526.776	7975.27
527.142	8008.94
527.508	8007.36
527.874	8073.12
528.241	8004.2
528.607	8062.27
528.973	8056.17
529.339	8105.21
529.705	8105.66
530.071	8197.41
530.437	8169.62
530.803	8141.82
531.169	8125.55
531.535	8154.7
531.901	8168.49
532.267	8186.34
532.632	8178.43
532.998	8188.37
533.364	8208.26
533.73	8180.24
534.095	8231.99
534.461	8195.6
534.826	8253.23
535.192	8276.05
535.557	8222.27
535.923	8260.91
536.288	8244.19
536.653	8186.79
537.019	8190.41
537.384	8167.81
537.749	8246.22
538.114	8209.84
538.479	8210.29
538.845	8164.42
539.21	8126
539.575	8198.77
539.94	8161.25
540.305	8216.17
540.67	8192.67
541.034	8173.46
541.399	8179.56
541.764	8156.28
542.129	8193.12
542.494	8140.46
542.858	8191.31
543.223	8174.59
543.587	8157.64
543.952	8135.94
544.316	8125.78
544.681	8068.83
545.045	8088.94
545.41	8149.5
545.774	8109.5
546.138	8093.91
546.503	8108.83
546.867	8064.53
547.231	8143.85
547.595	8098.21
547.959	8046
548.324	8071.99
548.688	8086.91
549.052	8070.41
549.416	8088.94
549.779	8070.18
550.143	8040.35
550.507	8065.21
550.871	8015.95
551.235	8066.79
551.599	8079
551.962	8097.3
552.326	8088.94
552.689	8084.19
553.053	8032.9
553.417	8011.43
553.78	8066.79
554.143	8064.99
554.507	8074.02
554.87	8027.25
555.234	8039.9
555.597	8064.31
555.96	8077.19
556.323	8097.98
556.686	8042.84
557.05	8156.73
557.413	8045.78
557.776	8117.87
558.139	8125.32
558.502	8066.12
558.865	8120.58
559.228	8138.88
559.59	8218.43
559.953	8149.05
560.316	8263.4
560.679	8182.27
561.041	8204.87
561.404	8210.29
561.767	8303.4
562.129	8166.68
562.492	8378.42
562.854	8236.51
563.217	8313.34
563.579	8287.13
563.941	8379.33
564.304	8367.58
564.666	8366.22
565.028	8389.04
565.39	8386.56
565.753	8374.13
566.115	8444.86
566.477	8465.88
566.839	8465.88
567.201	8499.78
567.563	8517.4
567.925	8550.4
568.287	8568.25
568.648	8519.21
569.01	8577.29
569.372	8637.85
569.734	8615.48
570.095	8687.57
570.457	8703.61
570.819	8650.28
571.18	8719.21
571.542	8756.49
571.903	8782.25
572.265	8804.85
572.626	8809.37
572.987	8763.95
573.349	8857.73
573.71	8899.54
574.071	8875.59
574.432	8904.51
574.794	8929.14
575.155	8948.35
575.516	8958.97
575.877	9045.3
576.238	9031.51
576.599	9048.91
576.96	9053.66
577.32	9071.51
577.681	9096.82
578.042	9094.56
578.403	9123.26
578.763	9149.7
579.124	9154.67
579.485	9187.22
579.845	9214.33
580.206	9234.9
580.566	9243.71
580.927	9287.78
581.287	9222.92
581.648	9285.52
582.008	9358.96
582.368	9319.42
582.728	9356.03
583.089	9415.46
583.449	9344.73
583.809	9393.31
584.169	9367.55
584.529	9408.68
584.889	9536.36
585.249	9350.6
585.609	9444.84
585.969	9503.82
586.329	9438.73
586.688	9473.76
587.048	9551.5
587.408	9473.99
587.768	9518.51
588.127	9512.86
588.487	9549.24
588.846	9608.22
589.206	9582.91
589.565	9575.68
589.925	9694.1
590.284	9620.88
590.643	9692.51
591.003	9645.96
591.362	9672.63
591.721	9724.83
592.08	9670.37
592.44	9699.07
592.799	9694.55
593.158	9740.2
593.517	9785.62
593.876	9800.99
594.235	9730.03
594.593	9776.58
594.952	9830.59
595.311	9732.29
595.67	9823.58
596.029	9867.65
596.387	9877.59
596.746	9877.14
597.104	9872.85
597.463	9830.14
597.822	9880.98
598.18	9878.27
598.538	9855.45
598.897	9870.81
599.255	9844.15
599.613	9998.27
599.972	9904.94
600.33	9943.58
600.688	9931.6
601.046	9938.61
601.404	9996.46
601.762	9923.69
602.12	10039.85
602.478	10048.21
602.836	9996.01
603.194	9957.82
603.552	9995.33
603.91	9945.16
604.268	10010.47
604.625	10026.74
604.983	10018.61
605.341	9986.29
605.698	9972.96
606.056	10125.04
606.413	10091.6
606.771	10080.98
607.128	10080.07
607.485	10113.29
607.843	10087.31
608.2	10094.31
608.557	10141.09
608.914	10096.34
609.272	10111.49
609.629	10133.41
609.986	10156.23
610.343	10097.25
610.7	10264.25
611.057	10191.71
611.414	10181.54
611.771	10209.79
612.127	10175.89
612.484	10304.7
612.841	10237.81
613.198	10217.47
613.554	10259.73
613.911	10318.71
614.267	10293.63
614.624	10278.71
614.98	10299.73
615.337	10295.44
615.693	10362.33
616.05	10322.33
616.406	10330.91
616.762	10280.97
617.118	10333.85
617.475	10384.02
617.831	10406.39
618.187	10334.98
618.543	10398.26
618.899	10424.92
619.255	10426.73
619.611	10414.98
619.967	10400.29
620.323	10469.22
620.678	10356.9
621.034	10321.65
621.39	10387.41
621.746	10307.64
622.101	10454.75
622.457	10435.54
622.812	10412.04
623.168	10434.19
623.523	10455.43
623.879	10525.94
624.234	10446.17
624.589	10503.79
624.945	10390.57
625.3	10380.63
625.655	10420.86
626.01	10405.04
626.365	10361.2
626.72	10412.04
627.075	10400.74
627.43	10445.94
627.785	10353.97
628.14	10398.48
628.495	10407.75
628.85	10399.84
629.205	10354.64
629.559	10411.59
629.914	10357.58
630.269	10388.77
630.623	10296.79
630.978	10343.57
631.332	10353.29
631.687	10359.16
632.041	10311.48
632.396	10344.25
632.75	10304.7
633.104	10310.35
633.459	10226.06
633.813	10312.16
634.167	10292.72
634.521	10248.66
634.875	10266.28
635.229	10140.19
635.583	10175.89
635.937	10214.08
636.291	10195.78
636.645	10137.47
636.999	10106.51
637.352	10107.64
637.706	10118.04
638.06	10160.52
638.413	10135.89
638.767	10152.16
639.121	10155.55
639.474	10011.6
639.828	10036.91
640.181	10028.78
640.534	10034.88
640.888	9997.36
641.241	9985.16
641.594	9962.56
641.947	10050.02
642.301	9958.72
642.654	9969.79
643.007	9973.86
643.36	9982.22
643.713	9932.73
644.066	10039.17
644.419	9977.25
644.771	9904.94
645.124	9753.08
645.477	9777.93
645.83	9732.51
646.182	9630.82
646.535	9644.83
646.888	9680.76
647.24	9639.18
647.593	9737.71
647.945	9660.65
648.298	9641.22
648.65	9633.08
649.002	9588.79
649.355	9625.17
649.707	9544.04
650.059	9618.62
650.411	9701.1
650.763	9647.99
651.115	9863.36
651.467	9855.22
651.819	9822.45
652.171	9825.84
652.523	9736.13
652.875	9809.57
653.227	9748.11
653.578	9773.19
653.93	9786.75
654.282	9790.36
654.633	9797.14
654.985	9765.51
655.337	9751.5
655.688	9833.3
656.039	9831.49
656.391	9805.73
656.742	9743.13
657.094	9741.55
657.445	9855.67
657.796	9809.57
658.147	9796.47
658.498	9756.24
658.849	9751.5
659.2	9747.2
659.551	9808.67
659.902	9764.38
660.253	9795.79
660.604	9822.91
660.955	9744.04
661.306	9811.83
661.656	9751.04
662.007	9751.5
662.358	9697.03
662.708	9805.96
663.059	9756.69
663.409	9734.09
663.76	9814.09
664.11	9743.59
664.461	9814.32
664.811	9833.53
665.161	9836.01
665.511	9800.99
665.862	9810.7
666.212	9802.34
666.562	9803.92
666.912	9833.53
667.262	9796.47
667.612	9761.44
667.962	9818.84
668.312	9773.64
668.662	9797.37
669.011	9767.77
669.361	9734.55
669.711	9782.23
670.06	9732.74
670.41	9729.35
670.76	9706.75
671.109	9802.34
671.459	9803.7
671.808	9716.47
672.157	9710.82
672.507	9702.91
672.856	9629.46
673.205	9702.23
673.554	9703.13
673.904	9662.91
674.253	9687.77
674.602	9681.44
674.951	9565.06
675.3	9574.55
675.649	9692.29
675.998	9639.86
676.346	9655.68
676.695	9685.28
677.044	9543.59
677.393	9661.1
677.741	9599.18
678.09	9585.62
678.438	9536.59
678.787	9623.81
679.135	9521.44
679.484	9539.07
679.832	9532.29
680.181	9453.42
680.529	9537.26
680.877	9453.42
681.225	9475.34
681.573	9504.5
681.922	9439.86
682.27	9363.03
682.618	9394.44
682.966	9400.77
683.314	9450.71
683.661	9393.09
684.009	9259.76
684.357	9351.05
684.705	9307.44
685.053	9275.8
685.4	9232.19
685.748	9234.22
686.095	9247.1
686.443	9184.73
686.79	9144.73
687.138	9096.15
687.485	9183.83
687.832	9143.6
688.18	9087.78
688.527	9057.28
688.874	9028.8
689.221	9050.5
689.568	8990.61
689.915	9011.63
690.262	8904.96
690.609	9003.94
690.956	8915.13
691.303	8942.7
691.65	8837.39
691.997	8821.8
692.344	8854.8
692.69	8786.1
693.037	8750.17
693.383	8640.34
693.73	8682.14
694.077	8684.18
694.423	8644.41
694.769	8606.89
695.116	8612.77
695.462	8576.84
695.808	8537.97
696.155	8510.62
696.501	8530.96
696.847	8536.16
697.193	8405.09
697.539	8401.7
697.885	8337.97
698.231	8354.47
698.577	8293.45
698.923	8293.91
699.269	8251.87
699.614	8225.21
699.96	8255.49
700.306	8174.59
700.651	8142.5
700.997	8161.48
701.342	8050.52
701.688	8096.17
702.033	8061.82
702.379	8019.56
702.724	7964.2
703.069	8042.16
703.415	7859.57
703.76	7915.84
704.105	7884.43
704.45	7898.66
704.795	7836.97
705.14	7777.08
705.485	7800.36
705.83	7760.36
706.175	7712.23
706.52	7734.37
706.865	7721.49
707.209	7644.21
707.554	7701.61
707.899	7620.7
708.243	7608.5
708.588	7601.27
708.932	7512.46
709.277	7577.99
709.621	7545.9
709.966	7529.18
710.31	7519.01
710.654	7424.78
710.998	7442.63
711.342	7485.57
711.687	7476.53
712.031	7432.91
712.375	7432.46
712.719	7366.92
713.063	7340.26
713.407	7380.03
713.75	7408.51
714.094	7299.81
714.438	7323.31
714.782	7302.29
715.125	7256.19
715.469	7336.87
715.812	7229.75
716.156	7224.33
716.499	7229.98
716.843	7206.48
717.186	7154.05
717.53	7235.63
717.873	7234.5
718.216	7138.91
718.559	7192.01
718.902	7147.95
719.246	7088.97
719.589	7120.6
719.932	7104.78
720.275	7107.04
720.617	7115.41
720.96	7095.52
721.303	7072.47
721.646	7006.26
721.989	7063.2
722.331	7039.02
722.674	7026.14
723.016	6982.08
723.359	7052.36
723.701	7034.73
724.044	7006.71
724.386	7004.9
724.729	7027.05
725.071	7001.28
725.413	6929.65
725.755	6987.27
726.097	6937.56
726.439	6942.08
726.782	6980.04
727.124	6992.02
727.465	6945.24
727.807	6928.74
728.149	6923.55
728.491	6919.93
728.833	6851.23
729.175	6858.01
729.516	6915.86
729.858	6836.09
730.199	6851.01
730.541	6873.83
730.882	6922.19
731.224	6891.23
731.565	6814.62
731.906	6855.07
732.248	6874.51
732.589	6915.19
732.93	6825.47
733.271	6881.29
733.612	6784.12
733.953	6846.71
734.294	6801.29
734.635	6786.6
734.976	6848.75
735.317	6837.22
735.658	6816.88
735.999	6860.5
736.339	6850.33
736.68	6861.85
737.021	6818.01
737.361	6808.3
737.702	6800.61
738.042	6777.34
738.383	6846.71
738.723	6836.09
739.063	6870.44
739.404	6832.25
739.744	6808.07
740.084	6844.45
740.424	6854.85
740.764	6843.32
741.104	6945.47
741.444	6872.25
741.784	6895.75
742.124	6936.65
742.464	6989.99
742.804	6903.66
743.143	6911.12
743.483	6938.24
743.823	6953.15
744.162	6941.63
744.502	7005.58
744.841	6984.34
745.181	6987.27
745.52	7024.11
745.86	7048.06
746.199	7112.47
746.538	7113.15
746.877	7150.21
747.216	7184.1
747.556	7171.68
747.895	7268.62
748.234	7252.35
748.573	7342.07
748.911	7330.77
749.25	7397.88
749.589	7415.29
749.928	7522.85
750.267	7536.41
750.605	7593.36
750.944	7653.47
751.283	7682.85
751.621	7783.19
751.96	7784.32
752.298	7910.41
752.636	7966.01
752.975	7982.28
753.313	8074.02
753.651	8169.84
753.989	8232.66
754.327	8319.89
754.666	8419.1
755.004	8471.53
755.342	8577.06
755.679	8667
756.017	8729.83
756.355	8848.92
756.693	8936.38
757.031	9109.93
757.368	9118.97
757.706	9235.8
758.044	9372.97
758.381	9511.73
758.719	9591.73
759.056	9838.05
759.394	9833.3
759.731	9946.74
760.068	10043.46
760.405	10127.3
760.743	10267.41
761.08	10440.97
761.417	10557.12
761.754	10725.71
762.091	10818.13
762.428	10842.54
762.765	11035.3
763.102	11204.11
763.438	11270.1
763.775	11331.11
764.112	11582.63
764.449	11647.72
764.785	11779.46
765.122	11848.62
765.458	12027.37
765.795	12134.03
766.131	12227.36
766.467	12364.53
766.804	12410.41
767.14	12498.09
