Data from hue_150_FLMS001491_00020.txt Node
Date: Tue Feb 07 16:53:42 GMT 2017
User: dcchb
Spectrometer: FLMS00149
Trigger mode: 0
Integration Time (sec): 2.000000E-2
Scans to average: 10
Electric dark correction enabled: true
Nonlinearity correction enabled: false
Boxcar width: 0
XAxis mode: Wavelengths
Number of Pixels in Spectrum: 2048
>>>>>Begin Spectral Data<<<<<
341.393	-28.33
341.776	-28.33
342.16	-28.33
342.543	-67.88
342.927	-84.15
343.31	-46.64
343.693	-67.65
344.077	-58.61
344.46	-70.82
344.843	-49.57
345.226	-59.07
345.61	-41.44
345.993	-5.73
346.376	10.76
346.759	10.31
347.142	2.63
347.525	38.33
347.908	66.35
348.291	79.01
348.674	86.01
349.057	106.13
349.44	134.83
349.823	134.6
350.206	159.91
350.588	201.04
350.971	209.4
351.354	233.58
351.737	224.54
352.119	255.05
352.502	255.05
352.884	273.58
353.267	260.7
353.65	292.79
354.032	290.98
354.414	317.65
354.797	311.55
355.179	312.9
355.562	314.26
355.944	355.16
356.326	335.27
356.709	330.75
357.091	325.1
357.473	345.22
357.855	336.86
358.238	353.58
358.62	349.28
359.002	363.52
359.384	344.54
359.766	343.41
360.148	327.59
360.53	336.63
360.912	330.08
361.294	336.4
361.676	324.65
362.057	316.97
362.439	335.05
362.821	340.7
363.203	332.34
363.584	332.34
363.966	331.43
364.348	308.83
364.729	325.1
365.111	312.9
365.493	322.39
365.874	302.28
366.256	306.57
366.637	321.26
367.019	330.3
367.4	324.88
367.781	321.26
368.163	327.59
368.544	287.14
368.925	306.12
369.306	334.14
369.688	305.67
370.069	316.07
370.45	313.13
370.831	301.83
371.212	312
371.593	297.31
371.974	295.05
372.355	314.26
372.736	285.56
373.117	306.8
373.498	319.45
373.879	319.45
374.26	312.9
374.641	318.55
375.021	308.38
375.402	336.63
375.783	314.71
376.163	332.11
376.544	320.81
376.925	356.29
377.305	331.88
377.686	324.2
378.066	349.74
378.447	327.14
378.827	330.53
379.208	321.04
379.588	323.97
379.968	331.66
380.349	341.15
380.729	334.37
381.109	346.12
381.489	349.74
381.87	355.84
382.25	342.05
382.63	330.98
383.01	333.92
383.39	352.22
383.77	352.22
384.15	346.8
384.53	349.06
384.91	338.89
385.29	344.31
385.67	366.23
386.049	359.91
386.429	362.17
386.809	341.38
387.189	351.09
387.568	369.4
387.948	356.97
388.328	363.52
388.707	357.19
389.087	359.68
389.466	351.54
389.846	362.84
390.225	394.71
390.605	368.27
390.984	392
391.363	393.8
391.743	368.49
392.122	396.74
392.501	377.98
392.881	384.99
393.26	414.59
393.639	391.54
394.018	376.85
394.397	399.23
394.776	397.42
395.155	390.41
395.534	389.74
395.913	389.51
396.292	385.67
396.671	394.26
397.05	403.52
397.429	403.52
397.808	413.24
398.186	389.28
398.565	404.65
398.944	398.1
399.323	413.24
399.701	384.09
400.08	378.44
400.458	410.07
400.837	413.01
401.215	413.24
401.594	421.37
401.972	410.3
402.351	416.18
402.729	415.27
403.107	433.8
403.486	414.82
403.864	423.86
404.242	447.59
404.62	444.42
404.999	435.61
405.377	427.93
405.755	439.45
406.133	459.56
406.511	447.14
406.889	443.07
407.267	464.31
407.645	470.41
408.023	453.46
408.401	468.83
408.779	469.96
409.156	465.44
409.534	478.09
409.912	486.23
410.29	468.15
410.667	479.68
411.045	474.25
411.422	481.71
411.8	504.31
412.178	506.12
412.555	486
412.933	517.19
413.31	490.3
413.687	528.94
414.065	528.26
414.442	522.84
414.819	526.23
415.197	516.96
415.574	508.15
415.951	539.34
416.328	526.46
416.705	524.2
417.082	562.61
417.46	529.84
417.837	555.61
418.214	540.47
418.591	540.47
418.967	545.21
419.344	572.33
419.721	575.72
420.098	567.36
420.475	549.28
420.852	582.72
421.228	591.76
421.605	577.98
421.982	578.88
422.358	582.27
422.735	585.66
423.111	597.87
423.488	604.65
423.864	613.01
424.241	617.3
424.617	606.45
424.994	624.76
425.37	635.15
425.746	634.7
426.123	636.06
426.499	633.57
426.875	668.6
427.251	657.53
427.627	657.3
428.003	670.18
428.379	676.06
428.756	681.03
429.132	683.06
429.507	690.97
429.883	713.79
430.259	695.72
430.635	715.38
431.011	729.39
431.387	721.7
431.763	742.72
432.138	732.78
432.514	744.75
432.89	743.4
433.265	752.44
433.641	737.3
434.016	749.95
434.392	770.97
434.767	785.21
435.143	803.06
435.518	820.46
435.894	794.24
436.269	821.36
436.644	827.46
437.02	840.8
437.395	829.05
437.77	849.16
438.145	874.24
438.52	851.42
438.895	851.87
439.271	865.2
439.646	880.12
440.021	898.65
440.395	890.06
440.77	866.33
441.145	890.06
441.52	926.67
441.895	920.34
442.27	925.77
442.645	934.13
443.019	954.01
443.394	918.54
443.769	928.03
444.143	945.43
444.518	962.83
444.892	945.2
445.267	979.78
445.641	989.72
446.016	996.5
446.39	1001.02
446.764	993.56
447.139	996.5
447.513	1023.17
447.887	1003.5
448.262	1022.04
448.636	999.21
449.01	1042.37
449.384	1050.74
449.758	1054.8
450.132	1051.41
450.506	1071.98
450.88	1090.73
451.254	1088.47
451.628	1103.62
452.002	1111.98
452.376	1120.34
452.75	1140.22
453.123	1132.99
453.497	1160.56
453.871	1181.58
454.244	1172.54
454.618	1178.64
454.992	1206.44
455.365	1196.27
455.739	1222.93
456.112	1235.59
456.486	1222.26
456.859	1270.39
457.232	1258.19
457.606	1289.6
457.979	1288.47
458.352	1315.59
458.725	1332.31
459.099	1331.63
459.472	1377.96
459.845	1396.49
460.218	1390.61
460.591	1399.88
460.964	1405.53
461.337	1428.8
461.71	1497.28
462.083	1508.8
462.456	1506.54
462.829	1542.02
463.201	1523.04
463.574	1549.03
463.947	1597.61
464.32	1618.18
464.692	1621.79
465.065	1630.61
465.438	1683.03
465.81	1725.52
466.183	1714.22
466.555	1776.14
466.928	1786.76
467.3	1812.07
467.672	1831.28
468.045	1821.79
468.417	1869.02
468.789	1882.58
469.161	1939.3
469.534	1966.19
469.906	2027.66
470.278	2067.43
470.65	2076.7
471.022	2107.88
471.394	2172.29
471.766	2242.57
472.138	2202.34
472.51	2256.35
472.882	2356.46
473.253	2364.6
473.625	2406.86
473.997	2452.05
474.369	2523.24
474.74	2566.18
475.112	2587.19
475.484	2645.04
475.855	2709
476.227	2791.03
476.598	2899.27
476.97	2953.28
477.341	3035.77
477.713	3087.29
478.084	3105.82
478.455	3219.94
478.827	3274.63
479.198	3401.63
479.569	3425.36
479.94	3581.29
480.311	3606.15
480.682	3709.2
481.053	3851.11
481.424	3920.72
481.795	3956.42
482.166	4130.65
482.537	4243.87
482.908	4336.75
483.279	4433.25
483.65	4540.13
484.021	4688.15
484.391	4746.46
484.762	4913.01
485.133	4921.14
485.503	5072.55
485.874	5237.29
486.244	5344.18
486.615	5504.18
486.985	5623.95
487.356	5790.27
487.726	5911.4
488.097	6029.81
488.467	6089.92
488.837	6304.83
489.207	6435
489.578	6582.79
489.948	6669.57
490.318	6849.23
490.688	6961.54
491.058	7091.93
491.428	7288.09
491.798	7468.87
492.168	7618.47
492.538	7768.75
492.908	7826.6
493.278	8052.36
493.648	8140.49
494.017	8269.75
494.387	8348.17
494.757	8565.57
495.126	8671.1
495.496	8734.15
495.866	8883.75
496.235	9070.41
496.605	9190.63
496.974	9322.83
497.344	9433.57
497.713	9520.79
498.082	9585.65
498.452	9811.41
498.821	9894.8
499.19	10029.26
499.559	10086.88
499.928	10231.74
500.298	10274.45
500.667	10403.03
501.036	10489.81
501.405	10635.57
501.774	10692.74
502.143	10764.15
502.512	10852.74
502.88	11029
503.249	11122.33
503.618	11095.67
503.987	11177.93
504.356	11336.34
504.724	11417.92
505.093	11470.57
505.462	11511.7
505.83	11616.11
506.199	11738.59
506.567	11851.81
506.936	11877.8
507.304	12052.25
507.672	12000.73
508.041	12153.04
508.409	12249.31
508.777	12303.55
509.145	12472.36
509.514	12329.08
509.882	12516.2
510.25	12520.26
510.618	12640.71
510.986	12677.55
511.354	12740.6
511.722	12856.3
512.09	12962.51
512.458	12914.15
512.826	13036.41
513.193	13102.17
513.561	13089.29
513.929	13167.25
514.297	13273.24
514.664	13325.44
515.032	13385.78
515.4	13416.51
515.767	13481.37
516.135	13484.31
516.502	13401.14
516.869	13617.18
517.237	13618.31
517.604	13602.04
517.972	13660.35
518.339	13787.58
518.706	13699.22
519.073	13803.85
519.44	13828.93
519.808	13981.92
520.175	13908.93
520.542	14051.52
520.909	14087
521.276	14055.14
521.643	14089.26
522.009	14187.79
522.376	14225.76
522.743	14135.81
523.11	14415.58
523.477	14409.93
523.843	14390.5
524.21	14519.76
524.577	14630.49
524.943	14571.96
525.31	14642.92
525.676	14709.36
526.043	14768.11
526.409	14763.59
526.776	14881.33
527.142	14793.42
527.508	14860.32
527.874	14915.91
528.241	14853.08
528.607	14839.98
528.973	15042.91
529.339	14878.85
529.705	14956.58
530.071	14988.45
530.437	14979.18
530.803	14994.78
531.169	15039.52
531.535	15018.5
531.901	15033.42
532.267	15068.22
532.632	15102.79
532.998	15059.18
533.364	15077.71
533.73	15010.37
534.095	15035.45
534.461	14996.13
534.826	14983.25
535.192	15041.78
535.557	15083.36
535.923	14970.6
536.288	14997.04
536.653	15074.77
537.019	14870.03
537.384	14935.12
537.749	14890.82
538.114	14863.03
538.479	14889.02
538.845	14847.66
539.21	14824.84
539.575	14884.5
539.94	14817.83
540.305	14782.13
540.67	14750.94
541.034	14757.04
541.399	14761.11
541.764	14731.05
542.129	14695.8
542.494	14695.8
542.858	14672.52
543.223	14625.52
543.587	14625.07
543.952	14587.55
544.316	14487.67
544.681	14424.39
545.045	14521.34
545.41	14437.95
545.774	14460.55
546.138	14442.25
546.503	14406.32
546.867	14376.26
547.231	14357.73
547.595	14368.35
547.959	14315.47
548.324	14253.33
548.688	14194.57
549.052	14212.2
549.416	14280.9
549.779	14137.85
550.143	14066.21
550.507	14161.12
550.871	14147.11
551.235	14068.02
551.599	14124.06
551.962	14087.23
552.326	14046.55
552.689	14061.01
553.053	13936.95
553.417	14013.11
553.78	14016.27
554.143	13976.5
554.507	14059.66
554.87	13978.98
555.234	14075.03
555.597	13907.8
555.96	13905.31
556.323	13923.62
556.686	13879.1
557.05	13929.72
557.413	13839.55
557.776	13883.62
558.139	13905.09
558.502	13896.95
558.865	13924.29
559.228	13916.39
559.59	13873.45
559.953	13950.96
560.316	13977.63
560.679	13892.66
561.041	13993.45
561.404	13934.92
561.767	13992.32
562.129	13916.16
562.492	14083.61
562.854	14031.41
563.217	13992.32
563.579	14018.08
563.941	14104.4
564.304	14107.57
564.666	14069.83
565.028	14130.62
565.39	14108.02
565.753	14045.2
566.115	14187.34
566.477	14150.05
566.839	14160.9
567.201	14275.7
567.563	14129.26
567.925	14340.78
568.287	14312.08
568.648	14348.69
569.01	14293.78
569.372	14353.66
569.734	14254.23
570.095	14444.28
570.457	14305.98
570.819	14381.23
571.18	14454.45
571.542	14483.15
571.903	14395.69
572.265	14535.13
572.626	14519.08
572.987	14482.7
573.349	14417.16
573.71	14552.07
574.071	14548.01
574.432	14498.97
574.794	14557.72
575.155	14536.26
575.516	14508.01
575.877	14572.64
576.238	14593.66
576.599	14575.13
576.96	14572.19
577.32	14594.33
577.681	14636.82
578.042	14666.2
578.403	14560.66
578.763	14702.35
579.124	14600.44
579.485	14692.86
579.845	14698.29
580.206	14695.35
580.566	14656.03
580.927	14670.04
581.287	14683.82
581.648	14656.71
582.008	14745.06
582.368	14663.03
582.728	14698.96
583.089	14634.11
583.449	14647.67
583.809	14650.38
584.169	14688.34
584.529	14595.92
584.889	14799.98
585.249	14602.24
585.609	14521.34
585.969	14630.49
586.329	14540.32
586.688	14564.96
587.048	14552.53
587.408	14479.31
587.768	14590.72
588.127	14516.14
588.487	14587.33
588.846	14606.76
589.206	14454.9
589.565	14493.32
589.925	14495.35
590.284	14465.98
590.643	14469.37
591.003	14638.4
591.362	14537.39
591.721	14527.67
592.08	14509.36
592.44	14466.2
592.799	14461.91
593.158	14523.15
593.517	14530.61
593.876	14434.79
594.235	14427.56
594.593	14424.62
594.952	14438.18
595.311	14421.23
595.67	14348.46
596.029	14473.88
596.387	14518.86
596.746	14560.21
597.104	14384.85
597.463	14398.63
597.822	14468.46
598.18	14447.67
598.538	14463.26
598.897	14419.2
599.255	14391.85
599.613	14535.58
599.972	14430.95
600.33	14477.95
600.688	14400.67
601.046	14482.92
601.404	14499.2
601.762	14442.02
602.12	14494.68
602.478	14476.6
602.836	14466.2
603.194	14423.94
603.552	14430.5
603.91	14345.75
604.268	14533.77
604.625	14350.05
604.983	14472.3
605.341	14401.34
605.698	14450.16
606.056	14489.03
606.413	14412.64
606.771	14469.14
607.128	14533.09
607.485	14450.61
607.843	14451.06
608.2	14538.06
608.557	14468.01
608.914	14480.89
609.272	14554.11
609.629	14606.76
609.986	14586.65
610.343	14607.44
610.7	14700.32
611.057	14599.98
611.414	14659.42
611.771	14617.61
612.127	14645.41
612.484	14677.04
612.841	14650.83
613.198	14665.74
613.554	14621.23
613.911	14656.71
614.267	14680.21
614.624	14610.15
614.98	14659.64
615.337	14719.53
615.693	14758.4
616.05	14642.69
616.406	14743.71
616.762	14793.2
617.118	14793.42
617.475	14792.29
617.831	14863.25
618.187	14907.09
618.543	14880.43
618.899	14838.17
619.255	14854.67
619.611	14846.98
619.967	14880.2
620.323	14947.77
620.678	14868.45
621.034	14883.14
621.39	14900.99
621.746	14807.66
622.101	15002.46
622.457	14826.87
622.812	14944.38
623.168	14934.66
623.523	14945.96
623.879	14995.45
624.234	14846.3
624.589	14968.11
624.945	14935.79
625.3	14900.09
625.655	14936.92
626.01	14872.97
626.365	14931.05
626.72	14856.7
627.075	14937.83
627.43	14880.88
627.785	14818.06
628.14	14821.67
628.495	14840.88
628.85	14737.83
629.205	14868
629.559	14916.81
629.914	14809.47
630.269	14832.07
630.623	14786.65
630.978	14701.45
631.332	14800.2
631.687	14826.64
632.041	14722.01
632.396	14762.46
632.75	14714.1
633.104	14707.78
633.459	14665.74
633.813	14645.41
634.167	14625.29
634.521	14565.63
634.875	14559.31
635.229	14538.74
635.583	14495.58
635.937	14544.17
636.291	14430.95
636.645	14547.1
636.999	14514.56
637.352	14452.87
637.706	14474.34
638.06	14478.86
638.413	14498.07
638.767	14381.91
639.121	14397.5
639.474	14368.58
639.828	14311.18
640.181	14285.42
640.534	14336.71
640.888	14309.82
641.241	14243.16
641.594	14271.63
641.947	14344.62
642.301	14217.17
642.654	14302.59
643.007	14318.86
643.36	14225.98
643.713	14276.38
644.066	14199.09
644.419	14220.11
644.771	14107.34
645.124	13953.22
645.477	14023.5
645.83	13942.6
646.182	13794.35
646.535	13837.07
646.888	13750.97
647.24	13659.9
647.593	13789.16
647.945	13727.01
648.298	13679.78
648.65	13646.56
649.002	13635.04
649.355	13740.57
649.707	13665.54
650.059	13767.01
650.411	13969.49
650.763	13931.3
651.115	14163.84
651.467	14050.62
651.819	14043.39
652.171	14050.17
652.523	14061.92
652.875	14011.3
653.227	13936.72
653.578	14093.78
653.93	13998.42
654.282	13922.94
654.633	13868.03
654.985	13959.1
655.337	13956.61
655.688	13953.9
656.039	13979.21
656.391	13977.17
656.742	13920.68
657.094	13934.24
657.445	13974.69
657.796	13896.95
658.147	13951.86
658.498	13952.09
658.849	14016.72
659.2	14042.26
659.551	13984.18
659.902	13979.89
660.253	14033.44
660.604	13960.68
660.955	13972.88
661.306	13948.7
661.656	13908.02
662.007	14005.65
662.358	13987.57
662.708	14024.86
663.059	14009.72
663.409	13899.21
663.76	14031.86
664.11	14005.2
664.461	14013.33
664.811	14034.12
665.161	13968.59
665.511	13983.05
665.862	13966.1
666.212	14032.54
666.562	13983.28
666.912	13999.55
667.262	14012.65
667.612	13960
667.962	13953.67
668.312	13942.15
668.662	14017.85
669.011	13985.76
669.361	14014.24
669.711	13974.92
670.06	13988.7
670.41	13953.67
670.76	13938.53
671.109	13999.77
671.459	13883.62
671.808	13920.45
672.157	13912.54
672.507	13909.15
672.856	13899.21
673.205	13865.77
673.554	13880
673.904	13847.91
674.253	13940.57
674.602	13966.1
674.951	13652.89
675.3	13589.84
675.649	13835.71
675.998	13807.01
676.346	13813.34
676.695	13802.04
677.044	13681.14
677.393	13815.15
677.741	13689.72
678.09	13727.01
678.438	13687.46
678.787	13711.42
679.135	13746.45
679.484	13626.22
679.832	13697.63
680.181	13534.25
680.529	13560.24
680.877	13569.05
681.225	13530.63
681.573	13581.71
681.922	13440.24
682.27	13351.2
682.618	13505.32
682.966	13451.31
683.314	13464.19
683.661	13417.87
684.009	13305.1
684.357	13319.57
684.705	13286.12
685.053	13315.72
685.4	13243.18
685.748	13207.03
686.095	13168.61
686.443	13162.06
686.79	13137.65
687.138	13132.45
687.485	13157.31
687.832	13043.41
688.18	13066.69
688.527	12976.98
688.874	12997.99
689.221	12960.25
689.568	12960.48
689.915	12860.14
690.262	12869.18
690.609	12793.48
690.956	12805.45
691.303	12738.34
691.65	12676.42
691.997	12641.84
692.344	12601.84
692.69	12538.12
693.037	12498.12
693.383	12414.05
693.73	12453.6
694.077	12448.18
694.423	12380.38
694.769	12284.79
695.116	12253.83
695.462	12259.25
695.808	12187.39
696.155	12248.63
696.501	12160.27
696.847	12111.46
697.193	12027.85
697.539	12067.85
697.885	11899.04
698.231	11859.72
698.577	11873.05
698.923	11904.91
699.269	11822.88
699.614	11765.03
699.96	11718.93
700.306	11735.2
700.651	11657.01
700.997	11609.78
701.342	11636.22
701.688	11590.8
702.033	11530.23
702.379	11466.05
702.724	11468.54
703.069	11412.04
703.415	11316.91
703.76	11332.72
704.105	11286.85
704.45	11295.44
704.795	11195.78
705.14	11199.85
705.485	11212.73
705.83	11073.97
706.175	11095.22
706.52	11063.58
706.865	10963.92
707.209	10995.78
707.554	10905.62
707.899	10830.82
708.243	10834.88
708.588	10824.72
708.932	10727.32
709.277	10777.71
709.621	10736.36
709.966	10680.09
710.31	10732.06
710.654	10614.55
710.998	10671.27
711.342	10577.04
711.687	10562.35
712.031	10530.03
712.375	10518.96
712.719	10502.92
713.063	10509.92
713.407	10554.89
713.75	10407.1
714.094	10481
714.438	10375.01
714.782	10415.46
715.125	10398.96
715.469	10367.33
715.812	10281.23
716.156	10281.68
716.499	10238.29
716.843	10306.76
717.186	10213.21
717.53	10298.63
717.873	10241.91
718.216	10186.54
718.559	10215.47
718.902	10094.57
719.246	10182.47
719.589	10147.22
719.932	10083.04
720.275	10089.82
720.617	9982.25
720.96	9986.77
721.303	10004.62
721.646	9970.27
721.989	9952.65
722.331	9988.58
722.674	9981.35
723.016	9957.62
723.359	9999.65
723.701	9965.08
724.044	9876.04
724.386	9873.33
724.729	9903.16
725.071	9878.75
725.413	9883.27
725.755	9868.13
726.097	9885.76
726.439	9850.96
726.782	9786.32
727.124	9898.86
727.465	9842.14
727.807	9833.33
728.149	9868.58
728.491	9734.8
728.833	9778.42
729.175	9787
729.516	9757.62
729.858	9776.61
730.199	9743.61
730.541	9785.87
730.882	9739.09
731.224	9772.77
731.565	9633.33
731.906	9651.41
732.248	9772.31
732.589	9598.31
732.93	9615.03
733.271	9683.05
733.612	9709.72
733.953	9667.23
734.294	9656.61
734.635	9622.26
734.976	9667.68
735.317	9609.15
735.658	9636.72
735.999	9683.95
736.339	9676.27
736.68	9692.09
737.021	9730.96
737.361	9694.58
737.702	9725.31
738.042	9666.33
738.383	9605.54
738.723	9767.12
739.063	9660.45
739.404	9720.34
739.744	9734.8
740.084	9742.71
740.424	9713.78
740.764	9712.88
741.104	9805.53
741.444	9834.01
741.784	9823.61
742.124	9783.84
742.464	9834.23
742.804	9837.4
743.143	9827
743.483	9888.02
743.823	9870.62
744.162	9874.68
744.502	9922.82
744.841	9874.68
745.181	10052.76
745.52	9939.09
745.86	10055.24
746.199	10050.95
746.538	10106.77
746.877	10137.05
747.216	10238.52
747.556	10171.4
747.895	10260.21
748.234	10244.84
748.573	10308.8
748.911	10379.3
749.25	10464.27
749.589	10449.36
749.928	10570.71
750.267	10577.49
750.605	10645.29
750.944	10747.2
751.283	10679.63
751.621	10884.83
751.96	10901.32
752.298	11043.24
752.636	11114.2
752.975	11163.01
753.313	11239.17
753.651	11377.24
753.989	11451.37
754.327	11537.69
754.666	11629.44
755.004	11801.64
755.342	11949.21
755.679	12081.41
756.017	12113.5
756.355	12310.78
756.693	12361.85
757.031	12556.87
757.368	12673.25
757.706	12864.44
