Data from hue_220_FLMS001491_00097.txt Node
Date: Tue Feb 07 16:40:12 GMT 2017
User: dcchb
Spectrometer: FLMS00149
Trigger mode: 0
Integration Time (sec): 2.000000E-2
Scans to average: 10
Electric dark correction enabled: true
Nonlinearity correction enabled: false
Boxcar width: 0
XAxis mode: Wavelengths
Number of Pixels in Spectrum: 2048
>>>>>Begin Spectral Data<<<<<
341.393	-21.2
341.776	-21.2
342.16	-21.2
342.543	-91.48
342.927	-73.18
343.31	-69.33
343.693	-59.17
344.077	-74.98
344.46	-48.54
344.843	-51.26
345.226	-49
345.61	-42.44
345.993	-4.48
346.376	-3.35
346.759	0.72
347.142	25.13
347.525	18.35
347.908	56.54
348.291	93.15
348.674	96.76
349.057	111.9
349.44	119.59
349.823	137.21
350.206	163.88
350.588	186.48
350.971	209.53
351.354	223.77
351.737	249.08
352.119	227.16
352.502	232.35
352.884	266.25
353.267	287.27
353.65	286.36
354.032	299.02
354.414	296.76
354.797	279.36
355.179	300.37
355.562	315.29
355.944	300.6
356.326	319.36
356.709	312.58
357.091	317.1
357.473	346.02
357.855	334.72
358.238	343.76
358.62	339.02
359.002	339.92
359.384	333.59
359.766	311.67
360.148	315.74
360.53	336.3
360.912	325.91
361.294	311.45
361.676	312.8
362.057	336.53
362.439	312.12
362.821	297.44
363.203	324.33
363.584	312.8
363.966	305.57
364.348	299.24
364.729	323.65
365.111	322.75
365.493	309.41
365.874	314.61
366.256	311.9
366.637	298.34
367.019	289.53
367.4	313.93
367.781	305.8
368.163	297.66
368.544	305.35
368.925	304.22
369.306	315.29
369.688	290.88
370.069	320.49
370.45	293.14
370.831	296.76
371.212	301.96
371.593	292.92
371.974	284.55
372.355	295.63
372.736	298.11
373.117	306.47
373.498	308.73
373.879	307.15
374.26	301.05
374.641	315.97
375.021	300.83
375.402	322.97
375.783	308.06
376.163	314.38
376.544	322.29
376.925	310.09
377.305	305.35
377.686	310.09
378.066	322.75
378.447	302.86
378.827	307.38
379.208	328.17
379.588	331.33
379.968	319.81
380.349	344.89
380.729	326.36
381.109	315.74
381.489	320.71
381.87	324.55
382.25	357.1
382.63	332.24
383.01	318.68
383.39	338.11
383.77	334.27
384.15	320.26
384.53	338.11
384.91	319.36
385.29	339.69
385.67	338.11
386.049	354.38
386.429	354.84
386.809	333.82
387.189	353.03
387.568	372.91
387.948	367.49
388.328	346.47
388.707	335.4
389.087	362.97
389.466	362.07
389.846	336.53
390.225	367.94
390.605	354.16
390.984	352.35
391.363	341.73
391.743	358.45
392.122	366.81
392.501	364.1
392.881	381.05
393.26	374.27
393.639	374.27
394.018	368.39
394.397	371.33
394.776	409.75
395.155	363.2
395.534	370.2
395.913	382.86
396.292	388.05
396.671	369.07
397.05	379.24
397.429	402.29
397.808	383.54
398.186	394.38
398.565	402.29
398.944	389.41
399.323	378.79
399.701	381.5
400.08	399.35
400.458	397.32
400.837	384.44
401.215	411.78
401.594	409.75
401.972	393.93
402.351	431.67
402.729	436.87
403.107	407.94
403.486	412.91
403.864	409.75
404.242	412.01
404.62	425.34
404.999	431.9
405.377	456.98
405.755	430.99
406.133	446.58
406.511	466.24
406.889	457.43
407.267	473.25
407.645	463.53
408.023	499.01
408.401	496.75
408.779	476.41
409.156	477.54
409.534	493.81
409.912	474.83
410.29	503.08
410.667	506.7
411.045	492.23
411.422	525.68
411.8	534.94
412.178	546.47
412.555	550.08
412.933	537.66
413.31	571.33
413.687	572
414.065	581.5
414.442	586.02
414.819	586.92
415.197	619.01
415.574	583.53
415.951	600.25
416.328	617.43
416.705	651.32
417.082	628.5
417.46	641.61
417.837	655.17
418.214	661.04
418.591	684.09
418.967	669.63
419.344	684.09
419.721	696.07
420.098	701.72
420.475	742.17
420.852	703.75
421.228	730.42
421.605	739.91
421.982	779.91
422.358	762.96
422.735	782.17
423.111	803.19
423.488	799.12
423.864	794.37
424.241	818.33
424.617	833.69
424.994	861.94
425.37	868.49
425.746	855.84
426.123	885.22
426.499	891.77
426.875	912.11
427.251	927.48
427.627	943.29
428.003	932.67
428.379	964.99
428.756	963.41
429.132	974.93
429.507	991.43
429.883	1009.73
430.259	1014.03
430.635	1009.28
431.011	1018.55
431.387	1054.25
431.763	1091.54
432.138	1089.28
432.514	1098.09
432.89	1087.25
433.265	1160.46
433.641	1153.01
434.016	1200.01
434.392	1196.17
434.767	1219.22
435.143	1249.05
435.518	1248.15
435.894	1231.2
436.269	1298.77
436.644	1301.25
437.02	1316.39
437.395	1339.44
437.77	1339.89
438.145	1401.36
438.52	1395.03
438.895	1424.41
439.271	1433
439.646	1476.16
440.021	1492.88
440.395	1519.32
440.77	1505.99
441.145	1521.58
441.52	1552.32
441.895	1568.59
442.27	1602.94
442.645	1585.09
443.019	1624.18
443.394	1653.11
443.769	1648.36
444.143	1644.97
444.518	1686.78
444.892	1709.15
445.267	1705.53
445.641	1734.23
446.016	1747.57
446.39	1755.48
446.764	1754.12
447.139	1755.48
447.513	1796.61
447.887	1790.5
448.262	1778.3
448.636	1826.44
449.01	1831.86
449.384	1874.12
449.758	1871.63
450.132	1879.09
450.506	1915.92
450.88	1905.3
451.254	1887.9
451.628	1897.39
452.002	1965.19
452.376	1944.4
452.75	1991.18
453.123	1975.81
453.497	2041.57
453.871	2037.5
454.244	2048.8
454.618	2078.86
454.992	2112.08
455.365	2127.67
455.739	2159.99
456.112	2195.92
456.486	2213.54
456.859	2224.62
457.232	2247.44
457.606	2223.71
457.979	2274.78
458.352	2331.96
458.725	2359.08
459.099	2359.08
459.472	2399.75
459.845	2416.25
460.218	2449.02
460.591	2419.87
460.964	2452.18
461.337	2511.84
461.71	2544.61
462.083	2580.09
462.456	2595.45
462.829	2570.6
463.201	2626.41
463.574	2629.8
463.947	2695.79
464.32	2743.7
464.692	2725.39
465.065	2762.91
465.438	2801.78
465.81	2833.64
466.183	2815.34
466.555	2925.16
466.928	2947.99
467.3	2959.74
467.672	2957.25
468.045	3072.28
468.417	3011.04
468.789	3051.49
469.161	3083.13
469.534	3170.13
469.906	3193.18
470.278	3226.62
470.65	3197.7
471.022	3309.11
471.394	3332.16
471.766	3374.42
472.138	3404.25
472.51	3495.32
472.882	3547.29
473.253	3542.77
473.625	3574.86
473.997	3681.98
474.369	3712.94
474.74	3731.02
475.112	3782.54
475.484	3787.74
475.855	3879.71
476.227	3887.4
476.598	3993.38
476.97	4026.38
477.341	4062.76
477.713	4148.18
478.084	4174.17
478.455	4257.78
478.827	4297.78
479.198	4413.26
479.569	4426.37
479.94	4540.49
480.311	4519.47
480.682	4613.25
481.053	4681.28
481.424	4755.4
481.795	4794.94
482.166	4843.76
482.537	4952
482.908	5031.55
483.279	5051.43
483.65	5088.04
484.021	5192.22
484.391	5216.18
484.762	5247.36
485.133	5328.49
485.503	5368.04
485.874	5431.99
486.244	5495.49
486.615	5587.01
486.985	5625.21
487.356	5708.37
487.726	5808.7
488.097	5870.62
488.467	5843.96
488.837	5997.4
489.207	6066.1
489.578	6130.95
489.948	6113.78
490.318	6146.55
490.688	6250.27
491.058	6309.71
491.428	6332.76
491.798	6381.8
492.168	6533.43
492.538	6522.13
492.908	6556.93
493.278	6731.84
493.648	6644.39
494.017	6714.67
494.387	6774.33
494.757	6830.37
495.126	6890.48
495.496	6897.94
495.866	6890.03
496.235	6955.34
496.605	7063.36
496.974	7070.82
497.344	7119.18
497.713	7093.19
498.082	7123.24
498.452	7225.16
498.821	7254.09
499.19	7325.27
499.559	7366.63
499.928	7348.1
500.298	7334.54
500.667	7457.02
501.036	7386.74
501.405	7494.53
501.774	7460.86
502.143	7532.5
502.512	7516.23
502.88	7572.5
503.249	7528.43
503.618	7634.87
503.987	7588.09
504.356	7688.65
504.724	7618.83
505.093	7655.89
505.462	7746.05
505.83	7749.44
506.199	7794.64
506.567	7890.23
506.936	7891.81
507.304	7953.73
507.672	7875.09
508.041	7899.04
508.409	7935.43
508.777	7967.29
509.145	8013.62
509.514	8021.98
509.882	8068.3
510.25	7967.97
510.618	8048.19
510.986	8019.27
511.354	8145.82
511.722	8157.34
512.09	8223.78
512.458	8118.02
512.826	8197.57
513.193	8182.43
513.561	8155.31
513.929	8271.46
514.297	8238.92
514.664	8252.93
515.032	8302.65
515.4	8290.9
515.767	8314.63
516.135	8298.13
516.502	8209.77
516.869	8375.42
517.237	8365.25
517.604	8265.81
517.972	8366.15
518.339	8353.72
518.706	8310.33
519.073	8390.1
519.44	8387.39
519.808	8482.76
520.175	8396.43
520.542	8442.98
520.909	8449.54
521.276	8452.48
521.643	8460.16
522.009	8461.06
522.376	8438.69
522.743	8563.43
523.11	8551.23
523.477	8588.74
523.843	8534.28
524.21	8574.28
524.577	8653.15
524.943	8657.67
525.31	8672.58
525.676	8665.13
526.043	8696.99
526.409	8624.22
526.776	8719.59
527.142	8676.42
527.508	8702.86
527.874	8734.95
528.241	8776.76
528.607	8718.01
528.973	8703.32
529.339	8675.07
529.705	8723.43
530.071	8721.39
530.437	8786.93
530.803	8798.68
531.169	8738.12
531.535	8733.37
531.901	8713.71
532.267	8713.03
532.632	8738.12
532.998	8743.77
533.364	8739.93
533.73	8725.01
534.095	8732.02
534.461	8747.38
534.826	8718.68
535.192	8711
535.557	8713.49
535.923	8646.14
536.288	8651.57
536.653	8655.41
537.019	8658.8
537.384	8612.25
537.749	8543.55
538.114	8569.31
538.479	8635.07
538.845	8574.51
539.21	8572.47
539.575	8567.73
539.94	8513.26
540.305	8547.39
540.67	8504.45
541.034	8517.56
541.399	8499.93
541.764	8440.95
542.129	8460.38
542.494	8469.65
542.858	8424.68
543.223	8388.3
543.587	8473.49
543.952	8382.87
544.316	8372.93
544.681	8327.73
545.045	8369.54
545.41	8386.26
545.774	8363.44
546.138	8271.01
546.503	8304.68
546.867	8283.89
547.231	8278.69
547.595	8236.66
547.959	8214.74
548.324	8108.08
548.688	8178.36
549.052	8180.39
549.416	8209.09
549.779	8132.03
550.143	8106.72
550.507	8144.91
550.871	8114.18
551.235	8113.95
551.599	8080.06
551.962	8082.77
552.326	8081.64
552.689	8096.78
553.053	7979.27
553.417	7971.58
553.78	8023.33
554.143	7987.18
554.507	7995.54
554.87	7979.95
555.234	8019.27
555.597	7992.83
555.96	7955.99
556.323	7971.58
556.686	7910.34
557.05	7978.59
557.413	7951.7
557.776	7967.06
558.139	7929.78
558.502	7983.56
558.865	7939.49
559.228	7906.28
559.59	7907.86
559.953	7939.04
560.316	7958.93
560.679	7966.39
561.041	7955.54
561.404	7990.11
561.767	8027.18
562.129	7949.89
562.492	7977.69
562.854	7991.24
563.217	7981.3
563.579	7993.05
563.941	8062.2
564.304	7991.47
564.666	8068.76
565.028	8067.63
565.39	8062.66
565.753	8060.62
566.115	8072.15
566.477	8119.83
566.839	8113.28
567.201	8142.2
567.563	8098.59
567.925	8241.18
568.287	8185.82
568.648	8226.94
569.01	8159.15
569.372	8241.63
569.734	8263.1
570.095	8252.25
570.457	8219.71
570.819	8268.07
571.18	8308.3
571.542	8253.38
571.903	8258.36
572.265	8226.94
572.626	8291.58
572.987	8347.85
573.349	8317.34
573.71	8307.17
574.071	8405.25
574.432	8374.74
574.794	8399.14
575.155	8379.03
575.516	8422.42
575.877	8441.85
576.238	8470.55
576.599	8483.89
576.96	8428.07
577.32	8459.71
577.681	8515.07
578.042	8588.74
578.403	8551
578.763	8575.64
579.124	8541.29
579.485	8595.75
579.845	8610.66
580.206	8613.6
580.566	8656.31
580.927	8596.43
581.287	8660.15
581.648	8645.46
582.008	8687.72
582.368	8643.43
582.728	8712.81
583.089	8725.24
583.449	8702.86
583.809	8744.9
584.169	8790.55
584.529	8691.34
584.889	8841.17
585.249	8782.18
585.609	8792.13
585.969	8756.65
586.329	8815.18
586.688	8866.25
587.048	8863.09
587.408	8806.59
587.768	8858.34
588.127	8869.41
588.487	8851.79
588.846	8933.82
589.206	8907.83
589.565	8894.27
589.925	8914.61
590.284	8951.67
590.643	8985.12
591.003	8970.2
591.362	9037.77
591.721	8993.7
592.08	8998.9
592.44	9014.27
592.799	9031.22
593.158	9013.36
593.517	8981.05
593.876	9090.42
594.235	9089.52
594.593	9019.92
594.952	9082.52
595.311	9133.36
595.67	9110.54
596.029	9089.52
596.387	9209.74
596.746	9132.46
597.104	9132.01
597.463	9098.11
597.822	9161.61
598.18	9138.79
598.538	9161.84
598.897	9167.26
599.255	9070.31
599.613	9279.35
599.972	9153.93
600.33	9175.39
600.688	9166.36
601.046	9193.92
601.404	9208.61
601.762	9174.94
602.12	9237.09
602.478	9228.73
602.836	9228.5
603.194	9181.27
603.552	9209.52
603.91	9275.05
604.268	9240.93
604.625	9187.37
604.983	9211.1
605.341	9209.74
605.698	9274.15
606.056	9253.58
606.413	9193.02
606.771	9287.71
607.128	9300.81
607.485	9275.28
607.843	9237.99
608.2	9270.08
608.557	9348.05
608.914	9308.5
609.272	9306.24
609.629	9386.46
609.986	9441.83
610.343	9356.86
610.7	9479.79
611.057	9353.24
611.414	9380.81
611.771	9391.89
612.127	9430.3
612.484	9370.19
612.841	9422.85
613.198	9400.02
613.554	9411.32
613.911	9490.41
614.267	9434.37
614.624	9446.12
614.98	9506.01
615.337	9517.53
615.693	9484.99
616.05	9458.78
616.406	9578.55
616.762	9443.41
617.118	9484.99
617.475	9518.44
617.831	9599.34
618.187	9558.21
618.543	9568.38
618.899	9635.95
619.255	9573.58
619.611	9557.53
619.967	9614.48
620.323	9639.79
620.678	9556.18
621.034	9561.37
621.39	9572.67
621.746	9558.89
622.101	9634.59
622.457	9546.01
622.812	9656.06
623.168	9611.54
623.523	9629.62
623.879	9672.33
624.234	9561.37
624.589	9604.31
624.945	9613.35
625.3	9616.51
625.655	9595.27
626.01	9601.6
626.365	9554.37
626.72	9544.65
627.075	9654.03
627.43	9567.7
627.785	9563.41
628.14	9603.18
628.495	9593.46
628.85	9565.21
629.205	9512.79
629.559	9545.55
629.914	9540.58
630.269	9542.39
630.623	9494.93
630.978	9440.25
631.332	9555.05
631.687	9541.49
632.041	9521.6
632.396	9517.08
632.75	9447.25
633.104	9522.5
633.459	9394.15
633.813	9488.15
634.167	9456.74
634.521	9412.68
634.875	9381.94
635.229	9397.99
635.583	9411.55
635.937	9331.1
636.291	9400.47
636.645	9378.33
636.999	9369.29
637.352	9342.17
637.706	9263.75
638.06	9328.84
638.413	9289.74
638.767	9312.34
639.121	9329.06
639.474	9241.83
639.828	9247.71
640.181	9281.15
640.534	9253.81
640.888	9289.29
641.241	9175.85
641.594	9175.17
641.947	9195.96
642.301	9233.7
642.654	9246.35
643.007	9221.49
643.36	9229.86
643.713	9214.49
644.066	9208.16
644.419	9126.81
644.771	9108.28
645.124	9044.78
645.477	9016.53
645.83	8950.99
646.182	8872.13
646.535	8912.58
646.888	8864.22
647.24	8826.93
647.593	8867.15
647.945	8857.66
648.298	8850.21
648.65	8795.74
649.002	8782.18
649.355	8845.91
649.707	8917.55
650.059	8888.85
650.411	9005.68
650.763	8982.18
651.115	9099.24
651.467	9098.33
651.819	9018.34
652.171	9099.92
652.523	9046.58
652.875	9048.62
653.227	9001.39
653.578	9069.18
653.93	9018.56
654.282	9012.69
654.633	8956.64
654.985	9022.18
655.337	9035.51
655.688	9054.49
656.039	9030.09
656.391	9018.11
656.742	9021.27
657.094	9063.08
657.445	9045
657.796	9019.01
658.147	9030.99
658.498	9036.19
658.849	8989.86
659.2	9034.38
659.551	8993.7
659.902	9031.44
660.253	9075.28
660.604	9065.57
660.955	9019.92
661.306	9080.03
661.656	9030.09
662.007	9060.6
662.358	9030.31
662.708	9073.7
663.059	9127.71
663.409	9030.54
663.76	9058.11
664.11	9102.85
664.461	9078.9
664.811	9137.43
665.161	9117.32
665.511	9119.8
665.862	9099.01
666.212	9127.26
666.562	9097.88
666.912	9041.39
667.262	9140.14
667.612	9084.1
667.962	9030.99
668.312	9121.16
668.662	9115.06
669.011	9086.58
669.361	9055.4
669.711	9037.54
670.06	9054.72
670.41	9107.37
670.76	9006.59
671.109	9016.08
671.459	9027.83
671.808	9034.83
672.157	9020.37
672.507	8951.45
672.856	8968.85
673.205	8973.59
673.554	9044.78
673.904	8958.9
674.253	8988.96
674.602	9016.53
674.951	8854.72
675.3	8821.28
675.649	8965.23
675.998	8921.84
676.346	8977.66
676.695	9012.23
677.044	8933.82
677.393	8928.85
677.741	9002.97
678.09	8870.32
678.438	8881.39
678.787	8913.48
679.135	8913.25
679.484	8815.4
679.832	8828.51
680.181	8799.81
680.529	8763.65
680.877	8757.55
681.225	8778.79
681.573	8797.55
681.922	8709.87
682.27	8734.5
682.618	8727.27
682.966	8704.45
683.314	8721.85
683.661	8674.39
684.009	8655.63
684.357	8595.52
684.705	8652.24
685.053	8567.5
685.4	8585.35
685.748	8531.57
686.095	8510.1
686.443	8517.33
686.79	8447.73
687.138	8490.21
687.485	8456.77
687.832	8466.71
688.18	8461.97
688.527	8403.89
688.874	8330.9
689.221	8365.02
689.568	8352.14
689.915	8377.68
690.262	8315.53
690.609	8261.07
690.956	8231.69
691.303	8219.04
691.65	8172.03
691.997	8197.57
692.344	8141.75
692.69	8116.89
693.037	8122.09
693.383	8047.74
693.73	8089.32
694.077	8003.67
694.423	7987.85
694.769	7969.1
695.116	7952.83
695.462	7929.78
695.808	7838.71
696.155	7882.77
696.501	7832.83
696.847	7794.41
697.193	7743.34
697.539	7837.35
697.885	7732.95
698.231	7680.97
698.577	7652.72
698.923	7621.76
699.269	7578.15
699.614	7572.05
699.96	7517.13
700.306	7511.26
700.651	7468.77
700.997	7450.69
701.342	7418.15
701.688	7427.19
702.033	7393.52
702.379	7322.34
702.724	7309.91
703.069	7369.11
703.415	7341.09
703.76	7291.15
704.105	7278.27
704.45	7236.46
704.795	7195.56
705.14	7166.86
705.485	7152.85
705.83	7092.74
706.175	7110.59
706.52	7116.24
706.865	7134.09
707.209	7012.97
707.554	7121.44
707.899	7064.26
708.243	7029.24
708.588	6935.91
708.932	6921.44
709.277	7002.34
709.621	6920.31
709.966	6904.72
710.31	6910.37
710.654	6884.38
710.998	6873.76
711.342	6820.88
711.687	6798.96
712.031	6785.17
712.375	6785.17
712.719	6833.99
713.063	6730.71
713.407	6774.78
713.75	6682.58
714.094	6690.49
714.438	6744.5
714.782	6728
715.125	6670.83
715.469	6672.18
715.812	6642.58
716.156	6598.96
716.499	6574.33
716.843	6576.82
717.186	6537.05
717.53	6659.3
717.873	6623.37
718.216	6561
718.559	6500.44
718.902	6530.49
719.246	6560.77
719.589	6535.92
719.932	6480.32
720.275	6512.64
720.617	6511.28
720.96	6499.31
721.303	6494.79
721.646	6497.5
721.989	6500.66
722.331	6499.53
722.674	6463.83
723.016	6473.09
723.359	6411.63
723.701	6443.71
724.044	6405.98
724.386	6404.17
724.729	6455.01
725.071	6402.13
725.413	6447.33
725.755	6416.14
726.097	6389.25
726.439	6352.19
726.782	6372.98
727.124	6420.44
727.465	6324.85
727.807	6343.6
728.149	6355.81
728.491	6382.7
728.833	6366.65
729.175	6351.29
729.516	6295.47
729.858	6319.65
730.199	6339.99
730.541	6329.82
730.882	6340.89
731.224	6368.01
731.565	6264.51
731.906	6336.37
732.248	6356.49
732.589	6298.86
732.93	6288.92
733.271	6285.07
733.612	6326.43
733.953	6302.93
734.294	6295.24
734.635	6310.38
734.976	6322.36
735.317	6310.84
735.658	6314.9
735.999	6321.68
736.339	6390.38
736.68	6346.54
737.021	6309.93
737.361	6305.41
737.702	6384.51
738.042	6308.13
738.383	6307.22
738.723	6367.78
739.063	6395.58
739.404	6382.7
739.744	6389.25
740.084	6364.62
740.424	6429.7
740.764	6358.29
741.104	6410.27
741.444	6408.91
741.784	6434
742.124	6421.79
742.464	6486.65
742.804	6473.32
743.143	6500.21
743.483	6472.87
743.823	6428.35
744.162	6520.55
744.502	6577.5
744.841	6536.82
745.181	6644.84
745.52	6597.38
745.86	6679.19
746.199	6680.54
746.538	6700.21
746.877	6812.52
747.216	6857.94
747.556	6872.4
747.895	6923.7
748.234	6906.75
748.573	6936.81
748.911	7004.15
749.25	7077.14
749.589	7064.49
749.928	7193.53
750.267	7228.78
750.605	7303.58
750.944	7309
751.283	7429.23
751.621	7514.42
751.96	7478.94
752.298	7584.02
752.636	7706.51
752.975	7800.06
753.313	7887.29
753.651	8035.09
753.989	8086.38
754.327	8123.67
754.666	8244.12
755.004	8327.96
755.342	8567.5
755.679	8617.22
756.017	8710.55
756.355	8810.66
756.693	8936.3
757.031	9104.66
757.368	9191.21
757.706	9316.63
758.044	9414.03
758.381	9616.29
758.719	9746.45
759.056	9934.02
759.394	10087.91
759.731	10109.83
760.068	10313.44
760.405	10416.27
760.743	10612.64
761.08	10795.24
761.417	10929.7
761.754	11140.54
762.091	11325.62
762.428	11418.73
762.765	11517.03
763.102	11778.04
763.438	11860.75
763.775	12012.38
764.112	12266.39
764.449	12427.74
764.785	12582.76
765.122	12748.86
765.458	12794.06
765.795	13005.12
766.131	13143.2
766.467	13199.92
766.804	13389.29
767.14	13662.51
767.476	13701.6
767.812	13904.54
768.148	14085.77
768.485	14074.7
768.821	14178.2
