Data from hue_350_FLMS001491_75.txt Node
Date: Mon Feb 06 15:38:30 GMT 2017
User: dcchb
Spectrometer: FLMS00149
Trigger mode: 0
Integration Time (sec): 2.000000E-2
Scans to average: 10
Electric dark correction enabled: true
Nonlinearity correction enabled: false
Boxcar width: 0
XAxis mode: Wavelengths
Number of Pixels in Spectrum: 2048
>>>>>Begin Spectral Data<<<<<
341.393	-19.66
341.776	-19.66
342.16	-19.66
342.543	-64.41
342.927	-80.45
343.31	-75.93
343.693	-66.89
344.077	-55.14
344.46	-75.7
344.843	-54.69
345.226	-52.65
345.61	-43.61
345.993	-19.66
346.376	-6.1
346.759	0.23
347.142	18.53
347.525	59.66
347.908	41.13
348.291	105.08
348.674	106.44
349.057	119.32
349.44	117.51
349.823	127
350.206	169.49
350.588	195.02
350.971	197.51
351.354	211.97
351.737	230.28
352.119	244.29
352.502	284.29
352.884	267.79
353.267	271.18
353.65	309.37
354.032	287.45
354.414	328.35
354.797	310.05
355.179	299.2
355.562	318.41
355.944	307.56
356.326	318.86
356.709	346.43
357.091	327
357.473	320.9
357.855	323.83
358.238	348.69
358.62	313.66
359.002	334.23
359.384	329.93
359.766	323.16
360.148	350.73
360.53	320.22
360.912	339.43
361.294	337.62
361.676	309.37
362.057	330.16
362.439	312.53
362.821	309.82
363.203	328.8
363.584	340.78
363.966	324.51
364.348	301.24
364.729	318.86
365.111	309.6
365.493	301.01
365.874	317.05
366.256	309.14
366.637	309.6
367.019	303.72
367.4	308.69
367.781	300.33
368.163	318.64
368.544	307.11
368.925	313.44
369.306	313.66
369.688	312.31
370.069	304.17
370.45	298.52
370.831	310.73
371.212	297.85
371.593	296.49
371.974	302.59
372.355	298.07
372.736	292.42
373.117	297.17
373.498	315.47
373.879	307.56
374.26	312.31
374.641	322.25
375.021	339.43
375.402	315.7
375.783	316.38
376.163	327
376.544	317.73
376.925	334.68
377.305	327.22
377.686	326.32
378.066	310.73
378.447	344.17
378.827	334.68
379.208	335.13
379.588	328.58
379.968	327
380.349	334.45
380.729	341.91
381.109	340.33
381.489	325.42
381.87	331.52
382.25	330.16
382.63	318.41
383.01	343.95
383.39	348.69
383.77	334.23
384.15	332.65
384.53	344.17
384.91	328.8
385.29	329.71
385.67	334.23
386.049	338.97
386.429	335.36
386.809	326.09
387.189	358.63
387.568	333.55
387.948	334.23
388.328	350.27
388.707	357.73
389.087	340.56
389.466	346.43
389.846	360.67
390.225	359.76
390.605	346.88
390.984	343.27
391.363	364.06
391.743	378.3
392.122	365.64
392.501	336.71
392.881	360.22
393.26	355.7
393.639	352.76
394.018	361.12
394.397	362.7
394.776	380.78
395.155	365.19
395.534	369.93
395.913	368.35
396.292	369.71
396.671	374.45
397.05	370.39
397.429	368.35
397.808	371.29
398.186	365.87
398.565	376.71
398.944	374.68
399.323	379.43
399.701	384.4
400.08	382.59
400.458	377.62
400.837	387.11
401.215	395.92
401.594	390.5
401.972	384.4
402.351	393.21
402.729	371.74
403.107	372.42
403.486	395.02
403.864	390.95
404.242	401.12
404.62	398.18
404.999	389.14
405.377	396.15
405.755	401.35
406.133	411.29
406.511	408.58
406.889	404.28
407.267	430.5
407.645	425.75
408.023	406.32
408.401	428.24
408.779	411.74
409.156	417.16
409.534	426.43
409.912	412.87
410.29	435.69
410.667	428.46
411.045	437.73
411.422	422.81
411.8	461.91
412.178	432.76
412.555	452.64
412.933	443.83
413.31	460.1
413.687	446.09
414.065	465.07
414.442	475.92
414.819	484.28
415.197	466.2
415.574	482.02
415.951	489.93
416.328	464.85
416.705	477.73
417.082	456.94
417.46	494.9
417.837	499.42
418.214	489.7
418.591	484.96
418.967	493.77
419.344	477.73
419.721	494.22
420.098	510.72
420.475	500.33
420.852	531.96
421.228	528.35
421.605	516.37
421.982	510.95
422.358	504.85
422.735	508.91
423.111	521.34
423.488	511.4
423.864	550.72
424.241	530.83
424.617	527.44
424.994	535.35
425.37	542.36
425.746	529.93
426.123	541.45
426.499	552.53
426.875	571.28
427.251	559.76
427.627	570.61
428.003	609.48
428.379	576.93
428.756	549.59
429.132	590.94
429.507	595.69
429.883	602.24
430.259	614
430.635	620.1
431.011	613.54
431.387	594.33
431.763	627.1
432.138	615.8
432.514	644.05
432.89	629.36
433.265	637.72
433.641	648.34
434.016	654.67
434.392	665.52
434.767	656.48
435.143	649.7
435.518	653.77
435.894	668.01
436.269	680.43
436.644	685.18
437.02	691.28
437.395	681.56
437.77	684.5
438.145	698.06
438.52	707.33
438.895	727.21
439.271	704.16
439.646	731.05
440.021	721.11
440.395	714.56
440.77	718.17
441.145	754.33
441.52	739.64
441.895	750.49
442.27	748.45
442.645	742.35
443.019	753.88
443.394	757.49
443.769	772.41
444.143	772.64
444.518	771.96
444.892	764.5
445.267	765.4
445.641	786.19
446.016	792.97
446.39	785.52
446.764	796.82
447.139	786.19
447.513	781.67
447.887	808.79
448.262	792.52
448.636	805.4
449.01	801.56
449.384	814.67
449.758	794.33
450.132	835.46
450.506	846.53
450.88	853.76
451.254	838.62
451.628	856.02
452.002	862.12
452.376	845.85
452.75	861.45
453.123	874.78
453.497	860.54
453.871	878.85
454.244	900.77
454.618	925.4
454.992	901.45
455.365	890.37
455.739	904.16
456.112	939.41
456.486	919.3
456.859	976.92
457.232	954.1
457.606	967.21
457.979	939.86
458.352	952.74
458.725	958.84
459.099	980.09
459.472	984.38
459.845	992.97
460.218	1010.82
460.591	1006.53
460.964	1026.41
461.337	1027.77
461.71	1039.29
462.083	1042.46
462.456	1060.09
462.829	1053.76
463.201	1071.61
463.574	1068.45
463.947	1100.99
464.32	1123.59
464.692	1107.32
465.065	1131.72
465.438	1145.51
465.81	1166.07
466.183	1187.77
466.555	1197.26
466.928	1206.52
467.3	1195.45
467.672	1203.13
468.045	1244.94
468.417	1265.5
468.789	1246.07
469.161	1236.13
469.534	1275.22
469.906	1306.41
470.278	1282.45
470.65	1322.23
471.022	1354.99
471.394	1355.22
471.766	1371.94
472.138	1413.97
472.51	1388.44
472.882	1448.1
473.253	1449
473.625	1495.33
473.997	1483.8
474.369	1502.79
474.74	1523.35
475.112	1560.86
475.484	1544.82
475.855	1585.95
476.227	1641.09
476.598	1667.3
476.97	1694.42
477.341	1729.45
477.713	1701.88
478.084	1728.99
478.455	1774.64
478.827	1798.37
479.198	1856.45
479.569	1821.87
479.94	1912.72
480.311	1895.77
480.682	1957.24
481.053	1957.69
481.424	2026.84
481.795	2052.15
482.166	2073.17
482.537	2107.97
482.908	2139.6
483.279	2165.59
483.65	2188.87
484.021	2243.78
484.391	2259.15
484.762	2328.98
485.133	2288.75
485.503	2328.75
485.874	2402.42
486.244	2425.92
486.615	2461.4
486.985	2523.1
487.356	2534.17
487.726	2584.11
488.097	2606.03
488.467	2633.15
488.837	2684.45
489.207	2696.65
489.578	2731.68
489.948	2775.07
490.318	2791.11
490.688	2833.6
491.058	2886.48
491.428	2935.74
491.798	2952.24
492.168	3041.5
492.538	3001.95
492.908	3011.9
493.278	3103.42
493.648	3106.81
494.017	3159.46
494.387	3130.99
494.757	3206.92
495.126	3203.53
495.496	3219.58
495.866	3258.9
496.235	3319.46
496.605	3296.64
496.974	3346.35
497.344	3366.47
497.713	3394.26
498.082	3423.86
498.452	3471.55
498.821	3455.05
499.19	3452.79
499.559	3501.38
499.928	3527.36
500.298	3532.56
500.667	3559.91
501.036	3573.24
501.405	3576.86
501.774	3597.65
502.143	3654.82
502.512	3657.76
502.88	3713.12
503.249	3661.6
503.618	3684.42
503.987	3730.52
504.356	3743.86
504.724	3780.01
505.093	3765.55
505.462	3778.88
505.83	3799.22
506.199	3836.51
506.567	3900.24
506.936	3908.82
507.304	3902.27
507.672	3909.95
508.041	3915.38
508.409	3968.94
508.777	4015.94
509.145	4018.2
509.514	4012.55
509.882	4029.95
510.25	4032.21
510.618	4060.46
510.986	4095.49
511.354	4092.55
511.722	4141.36
512.09	4098.2
512.458	4125.99
512.826	4207.12
513.193	4178.2
513.561	4194.92
513.929	4210.74
514.297	4278.76
514.664	4248.7
515.032	4241.47
515.4	4278.08
515.767	4277.63
516.135	4328.25
516.502	4267.23
516.869	4344.07
517.237	4355.82
517.604	4338.19
517.972	4407.12
518.339	4385.42
518.706	4424.29
519.073	4420.22
519.44	4441.69
519.808	4477.62
520.175	4398.08
520.542	4521.46
520.909	4503.61
521.276	4557.17
521.643	4537.06
522.009	4516.49
522.376	4586.32
522.743	4634
523.11	4572.08
523.477	4635.58
523.843	4650.73
524.21	4704.96
524.577	4772.3
524.943	4711.74
525.31	4802.59
525.676	4811.17
526.043	4798.29
526.409	4858.4
526.776	4885.97
527.142	4857.27
527.508	4904.05
527.874	4898.85
528.241	4958.97
528.607	4986.31
528.973	5011.17
529.339	5029.02
529.705	5032.86
530.071	5057.72
530.437	5119.64
530.803	5119.64
531.169	5160.09
531.535	5139.75
531.901	5192.63
532.267	5218.85
532.632	5248.45
532.998	5229.24
533.364	5239.64
533.73	5301.1
534.095	5325.74
534.461	5323.02
534.826	5368.22
535.192	5408.9
535.557	5424.94
535.923	5415.22
536.288	5455.68
536.653	5481.89
537.019	5469.46
537.384	5547.42
537.749	5538.39
538.114	5589.46
538.479	5533.19
538.845	5584.03
539.21	5579.29
539.575	5631.26
539.94	5672.39
540.305	5663.13
540.67	5709
541.034	5757.14
541.399	5690.7
541.764	5729.79
542.129	5756.46
542.494	5826.97
542.858	5776.35
543.223	5801.88
543.587	5861.31
543.952	5896.34
544.316	5922.33
544.681	5923.01
545.045	5927.08
545.41	5948.77
545.774	6005.72
546.138	6004.59
546.503	6002.78
546.867	6041.88
547.231	6104.02
547.595	6111.93
547.959	6118.03
548.324	6151.93
548.688	6123.68
549.052	6185.37
549.416	6176.56
549.779	6196.45
550.143	6181.31
550.507	6299.72
550.871	6293.17
551.235	6272.6
551.599	6313.05
551.962	6346.27
552.326	6371.13
552.689	6399.61
553.053	6416.55
553.417	6424.01
553.78	6448.64
554.143	6438.47
554.507	6497.68
554.87	6549.88
555.234	6602.76
555.597	6565.48
555.96	6522.09
556.323	6620.39
556.686	6599.15
557.05	6677.79
557.413	6679.82
557.776	6694.97
558.139	6689.99
558.502	6746.72
558.865	6680.5
559.228	6797.56
559.59	6794.17
559.953	6771.57
560.316	6839.59
560.679	6839.82
561.041	6875.07
561.404	6904.68
561.767	6944.68
562.129	6895.86
562.492	6965.24
562.854	6976.54
563.217	7005.69
563.579	7075.52
563.941	7071.23
564.304	7082.75
564.666	7130.89
565.028	7094.28
565.39	7162.98
565.753	7160.04
566.115	7184.44
566.477	7238.23
566.839	7321.84
567.201	7338.56
567.563	7334.5
567.925	7437.77
568.287	7309.64
568.648	7390.99
569.01	7446.58
569.372	7453.82
569.734	7472.35
570.095	7498.11
570.457	7585.79
570.819	7573.81
571.18	7597.09
571.542	7617.43
571.903	7780.36
572.265	7730.19
572.626	7789.4
572.987	7794.6
573.349	7840.92
573.71	7913.24
574.071	7947.14
574.432	7912.33
574.794	8058.09
575.155	8063.52
575.516	8098.77
575.877	8129.28
576.238	8207.69
576.599	8308.93
576.96	8339.44
577.32	8456.73
577.681	8505.09
578.042	8629.38
578.403	8631.19
578.763	8738.53
579.124	8829.6
579.485	8931.29
579.845	9003.61
580.206	9054.9
580.566	9134.45
580.927	9255.58
581.287	9385.97
581.648	9466.87
582.008	9672.74
582.368	9720.42
582.728	9815.56
583.089	10033.41
583.449	10086.29
583.809	10237.7
584.169	10457.58
584.529	10531.7
584.889	10779.38
585.249	10916.78
585.609	11029.31
585.969	11253.72
586.329	11389.98
586.688	11653.7
587.048	11813.47
587.408	11980.25
587.768	12193.8
588.127	12423.4
588.487	12601.02
588.846	12911.52
589.206	13022.26
589.565	13294.79
589.925	13631.28
590.284	13748.79
590.643	14032.85
591.003	14288.44
591.362	14641.65
591.721	14744.02
592.08	14982.88
592.44	15318.69
592.799	15572.25
593.158	15840.04
593.517	16111.21
593.876	16370.42
594.235	16597.98
594.593	16980.12
594.952	17359.32
595.311	17491.52
595.67	17726.99
596.029	18161.1
596.387	18469.8
596.746	18778.26
597.104	18940.97
597.463	19292.6
597.822	19570.78
598.18	19798.58
598.538	19975.07
598.897	20499.35
599.255	20497.77
599.613	21109.73
599.972	21169.84
600.33	21500.45
600.688	21759.2
601.046	22036.71
601.404	22414.55
601.762	22629.91
602.12	23004.59
602.478	23345.15
602.836	23468.31
603.194	23708.3
603.552	24036.2
603.91	24192.81
604.268	24579.47
604.625	24710.76
604.983	25084.31
605.341	25269.62
605.698	25567.01
606.056	25840.9
606.413	26002.03
606.771	26228.24
607.128	26707.09
607.485	26759.3
607.843	26995.22
608.2	27348.21
608.557	27602.89
608.914	27694.64
609.272	28079.94
609.629	28228.64
609.986	28564.9
610.343	28635.63
610.7	29125.11
611.057	29179.35
611.414	29366.46
611.771	29511.09
612.127	29822.27
612.484	30001.25
612.841	30276.49
613.198	30236.04
613.554	30480.78
613.911	30936.14
614.267	31038.05
614.624	31172.51
614.98	31375.22
615.337	31621.09
615.693	31786.28
616.05	31832.61
616.406	32083
616.762	32143.56
617.118	32269.43
617.475	32422.42
617.831	32710.33
618.187	32808.85
618.543	32937.67
618.899	33335.39
619.255	33343.3
619.611	33469.85
619.967	33579.91
620.323	33736.74
620.678	33800.47
621.034	33944.19
621.39	33944.87
621.746	33948.26
622.101	34470.73
622.457	34238.42
622.812	34574.68
623.168	34593.44
623.523	34672.08
623.879	34878.18
624.234	34771.97
624.589	34940.78
624.945	35205.18
625.3	35232.52
625.655	35304.38
626.01	35380.09
626.365	35392.52
626.72	35388.9
627.075	35586.18
627.43	35607.88
627.785	35639.29
628.14	35846.52
628.495	35877.7
628.85	35892.39
629.205	35832.5
629.559	36127.86
629.914	36039.73
630.269	36112.27
630.623	35966.96
630.978	35955.44
631.332	36184.59
631.687	36084.7
632.041	36124.7
632.396	36269.55
632.75	36209.44
633.104	36189.33
633.459	36224.81
633.813	36270.68
634.167	36169.9
634.521	36296.9
634.875	36475.43
635.229	36271.81
635.583	36233.17
635.937	36190.69
636.291	36242.66
636.645	36329.89
636.999	36333.51
637.352	36505.48
637.706	36199.27
638.06	36402.21
638.413	36312.72
638.767	36298.48
639.121	36355.65
639.474	36254.64
639.828	36318.82
640.181	36387.74
640.534	36257.13
640.888	36253.96
641.241	36060.52
641.594	36296.67
641.947	36337.58
642.301	36166.96
642.654	36303.68
643.007	36241.53
643.36	36261.19
643.713	36152.72
644.066	36449.44
644.419	36102.1
644.771	35916.34
645.124	35641.77
645.477	35646.97
645.83	35423.7
646.182	35183.03
646.535	35141.9
646.888	35336.47
647.24	35067.33
647.593	35353.65
647.945	35231.62
648.298	35087.21
648.65	34902.36
649.002	34862.81
649.355	35211.5
649.707	35095.12
650.059	35198.85
650.411	35568.1
650.763	35611.94
651.115	36001.09
651.467	35876.57
651.819	35964.7
652.171	35856.23
652.523	35782.56
652.875	35882.45
653.227	35714.32
653.578	35997.7
653.93	35839.96
654.282	35687.88
654.633	35719.74
654.985	35729.23
655.337	35827.08
655.688	35729.23
656.039	35860.3
656.391	35511.61
656.742	35580.53
657.094	35715.67
657.445	35734.43
657.796	35751.6
658.147	35740.53
658.498	35573.08
658.849	35603.58
659.2	35565.39
659.551	35482.68
659.902	35697.82
660.253	35577.82
660.604	35524.04
660.955	35416.92
661.306	35731.04
661.656	35520.87
662.007	35507.09
662.358	35567.88
662.708	35532.17
663.059	35490.59
663.409	35302.12
663.76	35637.48
664.11	35519.52
664.461	35510.48
664.811	35506.86
665.161	35474.77
665.511	35386.87
665.862	35447.66
666.212	35498.73
666.562	35538.27
666.912	35501.21
667.262	35432.74
667.612	35469.12
667.962	35505.73
668.312	35397.26
668.662	35529.69
669.011	35440.42
669.361	35406.98
669.711	35494.89
670.06	35383.02
670.41	35243.82
670.76	35319.52
671.109	35500.54
671.459	35371.73
671.808	35224.38
672.157	35386.64
672.507	35164.73
672.856	35165.18
673.205	35255.8
673.554	35363.14
673.904	35311.61
674.253	35435.45
674.602	35336.25
674.951	34810.38
675.3	34561.35
675.649	35161.56
675.998	35155.01
676.346	35208.11
676.695	35153.2
677.044	34989.14
677.393	35053.99
677.741	35011.96
678.09	34964.5
678.438	34952.75
678.787	34995.69
679.135	34919.76
679.484	34754.57
679.832	34903.04
680.181	34693.78
680.529	34862.81
680.877	34610.84
681.225	34680.67
681.573	34822.59
681.922	34660.56
682.27	34693.1
682.618	34568.13
682.966	34610.16
683.314	34488.81
683.661	34496.95
684.009	34321.81
684.357	34325.65
684.705	34188.03
685.053	34296.05
685.4	34051.76
685.748	34045.43
686.095	34059.67
686.443	33951.2
686.79	33846.34
687.138	33872.33
687.485	33873.01
687.832	33672.79
688.18	33771.99
688.527	33640.47
688.874	33716.18
689.221	33523.64
689.568	33417.88
689.915	33404.09
690.262	33403.87
690.609	33407.26
690.956	33241.16
691.303	33202.06
691.65	33070.32
691.997	33082.07
692.344	32960.26
692.69	32816.76
693.037	32767.5
693.383	32600.95
693.73	32657.67
694.077	32426.04
694.423	32468.52
694.769	32264.24
695.116	32446.6
695.462	32346.27
695.808	32242.77
696.155	32358.25
696.501	31972.94
696.847	31984.47
697.193	31818.6
697.539	31802.78
697.885	31642.11
698.231	31640.52
698.577	31596.23
698.923	31464.71
699.269	31332.28
699.614	31339.29
699.96	31187.43
700.306	31234.88
700.651	31135.45
700.997	31072.63
701.342	30914.44
701.688	30905.63
702.033	30862.01
702.379	30727.1
702.724	30781.34
703.069	30684.62
703.415	30345.19
703.76	30351.07
704.105	30509.48
704.45	30426.54
704.795	30122.15
705.14	30138.64
705.485	30063.16
705.83	29977.97
706.175	30052.09
706.52	29876.95
706.865	29862.27
707.209	29688.94
707.554	29652.33
707.899	29657.75
708.243	29515.16
708.588	29461.82
708.932	29325.33
709.277	29329.17
709.621	29292.79
709.966	29040.82
710.31	29168.05
710.654	28982.51
710.998	29056.41
711.342	29020.25
711.687	28836.08
712.031	28730.54
712.375	28754.27
712.719	28760.6
713.063	28627.95
713.407	28754.05
713.75	28535.07
714.094	28575.97
714.438	28486.03
714.782	28402.64
715.125	28312.02
715.469	28440.16
715.812	28306.37
716.156	28086.27
716.499	28058.25
716.843	28138.7
717.186	28065.25
717.53	28113.39
717.873	27993.16
718.216	27917.68
718.559	27818.25
718.902	27600.18
719.246	27818.93
719.589	27686.05
719.932	27585.94
720.275	27540.07
720.617	27441.99
720.96	27487.41
721.303	27455.1
721.646	27430.69
721.989	27223.24
722.331	27278.83
722.674	27327.64
723.016	27279.51
723.359	27253.97
723.701	27213.07
724.044	26971.49
724.386	26903.7
724.729	27047.65
725.071	27013.98
725.413	26965.17
725.755	26982.12
726.097	26906.41
726.439	26739.86
726.782	26743.03
727.124	26793.19
727.465	26649.02
727.807	26698.51
728.149	26552.07
728.491	26551.17
728.833	26630.71
729.175	26550.26
729.516	26433.43
729.858	26308.46
730.199	26479.76
730.541	26376.48
730.882	26202.7
731.224	26332.19
731.565	26182.14
731.906	26064.85
732.248	26149.82
732.589	26044.06
732.93	25875.93
733.271	26001.12
733.612	26098.3
733.953	26045.19
734.294	25892.65
734.635	25717.52
734.976	25851.07
735.317	25764.52
735.658	25743.28
735.999	25652.43
736.339	25616.05
736.68	25663.05
737.021	25651.98
737.361	25590.74
737.702	25622.38
738.042	25527.92
738.383	25636.39
738.723	25575.6
739.063	25441.14
739.404	25479.1
739.744	25417.41
740.084	25340.12
740.424	25270.75
740.764	25243.63
741.104	25406.79
741.444	25162.5
741.784	25122.96
742.124	25183.29
742.464	25105.55
742.804	25012.9
743.143	24938.55
743.483	25012.9
743.823	24800.03
744.162	24839.35
744.502	24923.19
744.841	24768.16
745.181	24910.98
745.52	24700.14
745.86	24762.74
746.199	24734.49
746.538	24708.05
746.877	24736.98
747.216	24752.8
747.556	24581.73
747.895	24603.19
748.234	24363.43
748.573	24422.18
748.911	24404.56
749.25	24321.17
749.589	24360.26
749.928	24408.85
750.267	24293.37
750.605	24240.49
750.944	24144
751.283	24177.44
751.621	24270.77
751.96	24059.25
752.298	24012.7
752.636	24052.47
752.975	23932.25
753.313	23848.86
753.651	23877.56
753.989	23797.57
754.327	23782.88
754.666	23671.02
755.004	23674.18
755.342	23633.73
755.679	23642.99
756.017	23538.36
756.355	23624.46
756.693	23327.97
757.031	23433.06
757.368	23298.6
757.706	23293.62
758.044	23313.29
758.381	23191.25
758.719	23106.51
759.056	23087.3
759.394	23045.04
759.731	22851.15
760.068	22877.59
760.405	22855.9
760.743	22838.04
761.08	22683.7
