Data from hue_260_FLMS001491_00030.txt Node
Date: Tue Feb 07 15:58:48 GMT 2017
User: dcchb
Spectrometer: FLMS00149
Trigger mode: 0
Integration Time (sec): 2.000000E-2
Scans to average: 10
Electric dark correction enabled: true
Nonlinearity correction enabled: false
Boxcar width: 0
XAxis mode: Wavelengths
Number of Pixels in Spectrum: 2048
>>>>>Begin Spectral Data<<<<<
341.393	-15.78
341.776	-15.78
342.16	-15.78
342.543	-69.33
342.927	-70.24
343.31	-77.24
343.693	-73.18
344.077	-85.38
344.46	-60.07
344.843	-58.26
345.226	-32.73
345.61	-49.45
345.993	4.79
346.376	2.53
346.759	18.35
347.142	24.45
347.525	31.45
347.908	63.09
348.291	92.24
348.674	91.11
349.057	108.29
349.44	119.59
349.823	162.98
350.206	158.46
350.588	186.25
350.971	192.35
351.354	214.27
351.737	223.99
352.119	264.67
352.502	255.63
352.884	246.82
353.267	262.63
353.65	277.32
354.032	285.01
354.414	299.47
354.797	283.88
355.179	290.66
355.562	319.36
355.944	317.77
356.326	332.24
356.709	325.46
357.091	327.72
357.473	323.2
357.855	327.94
358.238	320.94
358.62	342.63
359.002	340.15
359.384	323.2
359.766	331.56
360.148	335.63
360.53	328.17
360.912	336.53
361.294	337.43
361.676	313.03
362.057	322.75
362.439	318.9
362.821	304.44
363.203	318
363.584	327.04
363.966	314.16
364.348	325.01
364.729	303.31
365.111	308.51
365.493	307.38
365.874	323.65
366.256	275.06
366.637	303.31
367.019	301.96
367.4	293.82
367.781	325.01
368.163	324.78
368.544	291.56
368.925	312.8
369.306	306.47
369.688	299.7
370.069	312.12
370.45	294.5
370.831	300.6
371.212	305.57
371.593	308.51
371.974	309.64
372.355	280.04
372.736	321.62
373.117	308.51
373.498	287.72
373.879	315.51
374.26	308.28
374.641	292.92
375.021	312.35
375.402	317.32
375.783	323.42
376.163	308.28
376.544	307.15
376.925	302.86
377.305	307.38
377.686	326.14
378.066	312.8
378.447	325.68
378.827	304.89
379.208	320.94
379.588	330.2
379.968	325.91
380.349	324.1
380.729	346.93
381.109	333.14
381.489	300.83
381.87	326.81
382.25	330.66
382.63	337.43
383.01	329.3
383.39	326.81
383.77	320.94
384.15	341.5
384.53	337.21
384.91	364.1
385.29	341.05
385.67	339.92
386.049	358.45
386.429	344.44
386.809	358.23
387.189	351.22
387.568	347.6
387.948	336.3
388.328	353.25
388.707	336.76
389.087	338.56
389.466	359.81
389.846	341.95
390.225	341.5
390.605	360.48
390.984	367.49
391.363	366.81
391.743	369.07
392.122	357.32
392.501	359.81
392.881	373.37
393.26	369.98
393.639	377.43
394.018	370.65
394.397	366.36
394.776	377.21
395.155	373.14
395.534	377.89
395.913	373.37
396.292	384.44
396.671	394.38
397.05	387.38
397.429	387.83
397.808	393.93
398.186	403.42
398.565	416.98
398.944	400.26
399.323	415.17
399.701	394.61
400.08	408.62
400.458	400.71
400.837	420.6
401.215	422.86
401.594	429.41
401.972	407.72
402.351	421.27
402.729	441.16
403.107	433.25
403.486	432.35
403.864	432.8
404.242	439.13
404.62	432.12
404.999	430.54
405.377	469.18
405.755	445.91
406.133	434.38
406.511	430.54
406.889	468.05
407.267	496.75
407.645	468.28
408.023	447.71
408.401	470.76
408.779	485.45
409.156	502.85
409.534	501.95
409.912	503.76
410.29	511.89
410.667	534.04
411.045	513.93
411.422	520.93
411.8	515.96
412.178	545.79
412.555	554.6
412.933	534.49
413.31	584.89
413.687	570.65
414.065	558.9
414.442	573.81
414.819	590.54
415.197	604.77
415.574	587.6
415.951	614.04
416.328	622.4
416.705	599.12
417.082	637.31
417.46	628.27
417.837	640.48
418.214	631.21
418.591	663.98
418.967	663.98
419.344	649.74
419.721	666.24
420.098	670.31
420.475	678.22
420.852	686.35
421.228	715.96
421.605	715.28
421.982	722.06
422.358	740.36
422.735	755.5
423.111	719.12
423.488	770.42
423.864	756.41
424.241	764.77
424.617	799.12
424.994	804.77
425.37	816.97
425.746	824.43
426.123	859.45
426.499	835.5
426.875	873.69
427.251	874.14
427.627	894.03
428.003	895.39
428.379	887.7
428.756	896.29
429.132	934.48
429.507	927.93
429.883	951.43
430.259	955.95
430.635	969.96
431.011	994.82
431.387	1010.86
431.763	1015.38
432.138	1033.24
432.514	1030.07
432.89	1023.52
433.265	1079.34
433.641	1060.13
434.016	1095.15
434.392	1115.95
434.767	1111.43
435.143	1139
435.518	1165.89
435.894	1155.94
436.269	1195.49
436.644	1187.36
437.02	1236.62
437.395	1199.33
437.77	1266.45
438.145	1275.49
438.52	1264.42
438.895	1305.77
439.271	1315.26
439.646	1358.88
440.021	1357.97
440.395	1375.83
440.77	1378.31
441.145	1404.75
441.52	1405.66
441.895	1412.21
442.27	1432.1
442.645	1430.97
443.019	1486.78
443.394	1446.78
443.769	1487.69
444.143	1498.53
444.518	1554.8
444.892	1509.83
445.267	1522.94
445.641	1554.13
446.016	1545.76
446.39	1571.98
446.764	1571.53
447.139	1586.44
447.513	1573.33
447.887	1640.68
448.262	1620.11
448.636	1612.66
449.01	1637.51
449.384	1671.18
449.758	1673.67
450.132	1680.45
450.506	1701.92
450.88	1685.42
451.254	1704.4
451.628	1721.35
452.002	1766.55
452.376	1789.37
452.75	1781.24
453.123	1775.36
453.497	1827.34
453.871	1858.3
454.244	1870.95
454.618	1897.17
454.992	1886.32
455.365	1894.68
455.739	1929.48
456.112	1970.61
456.486	1963.15
456.859	1981.46
457.232	1996.37
457.606	2019.88
457.979	2043.38
458.352	2072.76
458.725	2092.19
459.099	2099.87
459.472	2129.7
459.845	2172.19
460.218	2179.65
460.591	2218.29
460.964	2182.36
461.337	2239.76
461.71	2272.52
462.083	2285.41
462.456	2308.46
462.829	2342.35
463.201	2359.75
463.574	2363.6
463.947	2398.85
464.32	2439.98
464.692	2436.81
465.065	2483.59
465.438	2503.03
465.81	2507.77
466.183	2549.58
466.555	2583.03
466.928	2606.53
467.3	2635
467.672	2658.96
468.045	2699.63
468.417	2718.84
468.789	2752.96
469.161	2766.3
469.534	2822.57
469.906	2906.18
470.278	2893.53
470.65	2901.21
471.022	2924.94
471.394	2993.64
471.766	3029.12
472.138	3063.92
472.51	3123.8
472.882	3144.82
473.253	3168.09
473.625	3226.85
473.997	3266.4
474.369	3292.16
474.74	3338.71
475.112	3442.44
475.484	3417.35
475.855	3460.74
476.227	3486.96
476.598	3598.82
476.97	3594.07
477.341	3719.49
477.713	3717.23
478.084	3717.46
478.455	3857.34
478.827	3859.83
479.198	3938.7
479.569	3958.13
479.94	4060.5
480.311	4038.13
480.682	4133.27
481.053	4250.78
481.424	4233.38
481.795	4291.91
482.166	4363.32
482.537	4439.47
482.908	4461.62
483.279	4556.08
483.65	4594.27
484.021	4627.72
484.391	4695.74
484.762	4717.88
485.133	4747.04
485.503	4838.56
485.874	4963.53
486.244	4967.6
486.615	5058.89
486.985	5041.49
487.356	5172.56
487.726	5252.33
488.097	5283.07
488.467	5322.84
488.837	5411.65
489.207	5395.15
489.578	5500.91
489.948	5566.9
490.318	5607.13
490.688	5643.74
491.058	5666.56
491.428	5764.18
491.798	5778.2
492.168	5906.1
492.538	5908.14
492.908	5969.38
493.278	5998.98
493.648	6053.22
494.017	6129.82
494.387	6126.89
494.757	6149.71
495.126	6264.96
495.496	6248.69
495.866	6328.46
496.235	6343.6
496.605	6363.94
496.974	6396.03
497.344	6497.95
497.713	6521.9
498.082	6550.15
498.452	6519.19
498.821	6570.72
499.19	6629.7
499.559	6678.51
499.928	6669.92
500.298	6672.86
500.667	6739.53
501.036	6714.89
501.405	6826.76
501.774	6756.47
502.143	6871.73
502.512	6836.47
502.88	6931.61
503.249	6930.48
503.618	6903.14
503.987	6922.57
504.356	6978.84
504.724	7019.97
505.093	7032.85
505.462	7014.77
505.83	7120.99
506.199	7103.13
506.567	7254.09
506.936	7156.92
507.304	7240.98
507.672	7238.95
508.041	7294.54
508.409	7299.96
508.777	7416.8
509.145	7371.37
509.514	7385.84
509.882	7399.4
510.25	7460.19
510.618	7453.63
510.986	7487.08
511.354	7490.92
511.722	7594.64
512.09	7590.8
512.458	7580.86
512.826	7594.64
513.193	7499.96
513.561	7600.52
513.929	7652.5
514.297	7698.15
514.664	7656.11
515.032	7721.2
515.4	7722.78
515.767	7787.63
516.135	7742.89
516.502	7689.11
516.869	7778.59
517.237	7853.4
517.604	7796
517.972	7842.77
518.339	7881.19
518.706	7838.93
519.073	7834.41
519.44	7901.76
519.808	7970.45
520.175	7958.48
520.542	8006.61
520.909	8007.97
521.276	8002.09
521.643	8042.99
522.009	8097.46
522.376	8111.69
522.743	8136.78
523.11	8158.47
523.477	8226.04
523.843	8238.47
524.21	8181.07
524.577	8229.66
524.943	8256.55
525.31	8295.19
525.676	8307.85
526.043	8318.02
526.409	8358.92
526.776	8370.44
527.142	8401.4
527.508	8393.27
527.874	8426.49
528.241	8462.42
528.607	8439.14
528.973	8447.73
529.339	8425.81
529.705	8480.5
530.071	8563.88
530.437	8495.86
530.803	8558.24
531.169	8546.26
531.535	8568.86
531.901	8505.58
532.267	8563.88
532.632	8576.09
532.998	8549.87
533.364	8640.04
533.73	8571.12
534.095	8671
534.461	8600.04
534.826	8616.99
535.192	8655.41
535.557	8613.6
535.923	8644.79
536.288	8618.57
536.653	8669.87
537.019	8600.04
537.384	8571.57
537.749	8607.95
538.114	8624.45
538.479	8621.28
538.845	8582.42
539.21	8572.47
539.575	8587.61
539.94	8583.09
540.305	8592.81
540.67	8551.68
541.034	8608.63
541.399	8533.38
541.764	8639.36
542.129	8593.71
542.494	8569.08
542.858	8596.65
543.223	8563.66
543.587	8571.57
543.952	8499.93
544.316	8613.83
544.681	8520.72
545.045	8494.73
545.41	8589.2
545.774	8517.33
546.138	8518.24
546.503	8544.45
546.867	8485.92
547.231	8560.27
547.595	8550.55
547.959	8467.39
548.324	8502.87
548.688	8483.21
549.052	8519.82
549.416	8460.61
549.779	8457.22
550.143	8482.98
550.507	8531.8
550.871	8493.15
551.235	8491.8
551.599	8495.86
551.962	8539.48
552.326	8435.98
552.689	8472.81
553.053	8463.77
553.417	8428.97
553.78	8521.17
554.143	8445.02
554.507	8531.34
554.87	8474.62
555.234	8533.15
555.597	8480.05
555.96	8453.15
556.323	8451.35
556.686	8465.81
557.05	8555.75
557.413	8435.3
557.776	8503.55
558.139	8493.6
558.502	8462.87
558.865	8472.36
559.228	8534.28
559.59	8574.05
559.953	8501.74
560.316	8534.73
560.679	8614.96
561.041	8619.7
561.404	8557.78
561.767	8682.3
562.129	8612.47
562.492	8675.75
562.854	8656.09
563.217	8681.85
563.579	8735.41
563.941	8758.91
564.304	8710.32
564.666	8810.88
565.028	8777.21
565.39	8802.75
565.753	8868.74
566.115	8849.75
566.477	8857.21
566.839	8843.65
567.201	8904.22
567.563	8906.02
567.925	8980.6
568.287	8910.09
568.648	8956.87
569.01	9008.17
569.372	9085.91
569.734	9000.03
570.095	9070.09
570.457	9110.31
570.819	9116.64
571.18	9122.74
571.542	9153.7
571.903	9068.5
572.265	9169.52
572.626	9187.6
572.987	9192.8
573.349	9274.15
573.71	9277.09
574.071	9228.95
574.432	9291.32
574.794	9354.15
575.155	9363.64
575.516	9287.48
575.877	9345.79
576.238	9407.25
576.599	9496.52
576.96	9419.46
577.32	9409.96
577.681	9476.63
578.042	9520.7
578.403	9458.78
578.763	9496.29
579.124	9529.06
579.485	9551.88
579.845	9610.86
580.206	9582.84
580.566	9646.34
580.927	9622.39
581.287	9633.91
581.648	9673.01
582.008	9744.42
582.368	9682.05
582.728	9771.76
583.089	9664.87
583.449	9766.79
583.809	9746.9
584.169	9741.48
584.529	9827.35
584.889	9861.48
585.249	9823.51
585.609	9779.22
585.969	9837.07
586.329	9840.24
586.688	9935.37
587.048	9904.19
587.408	9876.84
587.768	9926.34
588.127	9946
588.487	9908.48
588.846	10006.33
589.206	10077.07
589.565	9985.32
589.925	10047.24
590.284	10057.41
590.643	10041.13
591.003	10143.5
591.362	10075.94
591.721	10149.38
592.08	10099.89
592.44	10189.6
592.799	10131.53
593.158	10147.8
593.517	10162.71
593.876	10185.54
594.235	10163.84
594.593	10189.83
594.952	10191.64
595.311	10173.79
595.67	10236.16
596.029	10283.39
596.387	10240.23
596.746	10292.2
597.104	10293.56
597.463	10280.9
597.822	10301.47
598.18	10344.86
598.538	10275.7
598.897	10276.83
599.255	10230.73
599.613	10387.34
599.972	10337.17
600.33	10370.17
600.688	10267.57
601.046	10393.44
601.404	10371.97
601.762	10360.22
602.12	10442.93
602.478	10425.53
602.836	10375.59
603.194	10356.38
603.552	10446.55
603.91	10384.4
604.268	10442.25
604.625	10388.47
604.983	10401.35
605.341	10445.87
605.698	10437.51
606.056	10489.48
606.413	10476.83
606.771	10489.94
607.128	10469.15
607.485	10472.08
607.843	10500.33
608.2	10501.24
608.557	10578.75
608.914	10526.09
609.272	10591.85
609.629	10585.07
609.986	10610.61
610.343	10536.04
610.7	10617.16
611.057	10682.93
611.414	10632.31
611.771	10577.62
612.127	10677.73
612.484	10690.61
612.841	10740.78
613.198	10631.18
613.554	10686.99
613.911	10670.5
614.267	10677.95
614.624	10669.14
614.98	10710.27
615.337	10768.35
615.693	10721.12
616.05	10797.05
616.406	10797.95
616.762	10755.92
617.118	10736.71
617.475	10802.47
617.831	10811.06
618.187	10790.04
618.543	10812.87
618.899	10824.16
619.255	10840.44
619.611	10913.88
619.967	10886.31
620.323	10870.27
620.678	10897.83
621.034	10774.9
621.39	10796.14
621.746	10838.4
622.101	10926.99
622.457	10893.99
622.812	10842.7
623.168	10899.64
623.523	10855.8
623.879	10912.75
624.234	10781.91
624.589	10857.16
624.945	10850.15
625.3	10867.1
625.655	10853.99
626.01	10896.93
626.365	10887.89
626.72	10848.57
627.075	10861.9
627.43	10821.68
627.785	10822.58
628.14	10757.73
628.495	10834.79
628.85	10790.04
629.205	10743.71
629.559	10851.51
629.914	10776.03
630.269	10740.78
630.623	10769.25
630.978	10759.76
631.332	10761.12
631.687	10756.37
632.041	10690.61
632.396	10742.36
632.75	10696.48
633.104	10710.95
633.459	10704.39
633.813	10700.1
634.167	10634.79
634.521	10626.2
634.875	10616.94
635.229	10643.6
635.583	10588.92
635.937	10610.16
636.291	10568.8
636.645	10672.76
636.999	10595.02
637.352	10566.09
637.706	10508.69
638.06	10563.15
638.413	10506.88
638.767	10484.29
639.121	10563.38
639.474	10397.28
639.828	10493.78
640.181	10483.61
640.534	10503.95
640.888	10423.27
641.241	10384.85
641.594	10351.41
641.947	10386.89
642.301	10434.57
642.654	10358.19
643.007	10345.76
643.36	10388.7
643.713	10324.74
644.066	10333.1
644.419	10282.03
644.771	10296.95
645.124	10164.29
645.477	10200.45
645.83	10019.89
646.182	10097.4
646.535	10039.1
646.888	10047.01
647.24	9996.39
647.593	10030.97
647.945	10027.12
648.298	9908.03
648.65	9937.86
649.002	9890.63
649.355	10008.14
649.707	9949.39
650.059	9963.17
650.411	10173.33
650.763	10146.22
651.115	10223.73
651.467	10182.83
651.819	10198.19
652.171	10210.85
652.523	10144.63
652.875	10165.42
653.227	10141.47
653.578	10283.16
653.93	10186.89
654.282	10126.78
654.633	10134.01
654.985	10176.27
655.337	10200
655.688	10168.36
656.039	10273.44
656.391	10091.08
656.742	10190.96
657.094	10152.32
657.445	10224.63
657.796	10206.1
658.147	10161.81
658.498	10136.5
658.849	10226.44
659.2	10219.43
659.551	10210.85
659.902	10228.25
660.253	10198.42
660.604	10233.67
660.955	10167.68
661.306	10192.99
661.656	10120.68
662.007	10213.79
662.358	10166.1
662.708	10153.67
663.059	10256.5
663.409	10142.6
663.76	10228.93
664.11	10263.73
664.461	10234.8
664.811	10239.77
665.161	10171.3
665.511	10150.06
665.862	10227.57
666.212	10261.92
666.562	10232.09
666.912	10225.08
667.262	10245.42
667.612	10161.58
667.962	10223.73
668.312	10172.2
668.662	10251.07
669.011	10173.79
669.361	10205.42
669.711	10199.1
670.06	10161.36
670.41	10183.73
670.76	10096.73
671.109	10192.77
671.459	10193.9
671.808	10159.32
672.157	10140.79
672.507	10099.66
672.856	10148.7
673.205	10161.36
673.554	10068.48
673.904	10119.32
674.253	10183.5
674.602	10065.09
674.951	9992.32
675.3	9948.71
675.649	10029.61
675.998	10029.61
676.346	9990.74
676.695	10089.04
677.044	9985.54
677.393	9973.11
677.741	10022.15
678.09	9984.86
678.438	9957.97
678.787	9929.95
679.135	9960.68
679.484	9935.37
679.832	9908.48
680.181	9942.15
680.529	9930.4
680.877	9895.15
681.225	9879.1
681.573	9925.66
681.922	9820.35
682.27	9813.34
682.618	9841.59
682.966	9732.44
683.314	9788.49
683.661	9820.12
684.009	9747.58
684.357	9635.27
684.705	9670.07
685.053	9657.19
685.4	9699.22
685.748	9629.85
686.095	9631.65
686.443	9591.65
686.79	9510.53
687.138	9539.68
687.485	9527.7
687.832	9526.12
688.18	9476.4
688.527	9487.48
688.874	9390.76
689.221	9396.63
689.568	9349.63
689.915	9341.49
690.262	9358.44
690.609	9280.02
690.956	9258.56
691.303	9219.01
691.65	9158.45
691.997	9130.65
692.344	9042.06
692.69	9080.93
693.037	9023.31
693.383	9070.99
693.73	9062.18
694.077	8938.56
694.423	8974.72
694.769	8996.64
695.116	8878.68
695.462	8906.7
695.808	8943.54
696.155	8861.28
696.501	8815.4
696.847	8764.78
697.193	8790.32
697.539	8754.16
697.885	8695.63
698.231	8725.69
698.577	8706.48
698.923	8666.71
699.269	8625.8
699.614	8513.26
699.96	8522.98
700.306	8510.33
700.651	8424.91
700.997	8494.73
701.342	8442.08
701.688	8406.83
702.033	8374.96
702.379	8354.62
702.724	8325.93
703.069	8317.34
703.415	8225.59
703.76	8275.31
704.105	8181.52
704.45	8217.91
704.795	8124.12
705.14	8119.38
705.485	8139.94
705.83	8049.55
706.175	8031.7
706.52	7988.08
706.865	8034.63
707.209	7943.56
707.554	7974.52
707.899	7981.08
708.243	7931.81
708.588	7938.14
708.932	7780.18
709.277	7847.07
709.621	7829.89
709.966	7700.4
710.31	7828.54
710.654	7677.35
710.998	7754.19
711.342	7692.5
711.687	7751.93
712.031	7637.36
712.375	7627.19
712.719	7643.01
713.063	7641.65
713.407	7628.77
713.75	7574.08
714.094	7602.55
714.438	7560.07
714.782	7567.75
715.125	7508.55
715.469	7555.32
715.812	7490.92
716.156	7487.08
716.499	7454.54
716.843	7475.78
717.186	7433.29
717.53	7447.3
717.873	7436.23
718.216	7396.68
718.559	7341.77
718.902	7309.68
719.246	7321.88
719.589	7360.07
719.932	7286.4
720.275	7347.19
720.617	7351.04
720.96	7266.97
721.303	7342.45
721.646	7277.82
721.989	7253.18
722.331	7345.84
722.674	7258.61
723.016	7261.55
723.359	7262.22
723.701	7261.09
724.044	7228.78
724.386	7169.8
724.729	7212.51
725.071	7167.31
725.413	7179.29
725.755	7177.25
726.097	7151.27
726.439	7175.45
726.782	7135.9
727.124	7185.62
727.465	7133.64
727.807	7193.07
728.149	7128.44
728.491	7122.11
728.833	7156.24
729.175	7133.41
729.516	7092.96
729.858	7111.95
730.199	7141.78
730.541	7058.61
730.882	7132.51
731.224	7160.76
731.565	7102.91
731.906	7093.87
732.248	7100.65
732.589	7042.57
732.93	7096.8
733.271	7046.18
733.612	7098.84
733.953	7074.88
734.294	7033.3
734.635	7041.67
734.976	7043.7
735.317	7029.69
735.658	7055
735.999	7063.13
736.339	7078.05
736.68	7115.34
737.021	7085.73
737.361	7029.91
737.702	7082.57
738.042	7122.57
738.383	7040.08
738.723	7031.72
739.063	7049.8
739.404	7106.52
739.744	7102.23
740.084	7070.82
740.424	7092.96
740.764	7053.64
741.104	7116.47
741.444	7104.26
741.784	7142.23
742.124	7159.4
742.464	7138.39
742.804	7211.15
743.143	7155.33
743.483	7150.14
743.823	7169.57
744.162	7212.73
744.502	7217.03
744.841	7280.53
745.181	7275.11
745.52	7251.15
745.86	7333.86
746.199	7322.11
746.538	7331.38
746.877	7470.13
747.216	7480.98
747.556	7473.52
747.895	7464.25
748.234	7476.68
748.573	7646.39
748.911	7636.45
749.25	7753.51
749.589	7701.08
749.928	7790.8
750.267	7815.2
750.605	7819.95
750.944	7990.34
751.283	7963.67
751.621	8050.9
751.96	8084.35
752.298	8133.84
752.636	8265.59
752.975	8358.01
753.313	8370.9
753.651	8493.83
753.989	8568.63
754.327	8618.8
754.666	8649.53
755.004	8853.82
755.342	8943.99
755.679	8971.78
756.017	9059.01
756.355	9239.57
756.693	9254.71
757.031	9418.55
757.368	9504.65
757.706	9613.12
758.044	9683.86
758.381	9851.31
758.719	9981.02
759.056	10009.72
759.394	10168.81
759.731	10269.83
760.068	10406.1
760.405	10514.34
760.743	10613.32
761.08	10712.53
761.417	10853.54
761.754	10970.83
762.091	11094.67
762.428	11244.49
762.765	11353.19
763.102	11553.64
763.438	11640.87
763.775	11729.9
764.112	11866.85
764.449	12019.84
764.785	12091.7
