Data from hue_150_FLMS001491_00068.txt Node
Date: Tue Feb 07 16:54:22 GMT 2017
User: dcchb
Spectrometer: FLMS00149
Trigger mode: 0
Integration Time (sec): 2.000000E-2
Scans to average: 10
Electric dark correction enabled: true
Nonlinearity correction enabled: false
Boxcar width: 0
XAxis mode: Wavelengths
Number of Pixels in Spectrum: 2048
>>>>>Begin Spectral Data<<<<<
341.393	-17.25
341.776	-17.25
342.16	-17.25
342.543	-88.43
342.927	-64.93
343.31	-69
343.693	-75.77
344.077	-77.81
344.46	-71.26
344.843	-56.11
345.226	-29.22
345.61	-27.87
345.993	-25.15
346.376	-8.88
346.759	16.88
347.142	41.96
347.525	13.94
347.908	74.5
348.291	80.38
348.674	89.87
349.057	123.54
349.44	117.89
349.823	134.62
350.206	168.06
350.588	211
350.971	215.52
351.354	225.01
351.737	228.17
352.119	251.45
352.502	261.17
352.884	264.56
353.267	295.51
353.65	293.26
354.032	310.2
354.414	301.39
354.797	307.04
355.179	322.86
355.562	331.22
355.944	338
356.326	326.25
356.709	342.29
357.091	340.03
357.473	309.53
357.855	328.28
358.238	319.24
358.62	322.63
359.002	325.57
359.384	335.97
359.766	348.17
360.148	341.84
360.53	319.02
360.912	333.71
361.294	332.58
361.676	317.66
362.057	337.32
362.439	317.44
362.821	321.5
363.203	346.13
363.584	318.79
363.966	337.77
364.348	323.08
364.729	308.17
365.111	287.83
365.493	317.21
365.874	308.4
366.256	326.02
366.637	316.08
367.019	307.49
367.4	311.56
367.781	312.46
368.163	317.66
368.544	295.29
368.925	319.47
369.306	308.4
369.688	284.67
370.069	314.27
370.45	314.72
370.831	320.82
371.212	315.4
371.593	290.09
371.974	298.9
372.355	313.37
372.736	312.01
373.117	305.01
373.498	321.73
373.879	323.76
374.26	308.62
374.641	312.24
375.021	321.73
375.402	312.92
375.783	336.42
376.163	338.68
376.544	311.79
376.925	320.15
377.305	322.63
377.686	332.12
378.066	340.71
378.447	344.33
378.827	334.16
379.208	346.81
379.588	308.62
379.968	332.12
380.349	339.81
380.729	341.62
381.109	334.84
381.489	321.28
381.87	326.25
382.25	365.8
382.63	347.26
383.01	339.58
383.39	348.85
383.77	353.82
384.15	370.54
384.53	355.17
384.91	358.79
385.29	347.72
385.67	363.31
386.049	352.69
386.429	348.39
386.809	370.32
387.189	346.13
387.568	373.25
387.948	356.76
388.328	343.88
388.707	352.91
389.087	367.15
389.466	370.77
389.846	374.83
390.225	364.44
390.605	374.16
390.984	365.12
391.363	388.17
391.743	394.95
392.122	385.46
392.501	355.17
392.881	374.83
393.26	398.79
393.639	378.22
394.018	382.97
394.397	377.77
394.776	369.64
395.155	366.93
395.534	392.24
395.913	389.3
396.292	392.01
396.671	405.12
397.05	392.46
397.429	400.6
397.808	391.33
398.186	384.55
398.565	403.31
398.944	395.85
399.323	415.29
399.701	403.08
400.08	395.63
400.458	418.22
400.837	413.25
401.215	402.18
401.594	432.01
401.972	421.84
402.351	409.64
402.729	425.68
403.107	421.39
403.486	407.15
403.864	434.04
404.242	421.61
404.62	440.6
404.999	438.79
405.377	452.57
405.755	429.07
406.133	425.23
406.511	441.5
406.889	473.36
407.267	472.46
407.645	481.5
408.023	459.58
408.401	439.69
408.779	472.69
409.156	466.81
409.534	475.85
409.912	453.7
410.29	489.18
410.667	481.27
411.045	467.94
411.422	483.76
411.8	475.85
412.178	476.3
412.555	494.38
412.933	503.19
413.31	498.9
413.687	521.5
414.065	498
414.442	507.26
414.819	522.4
415.197	530.76
415.574	512.91
415.951	534.6
416.328	549.97
416.705	543.19
417.082	517.88
417.46	538.9
417.837	537.54
418.214	560.59
418.591	573.02
418.967	570.54
419.344	566.69
419.721	573.7
420.098	561.5
420.475	582.96
420.852	577.54
421.228	571.67
421.605	587.26
421.982	580.93
422.358	589.29
422.735	591.55
423.111	602.63
423.488	617.77
423.864	601.5
424.241	625.22
424.617	610.08
424.994	626.13
425.37	619.35
425.746	627.26
426.123	642.62
426.499	639.01
426.875	640.36
427.251	669.52
427.627	657.99
428.003	653.02
428.379	665.45
428.756	674.04
429.132	684.21
429.507	700.93
429.883	694.6
430.259	716.75
430.635	702.96
431.011	717.2
431.387	711.55
431.763	733.24
432.138	732.34
432.514	742.28
432.89	737.31
433.265	734.83
433.641	765.33
434.016	768.04
434.392	778.67
434.767	810.76
435.143	795.61
435.518	789.06
435.894	803.75
436.269	818.66
436.644	818.21
437.02	824.31
437.395	837.65
437.77	831.09
438.145	854.14
438.52	860.7
438.895	852.34
439.271	867.48
439.646	879
440.021	889.62
440.395	894.82
440.77	879.68
441.145	881.94
441.52	923.75
441.895	894.6
442.27	923.07
442.645	923.52
443.019	937.31
443.394	919.91
443.769	944.76
444.143	947.25
444.518	958.77
444.892	960.81
445.267	955.38
445.641	965.55
446.016	963.52
446.39	973.69
446.764	987.25
447.139	986.8
447.513	1013.69
447.887	998.77
448.262	1009.17
448.636	1039.45
449.01	1062.95
449.384	1026.57
449.758	1075.83
450.132	1075.38
450.506	1054.59
450.88	1090.52
451.254	1055.27
451.628	1101.14
452.002	1109.28
452.376	1095.27
452.75	1100.24
453.123	1124.42
453.497	1146.79
453.871	1174.81
454.244	1156.74
454.618	1185.89
454.992	1166.23
455.365	1209.39
455.739	1250.97
456.112	1217.07
456.486	1268.6
456.859	1264.75
457.232	1271.99
457.606	1315.6
457.979	1310.63
458.352	1325.54
458.725	1323.96
459.099	1344.07
459.472	1367.58
459.845	1403.51
460.218	1399.21
460.591	1398.76
460.964	1410.74
461.337	1435.82
461.71	1447.8
462.083	1489.38
462.456	1494.58
462.829	1523.96
463.201	1524.18
463.574	1533.45
463.947	1576.61
464.32	1594.01
464.692	1641.69
465.065	1662.26
465.438	1645.54
465.81	1699.55
466.183	1730.51
466.555	1754.46
466.928	1767.11
467.3	1761.01
467.672	1789.03
468.045	1862.71
468.417	1872.2
468.789	1876.26
469.161	1917.85
469.534	1958.52
469.906	2001.68
470.278	2006.43
470.65	2092.76
471.022	2103.83
471.394	2151.06
471.766	2198.06
472.138	2212.75
472.51	2271.06
472.882	2311.28
473.253	2351.96
473.625	2400.54
473.997	2479.19
474.369	2466.08
474.74	2553.76
475.112	2607.77
475.484	2653.87
475.855	2740.2
476.227	2751.04
476.598	2859.29
476.97	2935.67
477.341	2971.38
477.713	3041.88
478.084	3084.14
478.455	3190.58
478.827	3255.21
479.198	3405.72
479.569	3364.13
479.94	3524.58
480.311	3594.19
480.682	3691.58
481.053	3808.64
481.424	3920.05
481.795	3963.67
482.166	4105.13
482.537	4166.6
482.908	4326.37
483.279	4378.12
483.65	4520.04
484.021	4675.51
484.391	4733.14
484.762	4789.86
485.133	4944.43
485.503	5086.8
485.874	5219.45
486.244	5315.5
486.615	5449.05
486.985	5581.48
487.356	5735.82
487.726	5830.51
488.097	5992.31
488.467	6040.22
488.837	6237.96
489.207	6341.91
489.578	6495.35
489.948	6642.69
490.318	6738.96
490.688	6910.48
491.058	7062.79
491.428	7166.52
491.798	7277.25
492.168	7540.52
492.538	7657.13
492.908	7778.93
493.278	7979.61
493.648	8054.41
494.017	8185.02
494.387	8370.1
494.757	8452.59
495.126	8589.76
495.496	8672.02
495.866	8815.74
496.235	8872.69
496.605	9074.95
496.974	9177.09
497.344	9338.89
497.713	9402.39
498.082	9520.13
498.452	9638.55
498.821	9741.59
499.19	9883.06
499.559	9948.37
499.928	10133.45
500.298	10182.49
500.667	10307
501.036	10298.19
501.405	10505.87
501.774	10566.66
502.143	10583.61
502.512	10807.1
502.88	10869.93
503.249	10906.31
503.618	10994.22
503.987	11075.8
504.356	11142.01
504.724	11191.95
505.093	11360.08
505.462	11401.66
505.83	11449.12
506.199	11572.73
506.567	11720.98
506.936	11709.45
507.304	11920.75
507.672	11962.1
508.041	11975.89
508.409	12140.63
508.777	12285.71
509.145	12323.67
509.514	12264.47
509.882	12410.45
510.25	12434.4
510.618	12482.77
510.986	12527.74
511.354	12652.48
511.722	12738.8
512.09	12798.69
512.458	12794.62
512.826	12885.92
513.193	12969.31
513.561	13029.64
513.929	13063.31
514.297	13139.92
514.664	13202.75
515.032	13187.61
515.4	13262.63
515.767	13301.73
516.135	13479.8
516.502	13344.66
516.869	13555.51
517.237	13515.96
517.604	13524.77
517.972	13716.4
518.339	13629.18
518.706	13620.14
519.073	13737.42
519.44	13753.69
519.808	13927.25
520.175	13735.16
520.542	13975.61
520.909	14002.73
521.276	14013.57
521.643	14113.23
522.009	14120.24
522.376	14144.19
522.743	14215.83
523.11	14217.63
523.477	14416.27
523.843	14353.22
524.21	14472.77
524.577	14574.46
524.943	14473.22
525.31	14500.57
525.676	14693.78
526.043	14660.56
526.409	14664.85
526.776	14819.2
527.142	14731.75
527.508	14744.4
527.874	14891.74
528.241	14842.7
528.607	14841.35
528.973	14828.69
529.339	14863.95
529.705	14997.5
530.071	15033.43
530.437	14941.68
530.803	14973.32
531.169	15043.15
531.535	14958.41
531.901	14964.73
532.267	15058.52
532.632	14985.07
532.998	15003.83
533.364	14989.37
533.73	15094.45
534.095	15026.88
534.461	15061.68
534.826	15051.29
535.192	15064.39
535.557	15110.27
535.923	14986.2
536.288	15019.65
536.653	15041.34
537.019	14922.93
537.384	14909.14
537.749	14963.6
538.114	14985.52
538.479	14918.18
538.845	14890.39
539.21	14924.28
539.575	14839.99
539.94	14823.27
540.305	14855.36
540.67	14790.73
541.034	14788.24
541.399	14839.54
541.764	14758.64
542.129	14718.86
542.494	14735.14
542.858	14724.51
543.223	14598.64
543.587	14662.59
543.952	14522.71
544.316	14558.87
544.681	14460.57
545.045	14550.28
545.41	14616.95
545.774	14485.65
546.138	14472.77
546.503	14399.78
546.867	14428.25
547.231	14494.01
547.595	14335.6
547.959	14411.75
548.324	14371.98
548.688	14317.97
549.052	14255.83
549.416	14298.08
549.779	14275.03
550.143	14205.66
550.507	14213.57
550.871	14216.96
551.235	14137.18
551.599	14183.96
551.962	14164.53
552.326	14163.4
552.689	14184.64
553.053	14054.02
553.417	14014.48
553.78	14181.7
554.143	14014.02
554.507	14038.43
554.87	14025.55
555.234	14097.41
555.597	13959.11
555.96	14004.08
556.323	14053.57
556.686	14018.77
557.05	14078.88
557.413	14029.39
557.776	13975.38
558.139	14003.4
558.502	13979
558.865	13919.11
559.228	14089.95
559.59	14034.36
559.953	13943.29
560.316	14128.15
560.679	14094.47
561.041	14096.28
561.404	14069.16
561.767	14153.23
562.129	14095.38
562.492	14143.51
562.854	14103.06
563.217	14012.22
563.579	14095.83
563.941	14113
564.304	14198.65
564.666	14191.42
565.028	14191.65
565.39	14152.78
565.753	14166.11
566.115	14242.49
566.477	14302.38
566.839	14174.92
567.201	14370.17
567.563	14329.04
567.925	14351.19
568.287	14420.79
568.648	14369.04
569.01	14385.99
569.372	14454.69
569.734	14407.01
570.095	14551.19
570.457	14435.71
570.819	14468.93
571.18	14542.15
571.542	14637.74
571.903	14628.92
572.265	14592.99
572.626	14597.51
572.987	14684.97
573.349	14596.61
573.71	14661.46
574.071	14632.76
574.432	14675.48
574.794	14724.06
575.155	14737.62
575.516	14682.71
575.877	14818.75
576.238	14791.63
576.599	14830.73
576.96	14775.36
577.32	14730.62
577.681	14761.35
578.042	14764.29
578.403	14764.06
578.763	14757.28
579.124	14854.91
579.485	14850.39
579.845	14812.42
580.206	14763.83
580.566	14866.21
580.927	14736.49
581.287	14876.6
581.648	14776.94
582.008	14893.1
582.368	14797.73
582.728	14838.86
583.089	14714.34
583.449	14755.47
583.809	14813.1
584.169	14799.99
584.529	14794.12
584.889	14778.98
585.249	14676.83
585.609	14707.34
585.969	14757.06
586.329	14690.84
586.688	14717.96
587.048	14711.86
587.408	14741.46
587.768	14645.65
588.127	14689.71
588.487	14639.77
588.846	14747.34
589.206	14672.54
589.565	14568.59
589.925	14710.5
590.284	14689.26
590.643	14718.86
591.003	14722.71
591.362	14749.82
591.721	14618.08
592.08	14638.19
592.44	14697.85
592.799	14677.51
593.158	14665.76
593.517	14576.04
593.876	14653.56
594.235	14567
594.593	14572.65
594.952	14595.93
595.311	14600
595.67	14616.72
596.029	14640.22
596.387	14675.02
596.746	14699.88
597.104	14583.73
597.463	14505.31
597.822	14726.32
598.18	14647.91
598.538	14512.99
598.897	14713.44
599.255	14553.45
599.613	14708.92
599.972	14613.56
600.33	14628.92
600.688	14569.49
601.046	14537.17
601.404	14616.95
601.762	14565.65
602.12	14630.51
602.478	14685.64
602.836	14631.86
603.194	14578.76
603.552	14679.32
603.91	14566.55
604.268	14682.26
604.625	14621.69
604.983	14665.53
605.341	14569.04
605.698	14704.63
606.056	14651.97
606.413	14603.61
606.771	14749.82
607.128	14715.7
607.485	14612.88
607.843	14694.46
608.2	14690.84
608.557	14756.15
608.914	14651.52
609.272	14821.69
609.629	14701.46
609.986	14785.53
610.343	14750.95
610.7	14866.88
611.057	14807.68
611.414	14749.6
611.771	14741.24
612.127	14796.6
612.484	14842.03
612.841	14845.87
613.198	14794.12
613.554	14763.38
613.911	14927.67
614.267	14868.69
614.624	14784.85
614.98	14926.32
615.337	14861.46
615.693	14834.34
616.05	14946.66
616.406	15041.57
616.762	14987.33
617.118	14964.06
617.475	15002.7
617.831	15044.96
618.187	14940.1
618.543	14985.98
618.899	15034.34
619.255	14973.77
619.611	15043.38
619.967	15025.97
620.323	15101.91
620.678	14973.1
621.034	14966.77
621.39	15006.31
621.746	14916.83
622.101	15161.34
622.457	14954.11
622.812	15045.18
623.168	15113.88
623.523	15116.37
623.879	15136.03
624.234	15040.89
624.589	15016.94
624.945	15119.53
625.3	15126.99
625.655	15068.91
626.01	15105.75
626.365	15038.4
626.72	15129.93
627.075	15072.53
627.43	15028.01
627.785	15056.71
628.14	15119.08
628.495	15122.7
628.85	15104.39
629.205	15034.56
629.559	15165.18
629.914	14990.72
630.269	15083.37
630.623	14970.61
630.978	14962.02
631.332	14956.6
631.687	15065.52
632.041	15044.05
632.396	14972.87
632.75	14853.78
633.104	14900.33
633.459	14839.99
633.813	14880.89
634.167	14764.51
634.521	14817.39
634.875	14852.87
635.229	14886.54
635.583	14772.2
635.937	14667.34
636.291	14730.39
636.645	14627.34
636.999	14647.91
637.352	14710.28
637.706	14607
638.06	14663.27
638.413	14602.48
638.767	14649.49
639.121	14669.37
639.474	14483.84
639.828	14479.1
640.181	14582.37
640.534	14518.42
640.888	14425.99
641.241	14441.81
641.594	14416.05
641.947	14491.3
642.301	14492.88
642.654	14496.95
643.007	14489.72
643.36	14457.18
643.713	14323.62
644.066	14463.73
644.419	14342.15
644.771	14216.28
645.124	14230.06
645.477	14180.57
645.83	14147.13
646.182	14017.19
646.535	13912.11
646.888	13972.9
647.24	13868.94
647.593	13998.43
647.945	13982.84
648.298	13821.49
648.65	13870.3
649.002	13777.87
649.355	13960.24
649.707	13852.67
650.059	14040.01
650.411	14103.74
650.763	14060.12
651.115	14203.17
651.467	14143.29
651.819	14156.39
652.171	14121.14
652.523	14197.52
652.875	14142.16
653.227	14114.81
653.578	14215.83
653.93	14127.69
654.282	14086.56
654.633	14071.88
654.985	14065.77
655.337	14160.69
655.688	14174.7
656.039	14173.79
656.391	14160.91
656.742	14168.14
657.094	14185.09
657.445	14263.28
657.796	14223.06
658.147	14142.38
658.498	14171.53
658.849	14171.08
659.2	14228.71
659.551	14121.82
659.902	14249.5
660.253	14147.58
660.604	14263.96
660.955	14070.75
661.306	14212.44
661.656	14162.95
662.007	14206.11
662.358	14124.3
662.708	14160.24
663.059	14169.73
663.409	14146.9
663.76	14236.17
664.11	14235.94
664.461	14229.61
664.811	14175.15
665.161	14174.92
665.511	14141.03
665.862	14178.09
666.212	14214.02
666.562	14330.63
666.912	14184.64
667.262	14149.84
667.612	14226.45
667.962	14263.96
668.312	14252.66
668.662	14243.62
669.011	14122.04
669.361	14204.3
669.711	14065.1
670.06	14091.08
670.41	14152.1
670.76	14051.54
671.109	14135.38
671.459	14106.9
671.808	14091.31
672.157	14084.3
672.507	13987.58
672.856	14069.39
673.205	14159.78
673.554	14039.79
673.904	14020.8
674.253	14153.68
674.602	14072.33
674.951	13868.72
675.3	13785.78
675.649	13985.1
675.998	13999.56
676.346	14001.6
676.695	14040.92
677.044	13906.23
677.393	13885.89
677.741	13908.26
678.09	13931.31
678.438	13886.34
678.787	13899.45
679.135	13902.16
679.484	13801.83
679.832	13774.71
680.181	13708.27
680.529	13721.6
680.877	13776.52
681.225	13687.25
681.573	13741.49
681.922	13651.1
682.27	13615.62
682.618	13581.95
682.966	13527.03
683.314	13572.23
683.661	13502.85
684.009	13470.76
684.357	13493.36
684.705	13436.41
685.053	13471.44
685.4	13387.6
685.748	13417.88
686.095	13425.79
686.443	13272.8
686.79	13315.74
687.138	13334.49
687.485	13279.35
687.832	13270.77
688.18	13381.27
688.527	13154.16
688.874	13154.84
689.221	13076.87
689.568	13175.63
689.915	13096.08
690.262	12957.1
690.609	12913.04
690.956	12934.96
691.303	12887.05
691.65	12817.22
691.997	12773.83
692.344	12741.06
692.69	12722.76
693.037	12770.89
693.383	12527.74
693.73	12585.59
694.077	12507.4
694.423	12491.58
694.769	12491.13
695.116	12418.59
695.462	12462.88
695.808	12363.9
696.155	12346.05
696.501	12326.38
696.847	12315.99
697.193	12210.23
697.539	12234.41
697.885	12114.19
698.231	12108.31
698.577	12017.69
698.923	12054.53
699.269	11991.25
699.614	11901.99
699.96	11850.24
700.306	11832.61
700.651	11825.61
700.997	11783.35
701.342	11767.76
701.688	11679.4
702.033	11601.21
702.379	11618.83
702.724	11581.09
703.069	11525.5
703.415	11445.96
703.76	11502.45
704.105	11496.35
704.45	11406.86
704.795	11323.47
705.14	11240.31
705.485	11285.06
705.83	11259.29
706.175	11218.17
706.52	11192.18
706.865	11161.44
707.209	11140.65
707.554	11052.97
707.899	11096.81
708.243	11066.98
708.588	10951.28
708.932	10891.85
709.277	10957.38
709.621	10913.31
709.966	10859.76
710.31	10866.54
710.654	10692.98
710.998	10765.75
711.342	10769.14
711.687	10775.24
712.031	10697.95
712.375	10660.67
712.719	10728.69
713.063	10671.74
713.407	10686.88
713.75	10605.53
714.094	10623.83
714.438	10593.1
714.782	10539.31
715.125	10569.82
715.469	10491.63
715.812	10464.96
716.156	10456.83
716.499	10408.7
716.843	10383.39
717.186	10332.09
717.53	10438.3
717.873	10373.67
718.216	10362.14
718.559	10294.12
718.902	10342.71
719.246	10200.11
719.589	10252.99
719.932	10229.04
720.275	10194.69
720.617	10238.08
720.96	10175.26
721.303	10208.02
721.646	10241.24
721.989	10133.45
722.331	10180
722.674	10082.38
723.016	10164.18
723.359	10104.52
723.701	10173.9
724.044	10084.18
724.386	10004.64
724.729	10093.9
725.071	10084.64
725.413	9997.41
725.755	9995.15
726.097	10019.78
726.439	9920.12
726.782	9963.51
727.124	10026.11
727.465	10002.38
727.807	9931.19
728.149	9951.53
728.491	9927.13
728.833	9980.23
729.175	9933.45
729.516	9893
729.858	9961.02
730.199	9930.06
730.541	9877.41
730.882	9918.99
731.224	9960.35
731.565	9839.9
731.906	9827.24
732.248	9945.2
732.589	9826.79
732.93	9831.31
733.271	9867.24
733.612	9894.81
733.953	9915.37
734.294	9798.32
734.635	9829.95
734.976	9812.33
735.317	9782.72
735.658	9794.7
735.999	9789.5
736.339	9797.19
736.68	9829.95
737.021	9796.73
737.361	9768.71
737.702	9839.67
738.042	9832.89
738.383	9836.28
738.723	9848.03
739.063	9797.86
739.404	9952.89
739.744	9812.55
740.084	9794.25
740.424	9859.33
740.764	9931.42
741.104	9911.99
741.444	9848.94
741.784	9860.01
742.124	9854.59
742.464	9902.27
742.804	9957.63
743.143	9950.18
743.483	10019.55
743.823	9926.67
744.162	9996.73
744.502	10081.25
744.841	9982.72
745.181	10087.8
745.52	10079.89
745.86	10110.85
746.199	10186.78
746.538	10204.41
746.877	10302.71
747.216	10302.03
747.556	10389.94
747.895	10318.98
748.234	10387.68
748.573	10447.11
748.911	10488.02
749.25	10561.23
749.589	10640.33
749.928	10587
750.267	10717.16
750.605	10762.13
750.944	10858.85
751.283	10879.64
751.621	11055.23
751.96	10994.89
752.298	11197.6
752.636	11251.61
752.975	11299.75
753.313	11305.85
753.651	11431.72
753.989	11538.61
754.327	11638.95
754.666	11721.43
755.004	11845.49
755.342	12045.49
755.679	12171.36
756.017	12208.87
756.355	12318.02
756.693	12438.25
757.031	12636.43
