Data from hue_80_FLMS001491_90.txt Node
Date: Mon Feb 06 15:23:54 GMT 2017
User: dcchb
Spectrometer: FLMS00149
Trigger mode: 0
Integration Time (sec): 2.000000E-2
Scans to average: 10
Electric dark correction enabled: true
Nonlinearity correction enabled: false
Boxcar width: 0
XAxis mode: Wavelengths
Number of Pixels in Spectrum: 2048
>>>>>Begin Spectral Data<<<<<
341.393	-0.99
341.776	-0.99
342.16	-0.99
342.543	-55
342.927	-74.43
343.31	-83.47
343.693	-89.12
344.077	-57.03
344.46	-49.8
344.843	-57.26
345.226	-15.45
345.61	-21.1
345.993	-11.38
346.376	-7.77
346.759	-0.54
347.142	25
347.525	60.03
347.908	47.82
348.291	72.46
348.674	86.24
349.057	101.38
349.44	127.6
349.823	147.48
350.206	139.57
350.588	192.45
350.971	206.69
351.354	229.06
351.737	223.41
352.119	238.78
352.502	256.41
352.884	278.55
353.267	252.79
353.65	267.03
354.032	276.74
354.414	288.5
354.797	321.26
355.179	330.08
355.562	307.03
355.944	330.3
356.326	356.06
356.709	348.38
357.091	340.25
357.473	336.86
357.855	327.59
358.238	337.76
358.62	339.57
359.002	334.6
359.384	359.23
359.766	340.25
360.148	347.25
360.53	343.41
360.912	321.94
361.294	315.84
361.676	330.3
362.057	317.87
362.439	319
362.821	314.03
363.203	326.69
363.584	321.26
363.966	325.78
364.348	303.18
364.729	312.9
365.111	319.68
365.493	303.18
365.874	301.15
366.256	303.64
366.637	303.86
367.019	306.35
367.4	307.03
367.781	294.37
368.163	293.47
368.544	312.22
368.925	320.36
369.306	319.68
369.688	309.74
370.069	308.16
370.45	299.57
370.831	300.47
371.212	313.13
371.593	322.39
371.974	294.6
372.355	308.61
372.736	314.03
373.117	302.96
373.498	320.13
373.879	305.9
374.26	307.7
374.641	296.18
375.021	323.3
375.402	312
375.783	320.13
376.163	309.51
376.544	302.96
376.925	324.2
377.305	302.51
377.686	303.18
378.066	320.58
378.447	303.64
378.827	338.66
379.208	325.1
379.588	315.39
379.968	314.26
380.349	328.49
380.729	328.95
381.109	315.16
381.489	330.98
381.87	335.05
382.25	321.71
382.63	330.98
383.01	332.56
383.39	330.08
383.77	341.83
384.15	323.97
384.53	339.57
384.91	338.89
385.29	327.59
385.67	345.44
386.049	339.12
386.429	342.51
386.809	348.15
387.189	338.21
387.568	332.56
387.948	337.08
388.328	351.09
388.707	340.47
389.087	337.99
389.466	344.31
389.846	345.89
390.225	347.25
390.605	355.39
390.984	361.49
391.363	349.06
391.743	345.44
392.122	363.75
392.501	338.89
392.881	344.31
393.26	357.65
393.639	344.76
394.018	365.56
394.397	354.48
394.776	371.43
395.155	357.87
395.534	366.46
395.913	347.93
396.292	369.4
396.671	364.88
397.05	363.07
397.429	350.19
397.808	362.84
398.186	377.76
398.565	375.72
398.944	381.6
399.323	373.92
399.701	362.84
400.08	391.77
400.458	379.57
400.837	372.11
401.215	395.61
401.594	386.12
401.972	372.33
402.351	388.15
402.729	364.2
403.107	399
403.486	412.11
403.864	394.26
404.242	403.07
404.62	377.08
404.999	390.64
405.377	403.75
405.755	407.81
406.133	390.64
406.511	415.5
406.889	395.16
407.267	398.77
407.645	421.37
408.023	396.97
408.401	438.55
408.779	415.05
409.156	417.31
409.534	429.51
409.912	424.54
410.29	412.79
410.667	404.2
411.045	434.48
411.422	438.32
411.8	434.71
412.178	430.41
412.555	426.57
412.933	442.16
413.31	435.61
413.687	445.78
414.065	464.08
414.442	447.36
414.819	479.9
415.197	455.95
415.574	477.19
415.951	441.49
416.328	453.69
416.705	468.6
417.082	465.44
417.46	476.74
417.837	473.58
418.214	481.71
418.591	471.32
418.967	467.25
419.344	483.07
419.721	477.42
420.098	481.48
420.475	491.2
420.852	485.33
421.228	507.7
421.605	492.78
421.982	497.76
422.358	506.34
422.735	499.79
423.111	528.49
423.488	508.83
423.864	504.76
424.241	541.82
424.617	545.44
424.994	517.87
425.37	523.74
425.746	540.47
426.123	520.13
426.499	544.99
426.875	524.2
427.251	528.71
427.627	544.08
428.003	574.14
428.379	548.83
428.756	542.27
429.132	574.59
429.507	553.12
429.883	560.13
430.259	588.6
430.635	578.43
431.011	573.69
431.387	596.51
431.763	585.89
432.138	594.25
432.514	596.28
432.89	603.29
433.265	624.53
433.641	620.01
434.016	617.75
434.392	628.15
434.767	635.83
435.143	639.9
435.518	651.2
435.894	628.15
436.269	661.37
436.644	657.75
437.02	638.09
437.395	667.02
437.77	681.25
438.145	664.08
438.52	688.71
438.895	682.38
439.271	691.87
439.646	698.88
440.021	698.88
440.395	735.94
440.77	704.3
441.145	702.5
441.52	712.66
441.895	727.35
442.27	756.96
442.645	733.46
443.019	742.95
443.394	736.62
443.769	737.07
444.143	727.13
444.518	742.72
444.892	787.47
445.267	756.51
445.641	763.06
446.016	769.16
446.39	787.92
446.764	762.38
447.139	760.8
447.513	786.11
447.887	782.04
448.262	789.72
448.636	771.19
449.01	793.57
449.384	826.56
449.758	829.05
450.132	833.34
450.506	807.8
450.88	824.3
451.254	851.64
451.628	852.77
452.002	840.12
452.376	851.87
452.75	859.33
453.123	873.79
453.497	882.15
453.871	866.33
454.244	905.43
454.618	899.55
454.992	911.3
455.365	895.03
455.739	943.17
456.112	923.51
456.486	934.58
456.859	948.59
457.232	956.05
457.606	970.96
457.979	972.09
458.352	975.26
458.725	1023.84
459.099	1017.52
459.472	1042.83
459.845	1040.11
460.218	1047.12
460.591	1054.58
460.964	1044.63
461.337	1073.56
461.71	1107.23
462.083	1129.6
462.456	1108.13
462.829	1089.38
463.201	1146.33
463.574	1151.52
463.947	1161.69
464.32	1185.87
464.692	1193.78
465.065	1203.05
465.438	1227.91
465.81	1238.53
466.183	1241.01
466.555	1304.97
466.928	1278.53
467.3	1303.16
467.672	1340.67
468.045	1339.99
468.417	1333.89
468.789	1393.78
469.161	1395.58
469.534	1443.72
469.906	1486.2
470.278	1463.83
470.65	1511.06
471.022	1560.33
471.394	1603.04
471.766	1628.8
472.138	1636.93
472.51	1669.7
472.882	1687.33
473.253	1733.43
473.625	1772.98
473.997	1769.36
474.369	1833.09
474.74	1871.28
475.112	1927.32
475.484	1977.94
475.855	2014.78
476.227	2018.39
476.598	2108.33
476.97	2184.94
477.341	2172.97
477.713	2271.49
478.084	2304.26
478.455	2408.44
478.827	2448.21
479.198	2515.56
479.569	2548.55
479.94	2662.22
480.311	2677.13
480.682	2792.84
481.053	2871.48
481.424	2949.22
481.795	3014.75
482.166	3120.96
482.537	3154.41
482.908	3297.68
483.279	3364.12
483.65	3463.55
484.021	3614.96
484.391	3643.89
484.762	3758.23
485.133	3786.71
485.503	3963.2
485.874	4101.95
486.244	4186.02
486.615	4275.51
486.985	4376.75
487.356	4557.31
487.726	4615.84
488.097	4761.15
488.467	4851.09
488.837	5037.3
489.207	5121.59
489.578	5305.54
489.948	5386.44
490.318	5540.56
490.688	5639.09
491.058	5779.2
491.428	5903.49
491.798	6025.07
492.168	6206.76
492.538	6335.12
492.908	6442.68
493.278	6613.07
493.648	6637.25
494.017	6912.5
494.387	6968.55
494.757	7112.5
495.126	7186.17
495.496	7348.65
495.866	7483.56
496.235	7670.9
496.605	7770.56
496.974	7815.08
497.344	8036.99
497.713	8113.83
498.082	8283.31
498.452	8354.95
498.821	8510.43
499.19	8641.5
499.559	8705.68
499.928	8861.6
500.298	8933.01
500.667	9141.82
501.036	9125.55
501.405	9306.79
501.774	9414.13
502.143	9455.71
502.512	9610.74
502.88	9731.41
503.249	9806.89
503.618	9926.43
503.987	10071.06
504.356	10145.86
504.724	10228.57
505.093	10298.18
505.462	10351.73
505.83	10500.2
506.199	10665.4
506.567	10788.11
506.936	10812.06
507.304	10985.62
507.672	10982.23
508.041	11127.76
508.409	11245.72
508.777	11375.44
509.145	11436.9
509.514	11479.84
509.882	11569.1
510.25	11644.13
510.618	11710.57
510.986	11845.03
511.354	11826.95
511.722	11963.67
512.09	12115.98
512.458	12108.07
512.826	12250.67
513.193	12293.6
513.561	12338.8
513.929	12426.26
514.297	12486.59
514.664	12632.13
515.032	12701.5
515.4	12851.78
515.767	12797.54
516.135	12950.31
516.502	12840.48
516.869	13060.81
517.237	13126.8
517.604	13043.19
517.972	13259
518.339	13227.36
518.706	13344.88
519.073	13350.75
519.44	13555.49
519.808	13571.99
520.175	13536.06
520.542	13768.14
520.909	13705.77
521.276	13755.49
521.643	13944.18
522.009	14008.36
522.376	14014.91
522.743	14116.15
523.11	14230.05
523.477	14288.35
523.843	14319.54
524.21	14396.6
524.577	14493.09
524.943	14582.36
525.31	14539.42
525.676	14624.84
526.043	14703.94
526.409	14820.09
526.776	14964.72
527.142	14905.74
527.508	14989.8
527.874	15129.23
528.241	15127.2
528.607	14985.06
528.973	15165.62
529.339	15149.57
529.705	15309.12
530.071	15355.22
530.437	15293.07
530.803	15422.11
531.169	15520.19
531.535	15509.56
531.901	15529
532.267	15520.64
532.632	15599.96
532.998	15626.4
533.364	15623.91
533.73	15588.43
534.095	15644.25
534.461	15613.06
534.826	15769.44
535.192	15744.36
535.557	15808.54
535.923	15826.39
536.288	15736.9
536.653	15787.75
537.019	15753.85
537.384	15742.55
537.749	15748.2
538.114	15753.4
538.479	15734.87
538.845	15895.09
539.21	15712.95
539.575	15746.85
539.94	15838.37
540.305	15847.63
540.67	15831.36
541.034	15796.34
541.399	15835.21
541.764	15792.27
542.129	15848.31
542.494	15820.52
542.858	15767.86
543.223	15741.2
543.587	15803.12
543.952	15754.08
544.316	15729.45
544.681	15701.2
545.045	15775.09
545.41	15771.03
545.774	15741.2
546.138	15761.76
546.503	15667.3
546.867	15686.73
547.231	15803.12
547.595	15793.17
547.959	15757.47
548.324	15692.61
548.688	15746.39
549.052	15701.65
549.416	15676.11
549.779	15707.3
550.143	15630.69
550.507	15745.72
550.871	15668.66
551.235	15705.72
551.599	15809.44
551.962	15645.83
552.326	15767.64
552.689	15831.14
553.053	15747.07
553.417	15684.93
553.78	15883.57
554.143	15798.6
554.507	15860.97
554.87	15735.77
555.234	15881.76
555.597	15738.48
555.96	15803.12
556.323	15802.66
556.686	15779.61
557.05	15832.04
557.413	15860.97
557.776	15842.44
558.139	15933.51
558.502	15982.32
558.865	15892.6
559.228	16036.1
559.59	15962.89
559.953	15980.74
560.316	16050.11
560.679	16019.38
561.041	16086.72
561.404	16169.89
561.767	16088.98
562.129	16083.11
562.492	16240.62
562.854	16230.9
563.217	16197
563.579	16266.15
563.941	16306.83
564.304	16315.87
564.666	16404
565.028	16380.5
565.39	16353.84
565.753	16433.38
566.115	16410.11
566.477	16585.47
566.839	16501.18
567.201	16524.68
567.563	16649.87
567.925	16638.57
568.287	16686.03
568.648	16721.28
569.01	16735.52
569.372	16827.04
569.734	16797.67
570.095	16784.11
570.457	16799.25
570.819	16897.1
571.18	16978.9
571.542	16943.88
571.903	16945.91
572.265	16988.4
572.626	17011.45
572.987	17068.39
573.349	16993.37
573.71	17066.13
574.071	17087.6
574.432	17121.5
574.794	17193.14
575.155	17242.63
575.516	17128.28
575.877	17210.31
576.238	17189.07
576.599	17269.97
576.96	17243.08
577.32	17310.65
577.681	17368.05
578.042	17363.75
578.403	17277.88
578.763	17363.53
579.124	17305.67
579.485	17470.19
579.845	17462.51
580.206	17368.95
580.566	17315.39
580.927	17371.66
581.287	17394.71
581.648	17403.3
582.008	17446.01
582.368	17383.19
582.728	17495.95
583.089	17354.49
583.449	17379.35
583.809	17349.06
584.169	17399.46
584.529	17395.39
584.889	17532.34
585.249	17378.44
585.609	17316.97
585.969	17452.56
586.329	17371.44
586.688	17320.59
587.048	17372.79
587.408	17280.59
587.768	17349.97
588.127	17213.02
588.487	17328.95
588.846	17367.14
589.206	17280.36
589.565	17311.32
589.925	17314.49
590.284	17279.23
590.643	17341.38
591.003	17397.65
591.362	17356.52
591.721	17335.5
592.08	17350.19
592.44	17362.4
592.799	17328.05
593.158	17292.34
593.517	17331.66
593.876	17264.77
594.235	17230.87
594.593	17326.47
594.952	17220.93
595.311	17228.39
595.67	17297.99
596.029	17349.74
596.387	17328.27
596.746	17344.09
597.104	17280.36
597.463	17295.73
597.822	17303.64
598.18	17234.04
598.538	17204.66
598.897	17213.47
599.255	17225.23
599.613	17400.14
599.972	17318.33
600.33	17360.36
600.688	17241.27
601.046	17321.49
601.404	17398.33
601.762	17426.35
602.12	17339.12
602.478	17387.25
602.836	17441.72
603.194	17360.59
603.552	17479.68
603.91	17327.82
604.268	17431.32
604.625	17434.03
604.983	17422.06
605.341	17256.41
605.698	17394.49
606.056	17458.21
606.413	17318.56
606.771	17456.86
607.128	17403.07
607.485	17405.79
607.843	17392
608.2	17486.91
608.557	17517.42
608.914	17436.29
609.272	17497.76
609.629	17554.03
609.986	17545.22
610.343	17496.63
610.7	17664.54
611.057	17714.03
611.414	17652.56
611.771	17723.74
612.127	17687.81
612.484	17751.31
612.841	17853.68
613.198	17776.62
613.554	17649.85
613.911	17904.53
614.267	17737.98
614.624	17754.93
614.98	17790.18
615.337	17842.16
615.693	17847.81
616.05	17858.2
616.406	17969.61
616.762	17926.22
617.118	17882.38
617.475	17859.33
617.831	17899.56
618.187	17911.08
618.543	17871.76
618.899	18057.07
619.255	17994.02
619.611	18032.44
619.967	18045.09
620.323	18093.68
620.678	17962.61
621.034	17950.86
621.39	18018.65
621.746	17991.53
622.101	18122.6
622.457	18034.02
622.812	18062.27
623.168	18106.78
623.523	18143.84
623.879	18147.91
624.234	18037.41
624.589	18089.61
624.945	18034.92
625.3	18086.22
625.655	18056.84
626.01	18111.3
626.365	18067.91
626.72	18069.72
627.075	18128.48
627.43	18066.11
627.785	18018.65
628.14	18057.52
628.495	18081.02
628.85	18095.03
629.205	17999.89
629.559	18058.2
629.914	17985.88
630.269	18023.85
630.623	17949.5
630.978	17861.14
631.332	18011.19
631.687	18020.91
632.041	18005.54
632.396	17911.76
632.75	17956.05
633.104	18030.63
633.459	17780.01
633.813	17865.21
634.167	17872.21
634.521	17803.51
634.875	17831.76
635.229	17843.51
635.583	17798.32
635.937	17777.07
636.291	17783.85
636.645	17765.78
636.999	17784.08
637.352	17781.82
637.706	17597.87
638.06	17709.28
638.413	17686.46
638.767	17589.51
639.121	17668.6
639.474	17496.4
639.828	17579.34
640.181	17636.06
640.534	17587.93
640.888	17485.33
641.241	17413.02
641.594	17491.88
641.947	17464.54
642.301	17461.15
642.654	17427.25
643.007	17389.06
643.36	17406.24
643.713	17410.08
644.066	17424.54
644.419	17308.84
644.771	17262.51
645.124	17140.93
645.477	17108.39
645.83	16996.76
646.182	16913.37
646.535	16872.47
646.888	16888.51
647.24	16811.9
647.593	16894.16
647.945	16870.88
648.298	16792.02
648.65	16797.67
649.002	16695.3
649.355	16879.25
649.707	16831.56
650.059	16886.93
650.411	17059.35
650.763	16999.24
651.115	17235.39
651.467	17202.63
651.819	17227.26
652.171	17111.1
652.523	17127.37
652.875	17163.08
653.227	17098
653.578	17172.8
653.93	17162.63
654.282	17104.1
654.633	17116.53
654.985	17164.89
655.337	17149.75
655.688	17188.16
656.039	17175.51
656.391	17060.03
656.742	17037.89
657.094	17060.26
657.445	17215.28
657.796	17114.04
658.147	17175.73
658.498	17167.37
658.849	17159.69
659.2	17130.31
659.551	17032.46
659.902	17111.33
660.253	17153.59
660.604	17109.97
660.955	17099.13
661.306	17235.39
661.656	17101.84
662.007	17224.55
662.358	17227.26
662.708	17153.81
663.059	17184.1
663.409	17039.69
663.76	17212.8
664.11	17228.16
664.461	17135.96
664.811	17292.57
665.161	17209.18
665.511	17113.82
665.862	17190.65
666.212	17252.34
666.562	17297.09
666.912	17191.55
667.262	17224.55
667.612	17172.35
667.962	17241.27
668.312	17231.78
668.662	17311.55
669.011	17297.54
669.361	17167.83
669.711	17101.16
670.06	17133.48
670.41	17182.29
670.76	17133.25
671.109	17170.99
671.459	17171.22
671.808	17062.29
672.157	17072.46
672.507	17067.26
672.856	16929.19
673.205	16964.89
673.554	17060.48
673.904	16979.13
674.253	17029.75
674.602	16974.84
674.951	16796.08
675.3	16716.31
675.649	17012.8
675.998	16934.61
676.346	16937.77
676.695	16953.82
677.044	16857.1
677.393	16843.99
677.741	16929.19
678.09	16835.18
678.438	16841.96
678.787	16871.34
679.135	16772.58
679.484	16782.75
679.832	16809.42
680.181	16691
680.529	16697.56
680.877	16677.44
681.225	16731.68
681.573	16725.58
681.922	16656.88
682.27	16563.32
682.618	16478.13
682.966	16498.69
683.314	16495.3
683.661	16491.01
684.009	16421.18
684.357	16410.11
684.705	16246.49
685.053	16309.32
685.4	16287.17
685.748	16181.86
686.095	16175.99
686.443	16140.06
686.79	16122.66
687.138	16055.99
687.485	16126.5
687.832	16047.63
688.18	16017.35
688.527	15955.2
688.874	16003.11
689.221	15937.58
689.568	15897.58
689.915	15785.94
690.262	15865.49
690.609	15774.87
690.956	15764.25
691.303	15703.23
691.65	15582.56
691.997	15620.07
692.344	15494.2
692.69	15460.98
693.037	15409.23
693.383	15319.74
693.73	15387.53
694.077	15255.79
694.423	15259.18
694.769	15192.96
695.116	15202.23
695.462	15109.57
695.808	15089.91
696.155	15103.7
696.501	14886.53
696.847	14936.7
697.193	14807.44
697.539	14886.08
697.885	14698.96
698.231	14668.68
698.577	14741.67
698.923	14596.14
699.269	14515.47
699.614	14454.68
699.96	14429.14
700.306	14483.15
700.651	14308.01
700.997	14282.48
701.342	14311.63
701.688	14242.93
702.033	14172.2
702.379	14119.54
702.724	14137.17
703.069	14222.82
703.415	13963.39
703.76	14020.34
704.105	14030.51
704.45	13938.53
704.795	13851.53
705.14	13814.69
705.485	13777.18
705.83	13726.56
706.175	13691.08
706.52	13640.01
706.865	13611.31
707.209	13627.13
707.554	13547.36
707.899	13550.07
708.243	13442.5
708.588	13459.67
708.932	13297.87
709.277	13380.81
709.621	13342.84
709.966	13284.09
710.31	13324.76
710.654	13128.61
710.998	13161.83
711.342	13246.8
711.687	13161.83
712.031	13080.7
712.375	13028.5
712.719	13083.19
713.063	12975.85
713.407	12976.07
713.75	12923.19
714.094	12874.83
714.438	12790.09
714.782	12840.93
715.125	12801.84
715.469	12813.36
715.812	12765
716.156	12717.77
716.499	12791.44
716.843	12719.81
717.186	12653.82
717.53	12732.91
717.873	12673.03
718.216	12642.29
718.559	12619.47
718.902	12523.65
719.246	12580.15
719.589	12459.47
719.932	12406.82
720.275	12486.37
720.617	12457.89
720.96	12412.7
721.303	12430.32
721.646	12389.42
721.989	12332.92
722.331	12362.53
722.674	12407.5
723.016	12401.17
723.359	12267.62
723.701	12383.32
724.044	12233.04
724.386	12259.93
724.729	12330.21
725.071	12248.41
725.413	12262.42
725.755	12216.32
726.097	12212.48
726.439	12077.11
726.782	12143.1
727.124	12197.56
727.465	12174.74
727.807	12214.96
728.149	12115.98
728.491	12091.35
728.833	12110.33
729.175	11993.5
729.516	12166.6
729.858	12094.96
730.199	12088.64
730.541	12091.35
730.882	12057.9
731.224	12092.48
731.565	11957.57
731.906	12042.08
732.248	12043.21
732.589	11970.22
732.93	11996.21
733.271	12006.38
733.612	12022.88
733.953	11973.39
734.294	11967.06
734.635	11911.01
734.976	12022.2
735.317	12001.41
735.658	11906.72
735.999	11996.66
736.339	11956.89
736.68	11962.09
737.021	11984.91
737.361	11898.81
737.702	11917.12
738.042	12021.97
738.383	11942.2
738.723	11971.35
739.063	11972.03
739.404	11992.37
739.744	12022.65
740.084	11948.08
740.424	11984.01
740.764	11984.46
741.104	12068.52
741.444	11979.49
741.784	11962.09
742.124	12014.29
742.464	12066.04
742.804	12022.65
743.143	12049.54
743.483	12064.91
743.823	12015.19
744.162	12032.37
744.502	12183.1
744.841	12132.25
745.181	12192.81
745.52	12207.96
745.86	12300.61
746.199	12297.45
746.538	12327.95
746.877	12358.91
747.216	12394.84
747.556	12471.45
747.895	12515.07
748.234	12525.91
748.573	12618.11
748.911	12650.43
749.25	12669.19
749.589	12673.48
749.928	12811.1
750.267	12900.37
750.605	12852.01
750.944	12965.68
751.283	12955.28
751.621	13099.68
751.96	13145.11
752.298	13221.71
752.636	13317.08
752.975	13331.54
753.313	13418.55
753.651	13601.14
753.989	13668.48
754.327	13704.87
754.666	13740.8
755.004	13893.56
755.342	13938.76
755.679	14086.78
756.017	14121.35
756.355	14288.13
756.693	14397.73
757.031	14455.35
757.368	14502.36
