Data from hue_10_FLMS001491_22.txt Node
Date: Mon Feb 06 15:31:39 GMT 2017
User: dcchb
Spectrometer: FLMS00149
Trigger mode: 0
Integration Time (sec): 2.000000E-2
Scans to average: 10
Electric dark correction enabled: true
Nonlinearity correction enabled: false
Boxcar width: 0
XAxis mode: Wavelengths
Number of Pixels in Spectrum: 2048
>>>>>Begin Spectral Data<<<<<
341.393	-11.43
341.776	-11.43
342.16	-11.43
342.543	-66.34
342.927	-74.02
343.31	-65.21
343.693	-68.37
344.077	-53.69
344.46	-62.95
344.843	-51.43
345.226	-36.96
345.61	-21.6
345.993	-18.66
346.376	2.36
346.759	10.27
347.142	8.69
347.525	38.52
347.908	62.02
348.291	55.69
348.674	102.24
349.057	99.08
349.44	100.66
349.823	142.69
350.206	149.47
350.588	198.74
350.971	202.58
351.354	233.54
351.737	246.19
352.119	259.53
352.502	261.11
352.884	267.44
353.267	261.79
353.65	294.1
354.032	296.14
354.414	296.14
354.797	317.6
355.179	336.81
355.562	326.42
355.944	326.19
356.326	317.83
356.709	328
357.091	342.46
357.473	320.77
357.855	329.13
358.238	356.25
358.62	348.11
359.002	367.32
359.384	363.48
359.766	340.2
360.148	354.67
360.53	335.68
360.912	329.36
361.294	355.57
361.676	322.12
362.057	336.14
362.439	324.61
362.821	345.63
363.203	323.03
363.584	317.15
363.966	323.03
364.348	321.22
364.729	312.18
365.111	335.01
365.493	314.44
365.874	316.47
366.256	290.26
366.637	315.12
367.019	318.28
367.4	315.57
367.781	317.15
368.163	295.23
368.544	308.11
368.925	299.3
369.306	322.58
369.688	326.64
370.069	302.69
370.45	310.37
370.831	321.45
371.212	317.15
371.593	310.37
371.974	326.42
372.355	319.86
372.736	300.43
373.117	309.47
373.498	320.99
373.879	327.55
374.26	317.38
374.641	314.44
375.021	319.64
375.402	330.71
375.783	314.89
376.163	320.54
376.544	342.46
376.925	352.18
377.305	325.97
377.686	319.19
378.066	330.26
378.447	331.84
378.827	335.68
379.208	308.34
379.588	316.7
379.968	323.93
380.349	310.83
380.729	317.6
381.109	312.18
381.489	318.73
381.87	314.67
382.25	332.52
382.63	325.06
383.01	322.8
383.39	341.33
383.77	344.5
384.15	338.85
384.53	321.67
384.91	348.34
385.29	331.39
385.67	337.94
386.049	354.89
386.429	358.51
386.809	342.46
387.189	371.61
387.568	346.76
387.948	344.5
388.328	338.85
388.707	339.07
389.087	365.51
389.466	339.3
389.846	348.11
390.225	341.33
390.605	343.82
390.984	336.59
391.363	340.2
391.743	355.34
392.122	378.62
392.501	349.47
392.881	363.48
393.26	357.15
393.639	361.67
394.018	370.48
394.397	365.74
394.776	350.6
395.155	364.16
395.534	366.87
395.913	356.02
396.292	354.44
396.671	381.56
397.05	385.4
397.429	384.72
397.808	368.22
398.186	382.69
398.565	384.27
398.944	393.08
399.323	396.02
399.701	406.87
400.08	385.17
400.458	404.83
400.837	386.53
401.215	369.58
401.594	386.53
401.972	379.07
402.351	380.2
402.729	388.11
403.107	400.54
403.486	386.76
403.864	406.87
404.242	429.69
404.62	410.94
404.999	414.55
405.377	418.39
405.755	418.84
406.133	421.33
406.511	395.34
406.889	424.27
407.267	427.88
407.645	423.59
408.023	403.03
408.401	437.15
408.779	436.7
409.156	439.64
409.534	405.51
409.912	423.59
410.29	423.59
410.667	443.48
411.045	452.52
411.422	457.94
411.8	438.96
412.178	462.91
412.555	456.58
412.933	447.54
413.31	464.95
413.687	451.84
414.065	451.16
414.442	456.81
414.819	470.82
415.197	486.19
415.574	483.7
415.951	468.79
416.328	454.55
416.705	469.24
417.082	469.47
417.46	494.78
417.837	485.28
418.214	490.71
418.591	475.11
418.967	496.58
419.344	510.14
419.721	501.55
420.098	490.26
420.475	506.98
420.852	497.49
421.228	501.1
421.605	487.77
421.982	503.14
422.358	521.44
422.735	514.21
423.111	532.74
423.488	532.97
423.864	529.35
424.241	542.91
424.617	539.52
424.994	556.24
425.37	548.33
425.746	525.96
426.123	534.77
426.499	548.56
426.875	545.17
427.251	569.8
427.627	561.21
428.003	574.55
428.379	558.05
428.756	582.46
429.132	550.82
429.507	574.32
429.883	603.92
430.259	579.52
430.635	586.98
431.011	571.38
431.387	593.98
431.763	609.8
432.138	624.72
432.514	637.82
432.89	624.72
433.265	610.7
433.641	629.91
434.016	611.38
434.392	659.06
434.767	635.56
435.143	654.54
435.518	643.7
435.894	650.25
436.269	666.07
436.644	665.62
437.02	690.48
437.395	658.16
437.77	674.66
438.145	694.32
438.52	700.65
438.895	695.9
439.271	699.06
439.646	690.02
440.021	727.76
440.395	716.69
440.77	720.76
441.145	724.83
441.52	736.12
441.895	746.75
442.27	745.84
442.645	721.66
443.019	730.02
443.394	756.24
443.769	733.41
444.143	749.46
444.518	738.61
444.892	741.77
445.267	753.3
445.641	767.08
446.016	747.88
446.39	759.85
446.764	778.16
447.139	774.09
447.513	769.8
447.887	797.82
448.262	798.27
448.636	758.27
449.01	806.63
449.384	802.34
449.758	795.78
450.132	817.25
450.506	814.09
450.88	821.55
451.254	810.25
451.628	828.33
452.002	826.07
452.376	838.72
452.75	847.31
453.123	864.71
453.497	850.25
453.871	870.81
454.244	877.82
454.618	874.65
454.992	881.88
455.365	893.86
455.739	892.5
456.112	909.91
456.486	928.44
456.859	919.4
457.232	924.82
457.606	930.02
457.979	946.29
458.352	945.61
458.725	970.69
459.099	959.85
459.472	988.1
459.845	999.39
460.218	1019.96
460.591	985.61
460.964	995.1
461.337	1031.94
461.71	1048.66
462.083	1042.56
462.456	1054.76
462.829	1049.34
463.201	1087.08
463.574	1076.68
463.947	1087.98
464.32	1107.19
464.692	1098.83
465.065	1143.12
465.438	1128.88
465.81	1154.42
466.183	1151.26
466.555	1200.75
466.928	1233.74
467.3	1201.65
467.672	1228.77
468.045	1254.76
468.417	1231.93
468.789	1230.35
469.161	1267.41
469.534	1298.14
469.906	1311.7
470.278	1314.19
470.65	1314.87
471.022	1351.93
471.394	1370.91
471.766	1405.71
472.138	1411.14
472.51	1428.31
472.882	1479.61
473.253	1493.62
473.625	1503.56
473.997	1551.02
474.369	1531.13
474.74	1559.15
475.112	1572.03
475.484	1619.49
475.855	1660.39
476.227	1675.08
476.598	1706.95
476.97	1727.51
477.341	1794.63
477.713	1790.79
478.084	1816.32
478.455	1831.01
478.827	1844.8
479.198	1926.15
479.569	1925.02
479.94	1988.97
480.311	1992.14
480.682	2047.28
481.053	2085.92
481.424	2143.32
481.795	2170.44
482.166	2189.19
482.537	2233.49
482.908	2265.12
483.279	2311.45
483.65	2376.08
484.021	2394.39
484.391	2414.27
484.762	2488.62
485.133	2492.69
485.503	2520.71
485.874	2578.56
486.244	2626.02
486.615	2649.97
486.985	2735.39
487.356	2754.6
487.726	2773.59
488.097	2833.7
488.467	2892
488.837	2935.16
489.207	2981.26
489.578	3058.55
489.948	3073.01
490.318	3131.32
490.688	3152.56
491.058	3204.08
491.428	3271.43
491.798	3240.24
492.168	3353.91
492.538	3362.27
492.908	3414.47
493.278	3430.97
493.648	3430.07
494.017	3491.31
494.387	3574.92
494.757	3589.38
495.126	3632.77
495.496	3608.14
495.866	3680
496.235	3717.52
496.605	3740.34
496.974	3758.64
497.344	3800.68
497.713	3841.35
498.082	3877.29
498.452	3925.65
498.821	3927.91
499.19	3988.92
499.559	4029.15
499.928	3995.7
500.298	4011.29
500.667	4044.06
501.036	4061.01
501.405	4112.53
501.774	4091.06
502.143	4139.43
502.512	4158.18
502.88	4195.24
503.249	4252.42
503.618	4194.79
503.987	4274.79
504.356	4317.73
504.724	4302.36
505.093	4343.71
505.462	4359.08
505.83	4365.18
506.199	4397.27
506.567	4456.03
506.936	4437.95
507.304	4515.46
507.672	4551.17
508.041	4501.45
508.409	4573.09
508.777	4603.14
509.145	4610.15
509.514	4605.85
509.882	4650.15
510.25	4650.82
510.618	4613.99
510.986	4682.46
511.354	4723.36
511.722	4766.75
512.09	4721.1
512.458	4777.83
512.826	4804.27
513.193	4833.42
513.561	4829.8
513.929	4856.69
514.297	4941.44
514.664	4881.78
515.032	4938.05
515.4	4939.63
515.767	4913.87
516.135	4971.27
516.502	4929.23
516.869	5008.1
517.237	5049.91
517.604	4991.15
517.972	5057.82
518.339	5065.95
518.706	5100.76
519.073	5120.87
519.44	5123.13
519.808	5181.21
520.175	5159.29
520.542	5161.09
520.909	5188.44
521.276	5214.88
521.643	5285.16
522.009	5245.84
522.376	5305.5
522.743	5359.28
523.11	5413.97
523.477	5358.38
523.843	5395.44
524.21	5417.36
524.577	5474.53
524.943	5508.2
525.31	5540.52
525.676	5542.78
526.043	5593.85
526.409	5610.8
526.776	5600.86
527.142	5683.11
527.508	5683.11
527.874	5786.84
528.241	5732.6
528.607	5752.94
528.973	5872.26
529.339	5838.36
529.705	5831.36
530.071	5905.25
530.437	5892.83
530.803	5954.52
531.169	5987.96
531.535	5974.41
531.901	6043.56
532.267	6037.91
532.632	6098.24
532.998	6065.93
533.364	6095.76
533.73	6127.17
534.095	6125.59
534.461	6170.33
534.826	6181.18
535.192	6249.43
535.557	6259.6
535.923	6300.5
536.288	6326.26
536.653	6364.23
537.019	6300.72
537.384	6396.09
537.749	6428.86
538.114	6361.29
538.479	6396.31
538.845	6522.41
539.21	6478.35
539.575	6479.48
539.94	6547.95
540.305	6592.02
540.67	6592.24
541.034	6584.33
541.399	6618.91
541.764	6688.06
542.129	6712.92
542.494	6718.34
542.858	6750.2
543.223	6774.38
543.587	6801.73
543.952	6840.82
544.316	6851.22
544.681	6847.83
545.045	6887.6
545.41	6910.2
545.774	6938.9
546.138	7004.43
546.503	7067.94
546.867	7031.1
547.231	7094.38
547.595	7106.13
547.959	7132.57
548.324	7164.66
548.688	7161.94
549.052	7202.17
549.416	7250.53
549.779	7207.82
550.143	7285.33
550.507	7314.48
550.871	7334.6
551.235	7373.69
551.599	7336.4
551.962	7327.82
552.326	7379.11
552.689	7438.32
553.053	7374.82
553.417	7452.11
553.78	7514.48
554.143	7546.12
554.507	7541.37
554.87	7567.13
555.234	7661.59
555.597	7619.33
555.96	7618.43
556.323	7651.42
556.686	7646.45
557.05	7798.54
557.413	7758.76
557.776	7782.95
558.139	7819.78
558.502	7822.27
558.865	7859.78
559.228	7931.19
559.59	7876.95
559.953	7928.7
560.316	8009.61
560.679	7993.11
561.041	8097.74
561.404	8024.29
561.767	8095.71
562.129	8015.93
562.492	8097.51
562.854	8138.64
563.217	8145.87
563.579	8256.15
563.941	8266.55
564.304	8294.57
564.666	8370.73
565.028	8324.85
565.39	8389.03
565.753	8383.38
566.115	8410.95
566.477	8466.32
566.839	8494.56
567.201	8508.35
567.563	8523.94
567.925	8521.46
568.287	8580.21
568.648	8589.93
569.01	8683.49
569.372	8668.35
569.734	8771.17
570.095	8748.12
570.457	8736.82
570.819	8834.44
571.18	8892.52
571.542	8876.02
571.903	8932.07
572.265	8990.37
572.626	9086.87
572.987	9143.59
573.349	9115.11
573.71	9192.85
574.071	9184.49
574.432	9358.27
574.794	9313.07
575.155	9422.68
575.516	9458.38
575.877	9582.67
576.238	9658.38
576.599	9663.35
576.96	9724.14
577.32	9802.55
577.681	9933.17
578.042	9998.25
578.403	9972.27
578.763	10152.83
579.124	10290.9
579.485	10321.41
579.845	10476.43
580.206	10624.45
580.566	10688.18
580.927	10766.6
581.287	10955.07
581.648	11050.66
582.008	11203.42
582.368	11402.96
582.728	11503.3
583.089	11678.66
583.449	11812.22
583.809	12016.05
584.169	12269.15
584.529	12369.94
584.889	12634.12
585.249	12727.22
585.609	13017.38
585.969	13266.64
586.329	13376.02
586.688	13631.6
587.048	13960.86
587.408	14082.44
587.768	14306.84
588.127	14602.88
588.487	14800.61
588.846	15106.82
589.206	15350.66
589.565	15724.66
589.925	15954.48
590.284	16222.27
590.643	16537.97
591.003	16867.9
591.362	17174.34
591.721	17480.77
592.08	17863.13
592.44	18106.06
592.799	18410.46
593.158	18675.31
593.517	19027.85
593.876	19413.83
594.235	19638.9
594.593	20104.2
594.952	20426
595.311	20793.45
595.67	21021.69
596.029	21538.06
596.387	21851.05
596.746	22274.09
597.104	22371.04
597.463	22658.49
597.822	23236.55
598.18	23425.92
598.538	23724.22
598.897	24300.25
599.255	24385.45
599.613	25007.12
599.972	25150.85
600.33	25601.23
600.688	25779.08
601.046	26250.03
601.404	26623.13
601.762	26844.36
602.12	27419.26
602.478	27584.91
602.836	27901.74
603.194	28128.62
603.552	28620.14
603.91	28702.17
604.268	29155.26
604.625	29348.71
604.983	29947.56
605.341	29953.21
605.698	30321.56
606.056	30830.25
606.413	30951.83
606.771	31322.67
607.128	31728.3
607.485	31761.07
607.843	32112.02
608.2	32409.87
608.557	32902.51
608.914	33123.52
609.272	33511.76
609.629	33658.2
609.986	34024.74
610.343	34184.28
610.7	34635.57
611.057	34737.72
611.414	35027.88
611.771	35196.24
612.127	35504.25
612.484	35715.09
612.841	36115.76
613.198	36193.5
613.554	36342.65
613.911	36821.05
614.267	36881.39
614.624	36935.85
614.98	37324.54
615.337	37618.09
615.693	37687.24
616.05	37842.49
616.406	38168.59
616.762	38165.65
617.118	38438.18
617.475	38557.05
617.831	38776.71
618.187	38924.05
618.543	39202.68
618.899	39454.43
619.255	39524.03
619.611	39623.01
619.967	39888.54
620.323	40093.96
620.678	40043.34
621.034	40193.17
621.39	40362.43
621.746	40518.36
622.101	40881.96
622.457	40717.67
622.812	40992.69
623.168	41159.02
623.523	41152.46
623.879	41313.59
624.234	41230.43
624.589	41524.43
624.945	41639
625.3	41597.65
625.655	41761.94
626.01	41950.86
626.365	42102.95
626.72	42006.68
627.075	42155.83
627.43	42060.69
627.785	42231.3
628.14	42295.71
628.495	42285.77
628.85	42321.47
629.205	42343.62
629.559	42595.36
629.914	42553.33
630.269	42552.88
630.623	42612.76
630.978	42543.39
631.332	42714.68
631.687	42850.27
632.041	42692.54
632.396	42866.99
632.75	42914
633.104	42868.58
633.459	42785.87
633.813	42859.31
634.167	42882.36
634.521	42896.6
634.875	43017.27
635.229	43068.8
635.583	42961
635.937	42757.84
636.291	42846.66
636.645	42933.21
636.999	42812.31
637.352	42961
637.706	42948.35
638.06	42937.05
638.413	42888.46
638.767	42908.12
639.121	42921.68
639.474	42806.2
639.828	42795.13
640.181	42878.29
640.534	42847.56
640.888	42792.65
641.241	42798.97
641.594	42821.35
641.947	43012.75
642.301	42804.62
642.654	42812.08
643.007	42843.27
643.36	42897.95
643.713	42679.88
644.066	43011.85
644.419	42803.04
644.771	42541.81
645.124	42126.67
645.477	42081.25
645.83	41822.95
646.182	41743.18
646.535	41572.57
646.888	41810.3
647.24	41587.03
647.593	41707.25
647.945	41656.18
648.298	41536.63
648.65	41486.47
649.002	41329.63
649.355	41445.11
649.707	41502.06
650.059	41586.8
650.411	42092.1
650.763	42138.43
651.115	42585.19
651.467	42308.59
651.819	42362.15
652.171	42258.65
652.523	42274.24
652.875	42440.56
653.227	42076.96
653.578	42351.98
653.93	42307.24
654.282	42248.03
654.633	42182.72
654.985	42238.08
655.337	42142.04
655.688	42176.84
656.039	42420.23
656.391	41972.33
656.742	42120.57
657.094	42120.57
657.445	42140.01
657.796	42148.37
658.147	42031.54
658.498	41899.79
658.849	42091.42
659.2	42038.99
659.551	41891.2
659.902	42126.9
660.253	42057.98
660.604	42061.37
660.955	41850.07
661.306	41962.16
661.656	41880.81
662.007	41838.55
662.358	41951.99
662.708	41905.66
663.059	41931.2
663.409	41728.95
663.76	42032.21
664.11	41928.04
664.461	42057.3
664.811	42034.02
665.161	41939.11
665.511	41880.13
665.862	41903.4
666.212	42016.17
666.562	41940.01
666.912	41956.06
667.262	41970.29
667.612	41926.23
667.962	41923.29
668.312	41881.03
668.662	42022.95
669.011	41892.1
669.361	41830.86
669.711	41597.2
670.06	41767.14
670.41	41626.35
670.76	41622.28
671.109	41738.21
671.459	41627.7
671.808	41573.02
672.157	41764.88
672.507	41440.59
672.856	41608.5
673.205	41624.99
673.554	41756.06
673.904	41657.31
674.253	41806.46
674.602	41597.2
674.951	41064.33
675.3	40922.86
675.649	41495.05
675.998	41370.31
676.346	41440.59
676.695	41515.62
677.044	41174.84
677.393	41309.07
677.741	41450.76
678.09	41274.95
678.438	41142.07
678.787	41211.44
679.135	41429.29
679.484	41076.76
679.832	41299.13
680.181	40886.48
680.529	41158.34
680.877	40980.26
681.225	40961.51
681.573	41188.85
681.922	40760.61
682.27	40802.64
682.618	40823.66
682.966	40501.41
683.314	40612.14
683.661	40595.42
684.009	40339.83
684.357	40288.31
684.705	40253.96
685.053	40289.43
685.4	40274.29
685.748	40140.51
686.095	40164.01
686.443	40050.57
686.79	39930.35
687.138	40030.68
687.485	40068.42
687.832	39909.78
688.18	39954.75
688.527	39838.15
688.874	39719.05
689.221	39581.43
689.568	39621.43
689.915	39400.19
690.262	39381.89
690.609	39213.98
690.956	39240.65
691.303	39160.43
691.65	38952.3
691.997	38973.09
692.344	38719.08
692.69	38642.7
693.037	38704.84
693.383	38238.87
693.73	38505.75
694.077	38285.87
694.423	38307.11
694.769	38241.13
695.116	38134.24
695.462	38045.65
695.808	37965.43
696.155	37890.18
696.501	37597.08
696.847	37707.81
697.193	37459.45
697.539	37562.95
697.885	37185.11
698.231	37269.18
698.577	37132
698.923	37353.92
699.269	37089.97
699.614	36800.26
699.96	36804.55
700.306	36896.98
700.651	36688.85
700.997	36593.94
701.342	36455.86
701.688	36459.03
702.033	36274.63
702.379	36264.46
702.724	36195.31
703.069	36261.74
703.415	35753.96
703.76	35847.07
704.105	36000.51
704.45	35753.96
704.795	35595.77
705.14	35507.41
705.485	35531.37
705.83	35231.49
706.175	35398.04
706.52	35350.13
706.865	35159.4
707.209	35060.19
707.554	35004.38
707.899	35005.51
708.243	34800.54
708.588	34832.86
708.932	34619.08
709.277	34584.05
709.621	34664.05
709.966	34474.67
710.31	34504.95
710.654	34225.64
710.998	34192.65
711.342	34216.15
711.687	34086.66
712.031	34013.44
712.375	33956.49
712.719	34022.03
713.063	33857.29
713.407	33848.47
713.75	33764.41
714.094	33813.67
714.438	33580.23
714.782	33587.01
715.125	33457.52
715.469	33423.85
715.812	33222.28
716.156	33104.77
716.499	33100.92
716.843	33126.23
717.186	33018.44
717.53	33100.25
717.873	33114.03
718.216	32984.77
718.559	32838.33
718.902	32679.24
719.246	32716.07
719.589	32624.33
719.932	32465.23
720.275	32494.39
720.617	32427.27
720.96	32555.85
721.303	32390.43
721.646	32394.28
721.989	32081.97
722.331	32364.45
722.674	32102.53
723.016	32090.78
723.359	32051.01
723.701	32127.16
724.044	31913.38
724.386	31749.77
724.729	31886.94
725.071	31899.83
725.413	31721.07
725.755	31765.14
726.097	31622.77
726.439	31460.29
726.782	31557.69
727.124	31672.94
727.465	31476.33
727.807	31426.62
728.149	31340.52
728.491	31275.66
728.833	31404.24
729.175	31223.91
729.516	31202.89
729.858	31235.44
730.199	31159.05
730.541	30989.11
730.882	31001.77
731.224	31048.77
731.565	30835.45
731.906	30829.57
732.248	30900.98
732.589	30614.66
732.93	30553.42
733.271	30697.14
733.612	30622.34
733.953	30639.97
734.294	30565.4
734.635	30457.38
734.976	30557.04
735.317	30372.41
735.658	30413.76
735.999	30376.93
736.339	30233.88
736.68	30323.6
737.021	30152.75
737.361	30159.76
737.702	30203.6
738.042	30084.51
738.383	30049.25
738.723	30133.77
739.063	29951.18
739.404	29947.11
739.744	29973.77
740.084	29743.95
740.424	29849.48
740.764	29840.9
741.104	29827.79
741.444	29688.36
741.784	29659.43
742.124	29639.32
742.464	29702.82
742.804	29542.15
743.143	29508.02
743.483	29479.1
743.823	29353.9
744.162	29333.11
744.502	29417.4
744.841	29220.8
745.181	29305.99
745.52	29207.69
745.86	29236.84
746.199	29170.86
746.538	29238.43
746.877	29093.35
747.216	29114.59
747.556	29042.05
747.895	29061.26
748.234	28873.69
748.573	28899.23
748.911	28859.45
749.25	28829.62
749.589	28768.38
749.928	28711.89
750.267	28843.63
750.605	28698.1
750.944	28708.27
751.283	28513.25
751.621	28661.72
751.96	28430.54
752.298	28248.85
752.636	28400.93
752.975	28435.28
753.313	28243.42
753.651	28399.13
753.989	28057.44
754.327	28063.99
754.666	27941.96
755.004	27996.2
755.342	28031.68
755.679	28023.54
756.017	27755.98
756.355	27805.92
756.693	27687.05
757.031	27879.14
757.368	27586.72
757.706	27605.93
758.044	27512.6
758.381	27576.55
758.719	27385.82
759.056	27401.86
759.394	27261.3
759.731	27164.81
760.068	27105.6
760.405	27070.12
