Data from hue_130_FLMS001491_00092.txt Node
Date: Tue Feb 07 16:58:20 GMT 2017
User: dcchb
Spectrometer: FLMS00149
Trigger mode: 0
Integration Time (sec): 2.000000E-2
Scans to average: 10
Electric dark correction enabled: true
Nonlinearity correction enabled: false
Boxcar width: 0
XAxis mode: Wavelengths
Number of Pixels in Spectrum: 2048
>>>>>Begin Spectral Data<<<<<
341.393	-18.67
341.776	-18.67
342.16	-18.67
342.543	-64.55
342.927	-68.39
343.31	-71.55
343.693	-63.64
344.077	-65.68
344.46	-67.48
344.843	-46.47
345.226	-51.21
345.61	-27.03
345.993	-26.13
346.376	12.97
346.759	19.52
347.142	15.68
347.525	27.43
347.908	62.23
348.291	80.31
348.674	80.76
349.057	120.31
349.44	120.31
349.823	163.7
350.206	157.37
350.588	211.15
350.971	219.29
351.354	237.14
351.737	238.04
352.119	223.58
352.502	222.68
352.884	269.23
353.267	281.89
353.65	279.63
354.032	297.03
354.414	332.96
354.797	311.71
355.179	337.93
355.562	329.57
355.944	329.34
356.326	304.71
356.709	327.08
357.091	349.68
357.473	345.39
357.855	342.67
358.238	331.83
358.62	356.91
359.002	322.56
359.384	353.75
359.766	343.58
360.148	349.45
360.53	330.47
360.912	333.41
361.294	325.27
361.676	328.44
362.057	324.82
362.439	318.27
362.821	323.47
363.203	321.21
363.584	316.46
363.966	317.82
364.348	318.04
364.729	330.47
365.111	320.53
365.493	316.69
365.874	317.59
366.256	311.94
366.637	312.39
367.019	301.55
367.4	294.77
367.781	304.26
368.163	308.78
368.544	336.35
368.925	325.05
369.306	311.94
369.688	313.3
370.069	309.23
370.45	313.07
370.831	307.42
371.212	316.69
371.593	280.98
371.974	297.25
372.355	287.53
372.736	317.59
373.117	321.66
373.498	318.95
373.879	328.89
374.26	313.75
374.641	306.74
375.021	314.2
375.402	323.24
375.783	326.18
376.163	324.37
376.544	320.3
376.925	310.36
377.305	326.63
377.686	321.21
378.066	319.4
378.447	333.41
378.827	331.38
379.208	332.96
379.588	331.38
379.968	310.81
380.349	316.91
380.729	327.76
381.109	337.48
381.489	342
381.87	325.05
382.25	317.59
382.63	327.76
383.01	329.79
383.39	314.65
383.77	351.94
384.15	334.77
384.53	328.21
384.91	323.69
385.29	350.13
385.67	360.08
386.049	349.23
386.429	334.31
386.809	358.72
387.189	353.07
387.568	344.26
387.948	354.43
388.328	356.23
388.707	363.01
389.087	350.13
389.466	360.98
389.846	348.1
390.225	368.21
390.605	344.26
390.984	349.45
391.363	358.95
391.743	370.24
392.122	338.61
392.501	372.28
392.881	376.8
393.26	391.03
393.639	376.35
394.018	367.98
394.397	378.38
394.776	373.63
395.155	391.26
395.534	387.87
395.913	369.11
396.292	382.9
396.671	384.93
397.05	371.15
397.429	370.7
397.808	372.5
398.186	368.21
398.565	379.06
398.944	392.62
399.323	401.2
399.701	379.28
400.08	366.63
400.458	384.93
400.837	424.03
401.215	398.27
401.594	388.1
401.972	394.88
402.351	402.33
402.729	412.96
403.107	403.46
403.486	404.59
403.864	378.61
404.242	397.14
404.62	419.06
404.999	425.38
405.377	428.1
405.755	407.53
406.133	417.7
406.511	416.34
406.889	419.51
407.267	428.55
407.645	410.7
408.023	450.24
408.401	452.05
408.779	432.39
409.156	435.55
409.534	425.61
409.912	427.42
410.29	443.46
410.667	424.71
411.045	410.7
411.422	445.95
411.8	461.32
412.178	456.8
412.555	477.13
412.933	450.92
413.31	440.3
413.687	480.52
414.065	483.24
414.442	454.54
414.819	464.03
415.197	484.14
415.574	452.28
415.951	476.46
416.328	478.94
416.705	476.68
417.082	490.69
417.46	476
417.837	487.76
418.214	496.12
418.591	502.22
418.967	507.42
419.344	486.63
419.721	480.98
420.098	516.91
420.475	512.84
420.852	504.7
421.228	496.12
421.605	520.3
421.982	516.23
422.358	554.65
422.735	532.5
423.111	526.17
423.488	546.74
423.864	529.11
424.241	567.75
424.617	530.24
424.994	539.05
425.37	538.83
425.746	541.99
426.123	532.05
426.499	570.69
426.875	554.42
427.251	566.85
427.627	560.75
428.003	551.71
428.379	568.88
428.756	589.67
429.132	586.28
429.507	605.94
429.883	603.01
430.259	598.04
430.635	585.38
431.011	605.04
431.387	630.35
431.763	608.88
432.138	628.77
432.514	609.56
432.89	640.52
433.265	614.08
433.641	633.06
434.016	639.84
434.392	641.42
434.767	661.31
435.143	692.95
435.518	655.66
435.894	646.17
436.269	675.1
436.644	695.21
437.02	695.43
437.395	673.06
437.77	694.08
438.145	703.8
438.52	712.61
438.895	707.41
439.271	721.87
439.646	720.52
440.021	747.86
440.395	715.09
440.77	722.55
441.145	753.74
441.52	777.92
441.895	745.6
442.27	758.03
442.645	751.25
443.019	751.25
443.394	764.81
443.769	771.14
444.143	759.84
444.518	782.89
444.892	774.3
445.267	770.91
445.641	781.08
446.016	800.06
446.39	788.31
446.764	773.4
447.139	827.63
447.513	824.24
447.887	791.48
448.262	798.71
448.636	839.16
449.01	838.48
449.384	829.67
449.758	838.71
450.132	857.69
450.506	875.99
450.88	875.32
451.254	848.42
451.628	886.16
452.002	879.38
452.376	899.27
452.75	889.33
453.123	897.46
453.497	928.87
453.871	924.58
454.244	929.55
454.618	935.2
454.992	940.85
455.365	941.75
455.739	967.29
456.112	974.3
456.486	973.39
456.859	996.89
457.232	1013.62
457.606	978.14
457.979	1046.16
458.352	1046.38
458.725	1060.85
459.099	1087.74
459.472	1082.54
459.845	1082.54
460.218	1090.9
460.591	1103.33
460.964	1108.98
461.337	1145.14
461.71	1140.85
462.083	1167.74
462.456	1170.9
462.829	1181.3
463.201	1222.43
463.574	1209.32
463.947	1223.78
464.32	1254.97
464.692	1261.29
465.065	1277.79
465.438	1302.88
465.81	1296.77
466.183	1320.95
466.555	1354.17
466.928	1373.38
467.3	1370.22
467.672	1416.77
468.045	1457
468.417	1414.06
468.789	1460.16
469.161	1460.39
469.534	1497.67
469.906	1552.81
470.278	1582.19
470.65	1579.93
471.022	1636.65
471.394	1645.01
471.766	1679.36
472.138	1720.49
472.51	1753.03
472.882	1804.56
473.253	1800.26
473.625	1842.07
473.997	1875.29
474.369	1944.44
474.74	1974.72
475.112	2007.72
475.484	2064.89
475.855	2111.22
476.227	2126.81
476.598	2179.69
476.97	2257.43
477.341	2312.34
477.713	2366.35
478.084	2425.11
478.455	2512.11
478.827	2562.96
479.198	2640.92
479.569	2652.44
479.94	2794.81
480.311	2849.73
480.682	2913.68
481.053	3037.97
481.424	3099.66
481.795	3168.59
482.166	3258.76
482.537	3346.21
482.908	3424.18
483.279	3505.3
483.65	3579.65
484.021	3750.27
484.391	3858.06
484.762	3915.24
485.133	3999.53
485.503	4107.55
485.874	4254.21
486.244	4339.63
486.615	4453.98
486.985	4521.77
487.356	4697.36
487.726	4815.78
488.097	4958.82
488.467	5037.01
488.837	5229.1
489.207	5290.57
489.578	5451.92
489.948	5548.19
490.318	5683.1
490.688	5766.26
491.058	5903.21
491.428	6036.54
491.798	6236.3
492.168	6370.09
492.538	6483.08
492.908	6639.01
493.278	6662.51
493.648	6836.74
494.017	6977.3
494.387	7086.9
494.757	7232.89
495.126	7329.84
495.496	7460.23
495.866	7529.38
496.235	7742.48
496.605	7886.43
496.974	7903.15
497.344	8094.11
497.713	8215.24
498.082	8249.59
498.452	8445.96
498.821	8487.55
499.19	8618.62
499.559	8747.65
499.928	8884.14
500.298	8963.24
500.667	9035.55
501.036	9125.95
501.405	9189.67
501.774	9219.73
502.143	9373.85
502.512	9417.46
502.88	9534.3
503.249	9630.34
503.618	9729.32
503.987	9802.99
504.356	9969.77
504.724	9983.78
505.093	10057.45
505.462	10139.71
505.83	10212.25
506.199	10276.88
506.567	10418.34
506.936	10487.49
507.304	10491.56
507.672	10592.35
508.041	10664.21
508.409	10779.46
508.777	10889.06
509.145	10967.71
509.514	10937.88
509.882	10978.33
510.25	11047.48
510.618	11133.58
510.986	11165.67
511.354	11285.21
511.722	11302.16
512.09	11428.03
512.458	11423.74
512.826	11466.68
513.193	11522.72
513.561	11517.3
513.929	11586.67
514.297	11720.91
514.664	11804.07
515.032	11745.09
515.4	11876.16
515.767	11817.85
516.135	11878.87
516.502	11762.71
516.869	12023.27
517.237	12014.68
517.604	11986.21
517.972	12076.6
518.339	12072.54
518.706	12105.76
519.073	12093.33
519.44	12131.52
519.808	12188.92
520.175	12167.45
520.542	12286.77
520.909	12416.71
521.276	12362.7
521.643	12384.17
522.009	12472.98
522.376	12478.85
522.743	12583.71
523.11	12604.05
523.477	12547.1
523.843	12617.61
524.21	12679.3
524.577	12809.92
524.943	12754.55
525.31	12740.54
525.676	12811.05
526.043	12898.05
526.409	12869.58
526.776	12871.16
527.142	12882.68
527.508	12971.5
527.874	12945.06
528.241	12992.96
528.607	12919.97
528.973	13008.33
529.339	12991.16
529.705	12993.19
530.071	13066.41
530.437	13012.4
530.803	13045.17
531.169	13036.8
531.535	13056.24
531.901	13093.75
532.267	13012.62
532.632	12946.64
532.998	13059.85
533.364	13080.42
533.73	12948.44
534.095	13041.1
534.461	12994.55
534.826	13030.93
535.192	12968.11
535.557	13018.5
535.923	12900.08
536.288	12945.96
536.653	12905.28
537.019	12782.35
537.384	12875.9
537.749	12883.14
538.114	12840.88
538.479	12785.06
538.845	12800.43
539.21	12737.83
539.575	12658.96
539.94	12672.29
540.305	12676.36
540.67	12609.47
541.034	12644.05
541.399	12598.4
541.764	12545.07
542.129	12499.64
542.494	12587.55
542.858	12509.59
543.223	12524.5
543.587	12444.73
543.952	12359.08
544.316	12386.43
544.681	12308.91
545.045	12331.51
545.41	12307.33
545.774	12270.72
546.138	12197.28
546.503	12163.61
546.867	12152.76
547.231	12230.05
547.595	12093.55
547.959	12061.24
548.324	12026.66
548.688	12062.14
549.052	11986.66
549.416	11968.13
549.779	11984.4
550.143	11832.99
550.507	11967.91
550.871	11872.77
551.235	11775.37
551.599	11843.62
551.962	11836.38
552.326	11794.58
552.689	11861.92
553.053	11717.97
553.417	11693.11
553.78	11786.44
554.143	11724.3
554.507	11684.52
554.87	11724.3
555.234	11693.34
555.597	11573.79
555.96	11622.38
556.323	11553.91
556.686	11585.77
557.05	11583.28
557.413	11508.93
557.776	11549.84
558.139	11544.87
558.502	11538.31
558.865	11537.18
559.228	11557.75
559.59	11441.82
559.953	11542.83
560.316	11597.52
560.679	11581.25
561.041	11595.94
561.404	11558.2
561.767	11591.42
562.129	11500.57
562.492	11525.43
562.854	11508.93
563.217	11559.55
563.579	11560.23
563.941	11590.74
564.304	11593.45
564.666	11580.8
565.028	11603.4
565.39	11639.55
565.753	11639.55
566.115	11611.3
566.477	11644.3
566.839	11729.27
567.201	11736.27
567.563	11656.28
567.925	11690.17
568.287	11746.44
568.648	11770.17
569.01	11702.83
569.372	11774.01
569.734	11719.55
570.095	11744.18
570.457	11782.37
570.819	11766.56
571.18	11714.58
571.542	11812.43
571.903	11742.83
572.265	11801.58
572.626	11776.5
572.987	11759.55
573.349	11755.48
573.71	11856.72
574.071	11887.23
574.432	11848.81
574.794	11982.59
575.155	11940.56
575.516	11771.53
575.877	11893.11
576.238	11899.88
576.599	11923.61
576.96	11955.25
577.32	11858.53
577.681	11882.03
578.042	11959.09
578.403	11893.56
578.763	11918.19
579.124	11931.07
579.485	11920.22
579.845	11973.56
580.206	11981.24
580.566	12002.03
580.927	11949.38
581.287	11911.86
581.648	11971.3
582.008	11978.53
582.368	11980.33
582.728	11919.32
583.089	11893.78
583.449	11917.29
583.809	11880.68
584.169	11929.04
584.529	11844.75
584.889	11892.2
585.249	11801.81
585.609	11852.2
585.969	11818.53
586.329	11804.97
586.688	11800.23
587.048	11814.69
587.408	11783.5
587.768	11815.37
588.127	11756.39
588.487	11738.76
588.846	11852.43
589.206	11793.22
589.565	11718.42
589.925	11802.26
590.284	11691.98
590.643	11742.83
591.003	11792.32
591.362	11719.55
591.721	11820.34
592.08	11658.31
592.44	11663.96
592.799	11722.71
593.158	11662.15
593.517	11697.86
593.876	11788.93
594.235	11578.76
594.593	11639.78
594.952	11626.45
595.311	11555.04
595.67	11638.2
596.029	11713.9
596.387	11690.85
596.746	11708.03
597.104	11667.12
597.463	11626.67
597.822	11695.37
598.18	11607.69
598.538	11664.64
598.897	11713.45
599.255	11578.76
599.613	11638.65
599.972	11695.14
600.33	11681.36
600.688	11544.41
601.046	11641.81
601.404	11710.74
601.762	11652.21
602.12	11757.97
602.478	11729.49
602.836	11623.28
603.194	11705.99
603.552	11649.5
603.91	11613.79
604.268	11653.11
604.625	11637.74
604.983	11617.86
605.341	11566.11
605.698	11708.48
606.056	11684.3
606.413	11618.99
606.771	11627.12
607.128	11700.34
607.485	11564.98
607.843	11630.97
608.2	11742.83
608.557	11705.54
608.914	11662.38
609.272	11667.35
609.629	11727.23
609.986	11809.27
610.343	11759.78
610.7	11788.48
611.057	11734.69
611.414	11748.7
611.771	11767.68
612.127	11765.43
612.484	11736.95
612.841	11797.97
613.198	11761.13
613.554	11784.63
613.911	11790.28
614.267	11868.47
614.624	11825.08
614.98	11820.79
615.337	11900.34
615.693	11856.95
616.05	11845.87
616.406	11964.29
616.762	11855.14
617.118	11858.08
617.475	11899.66
617.831	11911.41
618.187	11884.97
618.543	11904.86
618.899	11993.67
619.255	12018.3
619.611	11936.27
619.967	11948.02
620.323	11978.75
620.678	11975.59
621.034	11852.88
621.39	11876.83
621.746	11927.23
622.101	12074.34
622.457	11964.52
622.812	12032.76
623.168	12055.81
623.523	11997.96
623.879	11961.8
624.234	11914.8
624.589	11950.28
624.945	12068.69
625.3	11968.81
625.655	11922.03
626.01	11939.21
626.365	12021.01
626.72	12015.81
627.075	11977.85
627.43	11998.87
627.785	11871.64
628.14	11944.63
628.495	11858.08
628.85	11977.62
629.205	11902.6
629.559	11829.15
629.914	11915.48
630.269	11918.64
630.623	11944.18
630.978	11823.73
631.332	11943.5
631.687	11881.58
632.041	11849.94
632.396	11804.52
632.75	11834.8
633.104	11837.06
633.459	11746.67
633.813	11708.7
634.167	11734.47
634.521	11765.65
634.875	11746.67
635.229	11722.94
635.583	11677.29
635.937	11688.82
636.291	11780.57
636.645	11659.89
636.999	11659.67
637.352	11679.55
637.706	11633.23
638.06	11664.86
638.413	11594.36
638.767	11556.17
639.121	11681.81
639.474	11499.9
639.828	11485.21
640.181	11550.52
640.534	11495.83
640.888	11520.69
641.241	11535.83
641.594	11536.28
641.947	11589.16
642.301	11515.04
642.654	11532.66
643.007	11518.88
643.36	11483.17
643.713	11480.69
644.066	11495.83
644.419	11388.71
644.771	11349.39
645.124	11201.15
645.477	11278.66
645.83	11182.62
646.182	11155.95
646.535	11123.41
646.888	11147.36
647.24	11165.21
647.593	11269.17
647.945	11100.81
648.298	11083.86
648.65	11036.63
649.002	10977.88
649.355	11080.47
649.707	11022.62
650.059	11132.22
650.411	11235.27
650.763	11237.3
651.115	11404.53
651.467	11258.77
651.819	11392.1
652.171	11319.34
652.523	11393.23
652.875	11306.68
653.227	11299.67
653.578	11313.46
653.93	11398.43
654.282	11320.47
654.633	11307.13
654.985	11251.31
655.337	11239.56
655.688	11221.26
656.039	11263.29
656.391	11331.31
656.742	11263.29
657.094	11343.97
657.445	11337.41
657.796	11308.71
658.147	11310.97
658.498	11333.35
658.849	11357.07
659.2	11364.98
659.551	11322.72
659.902	11350.29
660.253	11366.11
660.604	11378.09
660.955	11296.51
661.306	11356.17
661.656	11281.82
662.007	11402.04
662.358	11312.56
662.708	11363.85
663.059	11369.05
663.409	11263.74
663.76	11364.76
664.11	11364.53
664.461	11367.7
664.811	11365.66
665.161	11403.17
665.511	11313.69
665.862	11364.53
666.212	11408.82
666.562	11393.46
666.912	11369.28
667.262	11386.9
667.612	11411.99
667.962	11393.68
668.312	11351.2
668.662	11366.79
669.011	11354.59
669.361	11324.31
669.711	11403.63
670.06	11367.02
670.41	11315.49
670.76	11266
671.109	11364.53
671.459	11305.78
671.808	11328.83
672.157	11318.43
672.507	11230.3
672.856	11265.78
673.205	11312.78
673.554	11320.01
673.904	11296.06
674.253	11371.09
674.602	11269.39
674.951	11078.66
675.3	11101.49
675.649	11277.75
675.998	11234.37
676.346	11210.86
676.695	11231.43
677.044	11108.95
677.393	11220.58
677.741	11188.04
678.09	11121.6
678.438	11169.06
678.787	11175.84
679.135	11162.73
679.484	11058.55
679.832	11119.11
680.181	11040.02
680.529	11019.91
680.877	11063.75
681.225	10957.54
681.573	11058.1
681.922	10997.99
682.27	10917.99
682.618	10914.37
682.966	10937.2
683.314	10957.99
683.661	10892.91
684.009	10862.4
684.357	10874.38
684.705	10796.19
685.053	10848.61
685.4	10796.86
685.748	10724.1
686.095	10739.92
686.443	10679.8
686.79	10703.76
687.138	10730.2
687.485	10704.44
687.832	10655.17
688.18	10710.76
688.527	10589.64
688.874	10597.32
689.221	10553.93
689.568	10509.64
689.915	10518.68
690.262	10445.23
690.609	10418.79
690.956	10393.03
691.303	10332.47
691.65	10281.85
691.997	10353.48
692.344	10326.82
692.69	10229.42
693.037	10240.72
693.383	10141.74
693.73	10126.37
694.077	10064.23
694.423	10017.22
694.769	10039.14
695.116	9988.97
695.462	10001.18
695.808	9961.18
696.155	9970.22
696.501	9883.44
696.847	9897
697.193	9819.71
697.539	9822.88
697.885	9776.55
698.231	9705.82
698.577	9703.11
698.923	9679.38
699.269	9585.6
699.614	9624.69
699.96	9557.8
700.306	9496.11
700.651	9494.98
700.997	9466.95
701.342	9443.68
701.688	9386.5
702.033	9354.87
702.379	9380.86
702.724	9313.74
703.069	9352.61
703.415	9221.09
703.76	9221.99
704.105	9182.67
704.45	9185.15
704.795	9127.75
705.14	9092.05
705.485	9135.21
705.83	9046.85
706.175	8963.69
706.52	9057.25
706.865	8961.43
707.209	8926.86
707.554	8913.07
707.899	8868.78
708.243	8797.37
708.588	8796.46
708.932	8721.44
709.277	8684.83
709.621	8749.91
709.966	8713.3
710.31	8735.9
710.654	8645.96
710.998	8682.34
711.342	8661.33
711.687	8656.35
712.031	8544.49
712.375	8498.84
712.719	8610.93
713.063	8585.17
713.407	8565.96
713.75	8552.85
714.094	8476.25
714.438	8480.99
714.782	8400.77
715.125	8410.94
715.469	8432.18
715.812	8405.74
716.156	8371.62
716.499	8400.54
716.843	8393.76
717.186	8294.78
717.53	8433.54
717.873	8339.53
718.216	8315.12
718.559	8343.82
718.902	8210.72
719.246	8218.85
719.589	8229.7
719.932	8246.2
720.275	8218.63
720.617	8256.36
720.96	8204.61
721.303	8166.2
721.646	8199.87
721.989	8198.06
722.331	8196.48
722.674	8195.58
723.016	8178.63
723.359	8085.97
723.701	8185.41
724.044	8086.88
724.386	8111.96
724.729	8137.95
725.071	8088.69
725.413	8096.82
725.755	8121.23
726.097	8016.15
726.439	7992.42
726.782	8008.69
727.124	8078.06
727.465	8069.03
727.807	8022.02
728.149	8036.71
728.491	7959.88
728.833	8031.74
729.175	7986.99
729.516	8033.77
729.858	8023.6
730.199	7942.93
730.541	7985.19
730.882	8002.59
731.224	8017.05
731.565	7928.69
731.906	7989.93
732.248	8015.02
732.589	7988.8
732.93	7987.67
733.271	7987.45
733.612	8029.25
733.953	8029.48
734.294	7955.81
734.635	7938.63
734.976	7990.38
735.317	7992.64
735.658	7957.39
735.999	7948.35
736.339	7909.48
736.68	8039.87
737.021	8029.7
737.361	7970.27
737.702	8033.32
738.042	8000.33
738.383	7971.4
738.723	8016.37
739.063	8010.5
739.404	8003.72
739.744	8047.33
740.084	8058.86
740.424	8044.39
740.764	8106.76
741.104	8133.66
741.444	8045.52
741.784	8033.09
742.124	8109.25
742.464	8142.24
742.804	8107.89
743.143	8120.55
743.483	8140.66
743.823	8183.6
744.162	8170.72
744.502	8302.01
744.841	8177.95
745.181	8330.26
745.52	8346.76
745.86	8365.51
746.199	8454.1
746.538	8416.59
746.877	8508.79
747.216	8542.68
747.556	8601.67
747.895	8625.17
748.234	8626.75
748.573	8668.33
748.911	8699.52
749.25	8780.64
749.589	8856.12
749.928	8944.26
750.267	8987.42
750.605	9014.76
750.944	9068.32
751.283	9201.65
751.621	9244.36
751.96	9320.29
752.298	9416.79
752.636	9503.34
752.975	9540.4
753.313	9645.25
753.651	9789.88
753.989	9908.07
754.327	9985.58
754.666	10005.92
755.004	10221.74
755.342	10307.16
755.679	10415.4
756.017	10603.2
756.355	10640.71
756.693	10750.54
757.031	10926.35
757.368	11068.27
757.706	11233.24
758.044	11318.88
758.381	11494.92
758.719	11610.4
759.056	11827.8
759.394	11965.42
759.731	12026.66
