Data from hue_290_FLMS001491_00090.txt Node
Date: Tue Feb 07 15:53:25 GMT 2017
User: dcchb
Spectrometer: FLMS00149
Trigger mode: 0
Integration Time (sec): 2.000000E-2
Scans to average: 10
Electric dark correction enabled: true
Nonlinearity correction enabled: false
Boxcar width: 0
XAxis mode: Wavelengths
Number of Pixels in Spectrum: 2048
>>>>>Begin Spectral Data<<<<<
341.393	-19.62
341.776	-19.62
342.16	-19.62
342.543	-60.75
342.927	-73.63
343.31	-69.11
343.693	-88.32
344.077	-75.66
344.46	-51.48
344.843	-60.52
345.226	-48.54
345.61	-44.48
345.993	-13.52
346.376	-7.19
346.759	11.12
347.142	33.04
347.525	50.89
347.908	81.4
348.291	76.2
348.674	104.67
349.057	101.51
349.44	121.17
349.823	135.63
350.206	160.04
350.588	174.73
350.971	198
351.354	223.54
351.737	211.11
352.119	226.03
352.502	257.89
352.884	268.51
353.267	268.28
353.65	282.07
354.032	285.46
354.414	294.72
354.797	295.4
355.179	323.2
355.562	311.45
355.944	335.63
356.326	314.38
356.709	311.22
357.091	331.33
357.473	343.31
357.855	330.66
358.238	328.85
358.62	342.41
359.002	338.79
359.384	332.69
359.766	322.07
360.148	333.37
360.53	320.03
360.912	333.59
361.294	321.39
361.676	332.01
362.057	347.83
362.439	334.72
362.821	327.94
363.203	318.9
363.584	347.38
363.966	325.46
364.348	310.09
364.729	302.18
365.111	316.19
365.493	324.78
365.874	324.55
366.256	306.02
366.637	314.38
367.019	307.83
367.4	312.8
367.781	319.81
368.163	282.97
368.544	315.51
368.925	308.28
369.306	314.38
369.688	312.58
370.069	266.93
370.45	322.52
370.831	285.01
371.212	309.19
371.593	324.1
371.974	311.45
372.355	296.76
372.736	313.48
373.117	321.84
373.498	325.68
373.879	318
374.26	309.41
374.641	282.75
375.021	308.73
375.402	324.55
375.783	321.39
376.163	326.81
376.544	304.22
376.925	332.24
377.305	328.4
377.686	314.84
378.066	318.9
378.447	308.96
378.827	329.53
379.208	325.01
379.588	319.36
379.968	330.66
380.349	336.08
380.729	322.52
381.109	327.04
381.489	334.5
381.87	337.66
382.25	337.66
382.63	318.9
383.01	339.02
383.39	333.37
383.77	335.63
384.15	346.93
384.53	332.69
384.91	343.99
385.29	345.8
385.67	355.97
386.049	341.5
386.429	327.04
386.809	345.34
387.189	346.02
387.568	368.62
387.948	350.77
388.328	350.54
388.707	332.46
389.087	356.64
389.466	350.77
389.846	354.16
390.225	347.38
390.605	354.61
390.984	375.85
391.363	383.31
391.743	365.46
392.122	385.12
392.501	350.09
392.881	389.86
393.26	378.11
393.639	375.4
394.018	357.32
394.397	364.55
394.776	387.6
395.155	386.7
395.534	390.54
395.913	383.31
396.292	376.08
396.671	372.91
397.05	378.79
397.429	393.7
397.808	388.51
398.186	395.06
398.565	403.42
398.944	415.62
399.323	404.1
399.701	400.71
400.08	413.59
400.458	407.04
400.837	422.86
401.215	407.26
401.594	403.87
401.972	400.48
402.351	410.43
402.729	417.21
403.107	435.29
403.486	445.68
403.864	446.81
404.242	452.69
404.62	433.25
404.999	455.17
405.377	433.93
405.755	418.56
406.133	451.33
406.511	442.97
406.889	464.44
407.267	465.11
407.645	487.26
408.023	473.25
408.401	470.31
408.779	488.39
409.156	490.88
409.534	517.99
409.912	506.7
410.29	519.12
410.667	507.6
411.045	531.78
411.422	534.27
411.8	522.97
412.178	552.12
412.555	564.32
412.933	553.93
413.31	573.36
413.687	569.74
414.065	571.55
414.442	590.99
414.819	590.31
415.197	607.26
415.574	600.93
415.951	616.98
416.328	629.4
416.705	645.68
417.082	645.68
417.46	640.48
417.837	642.96
418.214	671.89
418.591	652
418.967	652.23
419.344	691.32
419.721	698.56
420.098	687.03
420.475	724.54
420.852	703.53
421.228	727.48
421.605	718.67
421.982	710.98
422.358	745.33
422.735	750.31
423.111	767.71
423.488	790.08
423.864	766.12
424.241	795.95
424.617	798.67
424.994	807.7
425.37	803.86
425.746	839.57
426.123	830.75
426.499	854.26
426.875	857.65
427.251	873.01
427.627	889.96
428.003	883.63
428.379	910.75
428.756	924.54
429.132	928.38
429.507	935.84
429.883	946.01
430.259	959.34
430.635	941.26
431.011	973.58
431.387	999.56
431.763	1010.64
432.138	1004.76
432.514	1031.2
432.89	1003.41
433.265	1042.27
433.641	1060.13
434.016	1067.36
434.392	1085.66
434.767	1118.43
435.143	1099.67
435.518	1148.26
435.894	1139.45
436.269	1149.16
436.644	1162.27
437.02	1163.63
437.395	1189.62
437.77	1203.85
438.145	1219.67
438.52	1230.07
438.895	1215.83
439.271	1263.29
439.646	1264.64
440.021	1267.58
440.395	1281.36
440.77	1263.74
441.145	1313.45
441.52	1284.53
441.895	1306.67
442.27	1336.28
442.645	1336.96
443.019	1334.24
443.394	1357.07
443.769	1360.68
444.143	1358.42
444.518	1361.59
444.892	1375.83
445.267	1377.86
445.641	1405.88
446.016	1393.9
446.39	1407.91
446.764	1444.75
447.139	1428.48
447.513	1422.6
447.887	1422.15
448.262	1415.37
448.636	1441.36
449.01	1469.38
449.384	1455.6
449.758	1470.74
450.132	1472.09
450.506	1469.61
450.88	1491.53
451.254	1519.1
451.628	1515.48
452.002	1509.83
452.376	1508.93
452.75	1538.53
453.123	1521.13
453.497	1565.65
453.871	1589.15
454.244	1625.76
454.618	1589.83
454.992	1628.93
455.365	1600.23
455.739	1613.79
456.112	1643.84
456.486	1667.8
456.859	1671.64
457.232	1697.85
457.606	1661.47
457.979	1696.27
458.352	1744.18
458.725	1763.61
459.099	1780.79
459.472	1751.41
459.845	1785.53
460.218	1818.53
460.591	1831.18
460.964	1816.49
461.337	1862.14
461.71	1858.3
462.083	1880.67
462.456	1887.22
462.829	1903.04
463.201	1910.95
463.574	1901.24
463.947	1944.4
464.32	2002.25
464.692	1973.55
465.065	2010.84
465.438	2007.45
465.81	2026.2
466.183	2064.39
466.555	2070.72
466.928	2077.28
467.3	2069.59
467.672	2105.75
468.045	2144.84
468.417	2169.7
468.789	2183.26
469.161	2198.18
469.534	2206.76
469.906	2262.58
470.278	2249.02
470.65	2251.96
471.022	2291.96
471.394	2315.01
471.766	2355.69
472.138	2400.21
472.51	2422.58
472.882	2448.79
473.253	2465.51
473.625	2489.24
473.997	2549.35
474.369	2543.48
474.74	2537.83
475.112	2575.34
475.484	2620.31
475.855	2642.46
476.227	2627.09
476.598	2706.64
476.97	2720.65
477.341	2770.14
477.713	2776.01
478.084	2782.12
478.455	2872.06
478.827	2888.1
479.198	2948.67
479.569	2954.09
479.94	3001.77
480.311	3045.61
480.682	3051.71
481.053	3124.48
481.424	3163.58
481.795	3178.49
482.166	3221.43
482.537	3222.33
482.908	3258.94
483.279	3324.93
483.65	3378.03
484.021	3432.04
484.391	3441.53
484.762	3448.99
485.133	3476.56
485.503	3512.49
485.874	3596.11
486.244	3579.16
486.615	3617.8
486.985	3671.81
487.356	3758.81
487.726	3745.25
488.097	3826.16
488.467	3798.13
488.837	3863.44
489.207	3851.01
489.578	3921.75
489.948	3931.01
490.318	3992.93
490.688	3984.12
491.058	4037.9
491.428	4092.59
491.798	4142.53
492.168	4153.61
492.538	4195.19
492.908	4263.89
493.278	4253.72
493.648	4328.06
494.017	4349.53
494.387	4332.13
494.757	4421.17
495.126	4368.06
495.496	4472.02
495.866	4416.65
496.235	4450.32
496.605	4513.82
496.974	4474.73
497.344	4541.39
497.713	4571.45
498.082	4573.71
498.452	4637.66
498.821	4644.44
499.19	4632.01
499.559	4698.45
499.928	4712.46
500.298	4764.66
500.667	4778.22
501.036	4781.61
501.405	4740.48
501.774	4756.08
502.143	4811.89
502.512	4806.47
502.88	4865.9
503.249	4836.07
503.618	4916.3
503.987	4894.38
504.356	4910.65
504.724	4950.19
505.093	4977.76
505.462	4970.08
505.83	5005.33
506.199	5025.45
506.567	5111.32
506.936	5046.46
507.304	5129.85
507.672	5086.69
508.041	5133.24
508.409	5152.68
508.777	5159.91
509.145	5212.56
509.514	5199.23
509.882	5185.44
510.25	5223.86
510.618	5227.48
510.986	5269.06
511.354	5246.68
511.722	5307.02
512.09	5383.86
512.458	5313.8
512.826	5375.27
513.193	5373.23
513.561	5375.49
513.929	5401.93
514.297	5457.75
514.664	5457.3
515.032	5462.5
515.4	5522.16
515.767	5482.61
516.135	5486.45
516.502	5445.55
516.869	5515.83
517.237	5579.33
517.604	5551.99
517.972	5604.64
518.339	5594.92
518.706	5592.89
519.073	5628.37
519.44	5654.81
519.808	5683.96
520.175	5699.78
520.542	5722.15
520.909	5738.65
521.276	5777.29
521.643	5768.7
522.009	5829.49
522.376	5829.49
522.743	5885.54
523.11	5859.78
523.477	5919.21
523.843	5955.59
524.21	5994.91
524.577	5988.81
524.943	6013.67
525.31	6023.16
525.676	6042.6
526.043	6068.81
526.409	6160.11
526.776	6152.87
527.142	6189.03
527.508	6230.61
527.874	6231.06
528.241	6264.28
528.607	6278.75
528.973	6328.01
529.339	6320.55
529.705	6361.01
530.071	6354.68
530.437	6427.67
530.803	6440.78
531.169	6435.13
531.535	6454.79
531.901	6549.93
532.267	6558.06
532.632	6527.33
532.998	6567.78
533.364	6592.19
533.73	6585.18
534.095	6611.85
534.461	6706.76
534.826	6713.09
535.192	6698.62
535.557	6751.05
535.923	6689.58
536.288	6796.93
536.653	6815
537.019	6759.41
537.384	6771.16
537.749	6792.63
538.114	6851.39
538.479	6857.26
538.845	6853.87
539.21	6886.19
539.575	6934.55
539.94	6943.36
540.305	6968.45
540.67	6944.27
541.034	7006.19
541.399	6957.37
541.764	7006.86
542.129	7112.4
542.494	7104.71
542.858	7123.02
543.223	7071.49
543.587	7099.52
543.952	7133.87
544.316	7137.26
544.681	7152.17
545.045	7224.49
545.41	7219.74
545.774	7295.44
546.138	7262.45
546.503	7262.9
546.867	7234.88
547.231	7403.69
547.595	7318.72
547.959	7365.72
548.324	7375.67
548.688	7398.94
549.052	7371.15
549.416	7422.9
549.779	7441.43
550.143	7447.98
550.507	7462.45
550.871	7509.9
551.235	7532.27
551.599	7514.65
551.962	7568.66
552.326	7571.59
552.689	7600.97
553.053	7529.11
553.417	7615.44
553.78	7664.93
554.143	7662.21
554.507	7651.14
554.87	7722.78
555.234	7737.01
555.597	7679.16
555.96	7637.58
556.323	7792.38
556.686	7727.97
557.05	7767.07
557.413	7804.36
557.776	7826.28
558.139	7854.3
558.502	7920.51
558.865	7831.47
559.228	7945.82
559.59	7918.25
559.953	7979.49
560.316	8032.37
560.679	7976.78
561.041	8094.07
561.404	8066.27
561.767	8053.84
562.129	8113.05
562.492	8129.09
562.854	8086.61
563.217	8155.53
563.579	8172.48
563.941	8192.6
564.304	8207.51
564.666	8246.61
565.028	8259.94
565.39	8299.26
565.753	8321.86
566.115	8365.92
566.477	8379.48
566.839	8405.92
567.201	8429.88
567.563	8395.75
567.925	8504.9
568.287	8503.55
568.648	8493.15
569.01	8548.29
569.372	8643.43
569.734	8605.69
570.095	8664.67
570.457	8750.55
570.819	8762.98
571.18	8725.69
571.542	8834.61
571.903	8819.47
572.265	8851.34
572.626	8878
572.987	8885.23
573.349	8868.06
573.71	8984.44
574.071	9015.17
574.432	9028.28
574.794	9123.87
575.155	9109.63
575.516	9187.15
575.877	9226.92
576.238	9247.71
576.599	9313.47
576.96	9391.89
577.32	9445.9
577.681	9504.88
578.042	9557.98
578.403	9589.39
578.763	9649.51
579.124	9693.35
579.485	9806.34
579.845	9816.28
580.206	9900.8
580.566	9952.78
580.927	10021.7
581.287	10148.48
581.648	10086.33
582.008	10270.28
582.368	10323.61
582.728	10367
583.089	10471.18
583.449	10622.36
583.809	10684.96
584.169	10816.71
584.529	10855.12
584.889	11023.93
585.249	11038.17
585.609	11173.31
585.969	11322.46
586.329	11388.44
586.688	11419.86
587.048	11617.59
587.408	11729.45
587.768	11792.27
588.127	11954.53
588.487	12054.41
588.846	12317.23
589.206	12281.3
589.565	12383.67
589.925	12621.18
590.284	12727.17
590.643	12843.09
591.003	12974.39
591.362	13130.09
591.721	13265.91
592.08	13415.06
592.44	13499.8
592.799	13656.18
593.158	13775.5
593.517	13873.12
593.876	14055.94
594.235	14179.56
594.593	14243.06
594.952	14509.49
595.311	14552.65
595.67	14707.9
596.029	14833.32
596.387	15051.4
596.746	15178.63
597.104	15189.25
597.463	15363.03
597.822	15452.97
598.18	15565.51
598.538	15607.09
598.897	15834.88
599.255	15891.83
599.613	16272.38
599.972	16249.11
600.33	16431.25
600.688	16357.8
601.046	16607.74
601.404	16800.5
601.762	16852.71
602.12	17001.18
602.478	17099.03
602.836	17303.32
603.194	17218.35
603.552	17297.44
603.91	17153.72
604.268	17579.02
604.625	17598.45
604.983	17697.43
605.341	17747.6
605.698	17884.77
606.056	18059.45
606.413	18133.8
606.771	18227.81
607.128	18294.25
607.485	18225.1
607.843	18368.15
608.2	18573.34
608.557	18647.24
608.914	18657.4
609.272	18795.48
609.629	18915.7
609.986	19040.22
610.343	19021.24
610.7	19192.76
611.057	19197.5
611.414	19247.45
611.771	19359.08
612.127	19406.09
612.484	19382.58
612.841	19576.93
613.198	19523.14
613.554	19660.77
613.911	19703.03
614.267	19802.23
614.624	19758.62
614.98	19861.44
615.337	19921.33
615.693	20041.32
616.05	19982.12
616.406	20200.64
616.762	20152.28
617.118	20168.33
617.475	20337.59
617.831	20305.95
618.187	20386.17
618.543	20442.44
618.899	20539.16
619.255	20527.19
619.611	20631.36
619.967	20815.09
620.323	20718.59
620.678	20722.21
621.034	20637.24
621.39	20731.02
621.746	20743.9
622.101	21036.1
622.457	20872.04
622.812	20954.29
623.168	21000.85
623.523	21049.21
623.879	21066.61
624.234	21019.6
624.589	21040.17
624.945	21063.9
625.3	21146.15
625.655	21093.27
626.01	21218.02
626.365	21160.16
626.72	21098.24
627.075	21194.06
627.43	21234.29
627.785	21173.5
628.14	21305.92
628.495	21273.61
628.85	21314.51
629.205	21157.23
629.559	21326.04
629.914	21249.43
630.269	21239.71
630.623	21179.37
630.978	21190.9
631.332	21185.47
631.687	21179.82
632.041	21241.29
632.396	21357.67
632.75	21124.01
633.104	21206.72
633.459	21132.37
633.813	21132.59
634.167	21139.83
634.521	21142.09
634.875	21169.2
635.229	21202.2
635.583	20999.94
635.937	21056.44
636.291	20991.58
636.645	21200.84
636.999	21150.22
637.352	21138.02
637.706	20935.99
638.06	21117.45
638.413	21045.59
638.767	21009.43
639.121	21055.31
639.474	20903.45
639.828	20936.22
640.181	21123.1
640.534	21051.47
640.888	21004.01
641.241	20804.69
641.594	20916.1
641.947	20950.9
642.301	20851.7
642.654	20880.85
643.007	20894.41
643.36	20897.35
643.713	20796.56
644.066	20961.75
644.419	20839.49
644.771	20749.55
645.124	20536.45
645.477	20391.37
645.83	20343.24
646.182	20295.78
646.535	20362.22
646.888	20326.97
647.24	20199.51
647.593	20321.77
647.945	20300.07
648.298	20143.47
648.65	20148.67
649.002	20147.54
649.355	20292.62
649.707	20183.69
650.059	20295.55
650.411	20591.14
650.763	20531.03
651.115	20757.46
651.467	20759.04
651.819	20762.89
652.171	20676.11
652.523	20667.07
652.875	20598.37
653.227	20639.73
653.578	20790.91
653.93	20687.18
654.282	20631.14
654.633	20598.37
654.985	20672.95
655.337	20679.95
655.688	20683.57
656.039	20779.16
656.391	20596.11
656.742	20610.35
657.094	20678.37
657.445	20671.82
657.796	20735.54
658.147	20607.18
658.498	20642.89
658.849	20696.45
659.2	20643.79
659.551	20607.86
659.902	20782.32
660.253	20719.72
660.604	20696.9
660.955	20546.17
661.306	20709.55
661.656	20604.47
662.007	20662.55
662.358	20707.75
662.708	20749.1
663.059	20760.63
663.409	20586.39
663.76	20734.86
664.11	20693.51
664.461	20845.14
664.811	20741.64
665.161	20810.57
665.511	20763.34
665.862	20742.77
666.212	20821.64
666.562	20799.72
666.912	20754.3
667.262	20657.35
667.612	20758.82
667.962	20741.19
668.312	20664.36
668.662	20851.25
669.011	20750.91
669.361	20772.6
669.711	20781.19
670.06	20674.75
670.41	20671.59
670.76	20703.68
671.109	20629.78
671.459	20695.77
671.808	20698.93
672.157	20610.35
672.507	20517.02
672.856	20634.98
673.205	20635.88
673.554	20642.44
673.904	20514.98
674.253	20636.56
674.602	20603.57
674.951	20242.45
675.3	20308.89
675.649	20500.75
675.998	20468.88
676.346	20483.35
676.695	20564.25
677.044	20386.17
677.393	20429.34
677.741	20423.23
678.09	20402.9
678.438	20412.39
678.787	20481.54
679.135	20331.49
679.484	20321.09
679.832	20322.22
680.181	20168.33
680.529	20240.64
680.877	20240.64
681.225	20254.65
681.573	20349.11
681.922	20189.12
682.27	20099.4
682.618	20025.28
682.966	20034.77
683.314	20104.15
683.661	19965.17
684.009	19782.12
684.357	19812.18
684.705	19833.19
685.053	19809.01
685.4	19762.23
685.748	19710.71
686.095	19718.62
686.443	19621.22
686.79	19515.01
687.138	19609.47
687.485	19572.18
687.832	19503.71
688.18	19458.51
688.527	19437.5
688.874	19377.16
689.221	19354.11
689.568	19276.82
689.915	19256.26
690.262	19135.13
690.609	19102.59
690.956	19009.03
691.303	18987.57
691.65	18983.5
691.997	18898.08
692.344	18837.97
692.69	18782.15
693.037	18714.35
693.383	18651.76
693.73	18610.17
694.077	18530.63
694.423	18627.8
694.769	18532.66
695.116	18428.71
695.462	18447.92
695.808	18312.78
696.155	18332.67
696.501	18171.32
696.847	18143.75
697.193	18081.6
697.539	18086.57
697.885	17910.76
698.231	17871.44
698.577	17826.92
698.923	17889.97
699.269	17701.95
699.614	17609.3
699.96	17615.85
700.306	17567.26
700.651	17505.8
700.997	17517.77
701.342	17456.53
701.688	17303.77
702.033	17228.06
702.379	17286.14
702.724	17192.13
703.069	17253.83
703.415	16987.39
703.76	17075.53
704.105	16989.43
704.45	16979.93
704.795	16899.26
705.14	16770.45
705.485	16822.88
705.83	16781.52
706.175	16776.78
706.52	16665.37
706.865	16570.45
707.209	16563.9
707.554	16593.28
707.899	16546.05
708.243	16438.03
708.588	16389.67
708.932	16266.73
709.277	16261.76
709.621	16264.47
709.966	16083.24
710.31	16120.3
710.654	16067.87
710.998	15937.7
711.342	16031.26
711.687	15983.35
712.031	15903.13
712.375	15878.04
712.719	15952.39
713.063	15858.83
713.407	15890.92
713.75	15852.28
714.094	15696.58
714.438	15682.34
714.782	15721.21
715.125	15593.98
715.469	15606.41
715.812	15443.03
716.156	15475.57
716.499	15500.2
716.843	15582.91
717.186	15431.5
717.53	15498.84
717.873	15471.27
718.216	15318.51
718.559	15382.69
718.902	15295.91
719.246	15307.66
719.589	15238.74
719.932	15129.14
720.275	15163.71
720.617	15274.22
720.96	15233.77
721.303	15163.26
721.646	15220.89
721.989	15089.59
722.331	15198.74
722.674	15083.49
723.016	15048.69
723.359	15063.38
723.701	15130.04
724.044	14971.4
724.386	14923.27
724.729	14989.25
725.071	14994.9
725.413	14870.61
725.755	14961
726.097	14945.19
726.439	14851.63
726.782	14801.46
727.124	15005.98
727.465	14868.35
727.807	14885.3
728.149	14921.01
728.491	14831.06
728.833	14821.8
729.175	14758.07
729.516	14691.18
729.858	14767.79
730.199	14763.04
730.541	14786.77
730.882	14695.93
731.224	14685.76
731.565	14640.11
731.906	14696.15
732.248	14761.91
732.589	14582.71
732.93	14572.99
733.271	14640.79
733.612	14648.7
733.953	14608.02
734.294	14633.78
734.635	14626.78
734.976	14607.12
735.317	14535.03
735.658	14563.73
735.999	14618.64
736.339	14558.53
736.68	14633.1
737.021	14583.84
737.361	14562.6
737.702	14645.53
738.042	14595.14
738.383	14621.58
738.723	14542.48
739.063	14573.44
739.404	14645.76
739.744	14557.17
740.084	14571.41
740.424	14619.09
740.764	14573.67
741.104	14690.28
741.444	14574.8
741.784	14657.96
742.124	14657.06
742.464	14739.54
742.804	14723.05
743.143	14737.51
743.483	14762.37
743.823	14635.59
744.162	14710.39
744.502	14787.45
744.841	14771.63
745.181	14862.7
745.52	14818.64
745.86	14945.41
746.199	14962.81
746.538	15007.11
746.877	14990.16
747.216	15114.9
747.556	15034
747.895	15180.21
748.234	15151.51
748.573	15223.14
748.911	15282.8
749.25	15289.81
749.589	15387.43
749.928	15425.4
750.267	15532.29
750.605	15582.46
750.944	15564.15
751.283	15669.91
751.621	15746.07
751.96	15717.37
752.298	15947.19
752.636	15991.03
752.975	15885.73
753.313	16082.11
753.651	16214.08
753.989	16259.5
754.327	16253.63
754.666	16464.02
755.004	16601.41
755.342	16634.41
755.679	16738.59
756.017	16709.89
756.355	16941.97
756.693	17040.95
757.031	17109.87
757.368	17218.35
757.706	17344.9
758.044	17346.25
758.381	17460.37
758.719	17649.52
759.056	17704.89
759.394	17780.82
