Data from hue_10_FLMS001491_23.txt Node
Date: Mon Feb 06 15:31:39 GMT 2017
User: dcchb
Spectrometer: FLMS00149
Trigger mode: 0
Integration Time (sec): 2.000000E-2
Scans to average: 10
Electric dark correction enabled: true
Nonlinearity correction enabled: false
Boxcar width: 0
XAxis mode: Wavelengths
Number of Pixels in Spectrum: 2048
>>>>>Begin Spectral Data<<<<<
341.393	-19.63
341.776	-19.63
342.16	-19.63
342.543	-55.11
342.927	-57.37
343.31	-67.99
343.693	-61.44
344.077	-61.44
344.46	-44.26
344.843	-39.74
345.226	-58.5
345.61	-33.64
345.993	-30.25
346.376	-13.3
346.759	8.39
347.142	19.91
347.525	40.48
347.908	53.81
348.291	98.1
348.674	86.35
349.057	103.53
349.44	129.52
349.823	154.15
350.206	170.42
350.588	183.3
350.971	212
351.354	221.49
351.737	238.21
352.119	250.64
352.502	266.46
352.884	286.12
353.267	281.38
353.65	273.47
354.032	313.24
354.414	299
354.797	318.89
355.179	322.96
355.562	323.86
355.944	339.23
356.326	326.35
356.709	332.9
357.091	336.74
357.473	347.82
357.855	333.13
358.238	341.04
358.62	334.26
359.002	335.61
359.384	344.65
359.766	354.14
360.148	357.08
360.53	352.56
360.912	356.63
361.294	313.01
361.676	336.97
362.057	320.47
362.439	328.38
362.821	336.97
363.203	319.12
363.584	330.42
363.966	344.65
364.348	328.38
364.729	340.81
365.111	332.9
365.493	328.61
365.874	343.97
366.256	315.5
366.637	322.28
367.019	330.64
367.4	306.91
367.781	321.6
368.163	328.38
368.544	302.39
368.925	311.43
369.306	331.77
369.688	314.6
370.069	306.46
370.45	314.82
370.831	328.83
371.212	333.35
371.593	310.75
371.974	316.4
372.355	312.56
372.736	314.14
373.117	322.51
373.498	311.21
373.879	308.27
374.26	314.82
374.641	314.6
375.021	294.94
375.402	312.34
375.783	345.1
376.163	330.42
376.544	321.6
376.925	326.12
377.305	334.03
377.686	318.21
378.066	336.52
378.447	342.84
378.827	332.22
379.208	333.13
379.588	315.95
379.968	330.19
380.349	348.04
380.729	338.78
381.109	334.93
381.489	348.04
381.87	330.19
382.25	323.41
382.63	317.53
383.01	339
383.39	362.5
383.77	338.55
384.15	354.82
384.53	354.82
384.91	329.06
385.29	359.57
385.67	365.44
386.049	325.44
386.429	351.88
386.809	345.78
387.189	347.36
387.568	358.89
387.948	350.75
388.328	344.88
388.707	333.35
389.087	344.43
389.466	344.88
389.846	353.24
390.225	360.92
390.605	377.87
390.984	343.52
391.363	359.34
391.743	360.24
392.122	362.05
392.501	365.44
392.881	373.58
393.26	339.68
393.639	357.08
394.018	375.61
394.397	380.81
394.776	370.87
395.155	386.01
395.534	370.64
395.913	365.67
396.292	376.74
396.671	392.79
397.05	386.46
397.429	384.88
397.808	392.56
398.186	376.29
398.565	369.74
398.944	373.58
399.323	379.68
399.701	374.71
400.08	385.78
400.458	394.37
400.837	399.11
401.215	399.57
401.594	383.3
401.972	373.35
402.351	403.63
402.729	383.52
403.107	414.03
403.486	391.2
403.864	415.84
404.242	380.13
404.62	428.94
404.999	402.96
405.377	411.54
405.755	418.77
406.133	421.26
406.511	414.93
406.889	429.85
407.267	433.69
407.645	416.29
408.023	442.28
408.401	430.98
408.779	436.63
409.156	436.85
409.534	418.55
409.912	448.38
410.29	440.02
410.667	435.05
411.045	438.89
411.422	445.89
411.8	447.02
412.178	452.9
412.555	456.74
412.933	451.09
413.31	468.26
413.687	459.68
414.065	463.74
414.442	468.72
414.819	464.65
415.197	466.46
415.574	456.06
415.951	473.01
416.328	472.33
416.705	501.03
417.082	497.87
417.46	484.31
417.837	499
418.214	490.64
418.591	490.18
418.967	493.57
419.344	482.5
419.721	493.35
420.098	489.96
420.475	512.33
420.852	497.87
421.228	505.55
421.605	514.59
421.982	494.48
422.358	515.04
422.735	520.47
423.111	524.08
423.488	519.11
423.864	509.17
424.241	560.92
424.617	551.65
424.994	531.99
425.37	526.79
425.746	525.66
426.123	547.36
426.499	572.44
426.875	551.65
427.251	571.54
427.627	582.84
428.003	571.99
428.379	581.48
428.756	569.73
429.132	573.35
429.507	579.9
429.883	574.7
430.259	611.54
430.635	607.24
431.011	582.39
431.387	607.02
431.763	580.13
432.138	611.76
432.514	640.92
432.89	623.97
433.265	635.49
433.641	613.8
434.016	640.92
434.392	649.28
434.767	648.37
435.143	651.31
435.518	675.26
435.894	671.87
436.269	697.64
436.644	662.38
437.02	692.67
437.395	670.97
437.77	684.76
438.145	698.99
438.52	705.09
438.895	697.86
439.271	704.42
439.646	697.19
440.021	711.65
440.395	716.17
440.77	701.7
441.145	726.11
441.52	710.07
441.895	717.52
442.27	722.72
442.645	735.83
443.019	761.59
443.394	741.48
443.769	765.21
444.143	750.97
444.518	755.71
444.892	744.87
445.267	750.97
445.641	753.68
446.016	760.69
446.39	751.87
446.764	748.48
447.139	773.12
447.513	804.3
447.887	795.49
448.262	768.82
448.636	812.44
449.01	786.67
449.384	802.04
449.758	822.15
450.132	802.94
450.506	813.57
450.88	807.92
451.254	813.57
451.628	826.67
452.002	835.94
452.376	835.26
452.75	865.54
453.123	860.34
453.497	853.11
453.871	880.46
454.244	870.74
454.618	887.46
454.992	874.13
455.365	872.32
455.739	908.25
456.112	911.87
456.486	932.89
456.859	915.48
457.232	901.25
457.606	940.12
457.979	945.99
458.352	952.09
458.725	960.91
459.099	954.13
459.472	975.37
459.845	1007.69
460.218	1037.52
460.591	999.1
460.964	1033
461.337	1041.58
461.71	1041.81
462.083	1048.36
462.456	1051.53
462.829	1069.15
463.201	1042.49
463.574	1085.2
463.947	1096.27
464.32	1123.16
464.692	1122.03
465.065	1136.5
465.438	1132.2
465.81	1157.74
466.183	1175.59
466.555	1179.66
466.928	1180.79
467.3	1192.09
467.672	1212.2
468.045	1219.88
468.417	1260.56
468.789	1240.67
469.161	1280.22
469.534	1281.58
469.906	1319.32
470.278	1330.39
470.65	1326.77
471.022	1357.73
471.394	1382.82
471.766	1378.52
472.138	1416.26
472.51	1426.43
472.882	1459.42
473.253	1471.4
473.625	1516.6
473.997	1514.34
474.369	1553.43
474.74	1556.37
475.112	1574.45
475.484	1581.91
475.855	1644.05
476.227	1655.58
476.598	1693.54
476.97	1716.37
477.341	1785.29
477.713	1806.08
478.084	1832.07
478.455	1850.15
478.827	1851.5
479.198	1923.82
479.569	1943.71
479.94	1990.03
480.311	2001.78
480.682	2047.88
481.053	2115.9
481.424	2127.66
481.795	2169.46
482.166	2207.88
482.537	2244.94
482.908	2289.91
483.279	2317.48
483.65	2358.16
484.021	2406.97
484.391	2414.43
484.762	2452.62
485.133	2509.11
485.503	2510.92
485.874	2588.66
486.244	2655.1
486.615	2660.3
486.985	2682.9
487.356	2768.99
487.726	2795.66
488.097	2846.51
488.467	2879.05
488.837	2923.34
489.207	2971.7
489.578	3024.13
489.948	3110.68
490.318	3128.53
490.688	3137.12
491.058	3179.61
491.428	3255.08
491.798	3289.89
492.168	3333.5
492.538	3350.45
492.908	3405.81
493.278	3441.07
493.648	3483.78
494.017	3512.48
494.387	3568.07
494.757	3590.44
495.126	3615.75
495.496	3627.28
495.866	3683.55
496.235	3697.33
496.605	3736.43
496.974	3796.54
497.344	3797.22
497.713	3827.05
498.082	3893.26
498.452	3926.03
498.821	3931.45
499.19	3939.36
499.559	3997.89
499.928	3980.71
500.298	4023.88
500.667	4111.78
501.036	4053.26
501.405	4099.13
501.774	4108.62
502.143	4174.16
502.512	4183.65
502.88	4205.34
503.249	4264.32
503.618	4214.83
503.987	4346.81
504.356	4320.82
504.724	4311.33
505.093	4341.38
505.462	4347.26
505.83	4366.02
506.199	4406.92
506.567	4481.94
506.936	4500.47
507.304	4520.81
507.672	4468.39
508.041	4531.66
508.409	4604.88
508.777	4602.62
509.145	4608.27
509.514	4619.57
509.882	4600.36
510.25	4648.49
510.618	4651.88
510.986	4654.14
511.354	4753.8
511.722	4762.16
512.09	4759.45
512.458	4778.89
512.826	4842.39
513.193	4782.05
513.561	4773.69
513.929	4851.65
514.297	4933.46
514.664	4920.8
515.032	4949.05
515.4	4918.99
515.767	4924.42
516.135	4963.74
516.502	4943.85
516.869	5041.48
517.237	5044.42
517.604	4969.84
517.972	5133.68
518.339	5061.82
518.706	5100.01
519.073	5156.73
519.44	5135.49
519.808	5169.38
520.175	5175.26
520.542	5199.89
520.909	5211.64
521.276	5204.19
521.643	5243.73
522.009	5269.95
522.376	5326.22
522.743	5297.97
523.11	5377.51
523.477	5404.86
523.843	5408.93
524.21	5449.38
524.577	5504.74
524.943	5532.31
525.31	5534.8
525.676	5580.9
526.043	5613.67
526.409	5632.87
526.776	5661.12
527.142	5633.1
527.508	5657.51
527.874	5721.46
528.241	5752.42
528.607	5750.39
528.973	5828.12
529.339	5880.78
529.705	5867.22
530.071	5935.92
530.437	5956.26
530.803	5982.47
531.169	5999.19
531.535	6012.3
531.901	6011.62
532.267	6056.59
532.632	6057.5
532.998	6016.37
533.364	6160.54
533.73	6137.27
534.095	6184.5
534.461	6177.72
534.826	6219.07
535.192	6247.32
535.557	6288.68
535.923	6264.27
536.288	6336.36
536.653	6321.67
537.019	6335.45
537.384	6393.76
537.749	6398.05
538.114	6441.44
538.479	6469.24
538.845	6473.3
539.21	6533.87
539.575	6546.97
539.94	6514.21
540.305	6601.66
540.67	6622.9
541.034	6644.37
541.399	6694.77
541.764	6703.13
542.129	6716.01
542.494	6786.52
542.858	6772.51
543.223	6776.12
543.587	6872.62
543.952	6777.93
544.316	6832.62
544.681	6864.71
545.045	6903.8
545.41	6967.75
545.774	6946.06
546.138	6993.74
546.503	7079.39
546.867	7014.08
547.231	7075.1
547.595	7053.18
547.959	7137.92
548.324	7161.65
548.688	7175.66
549.052	7178.37
549.416	7196.9
549.779	7218.82
550.143	7318.25
550.507	7312.6
550.871	7332.72
551.235	7330.23
551.599	7370.68
551.962	7394.41
552.326	7425.6
552.689	7475.99
553.053	7455.65
553.417	7519.15
553.78	7599.15
554.143	7525.93
554.507	7512.83
554.87	7581.3
555.234	7725.25
555.597	7622.2
555.96	7630.34
556.323	7657.23
556.686	7695.42
557.05	7819.48
557.413	7764.12
557.776	7815.42
558.139	7853.38
558.502	7873.95
558.865	7805.7
559.228	7873.72
559.59	7907.16
559.953	7883.21
560.316	8047.5
560.679	8011.79
561.041	8047.73
561.404	8004.56
561.767	8095.63
562.129	8097.44
562.492	8139.7
562.854	8132.24
563.217	8208.4
563.579	8200.26
563.941	8256.08
564.304	8249.3
564.666	8361.16
565.028	8346.02
565.39	8340.15
565.753	8408.39
566.115	8409.98
566.477	8412.69
566.839	8460.37
567.201	8488.17
567.563	8550.76
567.925	8585.57
568.287	8593.25
568.648	8632.12
569.01	8677.54
569.372	8714.15
569.734	8668.73
570.095	8827.59
570.457	8775.62
570.819	8855.16
571.18	8877.99
571.542	8920.7
571.903	8922.51
572.265	9036.17
572.626	8979.45
572.987	9112.78
573.349	9149.84
573.71	9211.99
574.071	9253.12
574.432	9230.97
574.794	9354.58
575.155	9454.92
575.516	9461.47
575.877	9571.53
576.238	9556.84
576.599	9716.61
576.96	9745.76
577.32	9819.88
577.681	9859.88
578.042	9938.52
578.403	10062.36
578.763	10159.76
579.124	10294.9
579.485	10346.65
579.845	10418.51
580.206	10574.89
580.566	10695.11
580.927	10765.62
581.287	10966.52
581.648	11024.37
582.008	11151.83
582.368	11375.1
582.728	11529.67
583.089	11594.3
583.449	11813.28
583.809	12069.09
584.169	12180.05
584.529	12376.65
584.889	12709.3
585.249	12751.11
585.609	12916.98
585.969	13262.96
586.329	13443.29
586.688	13667.92
587.048	13920.11
587.408	14142.26
587.768	14376.6
588.127	14606.2
588.487	14779.98
588.846	15149.23
589.206	15333.41
589.565	15659.28
589.925	15999.61
590.284	16132.26
590.643	16549.88
591.003	16864.9
591.362	17268.27
591.721	17472.11
592.08	17767.02
592.44	18105.31
592.799	18490.84
593.158	18690.61
593.517	19097.83
593.876	19329.46
594.235	19687.19
594.593	20013.51
594.952	20411.47
595.311	20646.72
595.67	21063.66
596.029	21515.17
596.387	21794.94
596.746	22263.85
597.104	22447.57
597.463	22838.3
597.822	23211.17
598.18	23419.98
598.538	23815.9
598.897	24237.13
599.255	24322.1
599.613	24998.24
599.972	25284.11
600.33	25570.2
600.688	25871.66
601.046	26289.51
601.404	26671.64
601.762	26863.05
602.12	27306.65
602.478	27648.34
602.836	27883.36
603.194	28192.51
603.552	28489.67
603.91	28817.58
604.268	29091.69
604.625	29364.23
604.983	29820.94
605.341	29944.1
605.698	30310.87
606.056	30784.76
606.413	30988.82
606.771	31359.88
607.128	31589.48
607.485	31783.37
607.843	31939.53
608.2	32478.27
608.557	32704.71
608.914	32934.76
609.272	33399.6
609.629	33702.64
609.986	33969.3
610.343	34121.84
610.7	34510.76
611.057	34759.57
611.414	34845.67
611.771	35121.14
612.127	35421.02
612.484	35689.26
612.841	36115.91
613.198	36073.43
613.554	36348
613.911	36815.33
614.267	36904.37
614.624	36956.12
614.98	37190.01
615.337	37586.16
615.693	37627.06
616.05	37758.58
616.406	38209.65
616.762	38250.55
617.118	38389.08
617.475	38423.65
617.831	38861.61
618.187	38825
618.543	39118.77
618.899	39547.46
619.255	39454.36
619.611	39700.23
619.967	39832.2
620.323	39990.39
620.678	40111.29
621.034	40150.84
621.39	40390.83
621.746	40453.65
622.101	40861.78
622.457	40752.4
622.812	40937.48
623.168	41076.91
623.523	41178.15
623.879	41440.52
624.234	41263.58
624.589	41639.16
624.945	41577.92
625.3	41730.91
625.655	41868.08
626.01	41772.94
626.365	41933.16
626.72	41961.86
627.075	42050
627.43	42081.18
627.785	42162.76
628.14	42193.04
628.495	42342.42
628.85	42362.98
629.205	42322.31
629.559	42612.69
629.914	42507.16
630.269	42631
630.623	42613.6
630.978	42540.6
631.332	42694.27
631.687	42896.3
632.041	42666.25
632.396	42809.07
632.75	42713.71
633.104	42867.38
633.459	42752.8
633.813	42806.59
634.167	42889.75
634.521	42967.94
634.875	43012.91
635.229	43092.68
635.583	42745.12
635.937	42838.68
636.291	42906.7
636.645	42931.55
636.999	42894.49
637.352	43143.98
637.706	42883.19
638.06	42973.59
638.413	42827.6
638.767	42851.56
639.121	42923.42
639.474	42649.75
639.828	42823.99
640.181	42902.18
640.534	42961.38
640.888	42800.94
641.241	42663.31
641.594	42846.36
641.947	42935.85
642.301	42868.73
642.654	42771.78
643.007	42833.03
643.36	42768.85
643.713	42754.61
644.066	42973.36
644.419	42727.04
644.771	42525.92
645.124	42046.61
645.477	42030.34
645.83	41772.72
646.182	41708.99
646.535	41555.32
646.888	41658.82
647.24	41485.49
647.593	41740.17
647.945	41616.79
648.298	41444.36
648.65	41371.37
649.002	41284.37
649.355	41590.8
649.707	41404.59
650.059	41561.87
650.411	42125.25
650.763	42108.3
651.115	42429.87
651.467	42428.52
651.819	42409.76
652.171	42262.87
652.523	42184.46
652.875	42286.37
653.227	42023.33
653.578	42283.21
653.93	42336.77
654.282	42057.91
654.633	42112.14
654.985	42229.43
655.337	42092.25
655.688	42057.91
656.039	42222.87
656.391	41944.91
656.742	42113.27
657.094	42051.13
657.445	42191.01
657.796	42012.71
658.147	42033.73
658.498	41985.14
658.849	41986.27
659.2	42074.63
659.551	41860.85
659.902	42125.02
660.253	41959.83
660.604	42037.12
660.955	41774.07
661.306	41972.71
661.656	41999.83
662.007	41959.6
662.358	41807.29
662.708	41954.63
663.059	41999.6
663.409	41657.01
663.76	42100.62
664.11	41880.73
664.461	42061.75
664.811	41929.55
665.161	41913.5
665.511	41844.8
665.862	41903.56
666.212	42052.26
666.562	41973.61
666.912	41874.18
667.262	41981.98
667.612	41901.53
667.962	41936.33
668.312	41764.13
668.662	42130.9
669.011	41811.81
669.361	41740.85
669.711	41772.04
670.06	41671.02
670.41	41652.49
670.76	41638.26
671.109	41880.06
671.459	41565.26
671.808	41479.39
672.157	41842.54
672.507	41531.59
672.856	41527.98
673.205	41477.13
673.554	41674.86
673.904	41519.61
674.253	41738.82
674.602	41609.1
674.951	41011.83
675.3	40815.23
675.649	41452.05
675.998	41393.97
676.346	41447.07
676.695	41527.98
677.044	41298.83
677.393	41380.86
677.741	41442.1
678.09	41235.55
678.438	41049.12
678.787	41302.9
679.135	41344.7
679.484	41052.06
679.832	41220.87
680.181	40844.6
680.529	41085.95
680.877	40930.93
681.225	40943.81
681.573	41209.79
681.922	40961.89
682.27	40624.04
682.618	40697.26
682.966	40699.98
683.314	40647.55
683.661	40494.78
684.009	40483.71
684.357	40300.66
684.705	40323.49
685.053	40343.37
685.4	40235.58
685.748	40172.31
686.095	40142.02
686.443	40021.8
686.79	39951.52
687.138	40092.99
687.485	40004.4
687.832	39830.85
688.18	39930.96
688.527	39772.99
688.874	39684.86
689.221	39736.16
689.568	39577.74
689.915	39483.74
690.262	39303.18
690.609	39283.06
690.956	39049.17
691.303	39130.52
691.65	38908.84
691.997	39022.73
692.344	38767.14
692.69	38756.07
693.037	38674.04
693.383	38434.27
693.73	38559.47
694.077	38273.6
694.423	38283.77
694.769	38254.39
695.116	38096.2
695.462	38065.69
695.808	37863.44
696.155	38098.24
696.501	37764.23
696.847	37752.48
697.193	37506.61
697.539	37572.6
697.885	37351.59
698.231	37270.69
698.577	37274.98
698.923	37115.66
699.269	36940.75
699.614	36946.85
699.96	36829.12
700.306	36779.4
700.651	36603.81
700.997	36636.35
701.342	36566.98
701.688	36461.67
702.033	36254.67
702.379	36335.12
702.724	36177.16
703.069	36146.42
703.415	36006.09
703.76	35882.93
704.105	35959.99
704.45	35843.61
704.795	35598.87
705.14	35579.88
705.485	35577.62
705.83	35345.77
706.175	35330.62
706.52	35222.38
706.865	35173.57
707.209	34990.07
707.554	34940.35
707.899	35085.43
708.243	34791.66
708.588	34856.06
708.932	34549.4
709.277	34468.73
709.621	34583.98
709.966	34324.78
710.31	34464.21
710.654	34179.47
710.998	34200.03
711.342	34294.04
711.687	34245
712.031	34000.49
712.375	33819.25
712.719	33824.9
713.063	33751.46
713.407	33930.21
713.75	33713.04
714.094	33744
714.438	33544.68
714.782	33608.64
715.125	33348.98
715.469	33516.21
715.812	33275.31
716.156	33078.48
716.499	33085.03
716.843	33126.39
717.186	32827.41
717.53	33179.04
717.873	33071.02
718.216	32972.95
718.559	32815.66
718.902	32653.63
719.246	32831.03
719.589	32672.62
719.932	32483.24
720.275	32457.03
720.617	32364.6
720.96	32411.83
721.303	32513.07
721.646	32278.05
721.989	32149.01
722.331	32183.81
722.674	32128.67
723.016	32210.03
723.359	32140.2
723.701	32099.98
724.044	31907.66
724.386	31708.57
724.729	31978.85
725.071	31668.57
725.413	31689.14
725.755	31747.67
726.097	31661.34
726.439	31450.05
726.782	31503.15
727.124	31658.4
727.465	31366.66
727.807	31332.54
728.149	31387.23
728.491	31246.44
728.833	31244.18
729.175	31253.44
729.516	31102.49
729.858	31065.88
730.199	31196.95
730.541	31015.94
730.882	30994.92
731.224	31114.24
731.565	30723.51
731.906	30862.72
732.248	30870.4
732.589	30765.55
732.93	30615.49
733.271	30673.12
733.612	30660.69
733.953	30641.71
734.294	30625.44
734.635	30443.97
734.976	30557.87
735.317	30331.89
735.658	30394.48
735.999	30319.46
736.339	30299.8
736.68	30283.75
737.021	30214.83
737.361	30138.9
737.702	30287.37
738.042	30089.63
738.383	30016.19
738.723	30129.18
739.063	30101.61
739.404	30080.14
739.744	29887.15
740.084	29754.5
740.424	29818.23
740.764	29824.78
741.104	29868.85
741.444	29728.74
741.784	29687.84
742.124	29507.05
742.464	29652.58
742.804	29489.87
743.143	29503.89
743.483	29540.04
743.823	29287.17
744.162	29319.71
744.502	29254.85
744.841	29195.87
745.181	29281.29
745.52	29133.95
745.86	29172.14
746.199	29194.06
746.538	29073.61
746.877	29257.56
747.216	29070
747.556	29009.21
747.895	28980.51
748.234	28922.88
748.573	28997.91
748.911	28799.05
749.25	28944.13
749.589	28653.74
749.928	28809.67
750.267	28767.41
750.605	28624.59
750.944	28557.24
751.283	28557.47
751.621	28541.65
751.96	28307.31
752.298	28453.29
752.636	28394.54
752.975	28255.56
753.313	28220.3
753.651	28385.95
753.989	28181.43
754.327	28069.12
754.666	28004.72
755.004	27941.89
755.342	28038.39
755.679	27967.65
756.017	27761.78
756.355	27825.74
756.693	27730.15
757.031	27755.23
757.368	27590.72
757.706	27468.01
758.044	27466.42
758.381	27517.5
758.719	27333.09
759.056	27421.23
759.394	27409.25
759.731	27175.36
760.068	27141.01
760.405	27147.79
760.743	26961.13
761.08	26907.12
