Data from hue_260_FLMS001491_00067.txt Node
Date: Tue Feb 07 15:59:24 GMT 2017
User: dcchb
Spectrometer: FLMS00149
Trigger mode: 0
Integration Time (sec): 2.000000E-2
Scans to average: 10
Electric dark correction enabled: true
Nonlinearity correction enabled: false
Boxcar width: 0
XAxis mode: Wavelengths
Number of Pixels in Spectrum: 2048
>>>>>Begin Spectral Data<<<<<
341.393	-17.94
341.776	-17.94
342.16	-17.94
342.543	-58.61
342.927	-60.42
343.31	-47.32
343.693	-52.96
344.077	-83.25
344.46	-70.59
344.843	-33.76
345.226	-36.47
345.61	-43.47
345.993	-20.2
346.376	7.37
346.759	4.43
347.142	15.28
347.525	58.9
347.908	52.8
348.291	80.14
348.674	82.62
349.057	86.47
349.44	134.83
349.823	140.25
350.206	140.93
350.588	185.67
350.971	196.07
351.354	210.31
351.737	223.86
352.119	223.86
352.502	249.17
352.884	272.68
353.267	258.67
353.65	290.3
354.032	283.3
354.414	281.94
354.797	297.76
355.179	302.28
355.562	314.71
355.944	320.36
356.326	304.99
356.709	304.31
357.091	305.22
357.473	338.66
357.855	334.82
358.238	342.73
358.62	330.08
359.002	327.36
359.384	344.09
359.766	327.82
360.148	326.46
360.53	327.82
360.912	327.14
361.294	324.43
361.676	310.87
362.057	331.21
362.439	294.37
362.821	304.31
363.203	302.05
363.584	322.62
363.966	302.51
364.348	318.1
364.729	294.6
365.111	316.74
365.493	310.64
365.874	312
366.256	289.85
366.637	310.42
367.019	318.1
367.4	318.32
367.781	295.05
368.163	296.86
368.544	308.16
368.925	308.61
369.306	305.22
369.688	293.01
370.069	306.57
370.45	311.77
370.831	326.46
371.212	292.11
371.593	276.74
371.974	299.79
372.355	299.57
372.736	303.86
373.117	297.31
373.498	323.75
373.879	295.73
374.26	297.08
374.641	293.92
375.021	297.08
375.402	317.42
375.783	329.85
376.163	319
376.544	310.87
376.925	317.42
377.305	300.02
377.686	311.09
378.066	323.3
378.447	316.07
378.827	308.83
379.208	305.9
379.588	326.23
379.968	316.52
380.349	344.76
380.729	312.45
381.109	304.09
381.489	335.95
381.87	321.04
382.25	316.74
382.63	324.65
383.01	357.87
383.39	342.05
383.77	331.66
384.15	317.42
384.53	324.65
384.91	326.01
385.29	336.86
385.67	325.78
386.049	331.88
386.429	346.12
386.809	338.21
387.189	357.87
387.568	340.92
387.948	340.92
388.328	342.05
388.707	361.94
389.087	359
389.466	351.77
389.846	348.15
390.225	373.69
390.605	374.14
390.984	364.65
391.363	365.78
391.743	356.06
392.122	355.39
392.501	360.36
392.881	382.96
393.26	355.39
393.639	381.83
394.018	367.59
394.397	359.68
394.776	367.59
395.155	366.69
395.534	363.97
395.913	376.63
396.292	382.73
396.671	373.69
397.05	375.27
397.429	391.32
397.808	395.61
398.186	376.63
398.565	397.42
398.944	397.42
399.323	397.42
399.701	406.91
400.08	415.72
400.458	397.42
400.837	414.37
401.215	409.17
401.594	401.71
401.972	395.61
402.351	396.74
402.729	410.98
403.107	416.85
403.486	435.16
403.864	397.87
404.242	436.97
404.62	430.86
404.999	436.29
405.377	420.7
405.755	442.84
406.133	422.73
406.511	448.27
406.889	459.34
407.267	452.78
407.645	472.22
408.023	476.29
408.401	470.64
408.779	482.61
409.156	471.54
409.534	490.52
409.912	500.02
410.29	495.5
410.667	504.99
411.045	535.27
411.422	517.87
411.8	517.87
412.178	529.17
412.555	555.61
412.933	539.79
413.31	569.39
413.687	561.71
414.065	541.14
414.442	573.91
414.819	568.04
415.197	573.23
415.574	613.01
415.951	613.68
416.328	593.12
416.705	600.8
417.082	608.71
417.46	646.9
417.837	634.93
418.214	631.54
418.591	637.64
418.967	655.27
419.344	658.88
419.721	673.57
420.098	660.46
420.475	693.46
420.852	689.84
421.228	678.99
421.605	687.81
421.982	707.47
422.358	719.44
422.735	715.38
423.111	722.61
423.488	720.8
423.864	781.59
424.241	773.68
424.617	789.5
424.994	800.35
425.37	808.93
425.746	809.84
426.123	806.9
426.499	811.42
426.875	829.95
427.251	841.48
427.627	891.87
428.003	895.48
428.379	873.34
428.756	888.25
429.132	914.69
429.507	921.47
429.883	939.33
430.259	950.85
430.635	965.54
431.011	933.22
431.387	955.6
431.763	1001.02
432.138	985.88
432.514	1004.18
432.89	1013.22
433.265	1033.79
433.641	1067.91
434.016	1073.79
434.392	1079.89
434.767	1091.19
435.143	1109.72
435.518	1130.51
435.894	1132.99
436.269	1179.55
436.644	1186.1
437.02	1180.45
437.395	1195.59
437.77	1216.38
438.145	1238.3
438.52	1248.24
438.895	1271.52
439.271	1261.58
439.646	1328.92
440.021	1325.76
440.395	1344.74
440.77	1351.52
441.145	1353.55
441.52	1381.12
441.895	1357.17
442.27	1411.4
442.645	1403.72
443.019	1404.4
443.394	1405.75
443.769	1453.44
444.143	1433.78
444.518	1459.54
444.892	1496.37
445.267	1474.68
445.641	1504.28
446.016	1474.68
446.39	1538.86
446.764	1516.49
447.139	1513.1
447.513	1528.69
447.887	1568.91
448.262	1572.76
448.636	1585.86
449.01	1617.95
449.384	1597.84
449.758	1638.97
450.132	1591.96
450.506	1638.74
450.88	1655.01
451.254	1689.14
451.628	1674.67
452.002	1695.24
452.376	1710.15
452.75	1721.45
453.123	1755.8
453.497	1771.39
453.871	1779.76
454.244	1804.16
454.618	1797.83
454.992	1856.59
455.365	1826.31
455.739	1874.44
456.112	1862.92
456.486	1878.28
456.859	1919.19
457.232	1948.56
457.606	1950.37
457.979	1971.61
458.352	2002.8
458.725	2061.1
459.099	2066.98
459.472	2067.66
459.845	2084.61
460.218	2117.37
460.591	2093.65
460.964	2124.83
461.337	2189.24
461.71	2203.02
462.083	2210.03
462.456	2240.76
462.829	2283.02
463.201	2276.92
463.574	2307.2
463.947	2311.94
464.32	2358.27
464.692	2372.73
465.065	2357.37
465.438	2406.86
465.81	2456.12
466.183	2484.82
466.555	2505.16
466.928	2547.64
467.3	2502.45
467.672	2550.58
468.045	2625.83
468.417	2641.43
468.789	2644.14
469.161	2695.89
469.534	2719.39
469.906	2799.39
470.278	2798.71
470.65	2793.97
471.022	2845.94
471.394	2944.92
471.766	2948.99
472.138	2957.58
472.51	2996.9
472.882	3054.3
473.253	3091.59
473.625	3127.74
473.997	3186.05
474.369	3145.6
474.74	3234.86
475.112	3281.41
475.484	3277.57
475.855	3332.48
476.227	3381.52
476.598	3461.75
476.97	3482.31
477.341	3546.94
477.713	3600.05
478.084	3591.91
478.455	3686.37
478.827	3721.4
479.198	3794.17
479.569	3801.17
479.94	3894.5
480.311	3936.99
480.682	4019.7
481.053	4038.68
481.424	4115.29
481.795	4117.55
482.166	4208.39
482.537	4244.55
482.908	4312.57
483.279	4387.14
483.65	4438.22
484.021	4544.88
484.391	4569.51
484.762	4572.22
485.133	4612.45
485.503	4671.43
485.874	4789.39
486.244	4800.92
486.615	4859.67
486.985	4930.63
487.356	4989.39
487.726	5018.09
488.097	5139.22
488.467	5114.81
488.837	5215.37
489.207	5259.89
489.578	5337.4
489.948	5362.71
490.318	5437.74
490.688	5431.18
491.058	5505.99
491.428	5593.21
491.798	5589.15
492.168	5722.7
492.538	5755.92
492.908	5795.7
493.278	5862.13
493.648	5857.16
494.017	5889.7
494.387	5922.47
494.757	6005.41
495.126	6037.95
495.496	6030.49
495.866	6078.17
496.235	6180.77
496.605	6180.77
496.974	6209.24
497.344	6191.84
497.713	6244.04
498.082	6301.67
498.452	6373.76
498.821	6370.6
499.19	6389.8
499.559	6495.56
499.928	6458.28
500.298	6473.64
500.667	6556.58
501.036	6527.65
501.405	6589.35
501.774	6597.26
502.143	6666.41
502.512	6662.11
502.88	6671.38
503.249	6714.31
503.618	6735.56
503.987	6712.06
504.356	6787.99
504.724	6770.58
505.093	6821.88
505.462	6833.41
505.83	6875.67
506.199	6924.7
506.567	6993.4
506.936	6945.27
507.304	6994.99
507.672	7028.66
508.041	7035.21
508.409	7066.17
508.777	7099.84
509.145	7167.41
509.514	7127.86
509.882	7129.67
510.25	7188.88
510.618	7230.01
510.986	7244.92
511.354	7237.69
511.722	7302.1
512.09	7323.56
512.458	7306.84
512.826	7303.9
513.193	7364.69
513.561	7397.46
513.929	7447.63
514.297	7447.63
514.664	7479.04
515.032	7472.26
515.4	7514.52
515.767	7493.05
516.135	7470.91
516.502	7501.86
516.869	7574.63
517.237	7563.78
517.604	7541.64
517.972	7510.68
518.339	7559.26
518.706	7603.78
519.073	7608.3
519.44	7639.94
519.808	7698.92
520.175	7628.64
520.542	7674.29
520.909	7728.07
521.276	7729.88
521.643	7778.02
522.009	7776.43
522.376	7830.44
522.743	7867.05
523.11	7865.25
523.477	7877.22
523.843	7862.76
524.21	7926.94
524.577	7972.14
524.943	7963.32
525.31	7961.51
525.676	8087.39
526.043	7978.24
526.409	8094.17
526.776	8096.2
527.142	8067.5
527.508	8080.38
527.874	8159.47
528.241	8143.88
528.607	8117.22
528.973	8121.96
529.339	8123.09
529.705	8177.1
530.071	8238.79
530.437	8152.24
530.803	8283.09
531.169	8205.58
531.535	8179.81
531.901	8235.86
532.267	8148.63
532.632	8288.96
532.998	8210.55
533.364	8289.64
533.73	8281.28
534.095	8288.96
534.461	8270.21
534.826	8270.66
535.192	8319.47
535.557	8304.1
535.923	8308.4
536.288	8305.23
536.653	8319.92
537.019	8249.64
537.384	8233.37
537.749	8292.8
538.114	8271.11
538.479	8257.1
538.845	8265.23
539.21	8275.63
539.575	8279.47
539.94	8277.89
540.305	8272.69
540.67	8242.64
541.034	8199.02
541.399	8237.89
541.764	8238.79
542.129	8252.13
542.494	8180.94
542.858	8207.84
543.223	8247.61
543.587	8214.39
543.952	8164.45
544.316	8187.5
544.681	8193.15
545.045	8196.76
545.41	8207.61
545.774	8180.04
546.138	8145.46
546.503	8155.41
546.867	8105.46
547.231	8173.71
547.595	8159.02
547.959	8136.65
548.324	8141.4
548.688	8134.16
549.052	8163.99
549.416	8200.38
549.779	8084.9
550.143	8044.68
550.507	8120.83
550.871	8112.47
551.235	8093.26
551.599	8114.5
551.962	8106.82
552.326	8098.69
552.689	8176.42
553.053	8067.27
553.417	8084.45
553.78	8109.53
554.143	8129.19
554.507	8145.01
554.87	8144.79
555.234	8144.56
555.597	8112.24
555.96	8133.49
556.323	8101.17
556.686	8145.69
557.05	8136.88
557.413	8101.62
557.776	8113.6
558.139	8175.97
558.502	8122.64
558.865	8128.52
559.228	8206.03
559.59	8175.52
559.953	8247.16
560.316	8207.61
560.679	8191.79
561.041	8244.9
561.404	8258.91
561.767	8308.85
562.129	8264.1
562.492	8288.96
562.854	8271.79
563.217	8262.75
563.579	8279.7
563.941	8334.16
564.304	8360.83
564.666	8363.09
565.028	8378.68
565.39	8431.78
565.753	8447.6
566.115	8512.46
566.477	8448.73
566.839	8473.36
567.201	8523.76
567.563	8484.21
567.925	8550.88
568.287	8559.01
568.648	8570.54
569.01	8565.57
569.372	8609.18
569.734	8567.37
570.095	8691.89
570.457	8648.05
570.819	8689.86
571.18	8730.99
571.542	8712.23
571.903	8743.19
572.265	8723.75
572.626	8799.01
572.987	8862.73
573.349	8846.24
573.71	8818.21
574.071	8774.37
574.432	8896.18
574.794	8957.87
575.155	8954.71
575.516	8935.05
575.877	8989.74
576.238	8962.84
576.599	8937.99
576.96	8985.67
577.32	9008.94
577.681	9044.2
578.042	9053.01
578.403	9083.07
578.763	9046.01
579.124	9062.05
579.485	9121.94
579.845	9150.86
580.206	9176.62
580.566	9193.35
580.927	9203.97
581.287	9214.14
581.648	9189.05
582.008	9306.56
582.368	9291.65
582.728	9319.44
583.089	9282.38
583.449	9315.38
583.809	9354.02
584.169	9396.73
584.529	9286.68
584.889	9453.68
585.249	9357.41
585.609	9375.04
585.969	9412.55
586.329	9418.42
586.688	9431.08
587.048	9417.07
587.408	9413.91
587.768	9421.14
588.127	9483.73
588.487	9485.77
588.846	9535.26
589.206	9502.04
589.565	9501.36
589.925	9586.1
590.284	9559.21
590.643	9499.55
591.003	9597.18
591.362	9640.11
591.721	9586.78
592.08	9625.88
592.44	9662.26
592.799	9695.71
593.158	9602.83
593.517	9703.39
593.876	9650.28
594.235	9663.84
594.593	9672.88
594.952	9700.9
595.311	9673.33
595.67	9762.37
596.029	9727.34
596.387	9796.27
596.746	9730.96
597.104	9773.9
597.463	9742.26
597.822	9731.41
598.18	9777.51
598.538	9772.31
598.897	9785.65
599.255	9756.49
599.613	9834.68
599.972	9797.85
600.33	9809.37
600.688	9853.67
601.046	9830.17
601.404	9904.29
601.762	9819.09
602.12	9937.28
602.478	9944.29
602.836	9892.08
603.194	9876.27
603.552	9883.5
603.91	9811.41
604.268	9866.77
604.625	9893.67
604.983	9802.6
605.341	9846.21
605.698	9929.15
606.056	9958.52
606.413	9930.73
606.771	9936.38
607.128	9917.17
607.485	9909.71
607.843	9888.92
608.2	9940.9
608.557	9980.67
608.914	9899.54
609.272	10003.72
609.629	10068.13
609.986	10015.47
610.343	10051.85
610.7	10039.2
611.057	10053.89
611.414	10028.35
611.771	10078.52
612.127	10047.56
612.484	10103.83
612.841	10111.06
613.198	10087.11
613.554	10099.31
613.911	10125.3
614.267	10112.64
614.624	10150.16
614.98	10139.99
615.337	10144.96
615.693	10165.52
616.05	10135.92
616.406	10174.11
616.762	10165.75
617.118	10201.68
617.475	10192.87
617.831	10255.69
618.187	10167.11
618.543	10184.51
618.899	10293.88
619.255	10217.5
619.611	10256.82
619.967	10316.93
620.323	10273.54
620.678	10225.64
621.034	10318.97
621.39	10194.9
621.746	10209.14
622.101	10350.15
622.457	10224.05
622.812	10249.82
623.168	10324.39
623.523	10291.62
623.879	10272.64
624.234	10246.65
624.589	10232.64
624.945	10341.11
625.3	10278.74
625.655	10244.62
626.01	10288.68
626.365	10229.48
626.72	10259.76
627.075	10332.98
627.43	10254.11
627.785	10208.46
628.14	10264.96
628.495	10248.69
628.85	10172.53
629.205	10114
629.559	10201
629.914	10196.26
630.269	10199.2
630.623	10152.42
630.978	10173.21
631.332	10197.39
631.687	10201
632.041	10121.68
632.396	10159.42
632.75	10136.82
633.104	10137.5
633.459	10071.74
633.813	10075.58
634.167	10080.55
634.521	10085.75
634.875	10125.3
635.229	10006.21
635.583	9946.55
635.937	10045.53
636.291	9997.84
636.645	10023.83
636.999	9942.25
637.352	10010.27
637.706	9950.16
638.06	10008.01
638.413	9956.04
638.767	9920.11
639.121	9918.3
639.474	9849.37
639.828	9898.41
640.181	9898.86
640.534	9864.51
640.888	9860.9
641.241	9735.25
641.594	9749.04
641.947	9823.84
642.301	9796.72
642.654	9807.12
643.007	9764.4
643.36	9778.19
643.713	9755.82
644.066	9774.8
644.419	9761.92
644.771	9679.43
645.124	9640.11
645.477	9620.91
645.83	9570.96
646.182	9501.59
646.535	9422.27
646.888	9464.75
647.24	9384.08
647.593	9500.23
647.945	9401.7
648.298	9433.11
648.65	9427.92
649.002	9393.11
649.355	9405.09
649.707	9436.05
650.059	9464.07
650.411	9602.6
650.763	9528.93
651.115	9693.67
651.467	9653.22
651.819	9684.63
652.171	9630.4
652.523	9585.2
652.875	9625.88
653.227	9530.96
653.578	9637.63
653.93	9645.54
654.282	9626.1
654.633	9624.07
654.985	9633.56
655.337	9598.98
655.688	9627.91
656.039	9663.16
656.391	9502.04
656.742	9585.2
657.094	9512.89
657.445	9596.95
657.796	9548.14
658.147	9598.31
658.498	9605.76
658.849	9647.57
659.2	9572.09
659.551	9619.78
659.902	9649.38
660.253	9603.05
660.604	9629.94
660.955	9573.9
661.306	9657.06
661.656	9607.57
662.007	9594.47
662.358	9621.81
662.708	9645.09
663.059	9667.01
663.409	9546.1
663.76	9668.14
664.11	9674.01
664.461	9636.95
664.811	9628.36
665.161	9606.89
665.511	9653.9
665.862	9589.72
666.212	9598.98
666.562	9651.19
666.912	9668.81
667.262	9653.9
667.612	9558.53
667.962	9628.81
668.312	9574.58
668.662	9683.28
669.011	9560.12
669.361	9557.4
669.711	9589.49
670.06	9633.11
670.41	9533.68
670.76	9627.01
671.109	9575.48
671.459	9611.41
671.808	9570.06
672.157	9545.88
672.507	9481.25
672.856	9479.21
673.205	9512.66
673.554	9545.65
673.904	9514.92
674.253	9515.15
674.602	9558.53
674.951	9352.66
675.3	9309.5
675.649	9456.62
675.998	9426.79
676.346	9507.91
676.695	9500.68
677.044	9381.82
677.393	9429.95
677.741	9405.09
678.09	9402.38
678.438	9375.04
678.787	9374.36
679.135	9399.89
679.484	9301.82
679.832	9326.45
680.181	9252.55
680.529	9252.1
680.877	9308.82
681.225	9271.76
681.573	9313.12
681.922	9282.61
682.27	9210.29
682.618	9186.11
682.966	9182.05
683.314	9200.8
683.661	9217.75
684.009	9167.13
684.357	9113.57
684.705	9044.42
685.053	9111.77
685.4	9087.81
685.748	9070.64
686.095	8970.75
686.443	8984.54
686.79	8996.06
687.138	8999.45
687.485	8942.96
687.832	8963.75
688.18	8922.17
688.527	8878.33
688.874	8877.65
689.221	8869.74
689.568	8762.17
689.915	8856.63
690.262	8812.79
690.609	8716.75
690.956	8708.84
691.303	8730.08
691.65	8669.97
691.997	8661.83
692.344	8535.96
692.69	8611.44
693.037	8633.36
693.383	8487.83
693.73	8528.05
694.077	8501.61
694.423	8475.62
694.769	8482.63
695.116	8347.27
695.462	8411.67
695.808	8400.6
696.155	8384.78
696.501	8333.93
696.847	8324.22
697.193	8203.54
697.539	8309.08
697.885	8174.16
698.231	8189.76
698.577	8165.12
698.923	8146.59
699.269	8096.65
699.614	8072.47
699.96	8035.64
700.306	8066.82
700.651	7972.59
700.997	7935.75
701.342	7937.56
701.688	7934.4
702.033	7920.16
702.379	7832.7
702.724	7796.55
703.069	7812.37
703.415	7777.11
703.76	7743.89
704.105	7765.13
704.45	7672.93
704.795	7681.52
705.14	7643.1
705.485	7637.23
705.83	7540.28
706.175	7626.61
706.52	7641.75
706.865	7529.66
707.209	7533.73
707.554	7504.58
707.899	7502.54
708.243	7428.42
708.588	7445.6
708.932	7433.39
709.277	7375.31
709.621	7455.76
709.966	7361.98
710.31	7323.11
710.654	7264.58
710.998	7315.43
711.342	7262.32
711.687	7235.21
712.031	7241.53
712.375	7177.13
712.719	7213.28
713.063	7217.35
713.407	7167.86
713.75	7142.1
714.094	7124.25
714.438	7085.6
714.782	7124.93
715.125	7110.46
715.469	7103.46
715.812	7023.46
716.156	7047.64
716.499	6997.7
716.843	7055.77
717.186	6992.5
717.53	7067.75
717.873	7031.82
718.216	7002.67
718.559	7024.82
718.902	6954.08
719.246	6941.65
719.589	6903.91
719.932	6871.82
720.275	6942.78
720.617	6944.14
720.96	6927.42
721.303	6846.51
721.646	6890.13
721.989	6866.63
722.331	6844.93
722.674	6843.8
723.016	6844.26
723.359	6823.46
723.701	6851.26
724.044	6792.05
724.386	6785.5
724.729	6830.92
725.071	6805.61
725.413	6792.96
725.755	6797.25
726.097	6760.87
726.439	6715.67
726.782	6817.82
727.124	6745.27
727.465	6706.18
727.807	6735.33
728.149	6731.04
728.491	6731.49
728.833	6722.9
729.175	6654.88
729.516	6740.3
729.858	6745.27
730.199	6709.12
730.541	6728.55
730.882	6719.51
731.224	6734.88
731.565	6681.55
731.906	6706.18
732.248	6694.43
732.589	6704.82
732.93	6662.56
733.271	6678.38
733.612	6660.53
733.953	6685.84
734.294	6637.25
734.635	6687.42
734.976	6661.89
735.317	6659.85
735.658	6648.55
735.999	6736.91
736.339	6675.67
736.68	6714.09
737.021	6690.13
737.361	6658.5
737.702	6668.67
738.042	6681.77
738.383	6724.26
738.723	6724.26
739.063	6736.46
739.404	6682
739.744	6762.9
740.084	6723.58
740.424	6736.24
740.764	6743.92
741.104	6748.21
741.444	6728.1
741.784	6689
742.124	6787.31
742.464	6744.6
742.804	6849.9
743.143	6744.14
743.483	6816.01
743.823	6815.1
744.162	6780.3
744.502	6827.53
744.841	6918.15
745.181	6879.51
745.52	6967.19
745.86	6895.78
746.199	6939.85
746.538	6988.21
746.877	7004.7
747.216	7032.72
747.556	7077.47
747.895	7123.8
748.234	7107.07
748.573	7118.15
748.911	7189.33
749.25	7265.03
749.589	7203.57
749.928	7302.55
750.267	7429.78
750.605	7347.29
750.944	7458.25
751.283	7484.46
751.621	7627.29
751.96	7640.17
752.298	7686.94
752.636	7844.45
752.975	7853.27
753.313	7907.28
753.651	8017.56
753.989	8060.49
754.327	8187.72
754.666	8287.83
755.004	8362.86
755.342	8452.8
755.679	8496.64
756.017	8598.56
756.355	8762.62
756.693	8749.74
757.031	8914.94
757.368	9057.08
757.706	9065.67
758.044	9225.44
758.381	9341.82
758.719	9433.79
759.056	9523.51
759.394	9654.58
759.731	9745.65
760.068	9911.75
760.405	10005.3
760.743	10040.56
761.08	10231.51
761.417	10307.67
761.754	10436.03
762.091	10569.58
762.428	10681.22
762.765	10741.1
763.102	11044.14
763.438	11015.44
763.775	11140.64
764.112	11280.97
764.449	11428.32
764.785	11447.98
765.122	11623.56
765.458	11708.08
765.795	11761.41
766.131	11925.25
766.467	12030.56
766.804	12124.34
767.14	12219.25
767.476	12347.61
767.812	12411.34
