Data from hue_40_FLMS001491_37.txt Node
Date: Mon Feb 06 15:07:49 GMT 2017
User: dcchb
Spectrometer: FLMS00149
Trigger mode: 0
Integration Time (sec): 2.000000E-2
Scans to average: 10
Electric dark correction enabled: true
Nonlinearity correction enabled: false
Boxcar width: 0
XAxis mode: Wavelengths
Number of Pixels in Spectrum: 2048
>>>>>Begin Spectral Data<<<<<
341.393	-12.71
341.776	-12.71
342.16	-12.71
342.543	-70.11
342.927	-88.19
343.31	-71.24
343.693	-74.63
344.077	-82.99
344.46	-64.69
344.843	-49.77
345.226	-52.48
345.61	-23.78
345.993	-3.67
346.376	-10.9
346.759	17.57
347.142	19.6
347.525	47.17
347.908	59.15
348.291	65.25
348.674	95.31
349.057	130.11
349.44	124.01
349.823	134.63
350.206	145.7
350.588	206.94
350.971	212.59
351.354	229.09
351.737	238.36
352.119	230.22
352.502	277.9
352.884	253.04
353.267	279.94
353.65	310.9
354.032	313.16
354.414	297.56
354.797	311.12
355.179	338.92
355.562	321.29
355.944	342.53
356.326	342.76
356.709	340.05
357.091	346.15
357.473	337.34
357.855	340.05
358.238	344.12
358.62	353.38
359.002	347.5
359.384	333.04
359.766	348.86
360.148	327.17
360.53	328.75
360.912	322.42
361.294	335.3
361.676	322.42
362.057	330.56
362.439	320.61
362.821	327.84
363.203	333.49
363.584	327.39
363.966	314.51
364.348	321.74
364.729	319.94
365.111	314.96
365.493	305.7
365.874	304.79
366.256	315.19
366.637	311.35
367.019	321.74
367.4	311.8
367.781	308.18
368.163	327.84
368.544	317.9
368.925	325.36
369.306	324.91
369.688	309.77
370.069	309.31
370.45	312.93
370.831	290.56
371.212	302.99
371.593	280.61
371.974	319.71
372.355	325.81
372.736	317.9
373.117	311.35
373.498	306.6
373.879	306.83
374.26	312.25
374.641	315.87
375.021	310.44
375.402	317.22
375.783	340.27
376.163	309.77
376.544	322.65
376.925	335.75
377.305	325.13
377.686	347.05
378.066	329.65
378.447	327.17
378.827	322.65
379.208	336.66
379.588	310.67
379.968	315.87
380.349	319.94
380.729	326.71
381.109	334.85
381.489	338.92
381.87	325.81
382.25	343.89
382.63	352.7
383.01	330.33
383.39	339.6
383.77	335.08
384.15	331.91
384.53	352.48
384.91	348.18
385.29	335.98
385.67	326.49
386.049	339.6
386.429	343.44
386.809	344.34
387.189	355.87
387.568	358.35
387.948	343.44
388.328	338.24
388.707	364.45
389.087	342.53
389.466	364.45
389.846	329.65
390.225	345.92
390.605	359.48
390.984	373.27
391.363	351.35
391.743	359.71
392.122	369.88
392.501	359.71
392.881	360.16
393.26	356.77
393.639	381.18
394.018	370.1
394.397	354.51
394.776	359.71
395.155	373.72
395.534	354.51
395.913	359.93
396.292	364
396.671	382.98
397.05	365.13
397.429	359.03
397.808	390.22
398.186	380.72
398.565	355.19
398.944	364.91
399.323	370.1
399.701	386.6
400.08	366.49
400.458	399.93
400.837	392.25
401.215	378.01
401.594	381.63
401.972	373.72
402.351	370.33
402.729	370.78
403.107	394.51
403.486	411.91
403.864	386.15
404.242	399.48
404.62	386.37
404.999	406.03
405.377	397.67
405.755	407.84
406.133	390.67
406.511	424.79
406.889	424.34
407.267	402.42
407.645	421.18
408.023	403.1
408.401	393.61
408.779	418.24
409.156	404.9
409.534	406.26
409.912	414.4
410.29	451.68
410.667	420.5
411.045	429.08
411.422	405.13
411.8	418.69
412.178	441.29
412.555	448.52
412.933	440.16
413.31	432.7
413.687	442.19
414.065	454.62
414.442	462.08
414.819	445.36
415.197	435.64
415.574	449.88
415.951	476.54
416.328	464.79
416.705	460.5
417.082	458.24
417.46	464.79
417.837	476.99
418.214	486.71
418.591	468.18
418.967	466.82
419.344	490.33
419.721	514.51
420.098	480.61
420.475	506.37
420.852	493.26
421.228	492.13
421.605	494.62
421.982	504.11
422.358	493.26
422.735	496.88
423.111	495.52
423.488	508.63
423.864	512.25
424.241	514.05
424.617	517.44
424.994	517.44
425.37	506.6
425.746	523.55
426.123	523.77
426.499	522.64
426.875	545.01
427.251	546.37
427.627	534.39
428.003	548.18
428.379	546.82
428.756	541.85
429.132	557.89
429.507	557.67
429.883	576.43
430.259	550.21
430.635	576.65
431.011	559.7
431.387	568.29
431.763	574.62
432.138	579.59
432.514	593.15
432.89	603.77
433.265	592.02
433.641	608.74
434.016	620.94
434.392	625.69
434.767	612.36
435.143	629.98
435.518	639.25
435.894	641.96
436.269	638.8
436.644	653.26
437.02	653.94
437.395	647.61
437.77	655.97
438.145	635.41
438.52	665.91
438.895	647.38
439.271	683.09
439.646	668.63
440.021	676.08
440.395	677.67
440.77	670.43
441.145	676.54
441.52	695.97
441.895	689.64
442.27	679.93
442.645	691.9
443.019	709.3
443.394	701.62
443.769	736.42
444.143	706.82
444.518	695.97
444.892	727.38
445.267	709.98
445.641	720.83
446.016	711.56
446.39	722.41
446.764	741.62
447.139	745.46
447.513	770.09
447.887	756.76
448.262	758.79
448.636	758.57
449.01	767.61
449.384	770.32
449.758	743.43
450.132	785.91
450.506	763.77
450.88	781.62
451.254	760.15
451.628	779.36
452.002	787.72
452.376	835.18
452.75	815.29
453.123	787.49
453.497	842.63
453.871	834.05
454.244	816.87
454.618	834.72
454.992	856.19
455.365	837.21
455.739	857.77
456.112	862.29
456.486	890.32
456.859	892.12
457.232	908.62
457.606	908.39
457.979	917.89
458.352	903.87
458.725	908.85
459.099	948.17
459.472	944.33
459.845	944.1
460.218	940.03
460.591	955.17
460.964	957.66
461.337	998.34
461.71	996.53
462.083	1020.03
462.456	988.17
462.829	1008.28
463.201	1047.37
463.574	1036.98
463.947	1077.66
464.32	1054.38
464.692	1059.8
465.065	1083.08
465.438	1134.38
465.81	1124.21
466.183	1137.31
466.555	1181.38
466.928	1159.01
467.3	1173.02
467.672	1191.32
468.045	1208.73
468.417	1243.98
468.789	1233.13
469.161	1251.21
469.534	1297.31
469.906	1293.47
470.278	1290.08
470.65	1354.03
471.022	1354.71
471.394	1390.19
471.766	1383.64
472.138	1422.73
472.51	1458.89
472.882	1466.57
473.253	1515.16
473.625	1542.28
473.997	1574.59
474.369	1607.36
474.74	1613.69
475.112	1639.45
475.484	1673.8
475.855	1744.3
476.227	1754.7
476.598	1828.37
476.97	1858.88
477.341	1885.32
477.713	1940.91
478.084	1990.4
478.455	2038.08
478.827	2053.67
479.198	2151.3
479.569	2156.72
479.94	2238.53
480.311	2273.78
480.682	2336.83
481.053	2398.98
481.424	2449.14
481.795	2505.64
482.166	2620.67
482.537	2607.11
482.908	2726.43
483.279	2784.05
483.65	2867.89
484.021	2937.49
484.391	3018.4
484.762	3067.21
485.133	3133.87
485.503	3227.66
485.874	3304.49
486.244	3346.97
486.615	3465.39
486.985	3557.36
487.356	3624.93
487.726	3725.95
488.097	3849.11
488.467	3894.3
488.837	4003.91
489.207	4113.06
489.578	4186.73
489.948	4229.89
490.318	4368.19
490.688	4434.18
491.058	4543.55
491.428	4685.02
491.798	4754.85
492.168	4900.83
492.538	5001.85
492.908	4993.94
493.278	5159.13
493.648	5204.55
494.017	5377.66
494.387	5413.59
494.757	5514.15
495.126	5621.04
495.496	5656.52
495.866	5800.47
496.235	5886.79
496.605	5964.31
496.974	6021.25
497.344	6110.74
497.713	6180.35
498.082	6368.36
498.452	6411.98
498.821	6505.08
499.19	6542.37
499.559	6674.8
499.928	6802.48
500.298	6793.89
500.667	6859.2
501.036	6931.06
501.405	7036.14
501.774	7082.7
502.143	7213.99
502.512	7259.64
502.88	7346.42
503.249	7387.77
503.618	7512.97
503.987	7584.83
504.356	7625.28
504.724	7735.56
505.093	7712.74
505.462	7884.03
505.83	7888.78
506.199	8000.86
506.567	8104.14
506.936	8137.58
507.304	8224.59
507.672	8277.24
508.041	8388.65
508.409	8436.78
508.777	8494.41
509.145	8627.06
509.514	8638.59
509.882	8763.55
510.25	8803.55
510.618	8812.37
510.986	8845.81
511.354	8964.23
511.722	9042.42
512.09	9151.34
512.458	9194.28
512.826	9229.08
513.193	9302.52
513.561	9351.56
513.929	9394.72
514.297	9538.22
514.664	9596.75
515.032	9553.59
515.4	9699.8
515.767	9700.25
516.135	9807.6
516.502	9800.36
516.869	9944.99
517.237	9957.2
517.604	9998.32
517.972	10144.76
518.339	10231.09
518.706	10205.32
519.073	10286.45
519.44	10348.6
519.808	10428.82
520.175	10474.02
520.542	10639.89
520.909	10582.04
521.276	10655.03
521.643	10785.87
522.009	10793.78
522.376	10824.97
522.743	10954.23
523.11	11035.13
523.477	11075.36
523.843	11206.2
524.21	11288.01
524.577	11387.21
524.943	11447.33
525.31	11481.9
525.676	11652.74
526.043	11686.19
526.409	11691.16
526.776	11843.47
527.142	11892.96
527.508	11911.27
527.874	12088.67
528.241	12128.66
528.607	12113.52
528.973	12214.54
529.339	12227.42
529.705	12328.43
530.071	12453.4
530.437	12552.16
530.803	12570.46
531.169	12688.2
531.535	12683.68
531.901	12757.57
532.267	12809.1
532.632	12864.46
532.998	12930.68
533.364	13044.35
533.73	13040.5
534.095	13125.02
534.461	13190.33
534.826	13329.54
535.192	13373.6
535.557	13421.74
535.923	13394.85
536.288	13515.97
536.653	13566.59
537.019	13497.89
537.384	13545.35
537.749	13695.85
538.114	13767.72
538.479	13746.02
538.845	13791.22
539.21	13825.57
539.575	13912.12
539.94	13925.23
540.305	14112.11
540.67	13973.14
541.034	14072.12
541.399	14131.1
541.764	14250.42
542.129	14307.14
542.494	14304.43
542.858	14358.89
543.223	14399.34
543.587	14409.28
543.952	14488.15
544.316	14572.44
544.681	14536.06
545.045	14645.21
545.41	14675.49
545.774	14759.1
546.138	14722.49
546.503	14871.19
546.867	14930.85
547.231	15043.39
547.595	14988.93
547.959	15082.94
548.324	15148.25
548.688	15222.82
549.052	15203.39
549.416	15258.98
549.779	15256.04
550.143	15375.58
550.507	15375.36
550.871	15537.84
551.235	15528.35
551.599	15638.18
551.962	15625.52
552.326	15627.33
552.689	15754.56
553.053	15764.5
553.417	15824.84
553.78	16022.57
554.143	15878.62
554.507	16048.11
554.87	16087.43
555.234	16218.95
555.597	16137.82
555.96	16237.26
556.323	16292.17
556.686	16342.11
557.05	16485.39
557.413	16496.46
557.776	16445.61
558.139	16603.12
558.502	16686.96
558.865	16617.81
559.228	16840.4
559.59	16869.56
559.953	16894.19
560.316	17135.09
560.679	17016.45
561.041	17051.7
561.404	17149.55
561.767	17326.72
562.129	17237.46
562.492	17427.51
562.854	17408.75
563.217	17531.46
563.579	17580.5
563.941	17607.16
564.304	17727.61
564.666	17894.84
565.028	17763.77
565.39	17881.28
565.753	17944.56
566.115	18064.1
566.477	18190.65
566.839	18128.05
567.201	18343.64
567.563	18363.53
567.925	18389.97
568.287	18417.76
568.648	18518.1
569.01	18574.37
569.372	18756.74
569.734	18676.06
570.095	18702.05
570.457	18949.28
570.819	18983.85
571.18	18963.96
571.542	19042.15
571.903	19157.18
572.265	19148.14
572.626	19360.34
572.987	19350.4
573.349	19428.81
573.71	19577.06
574.071	19696.15
574.432	19739.54
574.794	19941.79
575.155	19953.32
575.516	19890.95
575.877	20115.57
576.238	20182.69
576.599	20175.46
576.96	20293.87
577.32	20464.26
577.681	20563.02
578.042	20628.55
578.403	20752.62
578.763	20799.62
579.124	20993.74
579.485	21033.97
579.845	21192.61
580.206	21295.65
580.566	21281.42
580.927	21558.7
581.287	21810.22
581.648	21752.59
582.008	21967.5
582.368	22049.08
582.728	22176.76
583.089	22343.99
583.449	22466.47
583.809	22517.77
584.169	22755.5
584.529	22820.59
584.889	23266.22
585.249	23235.72
585.609	23341.25
585.969	23569.49
586.329	23793.89
586.688	23917.96
587.048	24114.79
587.408	24275.92
587.768	24418.28
588.127	24493.08
588.487	24571.95
588.846	24943.24
589.206	24978.72
589.565	25117.02
589.925	25414.42
590.284	25500.74
590.643	25682.43
591.003	25907.28
591.362	26250.1
591.721	26349.53
592.08	26552.92
592.44	26698.45
592.799	26902.96
593.158	27016.18
593.517	27236.52
593.876	27498.66
594.235	27495.04
594.593	27777.52
594.952	28086.44
595.311	27998.76
595.67	28365.98
596.029	28597.38
596.387	28821.11
596.746	29027.43
597.104	28964.15
597.463	29049.35
597.822	29430.58
598.18	29399.17
598.538	29732.72
598.897	29927.29
599.255	29782.44
599.613	30284.12
599.972	30344.91
600.33	30529.54
600.688	30500.38
601.046	30709.87
601.404	31064.44
601.762	31206.58
602.12	31310.76
602.478	31413.13
602.836	31591.43
603.194	31595.5
603.552	31984.87
603.91	31811.99
604.268	32138.76
604.625	32208.81
604.983	32188.02
605.341	32328.36
605.698	32605.87
606.056	32674.79
606.413	32736.94
606.771	33074.55
607.128	33194.78
607.485	33004.05
607.843	33288.79
608.2	33385.05
608.557	33727.87
608.914	33624.82
609.272	33851.26
609.629	33918.15
609.986	34247.63
610.343	34094.41
610.7	34416.21
611.057	34451.69
611.414	34442.65
611.771	34647.85
612.127	34796.54
612.484	34827.05
612.841	35069.53
613.198	34996.09
613.554	35143.88
613.911	35328.96
614.267	35383.19
614.624	35335.74
614.98	35585.45
615.337	35693.24
615.693	35636.75
616.05	35834.26
616.406	35985.89
616.762	35953.35
617.118	35965.55
617.475	36171.87
617.831	36260.91
618.187	36289.38
618.543	36274.47
618.899	36521.92
619.255	36589.26
619.611	36587.46
619.967	36831.74
620.323	36855.92
620.678	36840.33
621.034	36802.14
621.39	36844.85
621.746	36799.65
622.101	37298.4
622.457	36947.22
622.812	37085.07
623.168	37192.41
623.523	37375.91
623.879	37436.7
624.234	37131.62
624.589	37381.11
624.945	37470.6
625.3	37551.05
625.655	37467.43
626.01	37699.74
626.365	37633.08
626.72	37605.73
627.075	37729.57
627.43	37604.38
627.785	37615.23
628.14	37888.44
628.495	37760.31
628.85	37614.77
629.205	37591.27
629.559	37828.33
629.914	37806.63
630.269	37943.35
630.623	37795.56
630.978	37721.44
631.332	37838.04
631.687	38021.32
632.041	37848.44
632.396	37952.84
632.75	37769.57
633.104	37840.53
633.459	37735.22
633.813	37774.09
634.167	37696.58
634.521	37785.84
634.875	37826.52
635.229	37646.41
635.583	37507.43
635.937	37727.31
636.291	37591.05
636.645	37563.02
636.999	37556.92
637.352	37704.71
637.706	37404.16
638.06	37600.99
638.413	37482.8
638.767	37568.22
639.121	37435.57
639.474	37339.53
639.828	37401.67
640.181	37445.06
640.534	37466.3
640.888	37231.05
641.241	37199.87
641.594	37201.9
641.947	37490.03
642.301	37198.29
642.654	37309.47
643.007	37224.5
643.36	37150.83
643.713	37222.92
644.066	37380.66
644.419	37107.89
644.771	36913.55
645.124	36465.88
645.477	36462.26
645.83	36243.51
646.182	36198.54
646.535	36122.61
646.888	36122.16
647.24	35918.32
647.593	36281.93
647.945	36083.74
648.298	35928.49
648.65	35952.9
649.002	35798.32
649.355	35902.05
649.707	35810.3
650.059	36078.99
650.411	36466.1
650.763	36508.81
651.115	36903.15
651.467	36675.14
651.819	36647.57
652.171	36694.35
652.523	36626.78
652.875	36431.3
653.227	36458.19
653.578	36587.46
653.93	36660.67
654.282	36504.29
654.633	36384.98
654.985	36480.11
655.337	36480.34
655.688	36443.51
656.039	36527.34
656.391	36322.38
656.742	36324.41
657.094	36442.83
657.445	36544.52
657.796	36391.98
658.147	36458.42
658.498	36259.33
658.849	36435.6
659.2	36303.62
659.551	36189.5
659.902	36344.52
660.253	36276.73
660.604	36287.8
660.955	36295.03
661.306	36373
661.656	36047.81
662.007	36212.55
662.358	36325.09
662.708	36001.26
663.059	36140.24
663.409	35894.14
663.76	36234.92
664.11	36237.63
664.461	36168.94
664.811	36102.27
665.161	36145.89
665.511	36111.99
665.862	36106.11
666.212	36168.26
666.562	36241.7
666.912	36127.36
667.262	36020.24
667.612	36140.91
667.962	36025.66
668.312	36099.33
668.662	36189.73
669.011	36049.39
669.361	36032.67
669.711	36048.71
670.06	36038.54
670.41	36026.79
670.76	35998.77
671.109	36046.45
671.459	36010.07
671.808	35924.42
672.157	36014.14
672.507	35787.93
672.856	35829.28
673.205	35831.09
673.554	35917.64
673.904	35773.01
674.253	35917.87
674.602	35910.19
674.951	35308.39
675.3	35251.22
675.649	35852.79
675.998	35719.91
676.346	35623.19
676.695	35884.65
677.044	35659.57
677.393	35645.79
677.741	35702.28
678.09	35667.03
678.438	35527.14
678.787	35611.66
679.135	35573.92
679.484	35340.94
679.832	35596.3
680.181	35344.1
680.529	35355.85
680.877	35442.4
681.225	35258
681.573	35580.02
681.922	35220.49
682.27	35158.79
682.618	35100.26
682.966	35112.01
683.314	35145.91
683.661	34911.57
684.009	34819.14
684.357	34718.13
684.705	34759.71
685.053	34738.24
685.4	34730.33
685.748	34463.67
686.095	34509.32
686.443	34488.08
686.79	34419.15
687.138	34505.48
687.485	34500.96
687.832	34281.98
688.18	34325.14
688.527	34181.64
688.874	33990.91
689.221	34105.49
689.568	33864.59
689.915	33882.44
690.262	33787.53
690.609	33781.43
690.956	33642
691.303	33636.12
691.65	33351.16
691.997	33497.37
692.344	33371.5
692.69	33379.18
693.037	33395
693.383	32987.32
693.73	33145.74
694.077	33066.42
694.423	32967.66
694.769	32909.81
695.116	32721.79
695.462	32686.09
695.808	32683.6
696.155	32860.55
696.501	32405.19
696.847	32520.44
697.193	32225.99
697.539	32270.51
697.885	32081.36
698.231	32007.92
698.577	32010.63
698.923	31906.68
699.269	31789.62
699.614	31706.45
699.96	31658.32
700.306	31573.12
700.651	31490.19
700.997	31320.02
701.342	31385.33
701.688	31310.08
702.033	31232.57
702.379	31185.79
702.724	31106.47
703.069	31135.62
703.415	30796.42
703.76	30745.12
704.105	30725.01
704.45	30751
704.795	30507.39
705.14	30551.68
705.485	30464.23
705.83	30275.31
706.175	30365.92
706.52	30311.91
706.865	30243.44
707.209	30150.34
707.554	30029.44
707.899	30138.13
708.243	29950.79
708.588	29939.04
708.932	29633.06
709.277	29608.66
709.621	29726.17
709.966	29513.29
710.31	29621.31
710.654	29337.03
710.998	29453.18
711.342	29318.49
711.687	29375.89
712.031	29142.23
712.375	29148.33
712.719	29067.65
713.063	28986.3
713.407	29047.32
713.75	29001.44
714.094	28928.22
714.438	28719.19
714.782	28780.43
715.125	28751.5
715.469	28764.16
715.812	28615.69
716.156	28365.53
716.499	28507.22
716.843	28568.46
717.186	28285.08
717.53	28500.66
717.873	28394
718.216	28325.3
718.559	28218.64
718.902	27974.12
719.246	28126.44
719.589	28005.76
719.932	28026.33
720.275	27900.45
720.617	27906.33
720.96	27851.41
721.303	27840.12
721.646	27760.57
721.989	27693
722.331	27794.24
722.674	27523.51
723.016	27689.61
723.359	27633.57
723.701	27593.57
724.044	27472.22
724.386	27407.13
724.729	27445.78
725.071	27185.22
725.413	27236.06
725.755	27199.45
726.097	27179.57
726.439	27046.69
726.782	27094.6
727.124	27129.4
727.465	26903.64
727.807	27090.08
728.149	26895.28
728.491	26810.76
728.833	26941.61
729.175	26843.08
729.516	26691.22
729.858	26732.35
730.199	26778
730.541	26658.23
730.882	26627.49
731.224	26690.54
731.565	26516.53
731.906	26498.46
732.248	26505.24
732.589	26366.48
732.93	26195.41
733.271	26244
733.612	26305.24
733.953	26219.59
734.294	26096.21
734.635	26197.45
734.976	26200.38
735.317	26009.88
735.658	26081.29
735.999	26001.52
736.339	25963.1
736.68	25976.66
737.021	25844.24
737.361	25906.38
737.702	25950.67
738.042	25843.11
738.383	25766.72
738.723	25816.67
739.063	25634.52
739.404	25677.46
739.744	25538.03
740.084	25572.83
740.424	25488.54
740.764	25563.34
741.104	25628.2
741.444	25371.48
741.784	25336.45
742.124	25268.43
742.464	25247.19
742.804	25196.8
743.143	25232.05
743.483	25252.84
743.823	25142.33
744.162	25102.56
744.502	25122.22
744.841	24996.8
745.181	25076.35
745.52	24938.04
745.86	25033.64
746.199	24975.56
746.538	24913.64
746.877	24998.61
747.216	24815.56
747.556	24792.96
747.895	24787.77
748.234	24697.83
748.573	24717.49
748.911	24615.12
749.25	24579.41
749.589	24486.76
749.928	24509.36
750.267	24458.28
750.605	24426.42
750.944	24445.85
751.283	24387.1
751.621	24369.47
751.96	24230.04
752.298	24239.98
752.636	24198.4
752.975	24109.59
753.313	24032.31
753.651	24233.66
753.989	24009.93
754.327	23960.9
754.666	23777.17
755.004	23930.84
755.342	23847
755.679	23769.71
756.017	23656.04
756.355	23652.43
756.693	23531.3
757.031	23620.11
757.368	23511.87
757.706	23440.46
