Data from hue_160_FLMS001491_00014.txt Node
Date: Tue Feb 07 16:50:49 GMT 2017
User: dcchb
Spectrometer: FLMS00149
Trigger mode: 0
Integration Time (sec): 2.000000E-2
Scans to average: 10
Electric dark correction enabled: true
Nonlinearity correction enabled: false
Boxcar width: 0
XAxis mode: Wavelengths
Number of Pixels in Spectrum: 2048
>>>>>Begin Spectral Data<<<<<
341.393	-16.45
341.776	-16.45
342.16	-16.45
342.543	-66.62
342.927	-103.01
343.31	-74.53
343.693	-57.58
344.077	-60.75
344.46	-59.84
344.843	-61.2
345.226	-28.66
345.61	-39.28
345.993	-25.72
346.376	-17.81
346.759	6.14
347.142	33.49
347.525	43.21
347.908	66.03
348.291	77.55
348.674	64.9
349.057	134.05
349.44	122.98
349.823	149.42
350.206	145.12
350.588	181.51
350.971	216.99
351.354	208.4
351.737	241.62
352.119	245.91
352.502	253.37
352.884	281.39
353.267	268.96
353.65	299.24
354.032	285.91
354.414	283.65
354.797	290.66
355.179	309.86
355.562	321.39
355.944	335.4
356.326	328.4
356.709	321.62
357.091	309.64
357.473	345.12
357.855	346.47
358.238	330.43
358.62	331.11
359.002	323.88
359.384	338.79
359.766	315.06
360.148	320.03
360.53	342.18
360.912	332.01
361.294	337.21
361.676	345.8
362.057	318
362.439	335.85
362.821	352.8
363.203	314.61
363.584	315.51
363.966	330.2
364.348	328.62
364.729	320.03
365.111	305.8
365.493	305.12
365.874	332.24
366.256	301.05
366.637	308.73
367.019	320.94
367.4	316.42
367.781	318.9
368.163	308.96
368.544	289.53
368.925	287.27
369.306	313.48
369.688	314.61
370.069	342.18
370.45	310.99
370.831	317.77
371.212	300.83
371.593	300.37
371.974	285.68
372.355	308.73
372.736	308.73
373.117	291.11
373.498	317.32
373.879	312.8
374.26	325.01
374.641	313.93
375.021	325.91
375.402	321.84
375.783	293.82
376.163	312.12
376.544	311.22
376.925	305.35
377.305	348.06
377.686	324.55
378.066	324.78
378.447	314.38
378.827	332.01
379.208	320.94
379.588	334.72
379.968	325.68
380.349	329.07
380.729	347.38
381.109	341.05
381.489	319.13
381.87	331.33
382.25	331.79
382.63	334.95
383.01	331.11
383.39	332.24
383.77	336.76
384.15	350.99
384.53	343.31
384.91	333.37
385.29	335.63
385.67	349.64
386.049	336.98
386.429	329.98
386.809	336.08
387.189	350.99
387.568	336.53
387.948	353.48
388.328	351.22
388.707	353.03
389.087	358.9
389.466	333.59
389.846	358
390.225	363.2
390.605	350.99
390.984	356.19
391.363	355.51
391.743	358
392.122	388.28
392.501	358.9
392.881	370.88
393.26	369.52
393.639	376.53
394.018	358.9
394.397	369.3
394.776	381.28
395.155	385.12
395.534	370.2
395.913	361.39
396.292	392.57
396.671	379.92
397.05	359.58
397.429	380.15
397.808	385.12
398.186	378.79
398.565	381.28
398.944	368.62
399.323	391.9
399.701	376.53
400.08	396.19
400.458	389.18
400.837	390.77
401.215	399.81
401.594	398
401.972	390.99
402.351	408.39
402.729	409.3
403.107	408.39
403.486	407.72
403.864	385.57
404.242	416.3
404.62	426.47
404.999	412.91
405.377	389.64
405.755	411.56
406.133	405.23
406.511	420.6
406.889	409.3
407.267	434.61
407.645	424.44
408.023	418.34
408.401	432.57
408.779	425.34
409.156	444.1
409.534	432.12
409.912	435.51
410.29	452.69
410.667	450.2
411.045	442.52
411.422	439.13
411.8	459.47
412.178	472.12
412.555	474.83
412.933	471.67
413.31	464.44
413.687	456.98
414.065	489.07
414.442	477.77
414.819	492.91
415.197	492.23
415.574	496.3
415.951	484.78
416.328	492.68
416.705	491.1
417.082	497.2
417.46	510.31
417.837	505.34
418.214	492.01
418.591	517.09
418.967	517.09
419.344	501.95
419.721	516.64
420.098	489.75
420.475	530.42
420.852	514.83
421.228	524.32
421.605	534.27
421.982	530.42
422.358	556.64
422.735	561.16
423.111	542.18
423.488	557.77
423.864	567.71
424.241	577.65
424.617	590.31
424.994	567.03
425.37	566.13
425.746	576.3
426.123	567.94
426.499	571.1
426.875	589.41
427.251	585.79
427.627	602.06
428.003	629.18
428.379	604.55
428.756	625.11
429.132	627.37
429.507	627.14
429.883	619.91
430.259	622.62
430.635	642.51
431.011	630.76
431.387	628.27
431.763	656.52
432.138	672.34
432.514	671.89
432.89	676.63
433.265	673.7
433.641	675.96
434.016	677.54
434.392	664.43
434.767	709.63
435.143	697.43
435.518	689.97
435.894	737.88
436.269	731.77
436.644	741.49
437.02	734.03
437.395	776.07
437.77	770.19
438.145	754.6
438.52	784.43
438.895	776.52
439.271	785.56
439.646	789.4
440.021	814.03
440.395	786.01
440.77	791.66
441.145	791.21
441.52	807.7
441.895	824.88
442.27	828.04
442.645	811.55
443.019	849.06
443.394	807.7
443.769	861.71
444.143	832.79
444.518	862.39
444.892	846.12
445.267	864.43
445.641	857.87
446.016	895.16
446.39	884.31
446.764	885.67
447.139	900.81
447.513	910.98
447.887	899.91
448.262	895.39
448.636	915.72
449.01	918.44
449.384	917.31
449.758	917.53
450.132	945.33
450.506	929.96
450.88	965.21
451.254	941.26
451.628	980.36
452.002	989.85
452.376	983.97
452.75	989.85
453.123	1011.32
453.497	1017.87
453.871	1026.46
454.244	1027.59
454.618	1024.2
454.992	1078.66
455.365	1061.03
455.739	1074.36
456.112	1094.48
456.486	1097.87
456.859	1111.65
457.232	1116.85
457.606	1127.02
457.979	1117.3
458.352	1164.08
458.725	1173.34
459.099	1158.2
459.472	1191.88
459.845	1197.53
460.218	1238.65
460.591	1263.96
460.964	1243.4
461.337	1298.77
461.71	1297.18
462.083	1352.32
462.456	1350.06
462.829	1332.44
463.201	1363.85
463.574	1377.18
463.947	1386.67
464.32	1421.47
464.692	1428.93
465.065	1432.1
465.438	1455.6
465.81	1472.32
466.183	1502.6
466.555	1503.96
466.928	1565.42
467.3	1548.7
467.672	1585.31
468.045	1644.07
468.417	1665.54
468.789	1648.59
469.161	1654.01
469.534	1729.26
469.906	1756.61
470.278	1781.69
470.65	1820.79
471.022	1862.59
471.394	1875.93
471.766	1899.65
472.138	1930.39
472.51	1970.84
472.882	2032.31
473.253	2074.34
473.625	2068.01
473.997	2190.27
474.369	2173.09
474.74	2258.06
475.112	2309.59
475.484	2348.46
475.855	2411.28
476.227	2415.8
476.598	2525.4
476.97	2596.58
477.341	2646.3
477.713	2680.65
478.084	2752.96
478.455	2820.08
478.827	2867.09
479.198	2980.08
479.569	3040.64
479.94	3152.73
480.311	3161.54
480.682	3255.55
481.053	3360.18
481.424	3465.49
481.795	3521.31
482.166	3622.32
482.537	3753.39
482.908	3832.48
483.279	3896.89
483.65	4019.82
484.021	4115.19
484.391	4218.69
484.762	4315.64
485.133	4399.93
485.503	4495.29
485.874	4613.03
486.244	4738.9
486.615	4869.74
486.985	4972.34
487.356	5144.54
487.726	5263.18
488.097	5360.35
488.467	5439.22
488.837	5614.58
489.207	5725.99
489.578	5841.92
489.948	5966.44
490.318	6106.55
490.688	6140.45
491.058	6304.28
491.428	6433.09
491.798	6581.79
492.168	6770.71
492.538	6850.94
492.908	6946.53
493.278	7127.99
493.648	7210.25
494.017	7363.46
494.387	7485.04
494.757	7548.54
495.126	7679.39
495.496	7734.75
495.866	7914.64
496.235	8035.76
496.605	8130.45
496.974	8238.7
497.344	8314.85
497.713	8424.68
498.082	8517.56
498.452	8653.37
498.821	8758.91
499.19	8830.32
499.559	8974.95
499.928	9095.17
500.298	9086.81
500.667	9196.86
501.036	9183.53
501.405	9387.59
501.774	9407.7
502.143	9479.34
502.512	9584.88
502.88	9681.37
503.249	9720.92
503.618	9849.95
503.987	9930.63
504.356	10056.95
504.724	10027.12
505.093	10049.5
505.462	10081.81
505.83	10209.49
506.199	10298.53
506.567	10350.5
506.936	10442.48
507.304	10549.37
507.672	10552.31
508.041	10567.45
508.409	10659.42
508.777	10779.42
509.145	10869.59
509.514	10819.42
509.882	10920.66
510.25	10928.34
510.618	11058.96
510.986	11036.81
511.354	11077.49
511.722	11180.09
512.09	11255.57
512.458	11242.91
512.826	11307.77
513.193	11367.43
513.561	11455.11
513.929	11450.81
514.297	11503.92
514.664	11552.96
515.032	11588.21
515.4	11625.5
515.767	11625.73
516.135	11726.97
516.502	11589.57
516.869	11778.04
517.237	11766.29
517.604	11759.73
517.972	11811.48
518.339	11838.83
518.706	11870.92
519.073	11970.35
519.44	11947.3
519.808	12038.6
520.175	11989.33
520.542	12067.07
520.909	12102.1
521.276	12005.38
521.643	12162.21
522.009	12199.27
522.376	12218.93
522.743	12211.47
523.11	12267.74
523.477	12305.71
523.843	12361.3
524.21	12444.46
524.577	12441.52
524.943	12439.49
525.31	12492.82
525.676	12540.05
526.043	12514.06
526.409	12598.81
526.776	12634.29
527.142	12585.7
527.508	12593.61
527.874	12613.95
528.241	12726.94
528.607	12674.51
528.973	12691.91
529.339	12666.15
529.705	12691.01
530.071	12744.57
530.437	12697.34
530.803	12754.51
531.169	12715.87
531.535	12637.45
531.901	12686.94
532.267	12524.46
532.632	12654.85
532.998	12530.33
533.364	12806.94
533.73	12575.53
534.095	12699.37
534.461	12645.81
534.826	12616.43
535.192	12673.38
535.557	12667.96
535.923	12591.35
536.288	12565.36
536.653	12577.79
537.019	12510.22
537.384	12494.86
537.749	12431.13
538.114	12456.89
538.479	12345.93
538.845	12342.54
539.21	12340.73
539.575	12296.89
539.94	12276.56
540.305	12276.56
540.67	12185.71
541.034	12265.71
541.399	12152.94
541.764	12123.79
542.129	12146.16
542.494	12121.98
542.858	12105.71
543.223	12056.9
543.587	12060.74
543.952	12029.78
544.316	11987.07
544.681	11909.11
545.045	11980.07
545.41	11900.75
545.774	11905.94
546.138	11849.22
546.503	11844.48
546.867	11773.74
547.231	11814.87
547.595	11650.13
547.959	11755.67
548.324	11671.15
548.688	11614.2
549.052	11613.75
549.416	11570.13
549.779	11538.27
550.143	11472.51
550.507	11553.86
550.871	11489.46
551.235	11437.26
551.599	11421.89
551.962	11448.78
552.326	11417.82
552.689	11427.31
553.053	11291.04
553.417	11340.76
553.78	11425.28
554.143	11298.95
554.507	11228.45
554.87	11275.9
555.234	11257.6
555.597	11244.04
555.96	11148.22
556.323	11201.56
556.686	11177.83
557.05	11189.8
557.413	11143.03
557.776	11113.87
558.139	11182.35
558.502	11158.62
558.865	11043.37
559.228	11156.81
559.59	11190.71
559.953	11114.78
560.316	11164.49
560.679	11128.79
561.041	11126.08
561.404	11149.81
561.767	11209.01
562.129	11147.55
562.492	11151.16
562.854	11189.58
563.217	11100.54
563.579	11147.09
563.941	11186.87
564.304	11177.15
564.666	11283.14
565.028	11261.22
565.39	11186.41
565.753	11327.43
566.115	11199.07
566.477	11277.71
566.839	11350.7
567.201	11267.77
567.563	11255.34
567.925	11343.92
568.287	11316.35
568.648	11354.77
569.01	11333.98
569.372	11392.96
569.734	11267.77
570.095	11385.28
570.457	11454.66
570.819	11395.9
571.18	11399.06
571.542	11429.8
571.903	11388.22
572.265	11421.89
572.626	11438.84
572.987	11448.55
573.349	11468.44
573.71	11478.61
574.071	11485.16
574.432	11493.98
574.794	11548.44
575.155	11447.88
575.516	11414.21
575.877	11490.81
576.238	11491.04
576.599	11494.88
576.96	11537.82
577.32	11525.84
577.681	11513.19
578.042	11544.37
578.403	11524.03
578.763	11577.37
579.124	11573.3
579.485	11568.55
579.845	11591.15
580.206	11552.51
580.566	11550.93
580.927	11570.59
581.287	11515.67
581.648	11526.07
582.008	11566.29
582.368	11517.25
582.728	11621.66
583.089	11519.51
583.449	11532.17
583.809	11588.66
584.169	11556.12
584.529	11456.24
584.889	11528.33
585.249	11484.49
585.609	11445.39
585.969	11452.62
586.329	11453.75
586.688	11477.25
587.048	11437.48
587.408	11431.38
587.768	11428.22
588.127	11415.34
588.487	11455.11
588.846	11407.88
589.206	11346.86
589.565	11396.8
589.925	11421.89
590.284	11416.92
590.643	11405.17
591.003	11395.67
591.362	11441.55
591.721	11398.61
592.08	11404.49
592.44	11435.67
592.799	11426.41
593.158	11351.83
593.517	11330.37
593.876	11346.86
594.235	11298.28
594.593	11283.14
594.952	11386.64
595.311	11220.76
595.67	11370.36
596.029	11300.08
596.387	11418.73
596.746	11332.63
597.104	11278.62
597.463	11299.18
597.822	11255.79
598.18	11266.64
598.538	11268.67
598.897	11271.16
599.255	11245.62
599.613	11395.22
599.972	11234.78
600.33	11267.99
600.688	11229.35
601.046	11303.47
601.404	11348.9
601.762	11290.14
602.12	11327.88
602.478	11356.35
602.836	11275.23
603.194	11298.5
603.552	11331.27
603.91	11319.29
604.268	11313.64
604.625	11264.6
604.983	11316.58
605.341	11240.65
605.698	11294.21
606.056	11361.33
606.413	11289.46
606.771	11326.3
607.128	11326.52
607.485	11273.42
607.843	11322
608.2	11331.95
608.557	11357.94
608.914	11395.9
609.272	11405.39
609.629	11375.34
609.986	11433.87
610.343	11416.01
610.7	11380.99
611.057	11347.99
611.414	11380.76
611.771	11421.89
612.127	11450.36
612.484	11389.8
612.841	11478.61
613.198	11417.82
613.554	11394.32
613.911	11489.91
614.267	11458.27
614.624	11447.88
614.98	11505.73
615.337	11550.7
615.693	11486.07
616.05	11503.47
616.406	11597.93
616.762	11573.3
617.118	11472.06
617.475	11528.55
617.831	11566.74
618.187	11557.48
618.543	11519.06
618.899	11670.7
619.255	11618.27
619.611	11491.04
619.967	11561.55
620.323	11712.73
620.678	11581.88
621.034	11651.71
621.39	11536.91
621.746	11538.72
622.101	11628.89
622.457	11549.8
622.812	11642.22
623.168	11639.28
623.523	11661.88
623.879	11620.98
624.234	11569.68
624.589	11614.2
624.945	11617.14
625.3	11645.16
625.655	11686.29
626.01	11638.15
626.365	11621.88
626.72	11563.13
627.075	11576.91
627.43	11560.87
627.785	11569.68
628.14	11617.36
628.495	11642.67
628.85	11590.47
629.205	11544.6
629.559	11675.89
629.914	11579.17
630.269	11600.42
630.623	11564.03
630.978	11512.51
631.332	11566.29
631.687	11634.99
632.041	11471.83
632.396	11559.29
632.75	11441.78
633.104	11522
633.459	11433.64
633.813	11435.9
634.167	11454.43
634.521	11336.92
634.875	11503.24
635.229	11358.84
635.583	11381.66
635.937	11332.4
636.291	11274.77
636.645	11380.99
636.999	11350.7
637.352	11363.59
637.706	11263.93
638.06	11309.8
638.413	11307.54
638.767	11300.31
639.121	11257.83
639.474	11232.29
639.828	11181.22
640.181	11189.58
640.534	11340.99
640.888	11233.19
641.241	11150.94
641.594	11177.15
641.947	11217.15
642.301	11179.41
642.654	11074.55
643.007	11123.59
643.36	11085.85
643.713	11093.08
644.066	11101.67
644.419	11114.1
644.771	11025.06
645.124	10916.14
645.477	10943.94
645.83	10868.68
646.182	10771.74
646.535	10727.67
646.888	10764.96
647.24	10693.32
647.593	10747.1
647.945	10788.91
648.298	10680.21
648.65	10692.19
649.002	10650.84
649.355	10663.94
649.707	10815.35
650.059	10747.78
650.411	10880.66
650.763	10894.67
651.115	11010.37
651.467	10946.2
651.819	10982.13
652.171	10973.99
652.523	10966.31
652.875	10971.28
653.227	10849.7
653.578	11024.84
653.93	10983.93
654.282	10992.07
654.633	10891.73
654.985	10956.36
655.337	10933.54
655.688	10926.76
656.039	11029.36
656.391	10979.41
656.742	10912.52
657.094	11018.51
657.445	10973.99
657.796	10922.02
658.147	10984.39
658.498	10913.43
658.849	10997.27
659.2	10936.7
659.551	10954.56
659.902	10969.92
660.253	10991.17
660.604	10998.62
660.955	10863.94
661.306	10992.07
661.656	10933.09
662.007	10938.06
662.358	10977.15
662.708	11020.77
663.059	11006.08
663.409	10967.66
663.76	10994.33
664.11	11024.61
664.461	11040.43
664.811	11071.84
665.161	11017.15
665.511	10942.13
665.862	11061.67
666.212	11032.07
666.562	11018.28
666.912	10961.34
667.262	10981.9
667.612	10999.3
667.962	10956.82
668.312	10922.02
668.662	10998.4
669.011	11052.41
669.361	11023.03
669.711	10959.75
670.06	10982.8
670.41	10948.91
670.76	10887.67
671.109	11018.06
671.459	10940.55
671.808	11013.09
672.157	10937.16
672.507	10980.77
672.856	10947.78
673.205	10888.57
673.554	10928.34
673.904	10850.38
674.253	11009.7
674.602	10923.6
674.951	10760.44
675.3	10728.8
675.649	10914.11
675.998	10849.7
676.346	10900.55
676.695	10908.91
677.044	10746.2
677.393	10841.11
677.741	10816.48
678.09	10796.59
678.438	10755.24
678.787	10803.37
679.135	10799.53
679.484	10735.81
679.832	10796.14
680.181	10711.17
680.529	10752.08
680.877	10669.37
681.225	10607.22
681.573	10702.81
681.922	10609.93
682.27	10606.09
682.618	10647.9
682.966	10550.95
683.314	10600.44
683.661	10473.67
684.009	10423.27
684.357	10523.83
684.705	10523.16
685.053	10453.33
685.4	10416.27
685.748	10376.49
686.095	10384.4
686.443	10327.91
686.79	10333.1
687.138	10384.4
687.485	10376.72
687.832	10359.77
688.18	10265.54
688.527	10197.51
688.874	10275.48
689.221	10159.78
689.568	10113.45
689.915	10170.4
690.262	10155.93
690.609	10117.52
690.956	10123.39
691.303	10051.53
691.65	10026.67
691.997	10042.94
692.344	9924.98
692.69	9943.06
693.037	9876.39
693.383	9812.44
693.73	9897.86
694.077	9792.55
694.423	9790.07
694.769	9750.29
695.116	9666.68
695.462	9661.71
695.808	9646.79
696.155	9594.14
696.501	9549.85
696.847	9524.31
697.193	9481.37
697.539	9463.97
697.885	9431.88
698.231	9331.32
698.577	9352.56
698.923	9336.29
699.269	9329.51
699.614	9208.39
699.96	9218.33
700.306	9162.74
700.651	9167.03
700.997	9127.03
701.342	9116.19
701.688	9041.39
702.033	9086.13
702.379	9042.29
702.724	9002.07
703.069	8951.22
703.415	8877.1
703.76	8935.63
704.105	8877.78
704.45	8868.06
704.795	8762.98
705.14	8855.4
705.485	8751.68
705.83	8766.82
706.175	8753.48
706.52	8689.31
706.865	8735.18
707.209	8714.84
707.554	8686.82
707.899	8621.28
708.243	8589.42
708.588	8574.28
708.932	8443.21
709.277	8516.43
709.621	8475.53
709.966	8414.06
710.31	8426.04
710.654	8399.6
710.998	8408.18
711.342	8369.09
711.687	8350.33
712.031	8387.62
712.375	8350.11
712.719	8329.09
713.063	8283.44
713.407	8310.56
713.75	8278.92
714.094	8210
714.438	8267.85
714.782	8246.38
715.125	8181.75
715.469	8192.37
715.812	8137.46
716.156	8131.81
716.499	8201.41
716.843	8171.35
717.186	8086.84
717.53	8108.08
717.873	8143.11
718.216	8106.5
718.559	8044.58
718.902	7974.07
719.246	8041.41
719.589	7990.57
719.932	7931.59
720.275	7992.6
720.617	7967.97
720.96	7946.73
721.303	7914.41
721.646	7893.85
721.989	7871.25
722.331	7921.64
722.674	7880.74
723.016	7908.53
723.359	7938.82
723.701	7953.05
724.044	7863.79
724.386	7768.43
724.729	7883.9
725.071	7840.51
725.413	7855.88
725.755	7847.29
726.097	7797.58
726.439	7771.14
726.782	7773.85
727.124	7848.2
727.465	7799.16
727.807	7819.95
728.149	7783.79
728.491	7792.15
728.833	7774.75
729.175	7830.8
729.516	7783.79
729.858	7740.86
730.199	7778.82
730.541	7729.78
730.882	7699.73
731.224	7776.11
731.565	7716
731.906	7738.14
732.248	7788.31
732.589	7761.87
732.93	7698.6
733.271	7733.62
733.612	7764.36
733.953	7760.97
734.294	7769.1
734.635	7759.84
734.976	7715.09
735.317	7730.01
735.658	7819.27
735.999	7727.97
736.339	7748.09
736.68	7783.34
737.021	7766.84
737.361	7794.19
737.702	7736.79
738.042	7745.15
738.383	7838.48
738.723	7740.4
739.063	7727.52
739.404	7805.49
739.744	7828.99
740.084	7792.61
740.424	7836.45
740.764	7836.67
741.104	7868.54
741.444	7814.53
741.784	7821.53
742.124	7895.88
742.464	7840.51
742.804	7912.83
743.143	7954.41
743.483	7962.54
743.823	7920.29
744.162	7977.01
744.502	7996.67
744.841	8014.29
745.181	8075.76
745.52	8036.89
745.86	8112.37
746.199	8155.76
746.538	8161.18
746.877	8176.55
747.216	8271.92
747.556	8296.32
747.895	8304.23
748.234	8330.67
748.573	8429.65
748.911	8500.38
749.25	8541.96
749.589	8567.73
749.928	8674.84
750.267	8720.72
750.605	8782.86
750.944	8853.14
751.283	8886.36
751.621	8962.07
751.96	8979.02
752.298	9087.26
752.636	9201.83
752.975	9246.35
753.313	9361.15
753.651	9452.45
753.989	9585.78
754.327	9641.37
754.666	9689.73
755.004	9847.02
755.342	10058.76
755.679	10157.06
756.017	10157.97
756.355	10356.38
756.693	10467.79
757.031	10673.43
757.368	10696.26
757.706	10867.78
758.044	10923.14
758.381	11156.59
758.719	11258.73
759.056	11413.3
759.394	11566.52
759.731	11673.63
760.068	11774.42
