Data from hue_00_FLMS001491_2.txt Node
Date: Mon Feb 06 15:29:11 GMT 2017
User: dcchb
Spectrometer: FLMS00149
Trigger mode: 0
Integration Time (sec): 2.000000E-2
Scans to average: 10
Electric dark correction enabled: true
Nonlinearity correction enabled: false
Boxcar width: 0
XAxis mode: Wavelengths
Number of Pixels in Spectrum: 2048
>>>>>Begin Spectral Data<<<<<
341.393	-20.68
341.776	-20.68
342.16	-20.68
342.543	-73.78
342.927	-62.03
343.31	-68.59
343.693	-72.65
344.077	-59.32
344.46	-53.9
344.843	-35.82
345.226	-55.7
345.61	-28.36
345.993	-21.13
346.376	6.44
346.759	1.47
347.142	19.1
347.525	42.37
347.908	63.61
348.291	75.82
348.674	99.09
349.057	87.57
349.44	127.79
349.823	150.62
350.206	162.82
350.588	175.48
350.971	190.62
351.354	243.72
351.737	229.26
352.119	257.96
352.502	248.24
352.884	279.65
353.267	281.91
353.65	288.47
354.032	289.6
354.414	295.47
354.797	315.36
355.179	321.01
355.562	323.72
355.944	334.34
356.326	320.33
356.709	342.02
357.091	335.25
357.473	344.06
357.855	335.02
358.238	311.97
358.62	322.14
359.002	339.31
359.384	339.77
359.766	329.6
360.148	335.02
360.53	343.61
360.912	332.76
361.294	328.47
361.676	331.86
362.057	321.01
362.439	309.71
362.821	349.03
363.203	322.14
363.584	321.69
363.966	312.2
364.348	314.23
364.729	322.14
365.111	317.62
365.493	313.78
365.874	325.75
366.256	308.58
366.637	297.28
367.019	304.51
367.4	310.84
367.781	310.39
368.163	304.06
368.544	310.84
368.925	317.17
369.306	293.89
369.688	304.06
370.069	325.08
370.45	312.87
370.831	319.43
371.212	294.34
371.593	309.03
371.974	295.92
372.355	323.49
372.736	295.92
373.117	300.67
373.498	305.19
373.879	312.42
374.26	319.2
374.641	300.67
375.021	307.68
375.402	346.32
375.783	305.19
376.163	338.18
376.544	307.45
376.925	341.35
377.305	294.79
377.686	319.43
378.066	329.14
378.447	330.27
378.827	351.29
379.208	339.99
379.588	328.24
379.968	337.96
380.349	328.24
380.729	340.22
381.109	343.15
381.489	342.02
381.87	342.02
382.25	325.3
382.63	321.91
383.01	329.14
383.39	327.11
383.77	330.05
384.15	349.93
384.53	350.61
384.91	335.47
385.29	325.98
385.67	348.58
386.049	342.02
386.429	344.96
386.809	345.19
387.189	354.23
387.568	342.7
387.948	335.7
388.328	337.51
388.707	352.19
389.087	353.32
389.466	341.57
389.846	367.79
390.225	353.55
390.605	356.94
390.984	359.2
391.363	352.87
391.743	381.57
392.122	347.22
392.501	360.33
392.881	365.3
393.26	372.08
393.639	369.37
394.018	373.21
394.397	374.11
394.776	376.6
395.155	360.56
395.534	360.78
395.913	351.29
396.292	387.9
396.671	372.53
397.05	368.92
397.429	376.6
397.808	375.7
398.186	394
398.565	379.09
398.944	384.74
399.323	388.8
399.701	382.25
400.08	394
400.458	382.25
400.837	389.48
401.215	382.02
401.594	379.31
401.972	388.35
402.351	379.54
402.729	398.52
403.107	401.46
403.486	425.41
403.864	426.99
404.242	405.07
404.62	393.1
404.999	421.34
405.377	397.84
405.755	413.21
406.133	428.58
406.511	415.7
406.889	420.21
407.267	421.8
407.645	433.77
408.023	418.18
408.401	426.99
408.779	441.46
409.156	414.57
409.534	430.16
409.912	464.06
410.29	451.85
410.667	436.49
411.045	444.62
411.422	462.47
411.8	437.39
412.178	461.57
412.555	457.95
412.933	435.13
413.31	455.47
413.687	476.03
414.065	475.35
414.442	443.04
414.819	487.11
415.197	492.08
415.574	481.46
415.951	454.79
416.328	492.98
416.705	475.35
417.082	488.24
417.46	490.04
417.837	523.49
418.214	508.12
418.591	524.17
418.967	521.68
419.344	513.55
419.721	513.77
420.098	500.44
420.475	498.4
420.852	509.48
421.228	521.68
421.605	536.82
421.982	534.79
422.358	548.35
422.735	512.42
423.111	555.35
423.488	555.13
423.864	540.21
424.241	572.08
424.617	580.89
424.994	552.64
425.37	532.08
425.746	554.45
426.123	581.11
426.499	565.52
426.875	554.45
427.251	564.62
427.627	581.79
428.003	567.78
428.379	592.64
428.756	609.14
429.132	619.53
429.507	616.59
429.883	614.79
430.259	629.7
430.635	623.37
431.011	640.55
431.387	638.51
431.763	629.25
432.138	653.88
432.514	622.47
432.89	645.52
433.265	663.37
433.641	669.25
434.016	670.15
434.392	664.05
434.767	682.13
435.143	676.25
435.518	682.35
435.894	686.65
436.269	705.41
436.644	684.84
437.02	696.37
437.395	702.69
437.77	730.94
438.145	715.35
438.52	753.77
438.895	730.49
439.271	719.19
439.646	742.01
440.021	740.88
440.395	749.25
440.77	742.92
441.145	746.76
441.52	762.58
441.895	744.27
442.27	738.85
442.645	770.04
443.019	789.47
443.394	748.79
443.769	792.63
444.143	777.95
444.518	792.63
444.892	801.67
445.267	789.92
445.641	817.27
446.016	795.12
446.39	807.32
446.764	802.8
447.139	815.01
447.513	802.13
447.887	820.88
448.262	821.79
448.636	840.54
449.01	836.25
449.384	845.74
449.758	871.28
450.132	838.51
450.506	868.11
450.88	861.33
451.254	845.29
451.628	866.53
452.002	880.09
452.376	883.03
452.75	893.2
453.123	887.32
453.497	909.69
453.871	907.43
454.244	935.91
454.618	948.56
454.992	926.64
455.365	921.22
455.739	945.4
456.112	958.73
456.486	957.38
456.859	988.11
457.232	971.39
457.606	989.01
457.979	973.19
458.352	998.05
458.725	1029.46
459.099	1052.29
459.472	1044.15
459.845	1057.94
460.218	1045.74
460.591	1066.07
460.964	1055
461.337	1084.83
461.71	1078.5
462.083	1136.13
462.456	1119.86
462.829	1117.82
463.201	1130.7
463.574	1151.95
463.947	1164.83
464.32	1181.55
464.692	1179.29
465.065	1189.46
465.438	1189.23
465.81	1222.23
466.183	1242.11
466.555	1241.66
466.928	1250.02
467.3	1260.19
467.672	1281.44
468.045	1317.59
468.417	1312.85
468.789	1344.03
469.161	1325.95
469.534	1346.29
469.906	1363.92
470.278	1387.42
470.65	1404.6
471.022	1435.56
471.394	1460.87
471.766	1447.76
472.138	1461.32
472.51	1499.96
472.882	1543.35
473.253	1523.46
473.625	1564.82
473.997	1585.61
474.369	1597.59
474.74	1580.18
475.112	1649.11
475.484	1643.01
475.855	1693.63
476.227	1711.03
476.598	1767.07
476.97	1772.95
477.341	1800.97
477.713	1863.11
478.084	1854.08
478.455	1901.98
478.827	1949.44
479.198	1985.82
479.569	1964.13
479.94	2040.51
480.311	2053.39
480.682	2084.35
481.053	2092.94
481.424	2128.19
481.795	2176.1
482.166	2247.51
482.537	2240.51
482.908	2289.77
483.279	2328.41
483.65	2371.8
484.021	2429.88
484.391	2461.07
484.762	2462.2
485.133	2488.86
485.503	2537.45
485.874	2566.6
486.244	2613.15
486.615	2696.31
486.985	2661.74
487.356	2750.1
487.726	2760.04
488.097	2810.21
488.467	2831.9
488.837	2915.74
489.207	2902.64
489.578	2961.17
489.948	2983.54
490.318	3046.81
490.688	3090.43
491.058	3115.29
491.428	3181.5
491.798	3214.72
492.168	3232.12
492.538	3274.83
492.908	3285.9
493.278	3386.92
493.648	3392.11
494.017	3428.27
494.387	3455.84
494.757	3452.9
495.126	3505.78
495.496	3521.38
495.866	3566.12
496.235	3601.6
496.605	3590.98
496.974	3645.89
497.344	3670.3
497.713	3692.67
498.082	3719.79
498.452	3764.53
498.821	3771.31
499.19	3809.96
499.559	3848.15
499.928	3831.88
500.298	3879.11
500.667	3919.33
501.036	3922.04
501.405	4006.11
501.774	3993
502.143	4014.92
502.512	4006.56
502.88	4019.67
503.249	4002.95
503.618	4104.86
503.987	4105.09
504.356	4089.95
504.724	4220.12
505.093	4170.17
505.462	4175.37
505.83	4214.24
506.199	4266.44
506.567	4288.59
506.936	4299.21
507.304	4337.85
507.672	4341.24
508.041	4391.41
508.409	4442.48
508.777	4449.04
509.145	4467.11
509.514	4473.22
509.882	4470.5
510.25	4477.06
510.618	4516.6
510.986	4495.36
511.354	4570.61
511.722	4603.16
512.09	4653.55
512.458	4642.93
512.826	4645.41
513.193	4674.79
513.561	4715.47
513.929	4729.93
514.297	4745.75
514.664	4797.05
515.032	4749.82
515.4	4835.24
515.767	4844.96
516.135	4851.51
516.502	4866.65
516.869	4948.46
517.237	4896.03
517.604	4879.08
517.972	4951.62
518.339	5002.02
518.706	4959.98
519.073	4995.69
519.44	4996.59
519.808	5028.46
520.175	5039.08
520.542	5109.13
520.909	5154.55
521.276	5135.35
521.643	5159.07
522.009	5160.2
522.376	5251.95
522.743	5216.47
523.11	5285.85
523.477	5286.3
523.843	5337.37
524.21	5373.53
524.577	5418.05
524.943	5419.18
525.31	5450.59
525.676	5437.94
526.043	5485.62
526.409	5587.54
526.776	5630.25
527.142	5590.25
527.508	5641.55
527.874	5640.42
528.241	5670.92
528.607	5706.18
528.973	5736.01
529.339	5758.61
529.705	5804.48
530.071	5872.73
530.437	5864.82
530.803	5935.32
531.169	5920.41
531.535	5948.43
531.901	5996.11
532.267	5975.1
532.632	6042.21
532.998	6062.78
533.364	6101.87
533.73	6120.18
534.095	6146.39
534.461	6158.6
534.826	6232.94
535.192	6168.76
535.557	6244.69
535.923	6230.68
536.288	6301.64
536.653	6343.9
537.019	6307.07
537.384	6430.23
537.749	6389.78
538.114	6372.6
538.479	6420.74
538.845	6458.02
539.21	6449.43
539.575	6523.78
539.94	6510.45
540.305	6590.22
540.67	6573.27
541.034	6623.89
541.399	6647.4
541.764	6685.81
542.129	6662.08
542.494	6721.97
542.858	6759.94
543.223	6730.11
543.587	6816.43
543.952	6836.54
544.316	6869.99
544.681	6829.09
545.045	6873.6
545.41	6933.49
545.774	6991.79
546.138	6931.91
546.503	6945.47
546.867	6958.12
547.231	7051.23
547.595	7062.07
547.959	7079.25
548.324	7195.63
548.688	7159.92
549.052	7120.38
549.416	7175.29
549.779	7161.05
550.143	7168.06
550.507	7279.02
550.871	7267.27
551.235	7264.33
551.599	7332.8
551.962	7303.2
552.326	7357.43
552.689	7431.33
553.053	7386.13
553.417	7408.05
553.78	7510.88
554.143	7529.86
554.507	7514.72
554.87	7538.22
555.234	7650.99
555.597	7574.6
555.96	7643.3
556.323	7633.13
556.686	7667.03
557.05	7675.84
557.413	7708.84
557.776	7749.74
558.139	7817.53
558.502	7796.74
558.865	7761.72
559.228	7927.59
559.59	7866.57
559.953	7851.43
560.316	8016.63
560.679	7985.89
561.041	8095.49
561.404	8068.15
561.767	8094.82
562.129	8114.25
562.492	8140.92
562.854	8240.57
563.217	8107.47
563.579	8225.21
563.941	8230.63
564.304	8274.92
564.666	8293.91
565.028	8310.85
565.39	8354.02
565.753	8421.59
566.115	8470.17
566.477	8422.72
566.839	8504.52
567.201	8538.87
567.563	8571.41
567.925	8592.66
568.287	8580.68
568.648	8630.39
569.01	8637.63
569.372	8719.43
569.734	8720.34
570.095	8770.28
570.457	8808.92
570.819	8911.29
571.18	8919.2
571.542	8880.56
571.903	8950.39
572.265	9052.3
572.626	9068.35
572.987	9066.32
573.349	9072.87
573.71	9173.88
574.071	9222.24
574.432	9273.99
574.794	9391.73
575.155	9376.14
575.516	9426.31
575.877	9482.8
576.238	9522.8
576.599	9549.47
576.96	9610.93
577.32	9736.35
577.681	9806.41
578.042	9913.75
578.403	9893.19
578.763	10015.44
579.124	10143.8
579.485	10158.26
579.845	10327.75
580.206	10319.16
580.566	10445.26
580.927	10504.47
581.287	10668.08
581.648	10756.21
582.008	10965.7
582.368	10981.52
582.728	11208.86
583.089	11146.71
583.449	11353.94
583.809	11459.02
584.169	11541.28
584.529	11766.81
584.889	12023.98
585.249	12003.19
585.609	12155.5
585.969	12424.19
586.329	12546.68
586.688	12692.89
587.048	12904.18
587.408	13125.87
587.768	13318.63
588.127	13474.56
588.487	13631.39
588.846	13971.27
589.206	14040.42
589.565	14234.77
589.925	14495.78
590.284	14708.2
590.643	14945.03
591.003	15250.56
591.362	15457.79
591.721	15695.29
592.08	15868.17
592.44	16101.16
592.799	16518.55
593.158	16686.23
593.517	16821.37
593.876	17133.45
594.235	17334.57
594.593	17603.27
594.952	17820.21
595.311	17974.1
595.67	18370.48
596.029	18699.28
596.387	18965.72
596.746	19273.28
597.104	19486.61
597.463	19607.28
597.822	19932.47
598.18	20135.85
598.538	20476.64
598.897	20804.54
599.255	20876.63
599.613	21438.19
599.972	21506.67
600.33	21875.92
600.688	21988.46
601.046	22395.91
601.404	22566.98
601.762	22835.9
602.12	23304.58
602.478	23478.37
602.836	23713.61
603.194	23765.82
603.552	24068.86
603.91	24151.79
604.268	24535.51
604.625	24645.57
604.983	25075.16
605.341	25100.24
605.698	25521.02
606.056	25665.2
606.413	25884.4
606.771	26094.57
607.128	26482.13
607.485	26562.35
607.843	26739.52
608.2	27182.22
608.557	27259.28
608.914	27383.12
609.272	27839.38
609.629	27908.53
609.986	28256.77
610.343	28223.33
610.7	28642.98
611.057	28804.55
611.414	28927.49
611.771	29033.7
612.127	29350.3
612.484	29514.82
612.841	29695.6
613.198	29662.84
613.554	29900.34
613.911	30277.06
614.267	30370.84
614.624	30494.68
614.98	30846.08
615.337	30914.1
615.693	30961.56
616.05	31110.71
616.406	31268.44
616.762	31416.24
617.118	31609.23
617.475	31596.34
617.831	31907.07
618.187	32089.89
618.543	32143.45
618.899	32414.63
619.255	32425.93
619.611	32549.54
619.967	32757.9
620.323	32919.25
620.678	32920.15
621.034	32838.8
621.39	32870.21
621.746	33095.06
622.101	33481.94
622.457	33252.57
622.812	33506.58
623.168	33614.6
623.523	33650.75
623.879	33853.01
624.234	33719
624.589	33985.66
624.945	34023.17
625.3	34189.72
625.655	34142.49
626.01	34247.12
626.365	34293.22
626.72	34261.81
627.075	34317.18
627.43	34435.14
627.785	34499.32
628.14	34507.45
628.495	34636.94
628.85	34616.15
629.205	34597.85
629.559	34782.93
629.914	34815.02
630.269	34850.72
630.623	34776.37
630.978	34785.87
631.332	34900.89
631.687	35148.79
632.041	34981.34
632.396	35113.31
632.75	34909.7
633.104	34992.41
633.459	34882.81
633.813	35046.65
634.167	34972.3
634.521	35023.82
634.875	35115.12
635.229	35107.44
635.583	34976.59
635.937	35027.89
636.291	35055.24
636.645	35123.48
636.999	35048.68
637.352	35164.84
637.706	35002.13
638.06	35140.66
638.413	35057.04
638.767	34945.86
639.121	35204.61
639.474	35012.07
639.828	35007.78
640.181	34990.38
640.534	35138.17
640.888	34784.06
641.241	34827.22
641.594	34936.14
641.947	34955.8
642.301	34987.22
642.654	34885.75
643.007	34893.21
643.36	34940.44
643.713	34838.52
644.066	34980.66
644.419	34900.89
644.771	34625.64
645.124	34327.12
645.477	34335.71
645.83	34224.98
646.182	33962.84
646.535	33870.63
646.888	33834.48
647.24	33754.93
647.593	34003.29
647.945	34051.65
648.298	33834.25
648.65	33940.46
649.002	33556.74
649.355	33756.51
649.707	33781.37
650.059	34039.9
650.411	34272.88
650.763	34317.18
651.115	34814.79
651.467	34543.16
651.819	34609.6
652.171	34574.8
652.523	34498.64
652.875	34526.21
653.227	34321.7
653.578	34689.14
653.93	34450.28
654.282	34406.44
654.633	34378.87
654.985	34471.52
655.337	34285.99
655.688	34412.99
656.039	34438.76
656.391	34222.04
656.742	34324.18
657.094	34335.48
657.445	34343.62
657.796	34357.63
658.147	34277.86
658.498	34309.49
658.849	34316.27
659.2	34213.45
659.551	34047.58
659.902	34342.26
660.253	34222.72
660.604	34281.47
660.955	34109.5
661.306	34116.05
661.656	34060.23
662.007	34105.2
662.358	34155.37
662.708	34165.54
663.059	34129.61
663.409	33931.2
663.76	34188.37
664.11	34173
664.461	34160.34
664.811	34235.37
665.161	34196.28
665.511	34039.9
665.862	34139.1
666.212	34211.87
666.562	34281.92
666.912	34121.93
667.262	34084.87
667.612	34069.5
667.962	34142.27
668.312	34102.49
668.662	34406.89
669.011	34151.53
669.361	34120.12
669.711	34079.89
670.06	33985.21
670.41	34108.59
670.76	34011.42
671.109	34048.94
671.459	34102.49
671.808	33888.49
672.157	34012.78
672.507	33757.87
672.856	33811.88
673.205	33847.58
673.554	33943.63
673.904	33809.62
674.253	33942.5
674.602	33828.38
674.951	33320.37
675.3	33228.62
675.649	33737.98
675.998	33683.3
676.346	33840.81
676.695	33862.05
677.044	33645.78
677.393	33683.97
677.741	33695.05
678.09	33657.76
678.438	33518.55
678.787	33620.47
679.135	33669.51
679.484	33380.93
679.832	33587.93
680.181	33478.33
680.529	33498.22
680.877	33426.35
681.225	33216.87
681.573	33544.09
681.922	33302.74
682.27	33071.33
682.618	33107.27
682.966	33051.22
683.314	33154.95
683.661	33069.98
684.009	32944.56
684.357	32866.37
684.705	32867.95
685.053	32923.99
685.4	32786.82
685.748	32682.87
686.095	32644.23
686.443	32421.41
686.79	32532.59
687.138	32486.72
687.485	32474.74
687.832	32367.62
688.18	32415.76
688.527	32270.68
688.874	32280.17
689.221	32244.46
689.568	32116.1
689.915	32147.52
690.262	32086.73
690.609	31934.87
690.956	31837.47
691.303	31873.4
691.65	31602.9
691.997	31737.81
692.344	31456.01
692.69	31433.18
693.037	31527.42
693.383	31190.03
693.73	31463.24
694.077	31138.96
694.423	31181.44
694.769	31075.23
695.116	30983.25
695.462	30967.43
695.808	30856.25
696.155	30899.87
696.501	30605.64
696.847	30685.41
697.193	30463.04
697.539	30634.11
697.885	30466.66
698.231	30405.64
698.577	30263.72
698.923	30259.2
699.269	30091.75
699.614	29889.27
699.96	29968.82
700.306	29981.92
700.651	29841.36
700.997	29710.74
701.342	29717.07
701.688	29684.53
702.033	29533.8
702.379	29524.99
702.724	29415.61
703.069	29400.7
703.415	29107.37
703.76	29164.77
704.105	29246.58
704.45	29014.94
704.795	29029.18
705.14	28813.37
705.485	28765.46
705.83	28807.94
706.175	28717.78
706.52	28713.48
706.865	28579.47
707.209	28549.19
707.554	28458.35
707.899	28496.54
708.243	28379.48
708.588	28290.44
708.932	28221.74
709.277	28208.64
709.621	27996.44
709.966	27955.08
710.31	28005.25
710.654	27704.47
710.998	27810.91
711.342	27764.35
711.687	27761.64
712.031	27639.84
712.375	27546.96
712.719	27660.18
713.063	27501.76
713.407	27552.16
713.75	27505.15
714.094	27412.27
714.438	27321.2
714.782	27389.22
715.125	27214.09
715.469	27200.53
715.812	26978.16
716.156	26831.27
716.499	27022.68
716.843	26947.2
717.186	26809.13
717.53	26965.28
717.873	26869.91
718.216	26855
718.559	26686.87
718.902	26412.98
719.246	26622.46
719.589	26478.29
719.932	26332.98
720.275	26411.85
720.617	26325.52
720.96	26297.5
721.303	26412.98
721.646	26357.39
721.989	26067.68
722.331	26252.76
722.674	26087.34
723.016	26156.26
723.359	26061.12
723.701	26133.21
724.044	25910.62
724.386	25907.91
724.729	25919.43
725.071	25847.57
725.413	25785.65
725.755	25718.98
726.097	25718.31
726.439	25601.25
726.782	25584.3
727.124	25805.76
727.465	25654.13
727.807	25626.56
728.149	25547.46
728.491	25430.18
728.833	25578.42
729.175	25403.06
729.516	25305.89
729.858	25386.79
730.199	25352.89
730.541	25272.67
730.882	25227.02
731.224	25334.81
731.565	25032.9
731.906	25205.33
732.248	25103.18
732.589	24990.87
732.93	24885.56
733.271	25015.73
733.612	24909.29
733.953	24908.84
734.294	24862.74
734.635	24794.72
734.976	24802.17
735.317	24694.38
735.658	24639.69
735.999	24712.91
736.339	24662.74
736.68	24609.41
737.021	24551.78
737.361	24504.78
737.702	24607.83
738.042	24447.61
738.383	24368.96
738.723	24509.75
739.063	24313.82
739.404	24360.6
739.744	24438.57
740.084	24239.48
740.424	24238.35
740.764	24236.54
741.104	24289.42
741.444	24114.96
741.784	24042.64
742.124	24133.94
742.464	24132.81
742.804	23893.5
743.143	23987.73
743.483	23860.5
743.823	23810.56
744.162	23912.25
744.502	23891.24
744.841	23724.01
745.181	23840.16
745.52	23756.55
745.86	23768.75
746.199	23696.21
746.538	23696.21
746.877	23776.44
747.216	23648.08
747.556	23596.55
747.895	23675.2
748.234	23444.02
748.573	23455.54
748.911	23434.53
749.25	23413.28
749.589	23259.61
749.928	23352.04
750.267	23172.84
750.605	23269.33
750.944	23150.46
751.283	23160.41
751.621	23259.16
751.96	23068.88
752.298	23093.52
752.636	23028.43
752.975	22931.49
753.313	22810.36
753.651	22957.02
753.989	22867.99
754.327	22786.41
754.666	22702.57
755.004	22647.88
755.342	22748.89
755.679	22628.9
756.017	22460.54
756.355	22569.69
756.693	22408.11
757.031	22537.15
757.368	22400.65
757.706	22361.11
758.044	22299.87
758.381	22340.32
758.719	22282.69
759.056	22196.37
759.394	22137.61
759.731	22074.56
760.068	21909.82
760.405	21968.8
