Data from hue_310_FLMS001491_74.txt Node
Date: Mon Feb 06 15:50:08 GMT 2017
User: dcchb
Spectrometer: FLMS00149
Trigger mode: 0
Integration Time (sec): 2.000000E-2
Scans to average: 10
Electric dark correction enabled: true
Nonlinearity correction enabled: false
Boxcar width: 0
XAxis mode: Wavelengths
Number of Pixels in Spectrum: 2048
>>>>>Begin Spectral Data<<<<<
341.393	-5.04
341.776	-5.04
342.16	-5.04
342.543	-64.48
342.927	-52.27
343.31	-75.55
343.693	-59.96
344.077	-69.22
344.46	-72.16
344.843	-50.46
345.226	-48.88
345.61	-23.35
345.993	-12.95
346.376	-7.3
346.759	8.29
347.142	38.57
347.525	34.5
347.908	72.7
348.291	82.64
348.674	69.53
349.057	113.6
349.44	140.94
349.823	145.46
350.206	159.93
350.588	197.44
350.971	204.9
351.354	211.22
351.737	229.08
352.119	260.71
352.502	283.54
352.884	261.84
353.267	267.04
353.65	290.54
354.032	305.46
354.414	309.07
354.797	323.08
355.179	312.69
355.562	332.58
355.944	316.08
356.326	321.95
356.709	319.24
357.091	333.25
357.473	363.08
357.855	335.29
358.238	338.9
358.62	334.16
359.002	339.36
359.384	352.24
359.766	346.81
360.148	349.3
360.53	344.55
360.912	322.18
361.294	354.04
361.676	316.31
362.057	325.12
362.439	337.77
362.821	351.11
363.203	340.26
363.584	327.15
363.966	359.24
364.348	332.8
364.729	317.89
365.111	336.42
365.493	328.06
365.874	302.29
366.256	310.66
366.637	302.97
367.019	322.63
367.4	292.8
367.781	306.59
368.163	326.25
368.544	322.63
368.925	287.38
369.306	293.03
369.688	326.02
370.069	310.2
370.45	322.41
370.831	309.53
371.212	303.65
371.593	297.55
371.974	300.71
372.355	309.07
372.736	313.37
373.117	312.01
373.498	310.66
373.879	324.21
374.26	324.21
374.641	330.77
375.021	302.97
375.402	307.27
375.783	326.47
376.163	342.52
376.544	348.39
376.925	327.6
377.305	335.51
377.686	326.47
378.066	354.5
378.447	350.43
378.827	316.31
379.208	320.15
379.588	321.5
379.968	338
380.349	323.76
380.729	340.71
381.109	333.48
381.489	339.36
381.87	326.93
382.25	324.44
382.63	341.62
383.01	337.32
383.39	335.29
383.77	351.78
384.15	343.2
384.53	338.68
384.91	354.72
385.29	339.58
385.67	340.03
386.049	377.55
386.429	374.38
386.809	353.82
387.189	337.77
387.568	366.93
387.948	373.25
388.328	368.28
388.707	360.6
389.087	373.93
389.466	350.65
389.846	371.67
390.225	363.08
390.605	375.06
390.984	375.06
391.363	369.19
391.743	355.63
392.122	367.15
392.501	364.67
392.881	394.27
393.26	377.55
393.639	389.52
394.018	383.2
394.397	382.97
394.776	395.4
395.155	402.4
395.534	378.22
395.913	383.87
396.292	377.77
396.671	393.37
397.05	381.84
397.429	389.3
397.808	391.78
398.186	413.25
398.565	410.31
398.944	395.85
399.323	402.86
399.701	406.47
400.08	415.29
400.458	403.31
400.837	413.93
401.215	440.82
401.594	399.47
401.972	439.24
402.351	412.35
402.729	443.76
403.107	436.53
403.486	443.53
403.864	448.51
404.242	435.4
404.62	423.2
404.999	419.58
405.377	456.64
405.755	443.08
406.133	449.86
406.511	447.15
406.889	464.78
407.267	469.07
407.645	461.84
408.023	474.27
408.401	474.49
408.779	477.2
409.156	519.46
409.534	483.31
409.912	491.44
410.29	502.97
410.667	502.52
411.045	530.08
411.422	525.57
411.8	526.47
412.178	553.36
412.555	542.97
412.933	553.14
413.31	551.33
413.687	568.05
414.065	571.21
414.442	555.85
414.819	592.91
415.197	590.2
415.574	598.11
415.951	619.35
416.328	597.88
416.705	618.22
417.082	639.46
417.46	629.97
417.837	671.78
418.214	645.11
418.591	679.91
418.967	674.04
419.344	690.31
419.721	699.12
420.098	685.56
420.475	722.85
420.852	716.07
421.228	703.19
421.605	704.32
421.982	743.19
422.358	734.37
422.735	742.51
423.111	743.41
423.488	759.23
423.864	781.6
424.241	777.99
424.617	784.54
424.994	815.5
425.37	815.05
425.746	779.57
426.123	830.42
426.499	849.4
426.875	834.48
427.251	847.82
427.627	857.31
428.003	870.64
428.379	878.32
428.756	894.37
429.132	879.68
429.507	893.47
429.883	924.2
430.259	940.92
430.635	909.74
431.011	947.48
431.387	953.35
431.763	968.04
432.138	984.54
432.514	993.58
432.89	973.46
433.265	995.16
433.641	1029.05
434.016	1032.22
434.392	1029.51
434.767	1065.21
435.143	1061.37
435.518	1081.26
435.894	1083.06
436.269	1119.45
436.644	1117.41
437.02	1124.42
437.395	1125.78
437.77	1157.19
438.145	1149.28
438.52	1163.51
438.895	1158.77
439.271	1181.14
439.646	1201.48
440.021	1219.33
440.395	1194.47
440.77	1228.82
441.145	1228.82
441.52	1230.86
441.895	1239.44
442.27	1241.03
442.645	1260.91
443.019	1271.31
443.394	1257.07
443.769	1303.17
444.143	1262.5
444.518	1286.45
444.892	1269.5
445.267	1288.26
445.641	1288.03
446.016	1288.48
446.39	1291.19
446.764	1320.8
447.139	1293.68
447.513	1351.08
447.887	1338.2
448.262	1324.64
448.636	1321.7
449.01	1333.91
449.384	1360.35
449.758	1375.03
450.132	1344.3
450.506	1368.03
450.88	1376.84
451.254	1377.29
451.628	1399.89
452.002	1374.58
452.376	1401.7
452.75	1428.14
453.123	1436.05
453.497	1434.02
453.871	1445.99
454.244	1486.44
454.618	1455.03
454.992	1475.37
455.365	1445.54
455.739	1520.12
456.112	1516.95
456.486	1502.94
456.859	1528.48
457.232	1544.07
457.606	1531.19
457.979	1565.99
458.352	1578.64
458.725	1593.56
459.099	1619.77
459.472	1599.44
459.845	1581.58
460.218	1665.42
460.591	1678.08
460.964	1657.06
461.337	1671.3
461.71	1706.33
462.083	1710.84
462.456	1709.04
462.829	1715.36
463.201	1754.46
463.574	1750.17
463.947	1753.56
464.32	1805.53
464.692	1802.37
465.065	1819.32
465.438	1829.94
465.81	1844.63
466.183	1848.92
466.555	1883.5
466.928	1896.38
467.3	1912.65
467.672	1909.03
468.045	1905.19
468.417	1923.95
468.789	1952.42
469.161	1984.51
469.534	2009.37
469.906	2017.28
470.278	2045.07
470.65	2045.3
471.022	2089.37
471.394	2105.41
471.766	2112.42
472.138	2119.42
472.51	2142.7
472.882	2203.04
473.253	2176.37
473.625	2202.36
473.997	2243.71
474.369	2266.31
474.74	2258.18
475.112	2299.3
475.484	2335.69
475.855	2381.11
476.227	2368.91
476.598	2411.17
476.97	2457.72
477.341	2490.03
477.713	2537.72
478.084	2486.42
478.455	2577.49
478.827	2574.1
479.198	2595.34
479.569	2640.09
479.94	2660.88
480.311	2694.32
480.682	2718.28
481.053	2761.66
481.424	2794.43
481.795	2811.61
482.166	2867.65
482.537	2905.62
482.908	2941.55
483.279	2931.83
483.65	2981.32
484.021	3038.49
484.391	3027.65
484.762	3054.76
485.133	3057.25
485.503	3097.25
485.874	3181.31
486.244	3200.98
486.615	3244.82
486.985	3264.7
487.356	3300.18
487.726	3320.75
488.097	3377.02
488.467	3366.17
488.837	3434.87
489.207	3456.56
489.578	3494.75
489.948	3529.1
490.318	3593.73
490.688	3541.98
491.058	3596.9
491.428	3652.71
491.798	3665.6
492.168	3706.72
492.538	3722.32
492.908	3773.16
493.278	3794.41
493.648	3794.18
494.017	3867.85
494.387	3845.7
494.757	3877.57
495.126	3901.07
495.496	3889.32
495.866	3927.51
496.235	3946.72
496.605	3997.56
496.974	4066.94
497.344	4018.81
497.713	4031.69
498.082	4091.35
498.452	4107.62
498.821	4150.55
499.19	4124.11
499.559	4129.31
499.928	4182.64
500.298	4180.16
500.667	4213.15
501.036	4217.22
501.405	4243.43
501.774	4269.65
502.143	4287.95
502.512	4264
502.88	4304.67
503.249	4343.54
503.618	4322.75
503.987	4379.25
504.356	4391.68
504.724	4419.47
505.093	4383.32
505.462	4487.72
505.83	4420.83
506.199	4464.44
506.567	4523.88
506.936	4509.64
507.304	4560.04
507.672	4543.54
508.041	4547.15
508.409	4555.74
508.777	4584.44
509.145	4638.23
509.514	4661.95
509.882	4641.62
510.25	4645
510.618	4717.77
510.986	4724.55
511.354	4704.89
511.722	4742.4
512.09	4812.91
512.458	4803.64
512.826	4818.33
513.193	4815.62
513.561	4862.4
513.929	4876.64
514.297	4898.56
514.664	4888.39
515.032	4871.44
515.4	4917.54
515.767	4897.65
516.135	4952.12
516.502	4879.12
516.869	4991.66
517.237	4972.23
517.604	4999.57
517.972	5055.84
518.339	5053.36
518.706	5017.42
519.073	5035.05
519.44	5086.58
519.808	5085.22
520.175	5103.75
520.542	5119.12
520.909	5161.83
521.276	5108.95
521.643	5198.44
522.009	5217.42
522.376	5212.22
522.743	5237.98
523.11	5274.59
523.477	5302.39
523.843	5299.45
524.21	5345.1
524.577	5383.29
524.943	5420.8
525.31	5457.19
525.676	5500.58
526.043	5472.78
526.409	5498.77
526.776	5542.61
527.142	5571.76
527.508	5592.78
527.874	5628.71
528.241	5617.86
528.607	5706.9
528.973	5682.27
529.339	5697.63
529.705	5754.58
530.071	5795.48
530.437	5836.39
530.803	5809.72
531.169	5873.9
531.535	5848.14
531.901	5901.7
532.267	5950.96
532.632	5998.87
532.998	6008.13
533.364	5996.61
533.73	6043.84
534.095	6097.4
534.461	6114.12
534.826	6114.12
535.192	6122.71
535.557	6191.86
535.923	6175.81
536.288	6204.51
536.653	6270.27
537.019	6247.67
537.384	6292.42
537.749	6310.95
538.114	6318.63
538.479	6335.58
538.845	6389.82
539.21	6352.98
539.575	6402.47
539.94	6428.91
540.305	6447.44
540.67	6451.51
541.034	6488.57
541.399	6520.89
541.764	6567.21
542.129	6566.76
542.494	6638.4
542.858	6654.9
543.223	6655.57
543.587	6765.4
543.952	6731.73
544.316	6708.45
544.681	6749.81
545.045	6849.47
545.41	6833.87
545.774	6864.83
546.138	6892.4
546.503	6915.23
546.867	6903.02
547.231	6964.72
547.595	6945.28
547.959	7015.11
548.324	7028.45
548.688	7016.92
549.052	7008.11
549.416	7083.81
549.779	7094.43
550.143	7114.77
550.507	7168.1
550.871	7231.38
551.235	7159.29
551.599	7243.58
551.962	7299.17
552.326	7264.37
552.689	7275.44
553.053	7260.08
553.417	7289
553.78	7441.32
554.143	7403.58
554.507	7419.85
554.87	7503.23
555.234	7512.5
555.597	7477.02
555.96	7498.04
556.323	7552.73
556.686	7539.84
557.05	7577.36
557.413	7600.41
557.776	7541.2
558.139	7655.32
558.502	7674.98
558.865	7689.67
559.228	7746.39
559.59	7735.32
559.953	7744.81
560.316	7879.72
560.679	7828.2
561.041	7912.26
561.404	7880.63
561.767	7962.66
562.129	7927.63
562.492	7983.67
562.854	7964.01
563.217	8013.73
563.579	8029.32
563.941	8100.28
564.304	8103.22
564.666	8106.38
565.028	8142.77
565.39	8136.44
565.753	8194.06
566.115	8258.92
566.477	8292.14
566.839	8279.71
567.201	8315.42
567.563	8311.8
567.925	8415.53
568.287	8378.01
568.648	8423.89
569.01	8506.6
569.372	8483.77
569.734	8485.81
570.095	8632.02
570.457	8643.32
570.819	8635.18
571.18	8660.27
571.542	8761.73
571.903	8719.02
572.265	8794.73
572.626	8884.89
572.987	8894.61
573.349	8973.93
573.71	9041.95
574.071	8971.9
574.432	9105.9
574.794	9151.1
575.155	9283.3
575.516	9297.09
575.877	9276.75
576.238	9373.92
576.599	9466.35
576.96	9465.22
577.32	9597.42
577.681	9676.96
578.042	9877.41
578.403	9839.67
578.763	9878.31
579.124	9969.16
579.485	10123.96
579.845	10348.81
580.206	10351.52
580.566	10449.6
580.927	10585.19
581.287	10663.38
581.648	10815.24
582.008	11028.79
582.368	11123.7
582.728	11322.8
583.089	11425.17
583.449	11527.31
583.809	11696.8
584.169	11894.53
584.529	12004.36
584.889	12307.85
585.249	12485.25
585.609	12520.28
585.969	12985.8
586.329	13021.06
586.688	13247.72
587.048	13519.12
587.408	13653.81
587.768	13955.27
588.127	14165.88
588.487	14374.47
588.846	14775.13
589.206	14842.93
589.565	15188.68
589.925	15511.61
590.284	15742.57
590.643	16072.28
591.003	16356.56
591.362	16603.33
591.721	16897.79
592.08	17186.6
592.44	17477.21
592.799	17749.07
593.158	18044.2
593.517	18344.08
593.876	18680.12
594.235	18840.79
594.593	19158.07
594.952	19482.81
595.311	19813.19
595.67	20004.15
596.029	20448.66
596.387	20802.32
596.746	21154.18
597.104	21345.36
597.463	21585.58
597.822	22033.47
598.18	22226.46
598.538	22513.24
598.897	22960.91
599.255	23037.74
599.613	23594.56
599.972	23707.55
600.33	24126.98
600.688	24392.28
601.046	24767.41
601.404	25094.86
601.762	25423.44
602.12	25696.2
602.478	25968.96
602.836	26132.58
603.194	26314.94
603.552	26716.52
603.91	26872.44
604.268	27176.84
604.625	27353.56
604.983	27699.99
605.341	27896.15
605.698	28252.07
606.056	28602.79
606.413	28773.18
606.771	29092.05
607.128	29294.07
607.485	29370.23
607.843	29609.09
608.2	30065.58
608.557	30272.13
608.914	30457.43
609.272	30816.52
609.629	31009.96
609.986	31206.79
610.343	31465.32
610.7	31815.14
611.057	31933.1
611.414	32045.19
611.771	32312.3
612.127	32546.87
612.484	32748.22
612.841	32969.46
613.198	33106.63
613.554	33238.38
613.911	33591.14
614.267	33729.44
614.624	33903.9
614.98	34054.4
615.337	34272.02
615.693	34344.34
616.05	34556.76
616.406	34858
616.762	34863.19
617.118	35124.66
617.475	35050.08
617.831	35344.08
618.187	35672.89
618.543	35717.18
618.899	36099.77
619.255	35989.04
619.611	35984.52
619.967	36247.11
620.323	36467.45
620.678	36519.65
621.034	36360.33
621.39	36595.35
621.746	36642.81
622.101	37221.55
622.457	36966.42
622.812	37194.43
623.168	37156.69
623.523	37440.98
623.879	37507.87
624.234	37374.09
624.589	37587.19
624.945	37867.18
625.3	37862.89
625.655	37894.98
626.01	37873.28
626.365	38152.15
626.72	38084.8
627.075	38146.05
627.43	38181.75
627.785	38252.03
628.14	38400.05
628.495	38430.56
628.85	38542.42
629.205	38443.66
629.559	38692.92
629.914	38546.03
630.269	38637.56
630.623	38600.27
630.978	38558.24
631.332	38762.3
631.687	38795.52
632.041	38688.63
632.396	38736.31
632.75	38868.96
633.104	38875.07
633.459	38746.48
633.813	38821.28
634.167	38818.8
634.521	38873.03
634.875	38825.35
635.229	39006.59
635.583	38817.89
635.937	38794.84
636.291	38952.35
636.645	38880.04
636.999	38771.11
637.352	39032.35
637.706	38769.53
638.06	38884.33
638.413	38913.71
638.767	38909.64
639.121	38746.03
639.474	38721.62
639.828	38748.97
640.181	39019.69
640.534	38984.44
640.888	38849.3
641.241	38672.58
641.594	38731.79
641.947	38823.54
642.301	38769.53
642.654	38762.75
643.007	38903.09
643.36	38724.33
643.713	38653.15
644.066	38871.68
644.419	38721.4
644.771	38510.33
645.124	38080.28
645.477	38121.64
645.83	37814.75
646.182	37749.22
646.535	37634.19
646.888	37613.86
647.24	37457.93
647.593	37652.95
647.945	37543.12
648.298	37431.94
648.65	37326.86
649.002	37314.65
649.355	37560.52
649.707	37470.58
650.059	37641.65
650.411	38090
650.763	38117.8
651.115	38388.98
651.467	38203.44
651.819	38246.38
652.171	38278.47
652.523	38230.34
652.875	38054.07
653.227	38088.42
653.578	38249.32
653.93	38217
654.282	38188.53
654.633	38072.83
654.985	38052.94
655.337	38100.85
655.688	38090.45
656.039	38207.06
656.391	37916.9
656.742	37941.76
657.094	37986.05
657.445	38255.65
657.796	38042.09
658.147	37961.64
658.498	37998.03
658.849	38002.32
659.2	37995.31
659.551	37800.29
659.902	38136.1
660.253	37942.66
660.604	38046.16
660.955	37923.23
661.306	38049.55
661.656	37814.3
662.007	37867.18
662.358	37951.25
662.708	37879.16
663.059	37788.77
663.409	37697.47
663.76	37868.76
664.11	37971.36
664.461	37929.78
664.811	37730.01
665.161	37885.71
665.511	37730.46
665.862	37805.94
666.212	37889.1
666.562	37965.48
666.912	37894.3
667.262	37836
667.612	37745.83
667.962	37894.3
668.312	37788.77
668.662	37856.11
669.011	37708.54
669.361	37715.55
669.711	37669.45
670.06	37623.57
670.41	37626.28
670.76	37613.18
671.109	37768.2
671.459	37755.77
671.808	37702.89
672.157	37675.77
672.507	37598.94
672.856	37384.48
673.205	37563.24
673.554	37672.61
673.904	37473.97
674.253	37694.76
674.602	37528.21
674.951	37026.98
675.3	36936.36
675.649	37527.98
675.998	37447.31
676.346	37502.22
676.695	37599.84
677.044	37175.45
677.393	37335.44
677.741	37373.86
678.09	37327.99
678.438	37249.35
678.787	37365.73
679.135	37325.28
679.484	37086.64
679.832	37265.62
680.181	37063.81
680.529	37206.41
680.877	37025.85
681.225	36983.82
681.573	37200.31
681.922	36953.99
682.27	36779.3
682.618	36778.17
682.966	36837.83
683.314	36886.87
683.661	36748.34
684.009	36688.68
684.357	36549.93
684.705	36446.65
685.053	36438.75
685.4	36473.09
685.748	36353.1
686.095	36221.12
686.443	36189.71
686.79	36003.5
687.138	36147.23
687.485	36146.1
687.832	35917.86
688.18	36130.96
688.527	35860.91
688.874	35929.38
689.221	35716.28
689.568	35718.31
689.915	35642.16
690.262	35636.51
690.609	35489.62
690.956	35469.73
691.303	35377.53
691.65	35270.87
691.997	35229.96
692.344	34999.01
692.69	35087.37
693.037	34970.76
693.383	34766.02
693.73	34886.92
694.077	34716.76
694.423	34665.01
694.769	34597.66
695.116	34500.49
695.462	34437.22
695.808	34279.71
696.155	34362.87
696.501	34001.97
696.847	34177.79
697.193	33859.15
697.539	33982.99
697.885	33793.62
698.231	33805.14
698.577	33740.29
698.923	33601.31
699.269	33429.56
699.614	33249
699.96	33224.59
700.306	33252.84
700.651	33156.35
700.997	33162.67
701.342	33001.32
701.688	32929.69
702.033	32805.17
702.379	32858.73
702.724	32644.72
703.069	32870.03
703.415	32429.13
703.76	32421.45
704.105	32312.75
704.45	32378.06
704.795	32239.76
705.14	32173.09
705.485	32109.37
705.83	31993.89
706.175	32038.41
706.52	31927.45
706.865	31729.26
707.209	31755.93
707.554	31719.1
707.899	31719.32
708.243	31620.79
708.588	31620.79
708.932	31339.44
709.277	31198.43
709.621	31375.38
709.966	31098.09
710.31	31152.33
710.654	30922.28
710.998	31051.99
711.342	30986.69
711.687	31022.84
712.031	30706.01
712.375	30665.79
712.719	30673.02
713.063	30758.67
713.407	30640.93
713.75	30451.56
714.094	30551.67
714.438	30412.92
714.782	30341.28
715.125	30159.59
715.469	30232.35
715.812	30131.57
716.156	29950.55
716.499	30021.51
716.843	29987.16
717.186	29783.55
717.53	29942.19
717.873	29904.23
718.216	29762.99
718.559	29649.77
718.902	29559.6
719.246	29497.68
719.589	29485.03
719.932	29360.06
720.275	29401.64
720.617	29369.33
720.96	29280.97
721.303	29381.76
721.646	29261.98
721.989	29165.04
722.331	29277.8
722.674	29067.87
723.016	29048.88
723.359	29113.29
723.701	29094.53
724.044	28963.91
724.386	28697.25
724.729	28938.15
725.071	28786.74
725.413	28798.95
725.755	28722.56
726.097	28659.06
726.439	28536.35
726.782	28552.85
727.124	28641.21
727.465	28455
727.807	28344.72
728.149	28393.76
728.491	28337.26
728.833	28378.84
729.175	28323.48
729.516	28304.95
729.858	28129.36
730.199	28271.05
730.541	28107.21
730.882	28088.23
731.224	28098.17
731.565	27935.92
731.906	27996.71
732.248	27930.04
732.589	27789.03
732.93	27725.75
733.271	27778.18
733.612	27707.9
733.953	27729.82
734.294	27542.93
734.635	27385.65
734.976	27570.28
735.317	27435.37
735.658	27561.92
735.999	27368.48
736.339	27336.39
736.68	27434.91
737.021	27329.61
737.361	27358.31
737.702	27311.75
738.042	27190.85
738.383	27238.08
738.723	27222.04
739.063	27034.25
739.404	27067.47
739.744	27050.97
740.084	26844.42
740.424	26950.86
740.764	26826.79
741.104	27025.89
741.444	26775.72
741.784	26650.75
742.124	26805.1
742.464	26629.74
742.804	26554.26
743.143	26491.44
743.483	26614.6
743.823	26421.83
744.162	26562.39
744.502	26623.86
744.841	26400.82
745.181	26577.99
745.52	26413.7
745.86	26355.39
746.199	26365.11
746.538	26181.16
746.877	26295.06
747.216	26266.13
747.556	26195.85
747.895	26216.19
748.234	26014.16
748.573	25999.02
748.911	25897.78
749.25	25928.06
749.589	25928.06
749.928	25843.77
750.267	25880.6
750.605	25757.44
750.944	25700.72
751.283	25601.52
751.621	25663.89
751.96	25538.47
752.298	25572.36
752.636	25455.31
752.975	25344.8
753.313	25186.39
753.651	25411.69
753.989	25185.48
754.327	25244.69
754.666	25089.44
755.004	24975.77
755.342	25066.61
755.679	25094.18
756.017	24888.99
756.355	24969.89
756.693	24846.96
757.031	24898.71
757.368	24691.94
757.706	24645.61
758.044	24615.1
758.381	24649
758.719	24615.1
759.056	24524.48
759.394	24393.41
759.731	24213.3
