Data from hue_24_FLMS001491_00006.txt Node
Date: Tue Feb 07 17:11:40 GMT 2017
User: dcchb
Spectrometer: FLMS00149
Trigger mode: 0
Integration Time (sec): 2.000000E-2
Scans to average: 10
Electric dark correction enabled: true
Nonlinearity correction enabled: false
Boxcar width: 0
XAxis mode: Wavelengths
Number of Pixels in Spectrum: 2048
>>>>>Begin Spectral Data<<<<<
341.393	-7.29
341.776	-7.29
342.16	-7.29
342.543	-81.64
342.927	-76.66
343.31	-69.89
343.693	-71.92
344.077	-73.27
344.46	-63.56
344.843	-62.65
345.226	-31.47
345.61	-27.17
345.993	-12.94
346.376	-9.32
346.759	-5.71
347.142	37
347.525	46.95
347.908	37
348.291	80.85
348.674	94.4
349.057	131.69
349.44	123.1
349.823	147.51
350.206	167.62
350.588	190.22
350.971	221.41
351.354	222.08
351.737	248.3
352.119	267.06
352.502	261.18
352.884	277.22
353.267	300.5
353.65	276.09
354.032	284.23
354.414	298.47
354.797	302.08
355.179	318.58
355.562	301.4
355.944	303.21
356.326	319.94
356.709	340.05
357.091	349.54
357.473	349.76
357.855	328.52
358.238	337.56
358.62	335.75
359.002	339.82
359.384	332.59
359.766	348.41
360.148	340.27
360.53	326.04
360.912	354.74
361.294	309.31
361.676	331.91
362.057	330.1
362.439	336.21
362.821	318.13
363.203	326.71
363.584	326.94
363.966	338.47
364.348	332.14
364.729	304.34
365.111	319.94
365.493	325.81
365.874	324.68
366.256	321.29
366.637	321.74
367.019	326.49
367.4	315.64
367.781	329.65
368.163	326.04
368.544	317.9
368.925	307.28
369.306	310.67
369.688	312.7
370.069	309.31
370.45	309.99
370.831	307.28
371.212	318.13
371.593	316.77
371.974	305.02
372.355	331.91
372.736	313.38
373.117	314.74
373.498	326.94
373.879	312.93
374.26	323.78
374.641	319.71
375.021	321.97
375.402	324.68
375.783	338.01
376.163	293.72
376.544	305.7
376.925	331.46
377.305	326.71
377.686	346.38
378.066	345.25
378.447	332.14
378.827	335.3
379.208	329.65
379.588	338.47
379.968	337.79
380.349	326.49
380.729	338.47
381.109	335.3
381.489	325.36
381.87	340.95
382.25	333.72
382.63	318.35
383.01	337.79
383.39	337.79
383.77	357.22
384.15	355.64
384.53	357
384.91	349.54
385.29	362.42
385.67	340.5
386.049	345.02
386.429	349.31
386.809	348.18
387.189	352.93
387.568	366.04
387.948	345.47
388.328	369.65
388.707	358.58
389.087	373.04
389.466	382.76
389.846	353.83
390.225	355.64
390.605	373.72
390.984	373.27
391.363	363.1
391.743	375.75
392.122	375.75
392.501	362.42
392.881	393.15
393.26	357.67
393.639	375.3
394.018	370.56
394.397	354.51
394.776	369.43
395.155	384.79
395.534	398.58
395.913	374.85
396.292	394.74
396.671	392.48
397.05	401.29
397.429	388.41
397.808	402.42
398.186	380.05
398.565	385.02
398.944	401.51
399.323	403.77
399.701	393.15
400.08	418.92
400.458	379.59
400.837	391.35
401.215	394.51
401.594	412.81
401.972	397.22
402.351	416.43
402.729	427.73
403.107	420.5
403.486	403.1
403.864	411.23
404.242	419.59
404.62	434.06
404.999	419.82
405.377	424.79
405.755	430.44
406.133	418.24
406.511	431.8
406.889	418.46
407.267	462.53
407.645	426.6
408.023	421.85
408.401	440.61
408.779	439.71
409.156	446.71
409.534	459.37
409.912	452.81
410.29	463.89
410.667	474.96
411.045	459.82
411.422	452.81
411.8	443.32
412.178	439.25
412.555	464.34
412.933	479.03
413.31	494.17
413.687	485.81
414.065	486.94
414.442	485.35
414.819	473.15
415.197	479.48
415.574	499.14
415.951	486.26
416.328	468.63
416.705	482.64
417.082	505.92
417.46	511.79
417.837	512.47
418.214	522.64
418.591	546.6
418.967	532.81
419.344	507.5
419.721	525.13
420.098	524.9
420.475	531
420.852	549.53
421.228	543.43
421.605	521.51
421.982	540.49
422.358	544.56
422.735	552.7
423.111	541.62
423.488	544.56
423.864	549.08
424.241	566.93
424.617	587.27
424.994	580.27
425.37	560.83
425.746	575.3
426.123	594.5
426.499	591.34
426.875	604.9
427.251	608.97
427.627	584.33
428.003	605.58
428.379	604.22
428.756	607.61
429.132	614.84
429.507	605.35
429.883	607.16
430.259	623.88
430.635	649.87
431.011	667.27
431.387	653.03
431.763	665.91
432.138	686.71
432.514	654.16
432.89	679.25
433.265	669.98
433.641	682.41
434.016	686.48
434.392	677.44
434.767	700.49
435.143	694.61
435.518	705.24
435.894	701.85
436.269	718.12
436.644	735.29
437.02	733.48
437.395	727.61
437.77	744.33
438.145	724.67
438.52	752.24
438.895	758.79
439.271	770.77
439.646	784.1
440.021	761.51
440.395	764.9
440.77	762.41
441.145	790.43
441.52	798.34
441.895	766.03
442.27	795.18
442.645	796.31
443.019	788.85
443.394	820.49
443.769	845.57
444.143	821.84
444.518	803.76
444.892	844.67
445.267	828.17
445.641	821.39
446.016	861.16
446.39	832.46
446.764	857.32
447.139	836.76
447.513	853.48
447.887	854.16
448.262	848.96
448.636	867.04
449.01	872.46
449.384	912.24
449.758	901.84
450.132	888.28
450.506	910.65
450.88	898.45
451.254	916.98
451.628	904.1
452.002	924.44
452.376	932.57
452.75	970.54
453.123	944.33
453.497	991.78
453.871	955.62
454.244	967.6
454.618	1008.28
454.992	993.82
455.365	997.21
455.739	1012.35
456.112	1036.07
456.486	1026.58
456.859	1042.85
457.232	1069.29
457.606	1063.64
457.979	1051.44
458.352	1066.81
458.725	1096.41
459.099	1085.11
459.472	1096.86
459.845	1142.06
460.218	1136.18
460.591	1147.48
460.964	1170.76
461.337	1180.7
461.71	1179.35
462.083	1213.24
462.456	1218.44
462.829	1230.65
463.201	1233.36
463.574	1246.01
463.947	1246.24
464.32	1251.44
464.692	1287.37
465.065	1301.6
465.438	1303.41
465.81	1327.14
466.183	1342.51
466.555	1390.64
466.928	1362.62
467.3	1410.53
467.672	1422.73
468.045	1452.79
468.417	1437.42
468.789	1442.84
469.161	1472.9
469.534	1479.23
469.906	1546.57
470.278	1535.04
470.65	1542.95
471.022	1564.2
471.394	1598.55
471.766	1624.99
472.138	1665.89
472.51	1657.98
472.882	1696.17
473.253	1721.48
473.625	1744.3
473.997	1759.67
474.369	1810.52
474.74	1822.95
475.112	1848.93
475.484	1887.8
475.855	1931.42
476.227	1929.84
476.598	2000.79
476.97	1998.54
477.341	2068.59
477.713	2093.45
478.084	2119.66
478.455	2160.34
478.827	2180.45
479.198	2250.51
479.569	2244.86
479.94	2323.05
480.311	2363.5
480.682	2387.68
481.053	2440.56
481.424	2509.03
481.795	2537.96
482.166	2582.93
482.537	2598.07
482.908	2674.45
483.279	2681.45
483.65	2760.32
484.021	2840.32
484.391	2812.3
484.762	2882.35
485.133	2884.84
485.503	2999.86
485.874	3056.36
486.244	3066.3
486.615	3158.05
486.985	3174.55
487.356	3274.43
487.726	3302.23
488.097	3401.44
488.467	3394.43
488.837	3470.36
489.207	3515.11
489.578	3542.22
489.948	3604.37
490.318	3635.78
490.688	3639.4
491.058	3759.62
491.428	3796.23
491.798	3873.97
492.168	3907.41
492.538	3934.76
492.908	4019.05
493.278	4089.78
493.648	4049.78
494.017	4134.75
494.387	4167.52
494.757	4211.58
495.126	4259.72
495.496	4272.37
495.866	4315.08
496.235	4345.82
496.605	4419.71
496.974	4465.14
497.344	4506.49
497.713	4512.59
498.082	4540.84
498.452	4648.18
498.821	4655.41
499.19	4660.61
499.559	4668.52
499.928	4714.62
500.298	4759.82
500.667	4828.74
501.036	4787.39
501.405	4867.61
501.774	4878.01
502.143	4938.34
502.512	4917.55
502.88	4983.99
503.249	5045.69
503.618	5073.48
503.987	5082.97
504.356	5142.86
504.724	5140.37
505.093	5155.74
505.462	5193.93
505.83	5247.26
506.199	5228.73
506.567	5304.66
506.936	5321.16
507.304	5350.54
507.672	5394.38
508.041	5371.78
508.409	5437.54
508.777	5462.4
509.145	5478.44
509.514	5503.08
509.882	5570.19
510.25	5562.06
510.618	5621.04
510.986	5616.07
511.354	5712.79
511.722	5755.05
512.09	5784.88
512.458	5730.19
512.826	5796.18
513.193	5800.24
513.561	5823.75
513.929	5865.1
514.297	5826.68
514.664	5903.74
515.032	5897.64
515.4	5978.54
515.767	6018.32
516.135	6027.13
516.502	5998.88
516.869	6113.23
517.237	6093.57
517.604	6054.25
517.972	6157.07
518.339	6150.06
518.706	6208.82
519.073	6270.06
519.44	6231.64
519.808	6354.58
520.175	6238.42
520.542	6383.05
520.909	6395.03
521.276	6357.97
521.643	6438.87
522.009	6497.85
522.376	6561.58
522.743	6527
523.11	6581.24
523.477	6635.93
523.843	6650.62
524.21	6677.28
524.577	6743.5
524.943	6738.07
525.31	6843.83
525.676	6812.42
526.043	6871.85
526.409	6914.34
526.776	6983.94
527.142	6981.23
527.508	7040.21
527.874	7103.49
528.241	7068.91
528.607	7096.48
528.973	7224.61
529.339	7137.83
529.705	7275.68
530.071	7324.95
530.437	7340.32
530.803	7330.15
531.169	7399.52
531.535	7353.42
531.901	7431.16
532.267	7401.78
532.632	7507.32
532.998	7536.02
533.364	7569.01
533.73	7617.82
534.095	7704.37
534.461	7695.79
534.826	7728.1
535.192	7724.71
535.557	7809
535.923	7730.36
536.288	7860.3
536.653	7896.23
537.019	7869.34
537.384	7949.11
537.749	7990.24
538.114	7979.17
538.479	8052.84
538.845	7991.6
539.21	8031.14
539.575	8117.02
539.94	8132.16
540.305	8161.76
540.67	8200.41
541.034	8241.31
541.399	8227.3
541.764	8326.5
542.129	8255.55
542.494	8313.85
542.858	8407.63
543.223	8428.42
543.587	8489.21
543.952	8445.15
544.316	8483.56
544.681	8522.88
545.045	8552.94
545.41	8682.2
545.774	8620.96
546.138	8628.19
546.503	8655.54
546.867	8700.96
547.231	8805.36
547.595	8809.88
547.959	8849.65
548.324	8854.63
548.688	8834.06
549.052	8935.3
549.416	8904.79
549.779	8929.65
550.143	9058.24
550.507	9005.81
550.871	9051.46
551.235	9082.19
551.599	9142.98
551.962	9121.29
552.326	9155.18
552.689	9264.33
553.053	9256.2
553.417	9211
553.78	9370.77
554.143	9366.48
554.507	9354.05
554.87	9434.05
555.234	9472.01
555.597	9421.16
555.96	9468.4
556.323	9502.74
556.686	9568.05
557.05	9558.11
557.413	9567.38
557.776	9643.98
558.139	9687.15
558.502	9681.95
558.865	9707.71
559.228	9792.91
559.59	9808.05
559.953	9853.24
560.316	9973.47
560.679	9884.88
561.041	9925.56
561.404	9974.37
561.767	10042.17
562.129	10032.45
562.492	10083.75
562.854	10105.67
563.217	10077.42
563.579	10189.51
563.941	10222.27
564.304	10266.57
564.666	10345.21
565.028	10327.36
565.39	10313.12
565.753	10407.58
566.115	10457.52
566.477	10533.9
566.839	10505.2
567.201	10554.92
567.563	10541.36
567.925	10653.45
568.287	10626.1
568.648	10627.69
569.01	10753.79
569.372	10942.25
569.734	10762.37
570.095	10795.59
570.457	10932.76
570.819	10914.01
571.18	11017.96
571.542	11035.36
571.903	11067
572.265	11144.96
572.626	11166.2
572.987	11246.65
573.349	11243.26
573.71	11325.07
574.071	11372.07
574.432	11461.79
574.794	11549.7
575.155	11633.54
575.516	11535.46
575.877	11696.13
576.238	11769.58
576.599	11850.71
576.96	11879.63
577.32	12034.43
577.681	12130.47
578.042	12213.86
578.403	12330.69
578.763	12314.65
579.124	12447.3
579.485	12582.44
579.845	12810
580.206	12836.89
580.566	12915.76
580.927	13128.64
581.287	13198.69
581.648	13196.43
582.008	13513.71
582.368	13605.46
582.728	13782.41
583.089	13830.54
583.449	13997.54
583.809	14182.4
584.169	14414.71
584.529	14528.83
584.889	14742.83
585.249	14856.73
585.609	15049.27
585.969	15284.06
586.329	15490.61
586.688	15623.49
587.048	15899.64
587.408	16179.63
587.768	16406.07
588.127	16493.75
588.487	16870.91
588.846	17202.43
589.206	17413.27
589.565	17610.1
589.925	17996.98
590.284	18171.44
590.643	18460.93
591.003	18738.66
591.362	19118.99
591.721	19327.12
592.08	19676.71
592.44	19904.5
592.799	20190.37
593.158	20532.51
593.517	20761.43
593.876	21046.17
594.235	21305.15
594.593	21534.29
594.952	22053.83
595.311	22292.24
595.67	22525
596.029	23015.38
596.387	23259.9
596.746	23683.61
597.104	23785.98
597.463	24032.31
597.822	24554.55
598.18	24855.34
598.538	24949.34
598.897	25458.03
599.255	25699.61
599.613	26279.93
599.972	26386.59
600.33	26655.29
600.688	27007.82
601.046	27295.05
601.404	27743.62
601.762	27960.79
602.12	28247.79
602.478	28528.68
602.836	28865.63
603.194	28990.59
603.552	29316.01
603.91	29413.41
604.268	30000.28
604.625	29920.51
604.983	30374.06
605.341	30672.81
605.698	30938.57
606.056	31382.85
606.413	31586.23
606.771	31909.39
607.128	32147.12
607.485	32211.3
607.843	32404.97
608.2	32748.91
608.557	33229.35
608.914	33276.58
609.272	33674.76
609.629	33796.12
609.986	34272.26
610.343	34379.83
610.7	34778.46
611.057	34797.67
611.414	34941.62
611.771	35272.01
612.127	35582.51
612.484	35693.47
612.841	36031.54
613.198	35976.17
613.554	36183.4
613.911	36636.95
614.267	36822.25
614.624	36921.68
614.98	37126.88
615.337	37541.78
615.693	37539.75
616.05	37777.03
616.406	38126.4
616.762	37881.43
617.118	38167.53
617.475	38319.61
617.831	38503.56
618.187	38711.47
618.543	38911.01
618.899	39092.25
619.255	39244.34
619.611	39147.16
619.967	39343.99
620.323	39677.09
620.678	39610.2
621.034	39744.66
621.39	39987.37
621.746	39897.2
622.101	40543.28
622.457	40096.06
622.812	40290.18
623.168	40483.62
623.523	40583.28
623.879	40816.5
624.234	40689.5
624.589	40838.42
624.945	41000.67
625.3	41071.86
625.655	41232.31
626.01	41212.87
626.365	41266.66
626.72	41250.84
627.075	41484.73
627.43	41540.09
627.785	41556.14
628.14	41613.76
628.495	41757.49
628.85	41733.54
629.205	41746.19
629.559	41923.59
629.914	41759.52
630.269	41937.37
630.623	41933.76
630.978	41874.77
631.332	42163.58
631.687	42147.54
632.041	42061.66
632.396	42084.26
632.75	42039.06
633.104	42070.93
633.459	41986.64
633.813	42079.74
634.167	42123.81
634.521	42218.72
634.875	42358.6
635.229	42324.48
635.583	42072.96
635.937	42099.63
636.291	42137.37
636.645	42063.92
636.999	42150.47
637.352	42102.79
637.706	42185.95
638.06	42203.35
638.413	42180.53
638.767	42202
639.121	42216.23
639.474	41949.8
639.828	41980.31
640.181	41990.7
640.534	42135.11
640.888	41924.72
641.241	41955.68
641.594	41947.99
641.947	42103.02
642.301	42041.32
642.654	42142.34
643.007	42126.07
643.36	42100.08
643.713	41993.64
644.066	42219.62
644.419	41979.63
644.771	41710.49
645.124	41371.06
645.477	41267.78
645.83	41117.28
646.182	41007
646.535	40906.89
646.888	40959.77
647.24	40751.87
647.593	40939.88
647.945	40872.32
648.298	40774.69
648.65	40714.58
649.002	40545.77
649.355	40835.71
649.707	40708.48
650.059	40862.6
650.411	41425.97
650.763	41445.86
651.115	41872.51
651.467	41743.7
651.819	41633.43
652.171	41605.63
652.523	41509.81
652.875	41536.93
653.227	41276.37
653.578	41639.98
653.93	41598.85
654.282	41434.79
654.633	41401.34
654.985	41549.59
655.337	41461.23
655.688	41561.34
656.039	41602.01
656.391	41231.85
656.742	41258.07
657.094	41423.71
657.445	41548.68
657.796	41346.88
658.147	41334.22
658.498	41332.19
658.849	41425.29
659.2	41424.17
659.551	41310.27
659.902	41357.05
660.253	41270.27
660.604	41383.26
660.955	41142.36
661.306	41331.06
661.656	41144.85
662.007	41133.78
662.358	41236.15
662.708	41283.6
663.059	41210.61
663.409	40987.11
663.76	41384.39
664.11	41347.56
664.461	41188.24
664.811	41289.71
665.161	41387.56
665.511	41025.31
665.862	41192.76
666.212	41206.32
666.562	41226.88
666.912	41190.95
667.262	41078.64
667.612	41272.76
667.962	41326.77
668.312	41139.65
668.662	41315.24
669.011	41072.76
669.361	41072.31
669.711	41187.79
670.06	41118.64
670.41	41010.16
670.76	41008.36
671.109	41162.48
671.459	41082.03
671.808	40910.28
672.157	41021.46
672.507	40929.04
672.856	40926.78
673.205	40948.02
673.554	41131.52
673.904	40928.81
674.253	41150.27
674.602	40911.18
674.951	40342.39
675.3	40169.73
675.649	40863.95
675.998	40756.61
676.346	40810.85
676.695	40954.57
677.044	40562.27
677.393	40654.02
677.741	40851.3
678.09	40669.16
678.438	40511.65
678.787	40644.07
679.135	40636.84
679.484	40328.15
679.832	40487.69
680.181	40269.62
680.529	40496.51
680.877	40350.07
681.225	40215.61
681.573	40444.98
681.922	40141.26
682.27	40158.89
682.618	40108.27
682.966	39927.93
683.314	40072.11
683.661	40001.6
684.009	39863.75
684.357	39762.06
684.705	39700.37
685.053	39873.02
685.4	39760.71
685.748	39664.44
686.095	39550.77
686.443	39378.34
686.79	39474.16
687.138	39567.49
687.485	39489.3
687.832	39285.24
688.18	39278.01
688.527	39172.7
688.874	39124.34
689.221	38979.94
689.568	38777.45
689.915	38817
690.262	38828.53
690.609	38675.76
690.956	38668.53
691.303	38659.94
691.65	38312.38
691.997	38389.22
692.344	38248.88
692.69	38115.1
693.037	38271.71
693.383	37903.13
693.73	37966.63
694.077	37813.86
694.423	37868.55
694.769	37746.07
695.116	37701.1
695.462	37570.26
695.808	37374.78
696.155	37515.79
696.501	37141.79
696.847	37275.8
697.193	37096.82
697.539	37099.31
697.885	36952.42
698.231	36748.13
698.577	36812.53
698.923	36736.83
699.269	36453
699.614	36412.32
699.96	36275.6
700.306	36305.88
700.651	36246
700.997	36042.16
701.342	36048.71
701.688	36105.43
702.033	35875.61
702.379	35792.22
702.724	35723.75
703.069	35846.46
703.415	35383.42
703.76	35462.29
704.105	35425.23
704.45	35434.72
704.795	35077.21
705.14	35123.77
705.485	35050.77
705.83	34982.07
706.175	34949.08
706.52	34802.87
706.865	34716.09
707.209	34657.56
707.554	34620.05
707.899	34646.72
708.243	34358.14
708.588	34460.51
708.932	34290.79
709.277	34312.04
709.621	34194.75
709.966	33935.32
710.31	34000.86
710.654	33791.6
710.998	33910.01
711.342	33738.27
711.687	33764.71
712.031	33571.04
712.375	33509.8
712.719	33557.25
713.063	33523.58
713.407	33717.02
713.75	33280.42
714.094	33304.83
714.438	33177.38
714.782	33303.25
715.125	33051.73
715.469	33070.26
715.812	32838.4
716.156	32754.11
716.499	32821.23
716.843	32684.06
717.186	32688.12
717.53	32818.52
717.873	32693.32
718.216	32652.87
718.559	32541.23
718.902	32398.87
719.246	32388.7
719.589	32320.68
719.932	32245.88
720.275	32196.39
720.617	32202.71
720.96	32133.79
721.303	32190.28
721.646	32136.27
721.989	31872.33
722.331	32007.69
722.674	31796.85
723.016	31853.34
723.359	31774.48
723.701	31800.24
724.044	31648.6
724.386	31487.93
724.729	31641.37
725.071	31463.75
725.413	31452.22
725.755	31386.46
726.097	31281.83
726.439	31240.7
726.782	31176.52
727.124	31380.14
727.465	31148.05
727.807	31153.93
728.149	30941.28
728.491	31033.03
728.833	30976.76
729.175	30853.6
729.516	30787.38
729.858	30751.9
730.199	30844.1
730.541	30612.7
730.882	30568.86
731.224	30734.95
731.565	30451.8
731.906	30610.44
732.248	30483.66
732.589	30395.3
732.93	30324.8
733.271	30371.35
733.612	30264.46
733.953	30364.57
734.294	30211.13
734.635	30143.33
734.976	30230.34
735.317	30079.38
735.658	29992.15
735.999	30048.87
736.339	29927.52
736.68	30151.24
737.021	29937.69
737.361	29954.41
737.702	29907.63
738.042	29801.65
738.383	29741.31
738.723	29789.44
739.063	29763
739.404	29756.22
739.744	29715.55
740.084	29555.55
740.424	29645.04
740.764	29334.77
741.104	29635.77
741.444	29455.67
741.784	29494.31
742.124	29473.74
742.464	29282.11
742.804	29302.68
743.143	29216.8
743.483	29285.95
743.823	29079.18
744.162	29007.32
744.502	29056.13
744.841	28920.31
745.181	29182.23
745.52	28910.6
745.86	29015.23
746.199	28813.2
746.538	28848
746.877	28940.43
747.216	28884.61
747.556	28803.93
747.895	28779.07
748.234	28696.59
748.573	28631.06
748.911	28636.7
749.25	28688.23
749.589	28514
749.928	28619.08
750.267	28535.92
750.605	28455.24
750.944	28452.08
751.283	28325.07
751.621	28295.7
751.96	28190.84
752.298	28186.32
752.636	28197.39
752.975	28074.01
753.313	27980.45
753.651	28113.1
753.989	27914.24
754.327	27884.86
754.666	27858.87
755.004	27816.16
755.342	27774.81
755.679	27796.95
756.017	27503.85
756.355	27652.32
756.693	27561.25
757.031	27506.34
757.368	27267.7
757.706	27267.7
758.044	27264.99
758.381	27285.1
758.719	27166.23
759.056	27195.39
759.394	27077.42
759.731	26941.83
760.068	26854.83
