Data from hue_80_FLMS001491_37.txt Node
Date: Mon Feb 06 15:22:55 GMT 2017
User: dcchb
Spectrometer: FLMS00149
Trigger mode: 0
Integration Time (sec): 2.000000E-2
Scans to average: 10
Electric dark correction enabled: true
Nonlinearity correction enabled: false
Boxcar width: 0
XAxis mode: Wavelengths
Number of Pixels in Spectrum: 2048
>>>>>Begin Spectral Data<<<<<
341.393	-21.92
341.776	-21.92
342.16	-21.92
342.543	-57.85
342.927	-72.99
343.31	-56.72
343.693	-63.05
344.077	-80.9
344.46	-55.59
344.843	-45.87
345.226	-18.98
345.61	-33.9
345.993	-14.46
346.376	-3.62
346.759	-1.36
347.142	28.25
347.525	33.67
347.908	54.24
348.291	65.99
348.674	77.51
349.057	114.8
349.44	103.95
349.823	143.95
350.206	164.06
350.588	204.29
350.971	205.42
351.354	228.02
351.737	266.66
352.119	257.85
352.502	254.68
352.884	285.42
353.267	278.41
353.65	268.92
354.032	284.74
354.414	326.55
354.797	301.01
355.179	320.9
355.562	328.35
355.944	324.74
356.326	332.65
356.709	337.84
357.091	339.88
357.473	355.24
357.855	332.65
358.238	352.53
358.62	335.81
359.002	327.22
359.384	336.71
359.766	372.65
360.148	330.39
360.53	336.26
360.912	321.8
361.294	351.86
361.676	353.21
362.057	327.45
362.439	327.45
362.821	316.6
363.203	322.25
363.584	331.74
363.966	320.9
364.348	325.64
364.729	329.03
365.111	312.31
365.493	320.22
365.874	309.6
366.256	317.05
366.637	326.77
367.019	330.39
367.4	305.08
367.781	298.75
368.163	289.94
368.544	315.92
368.925	304.17
369.306	334.23
369.688	306.66
370.069	305.75
370.45	295.81
370.831	281.57
371.212	332.19
371.593	303.49
371.974	316.15
372.355	298.07
372.736	317.05
373.117	312.76
373.498	311.4
373.879	293.78
374.26	323.16
374.641	297.17
375.021	306.66
375.402	301.46
375.783	338.3
376.163	317.28
376.544	318.86
376.925	316.38
377.305	312.76
377.686	321.8
378.066	325.64
378.447	330.16
378.827	331.74
379.208	335.13
379.588	322.03
379.968	322.7
380.349	333.78
380.729	344.17
381.109	349.82
381.489	337.84
381.87	340.1
382.25	341.91
382.63	338.52
383.01	321.57
383.39	326.55
383.77	354.79
384.15	348.01
384.53	333.32
384.91	330.61
385.29	362.25
385.67	325.87
386.049	325.64
386.429	359.99
386.809	339.2
387.189	345.3
387.568	344.4
387.948	360.67
388.328	339.88
388.707	339.88
389.087	364.74
389.466	338.52
389.846	345.75
390.225	367.45
390.605	355.47
390.984	348.24
391.363	364.28
391.743	364.74
392.122	369.26
392.501	349.14
392.881	371.97
393.26	367.22
393.639	392.98
394.018	376.71
394.397	359.76
394.776	357.5
395.155	370.39
395.534	382.59
395.913	376.26
396.292	378.07
396.671	382.81
397.05	352.08
397.429	400.44
397.808	374.23
398.186	394.57
398.565	359.76
398.944	365.41
399.323	375.36
399.701	389.14
400.08	383.94
400.458	389.37
400.837	379.88
401.215	400.89
401.594	383.04
401.972	378.3
402.351	406.99
402.729	403.83
403.107	380.78
403.486	411.29
403.864	388.01
404.242	389.37
404.62	378.75
404.999	405.19
405.377	425.98
405.755	392.08
406.133	432.98
406.511	400.89
406.889	426.2
407.267	397.05
407.645	377.17
408.023	437.95
408.401	422.14
408.779	413.55
409.156	447.67
409.534	431.4
409.912	438.86
410.29	435.02
410.667	460.78
411.045	433.89
411.422	442.7
411.8	433.66
412.178	458.74
412.555	453.77
412.933	446.09
413.31	466.88
413.687	463.26
414.065	463.04
414.442	469.37
414.819	473.43
415.197	477.95
415.574	479.76
415.951	482.93
416.328	475.47
416.705	492.42
417.082	481.57
417.46	482.93
417.837	502.81
418.214	491.74
418.591	491.74
418.967	496.71
419.344	497.16
419.721	508.91
420.098	504.39
420.475	498.07
420.852	508.69
421.228	525.41
421.605	528.8
421.982	528.35
422.358	520.89
422.735	537.16
423.111	513.21
423.488	535.58
423.864	520.21
424.241	545.07
424.617	546.2
424.994	553.66
425.37	555.92
425.746	564.73
426.123	541.91
426.499	562.47
426.875	569.25
427.251	559.76
427.627	562.7
428.003	569.02
428.379	580.78
428.756	583.04
429.132	572.87
429.507	587.78
429.883	586.2
430.259	592.3
430.635	586.65
431.011	598.18
431.387	605.41
431.763	622.13
432.138	624.84
432.514	637.05
432.89	603.15
433.265	658.97
433.641	642.24
434.016	653.99
434.392	660.77
434.767	668.23
435.143	664.84
435.518	653.32
435.894	667.33
436.269	693.99
436.644	679.08
437.02	698.74
437.395	663.26
437.77	717.04
438.145	693.77
438.52	707.33
438.895	704.84
439.271	733.31
439.646	719.08
440.021	717.5
440.395	718.63
440.77	725.4
441.145	750.26
441.52	749.58
441.895	753.2
442.27	749.58
442.645	748.91
443.019	758.17
443.394	774.67
443.769	778.51
444.143	762.47
444.518	764.05
444.892	759.3
445.267	776.7
445.641	802.69
446.016	800.88
446.39	804.5
446.764	796.59
447.139	818.06
447.513	794.78
447.887	809.02
448.262	801.79
448.636	811.05
449.01	818.51
449.384	833.2
449.758	835.91
450.132	852.63
450.506	833.2
450.88	845.85
451.254	840.2
451.628	841.33
452.002	870.71
452.376	893.31
452.75	875.68
453.123	862.12
453.497	901.9
453.871	897.38
454.244	922.46
454.618	911.39
454.992	949.35
455.365	926.98
455.739	936.7
456.112	956.13
456.486	977.6
456.859	964.95
457.232	980.77
457.606	997.71
457.979	1005.17
458.352	1013.98
458.725	1016.92
459.099	1053.98
459.472	1078.62
459.845	1073.87
460.218	1064.38
460.591	1101.67
460.964	1064.83
461.337	1118.61
461.71	1125.39
462.083	1137.6
462.456	1139.63
462.829	1163.81
463.201	1182.34
463.574	1187.77
463.947	1195.9
464.32	1210.36
464.692	1245.16
465.065	1239.06
465.438	1270.7
465.81	1280.64
466.183	1331.49
466.555	1328.55
466.928	1307.76
467.3	1341.89
467.672	1370.81
468.045	1403.8
468.417	1428.21
468.789	1450.81
469.161	1398.38
469.534	1476.57
469.906	1477.7
470.278	1492.39
470.65	1515.21
471.022	1581.43
471.394	1610.81
471.766	1649.45
472.138	1647.41
472.51	1689
472.882	1724.25
473.253	1769.67
473.625	1804.92
473.997	1811.25
474.369	1879.5
474.74	1907.29
475.112	1891.93
475.484	1980.51
475.855	2008.76
476.227	2047.63
476.598	2133.28
476.97	2181.64
477.341	2244.91
477.713	2246.72
478.084	2312.03
478.455	2403.55
478.827	2469.31
479.198	2559.25
479.569	2561.74
479.94	2698.69
480.311	2745.24
480.682	2840.6
481.053	2884.22
481.424	2968.74
481.795	3063.2
482.166	3109.3
482.537	3172.35
482.908	3306.81
483.279	3386.8
483.65	3455.05
484.021	3571.21
484.391	3662.05
484.762	3690.75
485.133	3806.23
485.503	3930.52
485.874	4060.01
486.244	4154.69
486.615	4303.62
486.985	4397.4
487.356	4513.78
487.726	4573.44
488.097	4744.06
488.467	4836.26
488.837	4962.13
489.207	5114.67
489.578	5219.07
489.948	5344.27
490.318	5436.24
490.688	5547.65
491.058	5661.77
491.428	5825.84
491.798	5922.33
492.168	6097.92
492.538	6170.69
492.908	6302.89
493.278	6497.91
493.648	6586.95
494.017	6746.49
494.387	6808.86
494.757	6986.26
495.126	7153.94
495.496	7210.43
495.866	7345.34
496.235	7483.19
496.605	7638.44
496.974	7740.36
497.344	7875.05
497.713	7962.73
498.082	8132.89
498.452	8265.77
498.821	8359.1
499.19	8413.11
499.559	8557.97
499.928	8657.85
500.298	8757.74
500.667	8943.04
501.036	8942.14
501.405	9156.82
501.774	9229.59
502.143	9343.71
502.512	9403.14
502.88	9585.96
503.249	9658.73
503.618	9699.41
503.987	9839.52
504.356	9900.98
504.724	10053.07
505.093	10138.04
505.462	10177.36
505.83	10311.82
506.199	10360.18
506.567	10612.83
506.936	10580.96
507.304	10785.71
507.672	10752.94
508.041	10888.75
508.409	10949.09
508.777	11093.95
509.145	11178.46
509.514	11179.82
509.882	11342.98
510.25	11390.21
510.618	11469.98
510.986	11572.8
511.354	11688.73
511.722	11738.22
512.09	11861.83
512.458	11913.36
512.826	12041.49
513.193	12013.92
513.561	12127.36
513.929	12153.13
514.297	12323.52
514.664	12370.52
515.032	12494.36
515.4	12505.66
515.767	12553.34
516.135	12691.19
516.502	12589.73
516.869	12763.28
517.237	12836.72
517.604	12812.09
517.972	13013.44
518.339	13009.15
518.706	13057.74
519.073	13081.01
519.44	13168.24
519.808	13315.58
520.175	13278.97
520.542	13406.65
520.909	13490.27
521.276	13457.05
521.643	13648.23
522.009	13716.7
522.376	13773.2
522.743	13852.74
523.11	13902.46
523.477	14038.05
523.843	13951.05
524.21	14162.11
524.577	14287.99
524.943	14243.02
525.31	14222.45
525.676	14461.09
526.043	14459.51
526.409	14515.1
526.776	14658.37
527.142	14641.2
527.508	14561.88
527.874	14711.7
528.241	14796
528.607	14743.79
528.973	14799.84
529.339	14813.62
529.705	14961.64
530.071	15068.53
530.437	15024.01
530.803	15032.15
531.169	15213.61
531.535	15041.86
531.901	15109.43
532.267	15154.63
532.632	15226.27
532.998	15273.72
533.364	15227.85
533.73	15300.84
534.095	15327.96
534.461	15310.11
534.826	15438.46
535.192	15410.22
535.557	15497.67
535.923	15367.28
536.288	15397.34
536.653	15503.1
537.019	15361.86
537.384	15404.79
537.749	15510.55
538.114	15498.12
538.479	15491.34
538.845	15531.79
539.21	15396.66
539.575	15419.03
539.94	15506.48
540.305	15505.36
540.67	15455.41
541.034	15418.58
541.399	15562.53
541.764	15503.32
542.129	15560.27
542.494	15472.14
542.858	15568.63
543.223	15442.76
543.587	15571.12
543.952	15428.07
544.316	15473.27
544.681	15304.46
545.045	15421.52
545.41	15459.25
545.774	15515.3
546.138	15483.21
546.503	15485.92
546.867	15363.21
547.231	15452.48
547.595	15501.51
547.959	15421.97
548.324	15411.8
548.688	15453.38
549.052	15441.18
549.416	15400.5
549.779	15571.12
550.143	15432.14
550.507	15480.72
550.871	15514.39
551.235	15469.42
551.599	15496.09
551.962	15445.92
552.326	15570.44
552.689	15495.19
553.053	15438.92
553.417	15407.5
553.78	15636.88
554.143	15476.88
554.507	15501.97
554.87	15440.27
555.234	15625.8
555.597	15559.14
555.96	15473.04
556.323	15580.16
556.686	15516.65
557.05	15557.78
557.413	15591
557.776	15520.72
558.139	15701.28
558.502	15596.65
558.865	15644.11
559.228	15736.76
559.59	15708.51
559.953	15750.77
560.316	15881.39
560.679	15765.01
561.041	15806.82
561.404	15868.74
561.767	15923.42
562.129	15777.66
562.492	15986.02
562.854	15988.28
563.217	15883.65
563.579	15992.12
563.941	16027.38
564.304	16090.42
564.666	16166.35
565.028	16082.06
565.39	16182.63
565.753	16219.69
566.115	16209.97
566.477	16276.41
566.839	16316.86
567.201	16309.4
567.563	16275.96
567.925	16405.44
568.287	16342.17
568.648	16376.52
569.01	16432.11
569.372	16505.78
569.734	16514.14
570.095	16561.15
570.457	16634.82
570.819	16550.3
571.18	16625.33
571.542	16657.87
571.903	16695.38
572.265	16736.51
572.626	16850.4
572.987	16814.02
573.349	16820.8
573.71	16737.19
574.071	16966.79
574.432	16932.66
574.794	17044.52
575.155	16989.38
575.516	16914.81
575.877	16995.26
576.238	16903.28
576.599	17034.35
576.96	17016.95
577.32	17002.04
577.681	17012.21
578.042	17052.88
578.403	17145.09
578.763	17087.01
579.124	17122.71
579.485	17146.22
579.845	17170.62
580.206	17044.98
580.566	17096.5
580.927	17141.47
581.287	17196.61
581.648	17145.09
582.008	17160.68
582.368	17182.15
582.728	17127.69
583.089	17131.75
583.449	17006.33
583.809	17115.48
584.169	17141.02
584.529	17108.93
584.889	17172.43
585.249	17139.66
585.609	17030.51
585.969	17118.42
586.329	17057.4
586.688	17076.84
587.048	17095.82
587.408	17063.73
587.768	17088.82
588.127	17068.93
588.487	17015.15
588.846	17137.4
589.206	16971.53
589.565	17078.2
589.925	17082.26
590.284	17169.72
590.643	17098.99
591.003	17124.52
591.362	17104.63
591.721	17012.89
592.08	17078.65
592.44	17054.92
592.799	17086.1
593.158	17033.22
593.517	17057.86
593.876	17047.46
594.235	17037.29
594.593	17018.54
594.952	17021.47
595.311	16977.18
595.67	17069.16
596.029	17098.53
596.387	17071.87
596.746	17095.82
597.104	16968.37
597.463	16982.38
597.822	17104.18
598.18	16996.39
598.538	16954.13
598.897	17028.48
599.255	16992.1
599.613	17137.4
599.972	16990.97
600.33	17024.19
600.688	16980.8
601.046	17154.13
601.404	17113.45
601.762	17045.65
602.12	17213.11
602.478	17057.18
602.836	17108.93
603.194	17113.22
603.552	17027.35
603.91	17005.43
604.268	17097.18
604.625	17095.6
604.983	17196.84
605.341	17012.89
605.698	17164.07
606.056	17129.04
606.413	17091.3
606.771	17285.2
607.128	17229.6
607.485	17154.58
607.843	17162.03
608.2	17234.8
608.557	17211.07
608.914	17290.84
609.272	17269.83
609.629	17316.83
609.986	17326.32
610.343	17267.57
610.7	17365.42
611.057	17378.07
611.414	17364.06
611.771	17414.23
612.127	17503.95
612.484	17403.84
612.841	17452.42
613.198	17411.29
613.554	17458.3
613.911	17522.7
614.267	17564.51
614.624	17431.86
614.98	17530.16
615.337	17592.76
615.693	17648.12
616.05	17529.71
616.406	17651.06
616.762	17558.86
617.118	17567.67
617.475	17555.7
617.831	17704.62
618.187	17689.03
618.543	17695.13
618.899	17775.58
619.255	17731.29
619.611	17796.59
619.967	17779.19
620.323	17849.93
620.678	17758.86
621.034	17715.69
621.39	17777.84
621.746	17729.93
622.101	17875.24
622.457	17757.95
622.812	17802.7
623.168	17840.21
623.523	17837.95
623.879	17850.83
624.234	17709.82
624.589	17800.89
624.945	17837.72
625.3	17895.12
625.655	17845.18
626.01	17939.64
626.365	17888.57
626.72	17820.55
627.075	17892.64
627.43	17735.35
627.785	17816.93
628.14	17848.34
628.495	17787.78
628.85	17824.84
629.205	17853.32
629.559	17861.23
629.914	17681.79
630.269	17813.77
630.623	17774.45
630.978	17776.93
631.332	17755.01
631.687	17848.34
632.041	17749.82
632.396	17767.67
632.75	17752.3
633.104	17736.93
633.459	17576.94
633.813	17612.87
634.167	17652.19
634.521	17576.71
634.875	17649.71
635.229	17668.24
635.583	17537.62
635.937	17540.78
636.291	17477.51
636.645	17561.8
636.999	17382.14
637.352	17576.71
637.706	17358.41
638.06	17414.46
638.413	17347.34
638.767	17416.27
639.121	17454
639.474	17304.63
639.828	17285.42
640.181	17298.08
640.534	17454.68
640.888	17342.59
641.241	17261.47
641.594	17280.68
641.947	17435.7
642.301	17295.59
642.654	17314.12
643.007	17330.39
643.36	17347.11
643.713	17245.65
644.066	17312.54
644.419	17141.02
644.771	16999.78
645.124	16938.54
645.477	16899.89
645.83	16774.93
646.182	16638.88
646.535	16621.48
646.888	16690.41
647.24	16541.26
647.593	16643.4
647.945	16635.95
648.298	16642.73
648.65	16576.06
649.002	16580.81
649.355	16636.85
649.707	16525.67
650.059	16740.58
650.411	16730.86
650.763	16845.66
651.115	16971.31
651.467	16998.2
651.819	17005.43
652.171	16927.46
652.523	16939.67
652.875	17053.79
653.227	16907.35
653.578	16999.55
653.93	16953.68
654.282	16938.76
654.633	16844.75
654.985	16918.43
655.337	16840.46
655.688	16917.3
656.039	16973.79
656.391	16868.26
656.742	16917.07
657.094	16859.22
657.445	16913.68
657.796	16928.14
658.147	16871.42
658.498	16954.58
658.849	17000.91
659.2	16838.65
659.551	16783.06
659.902	16913.45
660.253	16926.33
660.604	16886.34
660.955	16893.34
661.306	16915.94
661.656	16983.28
662.007	16846.34
662.358	16890.18
662.708	16982.15
663.059	17061.47
663.409	16764.53
663.76	16953.45
664.11	16928.59
664.461	16916.84
664.811	17019.89
665.161	16948.48
665.511	16999.1
665.862	16987.12
666.212	17004.07
666.562	17002.94
666.912	17041.13
667.262	16967.92
667.612	16997.75
667.962	16867.81
668.312	16946.67
668.662	16925.43
669.011	16962.72
669.361	16907.35
669.711	16880.91
670.06	16867.35
670.41	16870.29
670.76	16825.32
671.109	16870.52
671.459	16857.64
671.808	16815.38
672.157	16915.26
672.507	16799.56
672.856	16726.34
673.205	16855.6
673.554	16926.33
673.904	16827.13
674.253	16917.75
674.602	16720.69
674.951	16520.24
675.3	16492.45
675.649	16715.72
675.998	16747.13
676.346	16730.41
676.695	16774.25
677.044	16612.9
677.393	16646.12
677.741	16630.07
678.09	16635.04
678.438	16644.99
678.787	16587.59
679.135	16583.07
679.484	16482.73
679.832	16518.89
680.181	16439.12
680.529	16488.61
680.877	16442.96
681.225	16382.17
681.573	16526.12
681.922	16297.2
682.27	16255.84
682.618	16338.55
682.966	16291.1
683.314	16363.86
683.661	16278.44
684.009	16266.46
684.357	16171.55
684.705	16106.24
685.053	16162.51
685.4	16117.99
685.748	16089.97
686.095	15999.81
686.443	15962.52
686.79	15941.73
687.138	16001.39
687.485	15955.29
687.832	15819.92
688.18	15849.98
688.527	15845.01
688.874	15835.06
689.221	15792.13
689.568	15669.42
689.915	15578.57
690.262	15516.88
690.609	15637.78
690.956	15495.19
691.303	15554.85
691.65	15438.92
691.997	15393.72
692.344	15266.04
692.69	15328.86
693.037	15204.35
693.383	15125.48
693.73	15162.54
694.077	15039.15
694.423	15010.68
694.769	15008.64
695.116	15040.06
695.462	14857.69
695.808	14827.63
696.155	14901.3
696.501	14732.04
696.847	14747.18
697.193	14669.67
697.539	14694.53
697.885	14580.41
698.231	14589.9
698.577	14558.04
698.923	14487.75
699.269	14406.85
699.614	14390.81
699.96	14263.13
700.306	14222.68
700.651	14220.64
700.997	14161.89
701.342	14116.69
701.688	14091.61
702.033	14026.75
702.379	14009.8
702.724	13993.3
703.069	13932.52
703.415	13760.77
703.76	13850.03
704.105	13748.79
704.45	13748.79
704.795	13655.91
705.14	13654.78
705.485	13680.54
705.83	13645.06
706.175	13511.06
706.52	13586.54
706.865	13515.58
707.209	13468.12
707.554	13402.59
707.899	13401.46
708.243	13277.17
708.588	13297.73
708.932	13231.52
709.277	13216.15
709.621	13207.34
709.966	13081.92
710.31	13151.97
710.654	13023.61
710.998	13013.9
711.342	12954.24
711.687	12998.3
712.031	12896.61
712.375	12864.07
712.719	12894.58
713.063	12843.5
713.407	12886.44
713.75	12848.93
714.094	12810.96
714.438	12795.82
714.782	12765.77
715.125	12664.07
715.469	12715.82
715.812	12605.54
716.156	12608.93
716.499	12489.62
716.843	12589.5
717.186	12510.86
717.53	12586.79
717.873	12512.67
718.216	12450.07
718.559	12461.82
718.902	12454.14
719.246	12391.99
719.589	12354.7
719.932	12337.08
720.275	12387.7
720.617	12398.09
720.96	12301.37
721.303	12360.8
721.646	12287.59
721.989	12307.7
722.331	12315.16
722.674	12259.11
723.016	12186.35
723.359	12135.05
723.701	12231.54
724.044	12168.95
724.386	12071.77
724.729	12133.92
725.071	12143.86
725.413	12084.65
725.755	12058.67
726.097	12082.62
726.439	11937.09
726.782	11985.9
727.124	12059.8
727.465	12002.85
727.807	12025.67
728.149	11973.02
728.491	12052.56
728.833	11975.96
729.175	11944.77
729.516	12017.76
729.858	11894.83
730.199	11977.09
730.541	11950.65
730.882	11942.96
731.224	11968.95
731.565	11875.17
731.906	11909.29
732.248	11945.9
732.589	11911.78
732.93	11771.67
733.271	11853.02
733.612	11859.8
733.953	11890.53
734.294	11850.54
734.635	11831.33
734.976	11845.34
735.317	11744.32
735.658	11820.71
735.999	11809.41
736.339	11797.2
736.68	11876.07
737.021	11811.21
737.361	11812.8
737.702	11839.46
738.042	11808.73
738.383	11838.56
738.723	11827.94
739.063	11869.07
739.404	11826.36
739.744	11854.6
740.084	11823.87
740.424	11874.72
740.764	11816.41
741.104	11922.4
741.444	11840.14
741.784	11815.96
742.124	11867.26
742.464	11936.86
742.804	11851.44
743.143	11877.88
743.483	11910.87
743.823	11916.07
744.162	11973.7
744.502	11954.04
744.841	11937.54
745.181	12064.77
745.52	12114.26
745.86	12114.03
746.199	12159.91
746.538	12074.48
746.877	12227.48
747.216	12258.66
747.556	12327.81
747.895	12328.26
748.234	12396.28
748.573	12371.65
748.911	12470.86
749.25	12490.52
749.589	12515.38
749.928	12663.17
750.267	12632.21
750.605	12696.39
750.944	12724.86
751.283	12744.52
751.621	12856.61
751.96	12948.59
752.298	13003.27
752.636	13036.72
752.975	13087.79
753.313	13151.52
753.651	13304.28
753.989	13399.42
754.327	13438.29
754.666	13498.63
755.004	13584.95
755.342	13748.34
755.679	13875.12
756.017	13903.36
756.355	14005.28
756.693	14155.79
