Data from hue_340_FLMS001491_35.txt Node
Date: Mon Feb 06 15:43:02 GMT 2017
User: dcchb
Spectrometer: FLMS00149
Trigger mode: 0
Integration Time (sec): 2.000000E-2
Scans to average: 10
Electric dark correction enabled: true
Nonlinearity correction enabled: false
Boxcar width: 0
XAxis mode: Wavelengths
Number of Pixels in Spectrum: 2048
>>>>>Begin Spectral Data<<<<<
341.393	-14.1
341.776	-14.1
342.16	-14.1
342.543	-47.09
342.927	-52.96
343.31	-77.14
343.693	-64.26
344.077	-69.01
344.46	-63.59
344.843	-48.67
345.226	-41.21
345.61	-37.82
345.993	-16.36
346.376	-5.51
346.759	14.15
347.142	31.33
347.525	40.82
347.908	57.54
348.291	57.99
348.674	106.35
349.057	115.39
349.44	141.15
349.823	136.18
350.206	155.17
350.588	194.71
350.971	218.89
351.354	217.54
351.737	241.72
352.119	236.52
352.502	276.07
352.884	282.17
353.267	270.64
353.65	302.73
354.032	308.83
354.414	274.26
354.797	318.32
355.179	321.94
355.562	328.04
355.944	314.48
356.326	315.61
356.709	322.84
357.091	331.43
357.473	316.52
357.855	340.47
358.238	360.36
358.62	351.77
359.002	328.95
359.384	347.7
359.766	315.16
360.148	322.39
360.53	325.56
360.912	328.04
361.294	299.57
361.676	320.36
362.057	348.15
362.439	341.38
362.821	315.16
363.203	315.84
363.584	325.56
363.966	318.32
364.348	308.16
364.729	302.51
365.111	341.6
365.493	297.31
365.874	306.12
366.256	299.79
366.637	294.37
367.019	312
367.4	294.14
367.781	308.83
368.163	324.2
368.544	308.16
368.925	289.4
369.306	316.74
369.688	309.51
370.069	306.35
370.45	309.06
370.831	271.55
371.212	296.4
371.593	326.69
371.974	305.67
372.355	297.53
372.736	316.07
373.117	303.41
373.498	306.35
373.879	295.73
374.26	319.23
374.641	306.35
375.021	290.08
375.402	322.39
375.783	337.53
376.163	304.31
376.544	324.65
376.925	285.78
377.305	302.51
377.686	304.09
378.066	305.22
378.447	331.66
378.827	321.04
379.208	309.74
379.588	335.95
379.968	312.9
380.349	331.21
380.729	318.55
381.109	322.62
381.489	301.15
381.87	318.1
382.25	338.21
382.63	327.36
383.01	314.71
383.39	334.37
383.77	335.05
384.15	345.44
384.53	337.08
384.91	347.7
385.29	331.66
385.67	335.95
386.049	331.66
386.429	346.8
386.809	343.41
387.189	347.02
387.568	343.18
387.948	347.02
388.328	348.15
388.707	351.09
389.087	361.49
389.466	329.4
389.846	335.73
390.225	334.14
390.605	349.74
390.984	352.67
391.363	352.45
391.743	366.46
392.122	359
392.501	354.93
392.881	372.11
393.26	354.03
393.639	357.87
394.018	363.3
394.397	338.44
394.776	362.84
395.155	364.2
395.534	368.04
395.913	367.14
396.292	403.29
396.671	379.11
397.05	373.24
397.429	374.37
397.808	365.1
398.186	368.49
398.565	370.53
398.944	394.26
399.323	362.84
399.701	393.58
400.08	378.44
400.458	368.49
400.837	381.83
401.215	392.22
401.594	404.2
401.972	394.48
402.351	379.11
402.729	365.1
403.107	377.53
403.486	415.5
403.864	375.95
404.242	388.15
404.62	396.74
404.999	392.67
405.377	393.13
405.755	416.4
406.133	399.23
406.511	410.3
406.889	410.3
407.267	415.72
407.645	422.5
408.023	414.59
408.401	400.13
408.779	424.76
409.156	431.77
409.534	422.95
409.912	450.3
410.29	453.91
410.667	438.1
411.045	440.58
411.422	465.44
411.8	448.72
412.178	469.28
412.555	469.96
412.933	496.63
413.31	463.86
413.687	470.19
414.065	460.92
414.442	486.23
414.819	495.95
415.197	480.81
415.574	492.56
415.951	495.95
416.328	513.35
416.705	495.72
417.082	514.03
417.46	529.84
417.837	507.92
418.214	495.27
418.591	518.55
418.967	521.03
419.344	534.14
419.721	524.65
420.098	548.15
420.475	535.49
420.852	565.1
421.228	561.93
421.605	566.91
421.982	568.49
422.358	543.4
422.735	576.17
423.111	570.07
423.488	562.39
423.864	588.6
424.241	582.72
424.617	619.33
424.994	603.97
425.37	611.2
425.746	607.81
426.123	609.39
426.499	612.78
426.875	594.48
427.251	638.32
427.627	638.77
428.003	625.44
428.379	648.71
428.756	635.6
429.132	636.28
429.507	638.54
429.883	648.49
430.259	665.21
430.635	672.21
431.011	669.73
431.387	694.13
431.763	684.87
432.138	685.09
432.514	684.42
432.89	684.87
433.265	697.52
433.641	751.31
434.016	717.18
434.392	714.25
434.767	749.73
435.143	736.17
435.518	740.91
435.894	750.18
436.269	766.45
436.644	780.23
437.02	781.59
437.395	775.26
437.77	793.11
438.145	779.56
438.52	796.5
438.895	815.71
439.271	814.13
439.646	791.08
440.021	819.55
440.395	839.89
440.77	819.78
441.145	824.53
441.52	857.29
441.895	828.59
442.27	857.29
442.645	850.29
443.019	853.23
443.394	858.42
443.769	853.9
444.143	849.84
444.518	887.35
444.892	864.75
445.267	867.24
445.641	883.51
446.016	886.67
446.39	894.36
446.764	869.72
447.139	868.37
447.513	899.33
447.887	914.47
448.262	908.82
448.636	885.54
449.01	896.16
449.384	923.05
449.758	928.7
450.132	932.77
450.506	917.86
450.88	944.07
451.254	911.98
451.628	946.78
452.002	941.13
452.376	977.06
452.75	956.5
453.123	951.53
453.497	987.46
453.871	963.96
454.244	1005.09
454.618	969.16
454.992	999.21
455.365	1019.1
455.739	1035.14
456.112	1036.5
456.486	1046.22
456.859	1034.46
457.232	1034.92
457.606	1021.36
457.979	1045.76
458.352	1062.71
458.725	1094.58
459.099	1111.98
459.472	1119.21
459.845	1119.66
460.218	1126.67
460.591	1114.69
460.964	1132.99
461.337	1158.08
461.71	1154.91
462.083	1172.77
462.456	1181.35
462.829	1174.57
463.201	1197.4
463.574	1201.47
463.947	1217.74
464.32	1222.03
464.692	1243.5
465.065	1243.27
465.438	1258.64
465.81	1268.81
466.183	1304.97
466.555	1277.17
466.928	1323.95
467.3	1278.53
467.672	1346.09
468.045	1337.73
468.417	1365.76
468.789	1341.57
469.161	1346.77
469.534	1386.55
469.906	1417.51
470.278	1428.35
470.65	1428.13
471.022	1444.4
471.394	1469.26
471.766	1489.59
472.138	1525.3
472.51	1511.29
472.882	1526.43
473.253	1549.71
473.625	1572.08
473.997	1608.69
474.369	1619.76
474.74	1633.09
475.112	1639.42
475.484	1650.49
475.855	1698.4
476.227	1714.67
476.598	1734.33
476.97	1772.75
477.341	1794.9
477.713	1817.95
478.084	1837.38
478.455	1882.35
478.827	1901.56
479.198	1920.32
479.569	1930.71
479.94	2000.99
480.311	1996.92
480.682	2024.04
481.053	2073.53
481.424	2091.84
481.795	2120.99
482.166	2152.85
482.537	2127.54
482.908	2199.41
483.279	2233.75
483.65	2245.96
484.021	2311.27
484.391	2308.1
484.762	2315.33
485.133	2358.27
485.503	2379.51
485.874	2447.08
486.244	2458.38
486.615	2485.73
486.985	2509
487.356	2578.83
487.726	2617.93
488.097	2620.19
488.467	2652.5
488.837	2668.32
489.207	2672.39
489.578	2767.07
489.948	2757.81
490.318	2800.29
490.688	2771.14
491.058	2874.87
491.428	2864.25
491.798	2901.31
492.168	2937.69
492.538	2969.78
492.908	3004.58
493.278	3014.3
493.648	3033.28
494.017	3076.44
494.387	3140.17
494.757	3116.44
495.126	3118.25
495.496	3182.66
495.866	3199.38
496.235	3218.59
496.605	3244.8
496.974	3234.63
497.344	3291.58
497.713	3319.15
498.082	3342.88
498.452	3340.62
498.821	3376.32
499.19	3380.84
499.559	3429.43
499.928	3433.72
500.298	3473.95
500.667	3486.83
501.036	3435.76
501.405	3495.87
501.774	3484.57
502.143	3524.57
502.512	3567.73
502.88	3565.7
503.249	3598.92
503.618	3595.53
503.987	3616.09
504.356	3636.66
504.724	3646.37
505.093	3605.47
505.462	3652.7
505.83	3699.7
506.199	3723.66
506.567	3680.27
506.936	3757.1
507.304	3842.75
507.672	3779.25
508.041	3805.69
508.409	3801.62
508.777	3836.88
509.145	3845.24
509.514	3834.84
509.882	3892.47
510.25	3870.55
510.618	3910.55
510.986	3919.36
511.354	3944.67
511.722	3971.34
512.09	3955.97
512.458	3984.9
512.826	3990.32
513.193	4017.44
513.561	4041.39
513.929	4042.97
514.297	4045.01
514.664	4094.95
515.032	4115.74
515.4	4134.04
515.767	4098.56
516.135	4112.8
516.502	4139.69
516.869	4168.39
517.237	4192.8
517.604	4147.6
517.972	4181.73
518.339	4183.99
518.706	4216.3
519.073	4221.73
519.44	4218.79
519.808	4250.65
520.175	4263.53
520.542	4251.78
520.909	4334.94
521.276	4291.55
521.643	4330.87
522.009	4321.16
522.376	4376.07
522.743	4377.65
523.11	4422.17
523.477	4419.46
523.843	4428.5
524.21	4491.55
524.577	4465.33
524.943	4473.92
525.31	4529.74
525.676	4593.69
526.043	4577.42
526.409	4615.39
526.776	4609.74
527.142	4652.45
527.508	4664.88
527.874	4678.89
528.241	4698.1
528.607	4700.13
528.973	4754.14
529.339	4774.25
529.705	4810.86
530.071	4840.01
530.437	4827.13
530.803	4876.17
531.169	4909.62
531.535	4884.53
531.901	4929.5
532.267	4928.15
532.632	4927.7
532.998	4969.28
533.364	5018.54
533.73	5042.27
534.095	5109.61
534.461	5052.89
534.826	5094.92
535.192	5101.48
535.557	5200.23
535.923	5168.37
536.288	5177.86
536.653	5241.59
537.019	5207.46
537.384	5194.81
537.749	5236.16
538.114	5237.52
538.479	5313
538.845	5267.57
539.21	5261.47
539.575	5317.06
539.94	5319.78
540.305	5344.63
540.67	5368.36
541.034	5378.98
541.399	5427.34
541.764	5456.04
542.129	5475.48
542.494	5536.27
542.858	5542.37
543.223	5520
543.587	5561.58
543.952	5592.08
544.316	5614
544.681	5607.9
545.045	5708.24
545.41	5681.12
545.774	5701.69
546.138	5715.47
546.503	5757.96
546.867	5748.92
547.231	5822.36
547.595	5819.65
547.959	5781.01
548.324	5837.73
548.688	5804.51
549.052	5913.21
549.416	5820.55
549.779	5811.97
550.143	5941.91
550.507	5969.25
550.871	5965.63
551.235	5957.27
551.599	5981.45
551.962	6039.3
552.326	6055.12
552.689	6044.05
553.053	6068.23
553.417	6057.16
553.78	6180.09
554.143	6125.18
554.507	6152.75
554.87	6177.83
555.234	6285.85
555.597	6243.82
555.96	6222.8
556.323	6254.44
556.686	6293.08
557.05	6279.52
557.413	6286.98
557.776	6360.43
558.139	6402.46
558.502	6309.58
558.865	6381.89
559.228	6395.91
559.59	6427.54
559.953	6437.49
560.316	6456.24
560.679	6497.37
561.041	6533.3
561.404	6566.97
561.767	6583.47
562.129	6537.82
562.492	6594.54
562.854	6644.94
563.217	6600.87
563.579	6642.9
563.941	6698.04
564.304	6637.48
564.666	6646.75
565.028	6726.52
565.39	6761.55
565.753	6809.45
566.115	6790.47
566.477	6814.88
566.839	6865.72
567.201	6918.15
567.563	6895.33
567.925	6904.82
568.287	6915.44
568.648	6947.98
569.01	6959.96
569.372	6984.36
569.734	7024.36
570.095	7109.11
570.457	7145.26
570.819	7173.29
571.18	7097.58
571.542	7277.24
571.903	7231.36
572.265	7315.66
572.626	7307.29
572.987	7335.54
573.349	7377.8
573.71	7433.62
574.071	7493.5
574.432	7515.88
574.794	7631.8
575.155	7573.05
575.516	7679.49
575.877	7745.25
576.238	7777.56
576.599	7863.66
576.96	7897.79
577.32	7931.91
577.681	8052.36
578.042	8123.77
578.403	8184.33
578.763	8140.72
579.124	8341.84
579.485	8432.01
579.845	8588.16
580.206	8568.73
580.566	8622.51
580.927	8765.33
581.287	8852.56
581.648	9079
582.008	9201.03
582.368	9286.45
582.728	9377.3
583.089	9539.33
583.449	9622.94
583.809	9785.65
584.169	10013.21
584.529	10112.64
584.889	10428.57
585.249	10399.19
585.609	10611.16
585.969	10779.07
586.329	10948.33
586.688	11200.52
587.048	11358.71
587.408	11508.09
587.768	11731.36
588.127	11891.35
588.487	12150.1
588.846	12413.83
589.206	12529.53
589.565	12746.47
589.925	13132.9
590.284	13222.39
590.643	13444.76
591.003	13777.63
591.362	14037.06
591.721	14251.29
592.08	14482.25
592.44	14842.46
592.799	15086.98
593.158	15302.79
593.517	15446.06
593.876	15806.05
594.235	16028.65
594.593	16321.97
594.952	16605.13
595.311	16864.56
595.67	17169.18
596.029	17548.38
596.387	17666.34
596.746	18129.83
597.104	18231.53
597.463	18432.42
597.822	18921.68
598.18	19077.61
598.538	19336.58
598.897	19598.95
599.255	19858.83
599.613	20322.54
599.972	20496.33
600.33	20696.09
600.688	21049.53
601.046	21236.87
601.404	21671.21
601.762	21884.31
602.12	22164.98
602.478	22418.08
602.836	22649.94
603.194	22731.97
603.552	23099.42
603.91	23195.46
604.268	23552.06
604.625	23715
604.983	24048.55
605.341	24200.18
605.698	24615.54
606.056	24772.37
606.413	24956.1
606.771	25187.95
607.128	25526.48
607.485	25562.18
607.843	26007.37
608.2	26226.12
608.557	26422.72
608.914	26542.04
609.272	26764.41
609.629	27105.42
609.986	27363.72
610.343	27416.14
610.7	27700.2
611.057	27934.55
611.414	27916.02
611.771	28275.56
612.127	28482.33
612.484	28570.69
612.841	28792.83
613.198	28904.69
613.554	29043.67
613.911	29499.25
614.267	29499.7
614.624	29554.84
614.98	29858.57
615.337	30007.94
615.693	30226.24
616.05	30014.72
616.406	30494.25
616.762	30577.42
617.118	30713.46
617.475	30822.16
617.831	31019.89
618.187	31171.75
618.543	31380.56
618.899	31529.26
619.255	31648.57
619.611	31708.23
619.967	31933.31
620.323	32094.44
620.678	32200.2
621.034	32077.72
621.39	32137.83
621.746	32329.23
622.101	32793.63
622.457	32630.24
622.812	32787.53
623.168	32795.89
623.523	32931.93
623.879	33109.55
624.234	32899.16
624.589	33103.9
624.945	33252.15
625.3	33297.57
625.655	33285.59
626.01	33527.4
626.365	33579.6
626.72	33608.3
627.075	33748.86
627.43	33701.85
627.785	33635.87
628.14	33785.24
628.495	33822.75
628.85	33799.25
629.205	33798.12
629.559	33987.72
629.914	33833.83
630.269	33971
630.623	33991.56
630.978	33932.36
631.332	34182.07
631.687	34200.15
632.041	34101.17
632.396	34192.91
632.75	34053.71
633.104	34196.53
633.459	34102.3
633.813	34199.02
634.167	34274.04
634.521	34279.47
634.875	34276.75
635.229	34254.38
635.583	34053.94
635.937	34175.29
636.291	34111.56
636.645	34210.09
636.999	34159.02
637.352	34392.46
637.706	34238.56
638.06	34332.57
638.413	34263.87
638.767	34249.64
639.121	34170.09
639.474	34024.33
639.828	34052.35
640.181	34236.98
640.534	34302.97
640.888	34196.76
641.241	33965.12
641.594	34184.33
641.947	34226.36
642.301	34086.02
642.654	34116.31
643.007	34190.65
643.36	34139.81
643.713	34068.62
644.066	34183.65
644.419	34164.89
644.771	33649.88
645.124	33525.36
645.477	33418.02
645.83	33323.11
646.182	33165.14
646.535	33071.59
646.888	33213.96
647.24	32973.74
647.593	33147.52
647.945	33118.37
648.298	32883.57
648.65	32839.28
649.002	32752.5
649.355	33023.68
649.707	33131.7
650.059	33061.64
650.411	33497.34
650.763	33649.43
651.115	33912.92
651.467	33743.66
651.819	33776.65
652.171	33723.32
652.523	33664.57
652.875	33693.94
653.227	33510.9
653.578	33805.81
653.93	33695.53
654.282	33491.46
654.633	33483.78
654.985	33508.64
655.337	33597.45
655.688	33547.51
656.039	33616.21
656.391	33323.11
656.742	33504.12
657.094	33513.38
657.445	33703.66
657.796	33616.43
658.147	33371.02
658.498	33396.1
658.849	33450.34
659.2	33588.41
659.551	33358.59
659.902	33428.19
660.253	33408.53
660.604	33456.89
660.955	33272.49
661.306	33388.42
661.656	33402.88
662.007	33227.29
662.358	33272.71
662.708	33364.91
663.059	33302.54
663.409	33304.58
663.76	33476.78
664.11	33321.75
664.461	33362.43
664.811	33465.7
665.161	33314.52
665.511	33270.9
665.862	33289.66
666.212	33447.62
666.562	33364.46
666.912	33302.77
667.262	33173.05
667.612	33257.57
667.962	33305.03
668.312	33184.13
668.662	33326.04
669.011	33279.04
669.361	33234.75
669.711	33258.02
670.06	33056.9
670.41	33162.21
670.76	33062.55
671.109	33175.09
671.459	33080.63
671.808	33076.11
672.157	33105.26
672.507	33005.6
672.856	32976
673.205	32899.39
673.554	33100.06
673.904	33095.99
674.253	33234.52
674.602	33117.91
674.951	32680.19
675.3	32365.17
675.649	32978.71
675.998	32981.19
676.346	32909.78
676.695	33060.74
677.044	32802.44
677.393	32885.83
677.741	32921.99
678.09	32810.35
678.438	32746.62
678.787	32777.81
679.135	32808.54
679.484	32593.18
679.832	32804.02
680.181	32492.85
680.529	32701.88
680.877	32583.01
681.225	32507.31
681.573	32798.6
681.922	32430.7
682.27	32332.62
682.618	32403.36
682.966	32249.46
683.314	32311.61
683.661	32267.77
684.009	32149.8
684.357	32059.64
684.705	31969.7
685.053	32027.77
685.4	31939.64
685.748	31823.26
686.095	31890.83
686.443	31738.97
686.79	31838.4
687.138	31706.65
687.485	31678.4
687.832	31524.96
688.18	31710.27
688.527	31441.57
688.874	31520.22
689.221	31465.98
689.568	31366.1
689.915	31263.27
690.262	31322.93
690.609	31195.71
690.956	31114.13
691.303	31088.14
691.65	30949.16
691.997	30977.63
692.344	30764.76
692.69	30594.59
693.037	30615.61
693.383	30405.22
693.73	30641.6
694.077	30386.23
694.423	30279.35
694.769	30321.38
695.116	30133.13
695.462	30155.96
695.808	30053.14
696.155	30069.41
696.501	29848.17
696.847	29836.42
697.193	29718.23
697.539	29823.76
697.885	29591.45
698.231	29460.16
698.577	29493.15
698.923	29376.77
699.269	29285.92
699.614	29235.98
699.96	29081.18
700.306	29034.18
700.651	29073.28
700.997	28858.37
701.342	28909.21
701.688	28894.07
702.033	28708.76
702.379	28655.88
702.724	28601.42
703.069	28677.81
703.415	28330.92
703.76	28397.59
704.105	28452.27
704.45	28263.58
704.795	28186.07
705.14	28105.62
705.485	28050.48
705.83	27945.17
706.175	28037.6
706.52	27905.4
706.865	27829.24
707.209	27826.75
707.554	27643.71
707.899	27721.9
708.243	27517.61
708.588	27478.29
708.932	27351.51
709.277	27264.74
709.621	27312.87
709.966	27278.75
710.31	27290.05
710.654	27134.57
710.998	27058.41
711.342	27000.11
711.687	26977.06
712.031	26926.44
712.375	26877.63
712.719	26929.15
713.063	26794.24
713.407	26860.9
713.75	26734.13
714.094	26623.62
714.438	26604.87
714.782	26537.97
715.125	26366.45
715.469	26467.47
715.812	26251.2
716.156	26107.93
716.499	26195.84
716.843	26324.65
717.186	26112.45
717.53	26198.32
717.873	26072.22
718.216	26146.57
718.559	26018.21
718.902	25754.27
719.246	25838.33
719.589	25844.89
719.932	25740.03
720.275	25692.12
720.617	25720.82
720.96	25714.72
721.303	25577.55
721.646	25620.94
721.989	25436.53
722.331	25505.91
722.674	25465.69
723.016	25559.24
723.359	25360.6
723.701	25373.94
724.044	25183.66
724.386	25168.07
724.729	25179.59
725.071	25227.73
725.413	25142.76
725.755	25123.32
726.097	25035.19
726.439	24754.97
726.782	24861.41
727.124	24861.18
727.465	24865.25
727.807	24861.63
728.149	24741.86
728.491	24700.51
728.833	24836.78
729.175	24629.55
729.516	24589.1
729.858	24573.73
730.199	24556.11
730.541	24618.48
730.882	24506.84
731.224	24577.12
731.565	24391.82
731.906	24415.32
732.248	24366.05
732.589	24347.75
732.93	24195.21
733.271	24248.32
733.612	24270.69
733.953	24234.08
734.294	24160.64
734.635	24153.63
734.976	24155.44
735.317	23990.24
735.658	24034.76
735.999	24049
736.339	24006.29
736.68	23959.06
737.021	23835.22
737.361	23795.22
737.702	24025.95
738.042	23859.85
738.383	23784.83
738.723	23800.42
739.063	23615.57
739.404	23726.75
739.744	23641.1
740.084	23624.6
740.424	23711.16
740.764	23478.17
741.104	23604.27
741.444	23439.52
741.784	23422.8
742.124	23428.23
742.464	23452.63
742.804	23322.01
743.143	23324.73
743.483	23329.02
743.823	23249.93
744.162	23189.81
744.502	23283.14
744.841	23143.94
745.181	23190.94
745.52	23168.57
745.86	23136.26
746.199	23122.7
746.538	22926.77
746.877	23110.27
747.216	23087.22
747.556	22964.06
747.895	23040.67
748.234	22844.96
748.573	22845.64
748.911	22782.37
749.25	22753.67
749.589	22712.54
749.928	22754.8
750.267	22762.03
750.605	22637.74
750.944	22636.16
751.283	22595.93
751.621	22652.43
751.96	22511.41
752.298	22463.51
752.636	22488.82
752.975	22366.78
753.313	22296.05
753.651	22377.86
753.989	22265.32
754.327	22233.91
754.666	22063.97
755.004	22165.21
755.342	22121.14
755.679	22049.28
756.017	21990.98
756.355	22048.6
756.693	21941.71
757.031	21894.03
757.368	21798.44
757.706	21696.97
758.044	21690.19
758.381	21742.17
758.719	21614.26
759.056	21660.36
759.394	21462.63
759.731	21288.17
760.068	21283.2
760.405	21184.22
760.743	21284.33
