Data from hue_120_FLMS001491_00055.txt Node
Date: Tue Feb 07 16:59:40 GMT 2017
User: dcchb
Spectrometer: FLMS00149
Trigger mode: 0
Integration Time (sec): 2.000000E-2
Scans to average: 10
Electric dark correction enabled: true
Nonlinearity correction enabled: false
Boxcar width: 0
XAxis mode: Wavelengths
Number of Pixels in Spectrum: 2048
>>>>>Begin Spectral Data<<<<<
341.393	-2.1
341.776	-2.1
342.16	-2.1
342.543	-47.08
342.927	-81.2
343.31	-64.02
343.693	-79.62
344.077	-80.29
344.46	-67.19
344.843	-54.08
345.226	-29.45
345.61	-47.98
345.993	-24.48
346.376	-4.36
346.759	4.45
347.142	27.5
347.525	32.47
347.908	81.96
348.291	76.99
348.674	93.26
349.057	134.84
349.44	118.34
349.823	140.26
350.206	168.06
350.588	177.55
350.971	205.35
351.354	220.04
351.737	236.31
352.119	248.06
352.502	256.65
352.884	249.87
353.267	276.76
353.65	293.03
354.032	294.38
354.414	307.04
354.797	329.19
355.179	320.37
355.562	326.25
355.944	323.76
356.326	345.01
356.709	349.52
357.091	319.24
357.473	338.45
357.855	341.84
358.238	355.63
358.62	351.78
359.002	351.11
359.384	349.3
359.766	335.74
360.148	340.26
360.53	361.73
360.912	327.6
361.294	333.48
361.676	338.23
362.057	333.25
362.439	348.17
362.821	321.28
363.203	329.86
363.584	323.76
363.966	312.46
364.348	342.97
364.729	342.75
365.111	308.85
365.493	314.05
365.874	299.81
366.256	319.02
366.637	316.53
367.019	320.6
367.4	314.27
367.781	328.51
368.163	328.73
368.544	333.03
368.925	296.19
369.306	314.95
369.688	315.4
370.069	333.93
370.45	328.28
370.831	312.01
371.212	291.67
371.593	315.18
371.974	305.46
372.355	317.44
372.736	338.9
373.117	336.19
373.498	332.58
373.879	329.86
374.26	310.43
374.641	327.38
375.021	318.34
375.402	309.53
375.783	330.99
376.163	319.69
376.544	345.23
376.925	326.47
377.305	319.69
377.686	321.95
378.066	335.29
378.447	302.52
378.827	341.39
379.208	335.97
379.588	341.39
379.968	336.64
380.349	324.67
380.729	341.16
381.109	333.71
381.489	323.08
381.87	324.21
382.25	360.6
382.63	331.67
383.01	327.83
383.39	349.52
383.77	347.04
384.15	351.11
384.53	359.24
384.91	328.06
385.29	341.16
385.67	365.57
386.049	345.46
386.429	360.82
386.809	365.12
387.189	365.12
387.568	347.26
387.948	358.79
388.328	377.09
388.707	371.9
389.087	371.67
389.466	354.5
389.846	349.98
390.225	356.3
390.605	368.51
390.984	353.37
391.363	378.68
391.743	369.86
392.122	359.69
392.501	386.13
392.881	387.04
393.26	371.45
393.639	409.41
394.018	380.94
394.397	355.85
394.776	383.42
395.155	390.43
395.534	408.28
395.913	383.65
396.292	385.46
396.671	383.87
397.05	395.17
397.429	401.05
397.808	366.93
398.186	390.2
398.565	385.91
398.944	410.31
399.323	406.47
399.701	415.06
400.08	392.24
400.458	377.32
400.837	410.54
401.215	422.97
401.594	403.99
401.972	405.12
402.351	381.16
402.729	408.73
403.107	410.54
403.486	408.51
403.864	437.88
404.242	416.87
404.62	412.12
404.999	407.15
405.377	429.97
405.755	407.38
406.133	423.2
406.511	407.15
406.889	429.07
407.267	439.69
407.645	439.69
408.023	451.22
408.401	456.87
408.779	450.76
409.156	445.12
409.534	475.4
409.912	438.34
410.29	465
410.667	459.8
411.045	476.08
411.422	452.8
411.8	465.68
412.178	465.23
412.555	474.49
412.933	487.6
413.31	465
413.687	500.26
414.065	503.19
414.442	495.96
414.819	482.85
415.197	485.34
415.574	490.99
415.951	512.01
416.328	503.42
416.705	491.67
417.082	510.88
417.46	514.04
417.837	507.03
418.214	496.87
418.591	518.33
418.967	523.53
419.344	529.41
419.721	516.98
420.098	517.88
420.475	542.74
420.852	530.08
421.228	547.94
421.605	554.27
421.982	536.41
422.358	576.86
422.735	537.99
423.111	552.01
423.488	565.11
423.864	568.5
424.241	575.06
424.617	561.72
424.994	550.2
425.37	550.65
425.746	551.1
426.123	559.01
426.499	587.48
426.875	575.96
427.251	600.82
427.627	593.36
428.003	602.85
428.379	592.68
428.756	617.54
429.132	621.83
429.507	623.42
429.883	622.96
430.259	632.23
430.635	647.14
431.011	630.42
431.387	659.12
431.763	634.49
432.138	647.82
432.514	682.85
432.89	681.27
433.265	653.7
433.641	675.62
434.016	652.79
434.392	663.64
434.767	689.85
435.143	686.01
435.518	714.26
435.894	686.92
436.269	714.26
436.644	723.98
437.02	730.08
437.395	721.72
437.77	742.96
438.145	741.15
438.52	757.88
438.895	722.85
439.271	762.62
439.646	771.21
440.021	758.33
440.395	769.4
440.77	766.24
441.145	761.72
441.52	783.19
441.895	793.13
442.27	789.06
442.645	816.18
443.019	803.3
443.394	798.33
443.769	821.6
444.143	772.56
444.518	813.69
444.892	835.39
445.267	825.9
445.641	833.13
446.016	855.95
446.39	839.46
446.764	851.43
447.139	836.29
447.513	881.49
447.887	861.15
448.262	867.48
448.636	878.1
449.01	862.73
449.384	886.46
449.758	923.97
450.132	881.49
450.506	894.6
450.88	912.45
451.254	882.84
451.628	935.27
452.002	932.79
452.376	918.32
452.75	922.39
453.123	957.87
453.497	971.2
453.871	989.28
454.244	996.29
454.618	990.64
454.992	990.86
455.365	1031.99
455.739	1019.11
456.112	1025.67
456.486	1024.54
456.859	1064.53
457.232	1074.48
457.606	1059.79
457.979	1061.37
458.352	1081.71
458.725	1111.76
459.099	1096.17
459.472	1109.05
459.845	1152.44
460.218	1156.96
460.591	1147.24
460.964	1168.49
461.337	1201.93
461.71	1198.54
462.083	1222.95
462.456	1227.02
462.829	1224.3
463.201	1246.22
463.574	1270.4
463.947	1266.34
464.32	1303.85
464.692	1349.27
465.065	1351.08
465.438	1389.72
465.81	1367.58
466.183	1368.03
466.555	1425.43
466.928	1419.55
467.3	1444.41
467.672	1464.07
468.045	1527.12
468.417	1511.08
468.789	1546.78
469.161	1533.22
469.534	1581.58
469.906	1611.41
470.278	1625.88
470.65	1633.56
471.022	1686.66
471.394	1740.22
471.766	1755.36
472.138	1799.66
472.51	1812.99
472.882	1847.79
473.253	1865.42
473.625	1911.74
473.997	1975.24
474.369	2012.76
474.74	2006.66
475.112	2091.63
475.484	2146.31
475.855	2205.3
476.227	2224.5
476.598	2288.46
476.97	2312.64
477.341	2391.96
477.713	2459.07
478.084	2504.27
478.455	2575.23
478.827	2612.29
479.198	2731.83
479.569	2742.91
479.94	2867.42
480.311	2899.29
480.682	3029.45
481.053	3059.51
481.424	3204.14
481.795	3239.84
482.166	3344.47
482.537	3369.33
482.908	3554.64
483.279	3555.77
483.65	3714.86
484.021	3839.15
484.391	3894.06
484.762	4028.52
485.133	4080.95
485.503	4142.87
485.874	4296.99
486.244	4368.18
486.615	4484.11
486.985	4611.79
487.356	4780.59
487.726	4878.45
488.097	5032.34
488.467	5073.02
488.837	5225.1
489.207	5390.07
489.578	5534.47
489.948	5586
490.318	5770.85
490.688	5845.88
491.058	6020.79
491.428	6145.53
491.798	6270.27
492.168	6498.97
492.538	6481.79
492.908	6669.13
493.278	6812.41
493.648	6881.78
494.017	7061.89
494.387	7157.93
494.757	7266.18
495.126	7434.08
495.496	7543.46
495.866	7639.73
496.235	7749.1
496.605	7907.07
496.974	8031.36
497.344	8134.63
497.713	8166.95
498.082	8361.97
498.452	8493.94
498.821	8538.46
499.19	8592.25
499.559	8725.12
499.928	8820.04
500.298	8949.3
500.667	9080.37
501.036	9118.56
501.405	9298.44
501.774	9257.09
502.143	9447.36
502.512	9538.44
502.88	9655.95
503.249	9683.52
503.618	9790.41
503.987	9893.68
504.356	9869.05
504.724	9952.89
505.093	10063.17
505.462	10174.13
505.83	10227.01
506.199	10259.32
506.567	10427.68
506.936	10417.73
507.304	10633.1
507.672	10605.07
508.041	10669.48
508.409	10807.33
508.777	10938.85
509.145	10922.81
509.514	10951.28
509.882	11053.2
510.25	11082.8
510.618	11078.51
510.986	11143.37
511.354	11283.93
511.722	11319.18
512.09	11443.7
512.458	11438.5
512.826	11501.32
513.193	11476.69
513.561	11636.23
513.929	11600.75
514.297	11770.92
514.664	11799.85
515.032	11761.43
515.4	11894.31
515.767	11885.49
516.135	11997.81
516.502	11801.43
516.869	12056.79
517.237	12023.34
517.604	11967.3
517.972	12091.81
518.339	12141.08
518.706	12200.06
519.073	12200.96
519.44	12274.86
519.808	12379.04
520.175	12264.69
520.542	12342.2
520.909	12422.65
521.276	12386.04
521.643	12430.56
522.009	12476.89
522.376	12600.28
522.743	12529.77
523.11	12636.21
523.477	12706.49
523.843	12659.71
524.21	12784.68
524.577	12888.86
524.943	12827.16
525.31	12952.13
525.676	12918.91
526.043	12961.17
526.409	13000.49
526.776	13020.6
527.142	12982.86
527.508	12988.51
527.874	13175.18
528.241	13110.09
528.607	13053.6
528.973	13172.69
529.339	13087.72
529.705	13144.67
530.071	13182.41
530.437	13153.48
530.803	13187.61
531.169	13226.47
531.535	13147.15
531.901	13073.26
532.267	13090.88
532.632	13203.88
532.998	13133.37
533.364	13129.75
533.73	13056.54
534.095	13110.32
534.461	13219.92
534.826	13181.5
535.192	13182.86
535.557	13173.59
535.923	13048.17
536.288	13014.95
536.653	13027.84
537.019	13088.17
537.384	12955.75
537.749	13021.28
538.114	12940.38
538.479	12845.92
538.845	12910.78
539.21	12844.56
539.575	12838.91
539.94	12895.86
540.305	12838.01
540.67	12727.05
541.034	12782.42
541.399	12772.93
541.764	12738.58
542.129	12759.82
542.494	12684.57
542.858	12639.82
543.223	12621.29
543.587	12605.47
543.952	12511.69
544.316	12586.49
544.681	12476.21
545.045	12455.87
545.41	12491.35
545.774	12541.29
546.138	12404.57
546.503	12373.39
546.867	12373.16
547.231	12305.59
547.595	12319.83
547.959	12340.4
548.324	12313.96
548.688	12237.12
549.052	12262.21
549.416	12202.55
549.779	12084.36
550.143	12108.99
550.507	12147.63
550.871	12077.58
551.235	12091.14
551.599	12046.62
551.962	12101.08
552.326	12050.69
552.689	12005.94
553.053	11954.19
553.417	11949.22
553.78	11957.58
554.143	11955.1
554.507	11947.64
554.87	11850.47
555.234	11909.22
555.597	11825.38
555.96	11858.83
556.323	11890.01
556.686	11740.19
557.05	11845.04
557.413	11872.39
557.776	11863.57
558.139	11790.81
558.502	11827.64
558.865	11778.6
559.228	11801.43
559.59	11854.31
559.953	11767.3
560.316	11866.51
560.679	11788.55
561.041	11857.7
561.404	11819.51
561.767	11884.36
562.129	11759.62
562.492	11876
562.854	11831.93
563.217	11798.26
563.579	11865.61
563.941	11864.7
564.304	11848.43
564.666	11960.52
565.028	11854.31
565.39	11823.35
565.753	11898.83
566.115	11919.62
566.477	11924.59
566.839	11920.52
567.201	12017.92
567.563	11967.07
567.925	12033.96
568.287	11999.61
568.648	11975.43
569.01	11980.63
569.372	12075.09
569.734	12036.68
570.095	12141.98
570.457	12083.68
570.819	12140.18
571.18	12083.91
571.542	12209.33
571.903	12124.13
572.265	12142.43
572.626	12168.65
572.987	12122.1
573.349	12177.46
573.71	12149.44
574.071	12183.34
574.432	12191.7
574.794	12303.33
575.155	12253.84
575.516	12168.2
575.877	12239.61
576.238	12255.2
576.599	12275.09
576.96	12258.59
577.32	12260.85
577.681	12229.89
578.042	12295.65
578.403	12243.68
578.763	12264.01
579.124	12285.48
579.485	12278.02
579.845	12335.2
580.206	12374.52
580.566	12315.54
580.927	12309.44
581.287	12379.49
581.648	12273.28
582.008	12355.08
582.368	12339.72
582.728	12310.79
583.089	12254.97
583.449	12270.79
583.809	12305.14
584.169	12313.28
584.529	12293.17
584.889	12376.1
585.249	12275.54
585.609	12180.85
585.969	12311.47
586.329	12231.02
586.688	12258.36
587.048	12240.29
587.408	12111.7
587.768	12170.68
588.127	12209.33
588.487	12172.72
588.846	12240.96
589.206	12132.49
589.565	12097.01
589.925	12190.8
590.284	12078.26
590.643	12024.92
591.003	12169.33
591.362	12161.64
591.721	12102.44
592.08	12086.39
592.44	12087.07
592.799	12116.22
593.158	12127.75
593.517	12134.07
593.876	12098.59
594.235	12075.77
594.593	12080.29
594.952	12120.06
595.311	12055.21
595.67	12104.47
596.029	12152.15
596.387	12165.49
596.746	12093.85
597.104	12006.85
597.463	12025.6
597.822	12011.36
598.18	12012.72
598.538	11995.77
598.897	12094.75
599.255	11947.86
599.613	12052.72
599.972	12030.12
600.33	12044.81
600.688	12004.36
601.046	12035.09
601.404	12052.04
601.762	11976.11
602.12	12097.69
602.478	12034.42
602.836	12110.12
603.194	11984.92
603.552	12002.55
603.91	11977.92
604.268	12068.31
604.625	11945.6
604.983	12032.38
605.341	11992.61
605.698	12034.19
606.056	12052.04
606.413	12094.53
606.771	12160.74
607.128	12055.43
607.485	11967.07
607.843	12129.78
608.2	12073.51
608.557	12162.77
608.914	12029.9
609.272	12078.26
609.629	12170.68
609.986	12182.89
610.343	12148.31
610.7	12164.36
611.057	12192.83
611.414	12166.62
611.771	12151.7
612.127	12237.12
612.484	12183.11
612.841	12168.42
613.198	12125.94
613.554	12177.69
613.911	12258.36
614.267	12218.14
614.624	12214.75
614.98	12339.27
615.337	12347.63
615.693	12327.97
616.05	12317.35
616.406	12387.4
616.762	12323.67
617.118	12336.1
617.475	12360.51
617.831	12331.58
618.187	12362.54
618.543	12321.87
618.899	12378.81
619.255	12365.93
619.611	12328.19
619.967	12424.01
620.323	12416.55
620.678	12407.74
621.034	12336.33
621.39	12394.63
621.746	12376.55
622.101	12456.1
622.457	12363.9
622.812	12474.18
623.168	12499.26
623.523	12443.22
623.879	12497.45
624.234	12331.81
624.589	12435.53
624.945	12414.74
625.3	12523.22
625.655	12414.74
626.01	12385.82
626.365	12374.52
626.72	12467.62
627.075	12304.46
627.43	12362.99
627.785	12377.46
628.14	12341.75
628.495	12385.14
628.85	12250.45
629.205	12384.46
629.559	12381.52
629.914	12268.53
630.269	12371.58
630.623	12303.33
630.978	12292.71
631.332	12288.65
631.687	12326.16
632.041	12251.13
632.396	12339.04
632.75	12241.87
633.104	12298.14
633.459	12144.24
633.813	12188.99
634.167	12113.51
634.521	12176.33
634.875	12213.85
635.229	12215.88
635.583	12119.61
635.937	12120.06
636.291	12065.6
636.645	12129.78
636.999	12065.37
637.352	12104.47
637.706	12030.8
638.06	12048.65
638.413	12127.52
638.767	12009.33
639.121	12071.25
639.474	11941.99
639.828	11936.79
640.181	11919.39
640.534	11927.53
640.888	11879.84
641.241	11855.89
641.594	11908.32
641.947	11885.49
642.301	11937.24
642.654	11956.68
643.007	11875.55
643.36	11833.06
643.713	11845.72
644.066	11866.06
644.419	11888.66
644.771	11731.15
645.124	11616.35
645.477	11573.86
645.83	11492.06
646.182	11502.9
646.535	11467.42
646.888	11497.93
647.24	11450.25
647.593	11552.39
647.945	11542.22
648.298	11520.08
648.65	11389.01
649.002	11486.41
649.355	11449.35
649.707	11466.52
650.059	11522.79
650.411	11631.71
650.763	11624.93
651.115	11648.21
651.467	11697.47
651.819	11676.91
652.171	11645.72
652.523	11659.06
652.875	11700.19
653.227	11582.22
653.578	11653.41
653.93	11663.8
654.282	11687.98
654.633	11682.79
654.985	11657.7
655.337	11673.29
655.688	11732.95
656.039	11751.71
656.391	11661.32
656.742	11699.73
657.094	11652.28
657.445	11709.23
657.796	11700.19
658.147	11685.72
658.498	11654.54
658.849	11745.38
659.2	11717.81
659.551	11666.97
659.902	11692.05
660.253	11726.63
660.604	11675.78
660.955	11697.93
661.306	11683.92
661.656	11713.29
662.007	11752.84
662.358	11749.68
662.708	11765.27
663.059	11768.43
663.409	11723.91
663.76	11759.62
664.11	11742.67
664.461	11819.51
664.811	11761.43
665.161	11783.57
665.511	11757.36
665.862	11749.22
666.212	11835.1
666.562	11854.53
666.912	11749.68
667.262	11735.89
667.612	11774.99
667.962	11776.12
668.312	11736.8
668.662	11726.63
669.011	11722.33
669.361	11674.2
669.711	11745.84
670.06	11716.01
670.41	11733.41
670.76	11664.93
671.109	11730.69
671.459	11735.89
671.808	11713.97
672.157	11758.94
672.507	11655.22
672.856	11645.5
673.205	11661.32
673.554	11685.95
673.904	11695.89
674.253	11702.22
674.602	11561.21
674.951	11499.97
675.3	11382.68
675.649	11638.27
675.998	11605.95
676.346	11628.1
676.695	11548.1
677.044	11498.16
677.393	11544.71
677.741	11490.25
678.09	11496.12
678.438	11449.12
678.787	11523.02
679.135	11419.52
679.484	11405.51
679.832	11468.33
680.181	11345.85
680.529	11430.82
680.877	11358.27
681.225	11284.6
681.573	11427.2
681.922	11337.71
682.27	11252.51
682.618	11226.98
682.966	11262.01
683.314	11276.24
683.661	11187.66
684.009	11152.63
684.357	11095
684.705	11086.42
685.053	11117.6
685.4	11104.27
685.748	11056.59
686.095	11013.2
686.443	10959.87
686.79	10932.3
687.138	11004.16
687.485	11037.38
687.832	10986.76
688.18	10929.81
688.527	10773.66
688.874	10936.36
689.221	10799.65
689.568	10830.15
689.915	10743.6
690.262	10721.91
690.609	10743.83
690.956	10699.08
691.303	10650.95
691.65	10612.98
691.997	10671.29
692.344	10519.43
692.69	10545.87
693.037	10488.02
693.383	10374.8
693.73	10425.42
694.077	10394.01
694.423	10391.52
694.769	10366.66
695.116	10289.15
695.462	10335.7
695.808	10244.86
696.155	10243.95
696.501	10130.51
696.847	10226.55
697.193	10115.82
697.539	10087.12
697.885	10039.44
698.231	10003.73
698.577	9960.12
698.923	9973
699.269	9897.75
699.614	9886.9
699.96	9855.04
700.306	9782.95
700.651	9754.02
700.997	9760.12
701.342	9781.14
701.688	9686.45
702.033	9666.57
702.379	9695.49
702.724	9596.97
703.069	9620.24
703.415	9467.48
703.76	9469.51
704.105	9524.2
704.45	9452.11
704.795	9384.77
705.14	9300.02
705.485	9284.66
705.83	9356.07
706.175	9326.69
706.52	9243.98
706.865	9194.04
707.209	9192
707.554	9210.53
707.899	9161.72
708.243	9135.51
708.588	9118.33
708.932	9044.66
709.277	9061.61
709.621	9060.48
709.966	8996.08
710.31	9034.72
710.654	8937.77
710.998	8936.87
711.342	9031.1
711.687	8908.85
712.031	8909.07
712.375	8853.26
712.719	8814.61
713.063	8880.37
713.407	8846.93
713.75	8816.87
714.094	8794.73
714.438	8775.52
714.782	8669.08
715.125	8712.02
715.469	8760.15
715.812	8661.4
716.156	8626.14
716.499	8591.34
716.843	8613.71
717.186	8546.15
717.53	8604.22
717.873	8644.9
718.216	8601.06
718.559	8534.39
718.902	8542.53
719.246	8517.22
719.589	8489.42
719.932	8491.68
720.275	8582.08
720.617	8469.99
720.96	8505.02
721.303	8462.53
721.646	8471.8
721.989	8373.95
722.331	8461.63
722.674	8399.26
723.016	8442.19
723.359	8455.3
723.701	8392.03
724.044	8368.75
724.386	8314.96
724.729	8316.55
725.071	8389.09
725.413	8329.65
725.755	8338.92
726.097	8332.14
726.439	8257.57
726.782	8294.17
727.124	8299.15
727.465	8237.68
727.807	8272.48
728.149	8234.74
728.491	8257.11
728.833	8270.67
729.175	8318.81
729.516	8246.04
729.858	8273.16
730.199	8290.11
730.541	8218.02
730.882	8259.6
731.224	8244.23
731.565	8228.19
731.906	8293.27
732.248	8235.19
732.589	8198.58
732.93	8195.19
733.271	8161.75
733.612	8196.32
733.953	8215.08
734.294	8216.21
734.635	8230.22
734.976	8196.78
735.317	8180.51
735.658	8201.07
735.999	8170.56
736.339	8213.95
736.68	8217.57
737.021	8192.48
737.361	8169.43
737.702	8277
738.042	8239.26
738.383	8165.59
738.723	8298.24
739.063	8272.48
739.404	8282.42
739.744	8249.2
740.084	8250.33
740.424	8239.71
740.764	8204.69
741.104	8329.2
741.444	8373.04
741.784	8281.52
742.124	8343.66
742.464	8308.19
742.804	8334.63
743.143	8365.59
743.483	8415.98
743.823	8417.79
744.162	8424.79
744.502	8472.7
744.841	8501.17
745.181	8572.13
745.52	8525.58
745.86	8603.32
746.199	8590.89
746.538	8626.82
746.877	8644
747.216	8737.55
747.556	8713.37
747.895	8835.63
748.234	8793.6
748.573	8842.41
748.911	8896.42
749.25	9052.8
749.589	9006.7
749.928	9172.34
750.267	9162.85
750.605	9206.24
750.944	9294.83
751.283	9317.65
751.621	9526.91
751.96	9518.55
752.298	9607.59
752.636	9719
752.975	9796.28
753.313	9836.96
753.651	9999.44
753.989	10107.69
754.327	10137.52
754.666	10189.72
755.004	10391.75
755.342	10481.46
755.679	10633.32
756.017	10649.82
756.355	10902.02
756.693	10937.72
757.031	11142.91
757.368	11211.16
757.706	11364.83
758.044	11501.77
758.381	11615.9
758.719	11842.56
759.056	11907.64
759.394	11977.92
759.731	12225.82
