Data from hue_150_FLMS001491_00095.txt Node
Date: Tue Feb 07 16:54:48 GMT 2017
User: dcchb
Spectrometer: FLMS00149
Trigger mode: 0
Integration Time (sec): 2.000000E-2
Scans to average: 10
Electric dark correction enabled: true
Nonlinearity correction enabled: false
Boxcar width: 0
XAxis mode: Wavelengths
Number of Pixels in Spectrum: 2048
>>>>>Begin Spectral Data<<<<<
341.393	-10.96
341.776	-10.96
342.16	-10.96
342.543	-72.2
342.927	-72.88
343.31	-80.79
343.693	-59.32
344.077	-52.32
344.46	-64.52
344.843	-63.39
345.226	-34.46
345.61	-35.82
345.993	-32.2
346.376	-2.82
346.759	2.37
347.142	48.47
347.525	36.27
347.908	56.38
348.291	81.01
348.674	80.79
349.057	120.34
349.44	136.83
349.823	135.7
350.206	170.05
350.588	206.21
350.971	194.01
351.354	221.8
351.737	238.07
352.119	225.19
352.502	257.73
352.884	256.15
353.267	261.12
353.65	291.63
354.032	298.86
354.414	295.92
354.797	299.09
355.179	323.72
355.562	311.07
355.944	327.79
356.326	321.91
356.709	329.37
357.091	339.09
357.473	322.36
357.855	333.21
358.238	332.31
358.62	327.56
359.002	323.72
359.384	338.86
359.766	321.46
360.148	327.79
360.53	322.14
360.912	331.4
361.294	324.4
361.676	335.47
362.057	321.23
362.439	325.98
362.821	315.36
363.203	334.57
363.584	345.19
363.966	300.22
364.348	318.75
364.729	326.66
365.111	310.61
365.493	320.78
365.874	294.12
366.256	301.57
366.637	307.22
367.019	306.55
367.4	329.82
367.781	311.97
368.163	325.98
368.544	290.95
368.925	299.99
369.306	284.17
369.688	278.07
370.069	296.6
370.45	303.83
370.831	306.09
371.212	309.26
371.593	316.04
371.974	304.29
372.355	304.74
372.736	316.26
373.117	287.34
373.498	278.3
373.879	303.83
374.26	309.94
374.641	299.99
375.021	309.03
375.402	280.33
375.783	330.95
376.163	301.57
376.544	324.85
376.925	333.44
377.305	326.43
377.686	316.94
378.066	303.38
378.447	289.82
378.827	333.66
379.208	307.22
379.588	339.77
379.968	328.92
380.349	309.48
380.729	309.03
381.109	347.67
381.489	329.6
381.87	315.58
382.25	344.96
382.63	357.39
383.01	316.26
383.39	334.57
383.77	335.92
384.15	330.95
384.53	332.31
384.91	344.51
385.29	323.27
385.67	325.3
386.049	329.6
386.429	332.31
386.809	353.78
387.189	334.79
387.568	312.87
387.948	337.28
388.328	348.13
388.707	340.67
389.087	336.6
389.466	354.45
389.846	340.44
390.225	358.97
390.605	349.71
390.984	358.97
391.363	355.36
391.743	357.84
392.122	341.8
392.501	373.44
392.881	351.97
393.26	361.01
393.639	360.56
394.018	340.44
394.397	380.89
394.776	349.26
395.155	359.2
395.534	373.89
395.913	388.58
396.292	342.25
396.671	382.93
397.05	374.79
397.429	374.34
397.808	387.22
398.186	372.53
398.565	362.59
398.944	389.71
399.323	377.73
399.701	390.39
400.08	384.96
400.458	388.58
400.837	383.61
401.215	368.24
401.594	382.48
401.972	393.32
402.351	389.26
402.729	377.28
403.107	384.06
403.486	400.1
403.864	382.93
404.242	392.65
404.62	390.61
404.999	389.48
405.377	410.5
405.755	377.73
406.133	420.89
406.511	394.9
406.889	412.08
407.267	419.99
407.645	406.88
408.023	407.33
408.401	433.1
408.779	418.41
409.156	426.09
409.534	407.56
409.912	415.92
410.29	434.9
410.667	423.15
411.045	437.16
411.422	436.71
411.8	415.24
412.178	456.6
412.555	425.64
412.933	454.11
413.31	450.72
413.687	449.37
414.065	463.83
414.442	445.75
414.819	456.15
415.197	455.47
415.574	459.99
415.951	473.77
416.328	478.74
416.705	482.59
417.082	487.78
417.46	438.52
417.837	481.46
418.214	474.22
418.591	485.52
418.967	492.76
419.344	492.08
419.721	477.61
420.098	509.03
420.475	505.64
420.852	506.77
421.228	506.54
421.605	520.55
421.982	503.15
422.358	510.38
422.735	520.55
423.111	518.74
423.488	530.72
423.864	521.23
424.241	542.7
424.617	522.13
424.994	521
425.37	535.92
425.746	531.85
426.123	549.7
426.499	537.73
426.875	547.67
427.251	569.82
427.627	568.69
428.003	561
428.379	573.43
428.756	580.21
429.132	584.05
429.507	562.36
429.883	577.5
430.259	591.51
430.635	594
431.011	604.16
431.387	610.27
431.763	613.66
432.138	603.94
432.514	637.16
432.89	619.53
433.265	630.15
433.641	613.66
434.016	659.53
434.392	653.66
434.767	680.1
435.143	648.01
435.518	665.41
435.894	659.98
436.269	669.02
436.644	668.34
437.02	674.45
437.395	666.08
437.77	684.84
438.145	690.04
438.52	704.28
438.895	707.21
439.271	699.08
439.646	713.77
440.021	739.08
440.395	731.39
440.77	727.78
441.145	726.2
441.52	744.27
441.895	742.01
442.27	762.13
442.645	772.75
443.019	738.4
443.394	751.73
443.769	750.15
444.143	787.44
444.518	782.01
444.892	776.59
445.267	791.73
445.641	773.88
446.016	791.05
446.39	791.05
446.764	787.89
447.139	807.78
447.513	811.62
447.887	828.34
448.262	815.46
448.636	806.42
449.01	864.05
449.384	838.06
449.758	848.45
450.132	851.16
450.506	844.38
450.88	867.21
451.254	839.19
451.628	865.4
452.002	850.94
452.376	880.09
452.75	885.29
453.123	928
453.497	909.02
453.871	930.94
454.244	906.08
454.618	937.49
454.992	947.66
455.365	939.98
455.739	973.65
456.112	984.04
456.486	993.76
456.859	973.19
457.232	1024.94
457.606	1022.68
457.979	1035.79
458.352	1029.69
458.725	1032.63
459.099	1056.36
459.472	1058.16
459.845	1074.44
460.218	1090.48
460.591	1135.9
460.964	1094.55
461.337	1129.57
461.71	1151.95
462.083	1160.99
462.456	1185.62
462.829	1173.64
463.201	1200.31
463.574	1209.8
463.947	1229.23
464.32	1253.41
464.692	1248.22
465.065	1294.77
465.438	1288.67
465.81	1313.3
466.183	1337.93
466.555	1342.9
466.928	1356.24
467.3	1392.17
467.672	1413.18
468.045	1445.95
468.417	1435.1
468.789	1466.52
469.161	1487.53
469.534	1490.24
469.906	1565.27
470.278	1600.3
470.65	1606.62
471.022	1634.65
471.394	1663.12
471.766	1690.46
472.138	1717.81
472.51	1741.54
472.882	1789.22
473.253	1836.22
473.625	1867.41
473.997	1894.98
474.369	1975.2
474.74	1963.68
475.112	2007.07
475.484	2047.74
475.855	2139.27
476.227	2131.13
476.598	2238.47
476.97	2256.1
477.341	2314.4
477.713	2385.36
478.084	2438.01
478.455	2485.92
478.827	2564.11
479.198	2682.08
479.569	2695.41
479.94	2779.7
480.311	2865.35
480.682	2910.32
481.053	3018.34
481.424	3087.26
481.795	3211.78
482.166	3227.82
482.537	3345.11
482.908	3482.28
483.279	3512.11
483.65	3608.61
484.021	3735.61
484.391	3856.28
484.762	3881.37
485.133	3974.25
485.503	4052.89
485.874	4214.01
486.244	4333.11
486.615	4420.79
486.985	4527
487.356	4642.48
487.726	4731.29
488.097	4898.29
488.467	4948.23
488.837	5110.49
489.207	5227.32
489.578	5375.56
489.948	5460.99
490.318	5590.93
490.688	5669.12
491.058	5865.72
491.428	5990.24
491.798	6073.85
492.168	6246.73
492.538	6349.78
492.908	6481.75
493.278	6655.08
493.648	6701.63
494.017	6863.44
494.387	6987.73
494.757	7070.89
495.126	7161.96
495.496	7300.26
495.866	7364.67
496.235	7535.28
496.605	7636.52
496.974	7705.9
497.344	7862.28
497.713	7931.2
498.082	8069.51
498.452	8193.34
498.821	8248.48
499.19	8342.94
499.559	8431.08
499.928	8563.05
500.298	8636.04
500.667	8776.83
501.036	8817.51
501.405	8973.44
501.774	8947.67
502.143	8978.86
502.512	9120.1
502.88	9275.12
503.249	9325.07
503.618	9386.53
503.987	9404.84
504.356	9476.25
504.724	9655.23
505.093	9662.91
505.462	9796.47
505.83	9845.05
506.199	9936.12
506.567	9997.59
506.936	10069.68
507.304	10148.32
507.672	10160.07
508.041	10199.39
508.409	10306.28
508.777	10380.63
509.145	10385.6
509.514	10422.89
509.882	10514.86
510.25	10542.43
510.618	10566.16
510.986	10638.48
511.354	10737.23
511.722	10784.46
512.09	10944.68
512.458	10826.95
512.826	10939.94
513.193	10946.94
513.561	10998.69
513.929	11053.61
514.297	11170.44
514.664	11241.17
515.032	11162.08
515.4	11271.68
515.767	11228.74
516.135	11325.69
516.502	11226.48
516.869	11468.51
517.237	11410.21
517.604	11293.15
517.972	11449.53
518.339	11454.5
518.706	11455.86
519.073	11498.12
519.44	11494.73
519.808	11621.73
520.175	11504.44
520.542	11720.93
520.909	11667.38
521.276	11586.93
521.643	11779.01
522.009	11761.61
522.376	11824.43
522.743	11797.32
523.11	11842.29
523.477	11957.54
523.843	11940.14
524.21	12047.93
524.577	11983.75
524.943	12106.01
525.31	12015.39
525.676	12071.21
526.043	12101.26
526.409	12183.07
526.776	12218.32
527.142	12186.46
527.508	12200.24
527.874	12185.78
528.241	12247.7
528.607	12183.3
528.973	12324.53
529.339	12152.11
529.705	12231.66
530.071	12282.28
530.437	12260.58
530.803	12297.19
531.169	12243.41
531.535	12139.45
531.901	12248.15
532.267	12248.15
532.632	12224.2
532.998	12192.11
533.364	12212.45
533.73	12281.37
534.095	12237.53
534.461	12198.89
534.826	12189.17
535.192	12185.1
535.557	12175.39
535.923	12090.87
536.288	12104.65
536.653	12116.4
537.019	11960.25
537.384	12024.2
537.749	12007.71
538.114	12001.61
538.479	11893.36
538.845	11902.4
539.21	11883.42
539.575	11860.37
539.94	11779.69
540.305	11853.81
540.67	11763.42
541.034	11795.74
541.399	11731.1
541.764	11712.35
542.129	11655.85
542.494	11570.2
542.858	11616.3
543.223	11569.75
543.587	11618.11
543.952	11490.88
544.316	11540.37
544.681	11421.28
545.045	11443.2
545.41	11438.23
545.774	11356.65
546.138	11303.77
546.503	11312.81
546.867	11242.98
547.231	11326.37
547.595	11264.68
547.959	11217.45
548.324	11224.22
548.688	11083.21
549.052	11113.95
549.416	11064.23
549.779	10963.21
550.143	11031.69
550.507	10979.49
550.871	10963.89
551.235	10906.49
551.599	11009.77
551.962	10906.04
552.326	10827.62
552.689	10882.09
553.053	10767.74
553.417	10733.16
553.78	10827.62
554.143	10730.23
554.507	10800.73
554.87	10713.5
555.234	10720.96
555.597	10694.97
555.96	10726.61
556.323	10692.04
556.686	10649.78
557.05	10659.49
557.413	10602.09
557.776	10595.54
558.139	10571.81
558.502	10624.47
558.865	10591.47
559.228	10596.67
559.59	10598.48
559.953	10581.76
560.316	10610.91
560.679	10538.59
561.041	10645.48
561.404	10566.39
561.767	10623.11
562.129	10552.83
562.492	10672.83
562.854	10652.49
563.217	10652.04
563.579	10552.38
563.941	10608.87
564.304	10657.23
564.666	10610.23
565.028	10689.55
565.39	10621.08
565.753	10630.12
566.115	10647.29
566.477	10719.83
566.839	10589.44
567.201	10668.99
567.563	10692.71
567.925	10701.3
568.287	10655.65
568.648	10751.92
569.01	10684.8
569.372	10735.2
569.734	10759.38
570.095	10725.93
570.457	10787.17
570.819	10771.13
571.18	10778.13
571.542	10816.55
571.903	10714.86
572.265	10745.14
572.626	10805.03
572.987	10789.43
573.349	10829.88
573.71	10782.43
574.071	10920.5
574.432	10881.63
574.794	10890
575.155	10820.39
575.516	10863.33
575.877	10756.44
576.238	10915.53
576.599	10887.74
576.96	10849.55
577.32	10911.69
577.681	10885.7
578.042	10820.85
578.403	10946.49
578.763	10901.75
579.124	10853.61
579.485	10964.57
579.845	10920.5
580.206	10906.27
580.566	10874.4
580.927	10905.36
581.287	10888.87
581.648	10897.23
582.008	10845.25
582.368	10861.75
582.728	10853.84
583.089	10832.82
583.449	10840.05
583.809	10862.65
584.169	10892.03
584.529	10861.52
584.889	10858.36
585.249	10773.16
585.609	10800.73
585.969	10853.16
586.329	10732.71
586.688	10813.39
587.048	10763.22
587.408	10674.86
587.768	10724.35
588.127	10744.24
588.487	10643.9
588.846	10788.53
589.206	10622.21
589.565	10658.82
589.925	10754.86
590.284	10683
590.643	10647.29
591.003	10670.11
591.362	10752.6
591.721	10687.74
592.08	10710.11
592.44	10667.86
592.799	10715.76
593.158	10664.01
593.517	10617.23
593.876	10662.88
594.235	10628.53
594.593	10629.66
594.952	10708.76
595.311	10580.4
595.67	10624.69
596.029	10641.42
596.387	10709.89
596.746	10633.73
597.104	10568.65
597.463	10567.74
597.822	10589.21
598.18	10618.59
598.538	10605.03
598.897	10686.84
599.255	10546.95
599.613	10688.19
599.972	10581.08
600.33	10710.79
600.688	10508.54
601.046	10641.42
601.404	10614.3
601.762	10570.46
602.12	10629.89
602.478	10595.54
602.836	10571.13
603.194	10550.8
603.552	10604.35
603.91	10573.17
604.268	10598.25
604.625	10532.04
604.983	10622.88
605.341	10560.29
605.698	10529.55
606.056	10602.32
606.413	10611.36
606.771	10648.65
607.128	10614.98
607.485	10572.26
607.843	10564.58
608.2	10556.67
608.557	10693.62
608.914	10601.42
609.272	10596.9
609.629	10664.01
609.986	10637.12
610.343	10551.7
610.7	10740.17
611.057	10672.15
611.414	10729.77
611.771	10668.76
612.127	10762.99
612.484	10763.9
612.841	10744.01
613.198	10751.24
613.554	10619.49
613.911	10821.52
614.267	10744.01
614.624	10724.8
614.98	10797.34
615.337	10786.72
615.693	10703.33
616.05	10745.82
616.406	10788.08
616.762	10740.62
617.118	10783.33
617.475	10720.74
617.831	10786.04
618.187	10854.74
618.543	10889.32
618.899	10899.71
619.255	10890.9
619.611	10880.5
619.967	10898.13
620.323	10912.37
620.678	10817.46
621.034	10864.69
621.39	10798.02
621.746	10883.89
622.101	10988.52
622.457	10852.93
622.812	10861.75
623.168	10833.27
623.523	10888.41
623.879	10935.19
624.234	10906.72
624.589	10872.6
624.945	10893.16
625.3	10923.44
625.655	10915.08
626.01	10949.2
626.365	10895.87
626.72	10913.72
627.075	10875.99
627.43	10925.93
627.785	10897
628.14	10926.38
628.495	10889.32
628.85	10838.47
629.205	10834.86
629.559	10850.68
629.914	10806.83
630.269	10860.84
630.623	10770.68
630.978	10789.43
631.332	10830.56
631.687	10866.72
632.041	10769.1
632.396	10787.85
632.75	10746.27
633.104	10748.53
633.459	10686.61
633.813	10673.05
634.167	10675.31
634.521	10701.98
634.875	10684.8
635.229	10685.03
635.583	10695.65
635.937	10704.92
636.291	10640.51
636.645	10544.02
636.999	10563.45
637.352	10655.2
637.706	10547.86
638.06	10650.68
638.413	10570.91
638.767	10534.07
639.121	10530.68
639.474	10493.85
639.828	10538.37
640.181	10489.78
640.534	10480.74
640.888	10491.14
641.241	10385.6
641.594	10407.3
641.947	10488.65
642.301	10471.93
642.654	10432.61
643.007	10444.13
643.36	10411.82
643.713	10401.2
644.066	10468.99
644.419	10385.83
644.771	10302.89
645.124	10226.74
645.477	10203.69
645.83	10254.08
646.182	10171.14
646.535	10111.94
646.888	10120.52
647.24	10097.47
647.593	10077.59
647.945	10073.52
648.298	10029.91
648.65	10023.35
649.002	10029.68
649.355	10040.98
649.707	10037.36
650.059	10152.39
650.411	10228.77
650.763	10260.63
651.115	10302.89
651.467	10309.9
651.819	10384.7
652.171	10288.2
652.523	10277.36
652.875	10213.4
653.227	10223.35
653.578	10337.69
653.93	10253.18
654.282	10290.24
654.633	10263.35
654.985	10324.59
655.337	10323.68
655.688	10237.81
656.039	10327.07
656.391	10273.06
656.742	10294.31
657.094	10275.55
657.445	10240.97
657.796	10327.98
658.147	10235.78
658.498	10301.54
658.849	10301.09
659.2	10322.1
659.551	10270.58
659.902	10367.75
660.253	10314.19
660.604	10322.78
660.955	10300.41
661.306	10299.96
661.656	10286.62
662.007	10341.31
662.358	10338.37
662.708	10362.1
663.059	10319.62
663.409	10269.22
663.76	10298.6
664.11	10375.66
664.461	10341.31
664.811	10307.41
665.161	10344.93
665.511	10259.28
665.862	10351.71
666.212	10350.8
666.562	10308.09
666.912	10379.28
667.262	10277.81
667.612	10332.04
667.962	10281.42
668.312	10344.7
668.662	10413.17
669.011	10322.1
669.361	10332.27
669.711	10310.35
670.06	10335.89
670.41	10325.49
670.76	10328.2
671.109	10348.99
671.459	10293.63
671.808	10282.55
672.157	10331.59
672.507	10289.56
672.856	10273.52
673.205	10321.65
673.554	10317.36
673.904	10227.87
674.253	10266.28
674.602	10230.13
674.951	10121.43
675.3	10038.04
675.649	10204.14
675.998	10170.92
676.346	10227.19
676.695	10261.31
677.044	10141.32
677.393	10210.01
677.741	10082.56
678.09	10177.25
678.438	10086.63
678.787	10144.25
679.135	10110.58
679.484	10122.11
679.832	10099.28
680.181	10047.08
680.529	10000.53
680.877	10049.34
681.225	10007.08
681.573	10098.15
681.922	9965.95
682.27	9902.9
682.618	9927.54
682.966	9976.57
683.314	9970.47
683.661	9937.03
684.009	9912.17
684.357	9827.65
684.705	9901.77
685.053	9777.26
685.4	9838.5
685.748	9721.89
686.095	9721.67
686.443	9715.11
686.79	9727.31
687.138	9721.44
687.485	9737.71
687.832	9687.99
688.18	9619.07
688.527	9594.89
688.874	9569.58
689.221	9576.13
689.568	9530.71
689.915	9540.65
690.262	9512.18
690.609	9464.27
690.956	9426.31
691.303	9402.13
691.65	9386.53
691.997	9378.62
692.344	9325.74
692.69	9327.78
693.037	9306.76
693.383	9248.01
693.73	9208.23
694.077	9169.36
694.423	9120.1
694.769	9142.47
695.116	9047.33
695.462	9116.03
695.808	9071.96
696.155	9094.79
696.501	8932.53
696.847	8968.24
697.193	8893.21
697.539	8959.65
697.885	8773.22
698.231	8760.33
698.577	8792.42
698.923	8802.59
699.269	8674.01
699.614	8714.46
699.96	8653.67
700.306	8647.8
700.651	8556.95
700.997	8568.7
701.342	8568.93
701.688	8509.49
702.033	8522.6
702.379	8403.51
702.724	8504.52
703.069	8479.21
703.415	8375.26
703.76	8342.27
704.105	8381.14
704.45	8347.46
704.795	8217.52
705.14	8194.47
705.485	8220.91
705.83	8204.42
706.175	8243.29
706.52	8236.96
706.865	8101.82
707.209	8176.17
707.554	8075.38
707.899	8153.8
708.243	8038.77
708.588	8037.64
708.932	8003.07
709.277	7922.39
709.621	7960.36
709.966	7894.37
710.31	7924.65
710.654	7818.44
710.998	7870.64
711.342	7876.74
711.687	7777.76
712.031	7770.76
712.375	7790.42
712.719	7771.43
713.063	7759.23
713.407	7765.56
713.75	7635.84
714.094	7716.07
714.438	7701.83
714.782	7651.89
715.125	7610.31
715.469	7674.71
715.812	7586.58
716.156	7533.93
716.499	7564.21
716.843	7615.28
717.186	7562.17
717.53	7580.03
717.873	7606.01
718.216	7543.19
718.559	7465.68
718.902	7475.85
719.246	7512.01
719.589	7455.51
719.932	7445.11
720.275	7452.8
720.617	7451.67
720.96	7464.55
721.303	7415.74
721.646	7418.67
721.989	7345.68
722.331	7428.62
722.674	7380.94
723.016	7415.74
723.359	7369.41
723.701	7377.77
724.044	7307.94
724.386	7305.68
724.729	7340.94
725.071	7350.65
725.413	7355.4
725.755	7313.14
726.097	7307.72
726.439	7283.76
726.782	7286.02
727.124	7360.37
727.465	7324.89
727.807	7319.02
728.149	7260.49
728.491	7263.42
728.833	7332.12
729.175	7287.83
729.516	7260.71
729.858	7241.5
730.199	7255.52
730.541	7258
730.882	7314.95
731.224	7272.01
731.565	7255.06
731.906	7283.76
732.248	7312.01
732.589	7271.79
732.93	7225.01
733.271	7297.1
733.612	7241.73
733.953	7281.28
734.294	7249.41
734.635	7255.97
734.976	7262.07
735.317	7244.44
735.658	7259.36
735.999	7248.06
736.339	7271.11
736.68	7310.66
737.021	7309.07
737.361	7232.92
737.702	7285.8
738.042	7257.55
738.383	7279.92
738.723	7336.87
739.063	7329.64
739.404	7291.45
739.744	7309.3
740.084	7325.34
740.424	7333.48
740.764	7392.69
741.104	7390.2
741.444	7338.23
741.784	7349.07
742.124	7394.27
742.464	7435.4
742.804	7450.99
743.143	7459.8
743.483	7479.92
743.823	7463.19
744.162	7516.3
744.502	7540.93
744.841	7508.16
745.181	7613.25
745.52	7623.64
745.86	7668.39
746.199	7686.01
746.538	7748.61
746.877	7758.1
747.216	7851.88
747.556	7868.38
747.895	7900.24
748.234	7964.2
748.573	7961.94
748.911	7973.69
749.25	8118.77
749.589	8119.45
749.928	8168.71
750.267	8279.67
750.605	8313.79
750.944	8418.42
751.283	8363.51
751.621	8554.69
751.96	8601.24
752.298	8627.68
752.636	8766.89
752.975	8825.87
753.313	8943.15
753.651	8988.13
753.989	9118.97
754.327	9222.92
754.666	9275.12
755.004	9459.07
755.342	9594.89
755.679	9626.53
756.017	9765.05
756.355	9951.49
756.693	10012.28
757.031	10161.2
757.368	10240.3
757.706	10355.77
758.044	10517.12
758.381	10730.68
758.719	10846.38
759.056	11014.29
759.394	11126.15
759.731	11253.6
760.068	11349.87
760.405	11457.21
760.743	11643.87
761.08	11837.54
