Data from hue_270_FLMS001491_00051.txt Node
Date: Tue Feb 07 15:57:22 GMT 2017
User: dcchb
Spectrometer: FLMS00149
Trigger mode: 0
Integration Time (sec): 2.000000E-2
Scans to average: 10
Electric dark correction enabled: true
Nonlinearity correction enabled: false
Boxcar width: 0
XAxis mode: Wavelengths
Number of Pixels in Spectrum: 2048
>>>>>Begin Spectral Data<<<<<
341.393	-12.57
341.776	-12.57
342.16	-12.57
342.543	-50.08
342.927	-66.81
343.31	-80.82
343.693	-75.85
344.077	-67.71
344.46	-62.06
344.843	-34.26
345.226	-38.33
345.61	-31.1
345.993	-29.52
346.376	-7.37
346.759	3.7
347.142	29.69
347.525	52.96
347.908	52.06
348.291	87.54
348.674	102.23
349.057	98.84
349.44	146.97
349.823	149.01
350.206	169.57
350.588	205.5
350.971	194.88
351.354	199.18
351.737	219.74
352.119	232.4
352.502	262.68
352.884	282.79
353.267	285.27
353.65	286.18
354.032	314.88
354.414	286.4
354.797	313.52
355.179	316.91
355.562	316.01
355.944	323.92
356.326	338.61
356.709	338.15
357.091	329.57
357.473	332.51
357.855	336.12
358.238	320.75
358.62	318.95
359.002	334.77
359.384	339.28
359.766	329.79
360.148	323.92
360.53	334.54
360.912	319.4
361.294	342
361.676	330.47
362.057	325.5
362.439	311.04
362.821	325.27
363.203	342
363.584	318.95
363.966	314.88
364.348	321.88
364.729	332.28
365.111	320.08
365.493	309.46
365.874	329.79
366.256	315.33
366.637	332.05
367.019	302
367.4	298.38
367.781	291.6
368.163	304.71
368.544	320.08
368.925	319.85
369.306	319.17
369.688	331.38
370.069	323.24
370.45	308.1
370.831	304.94
371.212	294.99
371.593	327.53
371.974	291.38
372.355	326.4
372.736	320.75
373.117	315.33
373.498	304.48
373.879	325.73
374.26	336.12
374.641	309.46
375.021	325.05
375.402	309.91
375.783	326.18
376.163	327.53
376.544	348.55
376.925	324.6
377.305	328.44
377.686	320.08
378.066	325.5
378.447	330.7
378.827	330.7
379.208	321.66
379.588	346.52
379.968	326.86
380.349	356.69
380.729	342
381.109	346.74
381.489	352.17
381.87	340.19
382.25	324.14
382.63	361.21
383.01	336.8
383.39	331.15
383.77	342.22
384.15	356.69
384.53	357.82
384.91	362.79
385.29	345.61
385.67	362.11
386.049	350.36
386.429	357.14
386.809	362.11
387.189	363.69
387.568	362.34
387.948	349.45
388.328	367.76
388.707	361.43
389.087	377.48
389.466	358.95
389.846	372.5
390.225	350.81
390.605	358.95
390.984	361.66
391.363	379.96
391.743	348.32
392.122	384.26
392.501	377.93
392.881	361.21
393.26	391.26
393.639	368.66
394.018	385.84
394.397	395.78
394.776	407.08
395.155	396.46
395.534	410.24
395.913	386.29
396.292	385.16
396.671	416.34
397.05	403.24
397.429	402.79
397.808	415.22
398.186	407.98
398.565	408.66
398.944	403.24
399.323	411.83
399.701	419.28
400.08	423.35
400.458	437.59
400.837	415.67
401.215	429.23
401.594	432.39
401.972	428.32
402.351	440.07
402.729	441.2
403.107	442.11
403.486	445.04
403.864	436.68
404.242	457.02
404.62	447.98
404.999	440.53
405.377	463.58
405.755	450.24
406.133	449.11
406.511	441.88
406.889	464.25
407.267	459.51
407.645	483.46
408.023	488.89
408.401	492.95
408.779	515.78
409.156	488.66
409.534	493.18
409.912	516.91
410.29	541.99
410.667	528.43
411.045	562.56
411.422	520.52
411.8	544.7
412.178	573.18
412.555	547.87
412.933	581.09
413.31	549
413.687	583.8
414.065	579.96
414.442	567.3
414.819	593.52
415.197	604.81
415.574	629.67
415.951	603.46
416.328	621.31
416.705	628.77
417.082	627.19
417.46	635.32
417.837	647.53
418.214	670.58
418.591	673.97
418.967	704.7
419.344	683.46
419.721	694.98
420.098	680.29
420.475	704.92
420.852	720.29
421.228	712.61
421.605	742.89
421.982	736.11
422.358	769.56
422.735	742.44
423.111	773.62
423.488	766.62
423.864	797.8
424.241	775.21
424.617	796.22
424.994	794.64
425.37	835.09
425.746	835.77
426.123	833.28
426.499	854.75
426.875	885.71
427.251	887.07
427.627	901.08
428.003	917.8
428.379	903.11
428.756	930.46
429.132	925.26
429.507	944.01
429.883	956.44
430.259	976.33
430.635	975.43
431.011	979.04
431.387	1022.43
431.763	1004.58
432.138	1021.3
432.514	1043.9
432.89	1082.32
433.265	1082.99
433.641	1113.5
434.016	1103.56
434.392	1145.14
434.767	1135.65
435.143	1155.53
435.518	1178.81
435.894	1188.53
436.269	1221.3
436.644	1219.26
437.02	1228.53
437.395	1236.89
437.77	1280.28
438.145	1267.17
438.52	1297.68
438.895	1312.37
439.271	1316.21
439.646	1382.2
440.021	1402.76
440.395	1376.55
440.77	1364.79
441.145	1404.34
441.52	1421.29
441.895	1434.17
442.27	1466.71
442.645	1469.2
443.019	1468.52
443.394	1473.49
443.769	1465.13
444.143	1517.33
444.518	1497.67
444.892	1526.15
445.267	1539.71
445.641	1513.94
446.016	1560.27
446.39	1541.06
446.764	1569.54
447.139	1561.17
447.513	1599.82
447.887	1579.25
448.262	1605.47
448.636	1590.78
449.01	1621.06
449.384	1640.49
449.758	1679.14
450.132	1695.63
450.506	1685.01
450.88	1693.6
451.254	1681.85
451.628	1727.5
452.002	1718.46
452.376	1721.62
452.75	1755.74
453.123	1762.3
453.497	1785.12
453.871	1781.73
454.244	1826.7
454.618	1842.75
454.992	1878.91
455.365	1857.66
455.739	1902.41
456.112	1894.05
456.486	1906.93
456.859	1912.35
457.232	1963.65
457.606	1943.31
457.979	1976.76
458.352	2010.88
458.725	2048.62
459.099	2079.58
459.472	2066.7
459.845	2089.97
460.218	2124.32
460.591	2102.18
460.964	2156.64
461.337	2181.27
461.71	2210.87
462.083	2236.64
462.456	2236.18
462.829	2227.6
463.201	2292.45
463.574	2261.95
463.947	2310.98
464.32	2383.52
464.692	2364.32
465.065	2396.86
465.438	2472.34
465.81	2397.99
466.183	2465.78
466.555	2516.4
466.928	2523.86
467.3	2518.66
467.672	2573.35
468.045	2597.3
468.417	2595.27
468.789	2626.23
469.161	2686.79
469.534	2694.7
469.906	2747.36
470.278	2747.58
470.65	2760.01
471.022	2811.76
471.394	2877.07
471.766	2827.13
472.138	2885.21
472.51	2949.39
472.882	2968.82
473.253	3055.37
473.625	3029.84
473.997	3061.02
474.369	3099.89
474.74	3138.31
475.112	3164.97
475.484	3242.94
475.855	3239.32
476.227	3288.36
476.598	3375.14
476.97	3397.51
477.341	3457.17
477.713	3501.91
478.084	3491.07
478.455	3582.14
478.827	3562.7
479.198	3719.08
479.569	3692.87
479.94	3806.76
480.311	3826.2
480.682	3890.6
481.053	3938.74
481.424	4008.34
481.795	3981
482.166	4018.51
482.537	4112.74
482.908	4158.17
483.279	4199.3
483.65	4283.59
484.021	4306.19
484.391	4350.25
484.762	4384.83
485.133	4378.73
485.503	4472.51
485.874	4543.47
486.244	4598.83
486.615	4694.42
486.985	4640.19
487.356	4746.4
487.726	4799.05
488.097	4889
488.467	4851.93
488.837	4971.48
489.207	4997.47
489.578	5091.48
489.948	5126.73
490.318	5177.12
490.688	5172.38
491.058	5255.99
491.428	5324.69
491.798	5318.36
492.168	5427.51
492.538	5448.98
492.908	5493.73
493.278	5517
493.648	5530.56
494.017	5569.66
494.387	5612.14
494.757	5642.87
495.126	5721.52
495.496	5711.35
495.866	5776.43
496.235	5851.91
496.605	5871.34
496.974	5857.33
497.344	5939.82
497.713	5941.17
498.082	5995.18
498.452	6026.82
498.821	6043.77
499.19	6047.84
499.559	6117.66
499.928	6130.09
500.298	6127.61
500.667	6176.19
501.036	6183.42
501.405	6215.97
501.774	6195.4
502.143	6249.41
502.512	6269.07
502.88	6340.48
503.249	6338
503.618	6369.86
503.987	6401.95
504.356	6439.46
504.724	6444.66
505.093	6436.53
505.462	6506.81
505.83	6439.01
506.199	6559.46
506.567	6583.64
506.936	6633.13
507.304	6603.98
507.672	6625
508.041	6677.88
508.409	6674.94
508.777	6696.63
509.145	6733.92
509.514	6743.18
509.882	6779.79
510.25	6786.8
510.618	6796.97
510.986	6843.29
511.354	6865.44
511.722	6873.12
512.09	6955.38
512.458	6888.72
512.826	6937.08
513.193	6976.4
513.561	6983.4
513.929	7049.62
514.297	7028.6
514.664	7082.38
515.032	7089.39
515.4	7081.71
515.767	7102.5
516.135	7116.28
516.502	7085.1
516.869	7176.17
517.237	7206.22
517.604	7163.74
517.972	7236.96
518.339	7234.7
518.706	7221.14
519.073	7227.24
519.44	7301.14
519.808	7290.51
520.175	7305.66
520.542	7377.74
520.909	7325.32
521.276	7435.6
521.643	7468.14
522.009	7491.87
522.376	7499.32
522.743	7540.23
523.11	7564.63
523.477	7569.38
523.843	7533.22
524.21	7655.7
524.577	7697.74
524.943	7706.1
525.31	7742.25
525.676	7765.3
526.043	7756.94
526.409	7817.73
526.776	7818.64
527.142	7833.33
527.508	7890.05
527.874	7875.36
528.241	7952.19
528.607	7843.72
528.973	7963.72
529.339	7968.01
529.705	8015.24
530.071	8027.22
530.437	8051.85
530.803	8085.07
531.169	8131.4
531.535	8132.3
531.901	8179.08
532.267	8123.94
532.632	8219.08
532.998	8175.01
533.364	8234.22
533.73	8254.11
534.095	8248.68
534.461	8222.24
534.826	8259.75
535.192	8305.4
535.557	8333.88
535.923	8349.92
536.288	8351.96
536.653	8296.14
537.019	8303.82
537.384	8281
537.749	8360.77
538.114	8387.43
538.479	8321
538.845	8365.74
539.21	8363.93
539.575	8409.36
539.94	8463.59
540.305	8337.27
540.67	8388.11
541.034	8446.87
541.399	8450.94
541.764	8470.6
542.129	8493.42
542.494	8423.14
542.858	8618.39
543.223	8518.5
543.587	8524.61
543.952	8536.58
544.316	8500.2
544.681	8552.4
545.045	8549.46
545.41	8581.1
545.774	8638.95
546.138	8555.79
546.503	8616.13
546.867	8594.66
547.231	8599.18
547.595	8639.18
547.959	8644.15
548.324	8678.73
548.688	8670.59
549.052	8679.18
549.416	8621.55
549.779	8706.07
550.143	8665.17
550.507	8768.44
550.871	8751.95
551.235	8782
551.599	8777.93
551.962	8800.31
552.326	8841.21
552.689	8823.13
553.053	8767.09
553.417	8763.7
553.78	8846.63
554.143	8834.65
554.507	8881.43
554.87	8917.82
555.234	8950.81
555.597	8825.62
555.96	8951.49
556.323	8923.69
556.686	8931.6
557.05	8919.4
557.413	9043.24
557.776	9049.11
558.139	9054.31
558.502	9041.65
558.865	8993.07
559.228	9121.43
559.59	9099.05
559.953	9130.69
560.316	9164.14
560.679	9181.76
561.041	9213.63
561.404	9278.26
561.767	9330.01
562.129	9337.01
562.492	9400.29
562.854	9338.37
563.217	9360.29
563.579	9373.62
563.941	9442.77
564.304	9405.04
564.666	9577.46
565.028	9524.81
565.39	9500.17
565.753	9596.22
566.115	9557.12
566.477	9592.37
566.839	9695.65
567.201	9702.2
567.563	9665.82
567.925	9739.72
568.287	9734.29
568.648	9791.47
569.01	9840.5
569.372	9853.61
569.734	9880.05
570.095	9950.11
570.457	9898.13
570.819	9991.46
571.18	9983.78
571.542	10013.38
571.903	10094.28
572.265	10124.11
572.626	10076.2
572.987	10200.72
573.349	10173.6
573.71	10234.17
574.071	10215.64
574.432	10336.99
574.794	10399.36
575.155	10362.3
575.516	10336.76
575.877	10423.99
576.238	10387.16
576.599	10448.62
576.96	10454.05
577.32	10462.63
577.681	10572.46
578.042	10522.97
578.403	10611.56
578.763	10599.35
579.124	10695.62
579.485	10740.59
579.845	10723.64
580.206	10723.64
580.566	10751.89
580.927	10785.11
581.287	10919.35
581.648	10868.73
582.008	10927.26
582.368	10950.53
582.728	11039.57
583.089	11034.6
583.449	11026.46
583.809	11030.08
584.169	11032.11
584.529	11146.68
584.889	11198.66
585.249	11152.79
585.609	11146.01
585.969	11278.21
586.329	11185.1
586.688	11210.86
587.048	11263.52
587.408	11350.52
587.768	11288.83
588.127	11305.1
588.487	11350.29
588.846	11403.63
589.206	11441.59
589.565	11457.64
589.925	11456.28
590.284	11512.55
590.643	11539.67
591.003	11496.51
591.362	11620.57
591.721	11606.56
592.08	11618.08
592.44	11652.66
592.799	11766.1
593.158	11711.42
593.517	11750.96
593.876	11753
594.235	11763.62
594.593	11754.13
594.952	11835.93
595.311	11812.2
595.67	11872.09
596.029	11960.9
596.387	11957.51
596.746	11898.98
597.104	11939.21
597.463	11936.27
597.822	12025.31
598.18	11912.54
598.538	11993.67
598.897	11990.73
599.255	12032.76
599.613	12158.86
599.972	12032.76
600.33	12161.12
600.688	12130.84
601.046	12130.61
601.404	12149.14
601.762	12120.44
602.12	12249.93
602.478	12189.59
602.836	12301.46
603.194	12183.95
603.552	12235.7
603.91	12168.13
604.268	12260.33
604.625	12211.52
604.983	12288.58
605.341	12197.28
605.698	12346.2
606.056	12388.91
606.413	12294.45
606.771	12341.23
607.128	12453.54
607.485	12354.79
607.843	12406.09
608.2	12439.08
608.557	12482.47
608.914	12465.07
609.272	12503.03
609.629	12482.92
609.986	12572.41
610.343	12474.56
610.7	12627.78
611.057	12568.34
611.414	12574.22
611.771	12594.1
612.127	12643.37
612.484	12654.89
612.841	12671.16
613.198	12551.39
613.554	12701.22
613.911	12636.14
614.267	12726.98
614.624	12594.56
614.98	12665.51
615.337	12723.14
615.693	12692.86
616.05	12769.92
616.406	12749.35
616.762	12743.93
617.118	12751.61
617.475	12716.13
617.831	12804.95
618.187	12749.58
618.543	12771.95
618.899	12817.83
619.255	12816.7
619.611	12828.45
619.967	12850.82
620.323	12960.87
620.678	12850.59
621.034	12839.75
621.39	12869.12
621.746	12863.7
622.101	12935.56
622.457	12810.14
622.812	12874.32
623.168	12945.06
623.523	12876.36
623.879	12950.25
624.234	12856.24
624.589	12915
624.945	13035.9
625.3	12918.39
625.655	12967.88
626.01	12983.47
626.365	12905.28
626.72	12877.71
627.075	12918.84
627.43	12877.03
627.785	12911.84
628.14	12933.08
628.495	12884.27
628.85	12967.2
629.205	12830.03
629.559	12962.46
629.914	12862.12
630.269	12837.49
630.623	12819.41
630.978	12806.53
631.332	12866.87
631.687	12808.79
632.041	12821.67
632.396	12818.5
632.75	12729.47
633.104	12835.23
633.459	12710.26
633.813	12713.87
634.167	12754.1
634.521	12666.64
634.875	12665.06
635.229	12724.5
635.583	12661.22
635.937	12750.26
636.291	12616.25
636.645	12638.17
636.999	12613.09
637.352	12674.55
637.706	12555.01
638.06	12547.33
638.413	12521.11
638.767	12615.8
639.121	12542.58
639.474	12454.67
639.828	12461
640.181	12468.01
640.534	12446.54
640.888	12405.63
641.241	12423.49
641.594	12402.24
641.947	12461.9
642.301	12432.07
642.654	12344.17
643.007	12375.13
643.36	12391.17
643.713	12292.87
644.066	12376.93
644.419	12351.85
644.771	12306.43
645.124	12078.41
645.477	12101.46
645.83	12104.4
646.182	12069.15
646.535	12061.01
646.888	11997.28
647.24	11919.32
647.593	12003.61
647.945	11956.38
648.298	11889.49
648.65	11895.14
649.002	11939.43
649.355	11949.6
649.707	11907.34
650.059	12054.91
650.411	12129.71
650.763	12092.42
651.115	12195.24
651.467	12189.82
651.819	12196.83
652.171	12196.37
652.523	12130.84
652.875	12102.59
653.227	12058.98
653.578	12176.49
653.93	12163.15
654.282	12043.84
654.633	12041.8
654.985	12121.12
655.337	12180.1
655.688	12118.41
656.039	12199.09
656.391	12070.73
656.742	12087.22
657.094	12134.45
657.445	12184.17
657.796	12143.27
658.147	12071.41
658.498	12141.46
658.849	12143.72
659.2	12109.14
659.551	12145.3
659.902	12136.94
660.253	12189.82
660.604	12147.79
660.955	12087
661.306	12116.83
661.656	12134
662.007	12072.76
662.358	12138.52
662.708	12187.79
663.059	12148.24
663.409	12115.25
663.76	12191.18
664.11	12168.35
664.461	12195.02
664.811	12134
665.161	12181.01
665.511	12157.96
665.862	12133.33
666.212	12183.95
666.562	12174.23
666.912	12168.13
667.262	12175.36
667.612	12116.38
667.962	12103.5
668.312	12071.86
668.662	12169.93
669.011	12129.71
669.361	12091.74
669.711	12141.46
670.06	12106.43
670.41	12082.03
670.76	12021.92
671.109	12151.4
671.459	12039.77
671.808	12063.27
672.157	12088.58
672.507	11994.57
672.856	11996.15
673.205	12036.38
673.554	12071.86
673.904	11979.66
674.253	11994.8
674.602	12000.22
674.951	11741.24
675.3	11871.86
675.649	11960.9
675.998	11935.59
676.346	11918.64
676.695	12014.68
677.044	11948.25
677.393	11900.79
677.741	11936.27
678.09	11970.62
678.438	11866.67
678.787	11962.48
679.135	11887
679.484	11755.03
679.832	11884.97
680.181	11715.93
680.529	11697.18
680.877	11747.8
681.225	11671.64
681.573	11774.92
681.922	11690.17
682.27	11624.41
682.618	11622.15
682.966	11629.16
683.314	11696.95
683.661	11614.24
684.009	11529.95
684.357	11465.09
684.705	11520.69
685.053	11487.92
685.4	11452.66
685.748	11412.89
686.095	11351.88
686.443	11363.4
686.79	11396.4
687.138	11362.5
687.485	11363.63
687.832	11240.24
688.18	11293.8
688.527	11226.23
688.874	11187.14
689.221	11225.1
689.568	11139.45
689.915	11143.07
690.262	11187.59
690.609	11142.39
690.956	11079.34
691.303	10983.98
691.65	10938.33
691.997	11029.85
692.344	10887.93
692.69	10844.09
693.037	10860.59
693.383	10856.52
693.73	10776.3
694.077	10689.3
694.423	10757.09
694.769	10659.92
695.116	10687.04
695.462	10615.62
695.808	10605
696.155	10658.34
696.501	10494.5
696.847	10566.59
697.193	10406.14
697.539	10475.06
697.885	10365.01
698.231	10322.3
698.577	10301.73
698.923	10282.98
699.269	10309.64
699.614	10226.93
699.96	10180.38
700.306	10171.34
700.651	10106.26
700.997	10024.45
701.342	10118.24
701.688	10037.33
702.033	9995.3
702.379	9944.91
702.724	9931.12
703.069	9929.77
703.415	9827.4
703.76	9834.18
704.105	9824.01
704.45	9738.13
704.795	9704.69
705.14	9735.42
705.485	9641.87
705.83	9632.6
706.175	9664.24
706.52	9631.7
706.865	9564.13
707.209	9598.25
707.554	9486.84
707.899	9506.28
708.243	9474.64
708.588	9484.58
708.932	9363.23
709.277	9397.58
709.621	9362.32
709.966	9369.1
710.31	9309.22
710.654	9304.7
710.998	9285.72
711.342	9265.15
711.687	9323.68
712.031	9224.93
712.375	9119.17
712.719	9192.61
713.063	9116.23
713.407	9173.85
713.75	9106.51
714.094	9190.58
714.438	9045.95
714.782	9100.41
715.125	9031.03
715.469	9090.02
715.812	8993.52
716.156	8995.1
716.499	8992.62
716.843	8933.41
717.186	8951.49
717.53	9000.07
717.873	8976.35
718.216	9002.56
718.559	8889.57
718.902	8846.63
719.246	8916.46
719.589	8850.25
719.932	8834.65
720.275	8816.12
720.617	8814.09
720.96	8735.67
721.303	8782.45
721.646	8857.03
721.989	8778.61
722.331	8783.81
722.674	8700.42
723.016	8722.34
723.359	8708.78
723.701	8740.42
724.044	8669.46
724.386	8610.48
724.729	8690.25
725.071	8664.94
725.413	8653.87
725.755	8638.05
726.097	8639.63
726.439	8585.62
726.782	8584.04
727.124	8651.61
727.465	8617.49
727.807	8594.66
728.149	8514.66
728.491	8582.46
728.833	8621.1
729.175	8538.17
729.516	8455
729.858	8551.72
730.199	8512.63
730.541	8454.33
730.882	8534.55
731.224	8513.08
731.565	8485.29
731.906	8558.28
732.248	8478.96
732.589	8483.48
732.93	8505.17
733.271	8480.54
733.612	8462.24
733.953	8530.93
734.294	8422.69
734.635	8395.12
734.976	8481.44
735.317	8441.22
735.658	8466.3
735.999	8505.4
736.339	8476.02
736.68	8456.36
737.021	8469.01
737.361	8462.91
737.702	8496.81
738.042	8465.17
738.383	8442.8
738.723	8535
739.063	8477.38
739.404	8498.62
739.744	8486.87
740.084	8462.69
740.424	8555.57
740.764	8524.38
741.104	8549.92
741.444	8587.43
741.784	8543.14
742.124	8560.09
742.464	8607.99
742.804	8557.15
743.143	8585.4
743.483	8626.3
743.823	8541.78
744.162	8574.32
744.502	8613.87
744.841	8588.79
745.181	8687.09
745.52	8711.49
745.86	8715.56
746.199	8757.14
746.538	8758.27
746.877	8842.56
747.216	8832.17
747.556	8862.9
747.895	8927.31
748.234	8900.64
748.573	8923.24
748.911	9026.97
749.25	9154.87
749.589	9106.96
749.928	9172.05
750.267	9296.11
750.605	9256.79
750.944	9334.3
751.283	9444.36
751.621	9555.31
751.96	9490.23
752.298	9600.74
752.636	9687.29
752.975	9740.39
753.313	9836.44
753.651	9946.49
753.989	10002.31
754.327	10100.61
754.666	10144.45
755.004	10291.11
755.342	10484.55
755.679	10514.38
756.017	10494.05
756.355	10706.92
756.693	10858.33
757.031	11010.64
757.368	11106.23
757.706	11179.23
758.044	11214.03
758.381	11442.04
758.719	11517.07
759.056	11783.96
759.394	11867.34
759.731	12058.07
760.068	12109.6
760.405	12284.73
760.743	12497.61
761.08	12595.69
761.417	12665.29
761.754	12856.47
762.091	12990.48
762.428	13158.16
762.765	13251.49
