Data from hue_38_FLMS001491_00059.txt Node
Date: Tue Feb 07 17:31:42 GMT 2017
User: dcchb
Spectrometer: FLMS00149
Trigger mode: 0
Integration Time (sec): 2.000000E-2
Scans to average: 10
Electric dark correction enabled: true
Nonlinearity correction enabled: false
Boxcar width: 0
XAxis mode: Wavelengths
Number of Pixels in Spectrum: 2048
>>>>>Begin Spectral Data<<<<<
341.393	-11.84
341.776	-11.84
342.16	-11.84
342.543	-63.36
342.927	-53.42
343.31	-76.47
343.693	-79.18
344.077	-53.64
344.46	-55.22
344.843	-56.13
345.226	-67.65
345.61	-52.06
345.993	-16.13
346.376	-14.77
346.759	36.52
347.142	26.13
347.525	42.63
347.908	64.77
348.291	82.4
348.674	99.35
349.057	119.46
349.44	135.05
349.823	149.29
350.206	161.49
350.588	172.34
350.971	215.05
351.354	216.18
351.737	265.9
352.119	254.37
352.502	269.06
352.884	291.88
353.267	302.73
353.65	312.22
354.032	322.17
354.414	304.77
354.797	324.88
355.179	323.52
355.562	341.38
355.944	334.82
356.326	313.81
356.709	336.4
357.091	314.26
357.473	349.74
357.855	340.47
358.238	354.03
358.62	318.55
359.002	359
359.384	348.61
359.766	362.39
360.148	341.6
360.53	350.64
360.912	336.63
361.294	336.86
361.676	342.96
362.057	341.83
362.439	352
362.821	340.47
363.203	336.18
363.584	332.56
363.966	321.26
364.348	308.16
364.729	307.93
365.111	322.17
365.493	317.42
365.874	289.85
366.256	310.87
366.637	319.45
367.019	304.99
367.4	322.62
367.781	302.28
368.163	338.44
368.544	327.82
368.925	311.55
369.306	321.71
369.688	324.2
370.069	315.39
370.45	329.17
370.831	309.74
371.212	336.4
371.593	310.64
371.974	292.34
372.355	294.82
372.736	333.47
373.117	314.26
373.498	339.79
373.879	323.3
374.26	334.82
374.641	311.77
375.021	305.67
375.402	318.32
375.783	319
376.163	333.92
376.544	345.22
376.925	331.43
377.305	346.35
377.686	334.82
378.066	324.88
378.447	325.56
378.827	355.84
379.208	333.92
379.588	325.56
379.968	331.21
380.349	317.42
380.729	332.56
381.109	337.76
381.489	342.73
381.87	354.48
382.25	345.44
382.63	351.77
383.01	342.51
383.39	344.31
383.77	335.05
384.15	329.4
384.53	375.72
384.91	336.86
385.29	344.54
385.67	352.67
386.049	342.51
386.429	356.74
386.809	363.75
387.189	349.96
387.568	339.79
387.948	348.38
388.328	353.13
388.707	372.11
389.087	364.43
389.466	371.2
389.846	352
390.225	380.7
390.605	384.54
390.984	351.09
391.363	368.49
391.743	372.11
392.122	395.84
392.501	375.5
392.881	403.75
393.26	400.36
393.639	391.54
394.018	372.79
394.397	384.76
394.776	373.24
395.155	396.97
395.534	376.18
395.913	365.78
396.292	380.92
396.671	394.93
397.05	400.13
397.429	383.86
397.808	409.4
398.186	400.13
398.565	398.1
398.944	408.27
399.323	391.32
399.701	389.06
400.08	413.69
400.458	413.92
400.837	409.17
401.215	422.5
401.594	408.49
401.972	425.89
402.351	412.79
402.729	419.11
403.107	419.57
403.486	417.31
403.864	403.07
404.242	417.31
404.62	441.26
404.999	434.03
405.377	419.34
405.755	432.22
406.133	430.19
406.511	444.2
406.889	425.89
407.267	436.29
407.645	440.81
408.023	443.29
408.401	460.92
408.779	444.65
409.156	453.01
409.534	444.88
409.912	462.73
410.29	460.92
410.667	458.43
411.045	468.38
411.422	482.61
411.8	482.16
412.178	476.51
412.555	511.09
412.933	504.31
413.31	467.02
413.687	495.95
414.065	497.98
414.442	527.13
414.819	511.99
415.197	492.11
415.574	484.2
415.951	513.57
416.328	500.02
416.705	508.15
417.082	540.24
417.46	531.2
417.837	524.42
418.214	528.71
418.591	530.3
418.967	523.29
419.344	534.36
419.721	526.91
420.098	527.13
420.475	536.4
420.852	537.3
421.228	540.01
421.605	574.82
421.982	563.74
422.358	552.22
422.735	571.65
423.111	559.22
423.488	603.29
423.864	582.95
424.241	582.72
424.617	589.96
424.994	583.85
425.37	570.75
425.746	615.94
426.123	602.84
426.499	617.53
426.875	618.66
427.251	600.35
427.627	603.52
428.003	617.53
428.379	605.78
428.756	640.12
429.132	629.05
429.507	641.03
429.883	628.15
430.259	645.1
430.635	630.86
431.011	645.32
431.387	669.28
431.763	673.8
432.138	678.32
432.514	687.81
432.89	711.08
433.265	687.35
433.641	707.02
434.016	697.98
434.392	699.56
434.767	724.64
435.143	694.59
435.518	739.56
435.894	731.65
436.269	733.23
436.644	752.89
437.02	745.21
437.395	756.28
437.77	750.18
438.145	767.13
438.52	782.95
438.895	798.76
439.271	797.63
439.646	785.66
440.021	800.35
440.395	786.79
440.77	812.55
441.145	798.31
441.52	820.68
441.895	819.1
442.27	843.73
442.645	808.03
443.019	823.4
443.394	834.47
443.769	859.33
444.143	850.29
444.518	852.55
444.892	849.84
445.267	861.81
445.641	875.82
446.016	850.06
446.39	877.41
446.764	864.53
447.139	878.76
447.513	889.61
447.887	889.84
448.262	887.8
448.636	888.48
449.01	885.09
449.384	914.02
449.758	883.96
450.132	912.66
450.506	915.37
450.88	916.05
451.254	938.87
451.628	953.79
452.002	960.12
452.376	982.26
452.75	979.78
453.123	978.87
453.497	968.7
453.871	1005.76
454.244	1008.48
454.618	1008.02
454.992	1003.73
455.365	1029.72
455.739	1037.18
456.112	1046.22
456.486	1095.03
456.859	1071.3
457.232	1088.93
457.606	1112.2
457.979	1103.62
458.352	1107.23
458.725	1149.26
459.099	1178.64
459.472	1139.77
459.845	1157.85
460.218	1162.14
460.591	1187.68
460.964	1209.15
461.337	1239.88
461.71	1212.99
462.083	1268.36
462.456	1251.63
462.829	1276.72
463.201	1280.56
463.574	1297.96
463.947	1342.48
464.32	1341.35
464.692	1326.21
465.065	1360.56
465.438	1375.92
465.81	1400.56
466.183	1415.7
466.555	1445.98
466.928	1466.09
467.3	1485.53
467.672	1491.85
468.045	1545.19
468.417	1536.82
468.789	1532.98
469.161	1577.5
469.534	1603.04
469.906	1618.86
470.278	1651.4
470.65	1669.02
471.022	1723.71
471.394	1744.95
471.766	1777.27
472.138	1789.92
472.51	1816.14
472.882	1879.87
473.253	1891.84
473.625	1952.18
473.997	2006.87
474.369	2012.97
474.74	1984.5
475.112	2082.12
475.484	2125.74
475.855	2190.37
476.227	2218.61
476.598	2247.31
476.97	2307.2
477.341	2345.84
477.713	2414.99
478.084	2479.4
478.455	2533.86
478.827	2591.49
479.198	2690.47
479.569	2702.67
479.94	2824.47
480.311	2878.71
480.682	2934.75
481.053	3024.92
481.424	3117.35
481.795	3161.41
482.166	3219.72
482.537	3300.17
482.908	3409.77
483.279	3452.25
483.65	3562.53
484.021	3655.19
484.391	3750.78
484.762	3791.91
485.133	3821.96
485.503	3972.01
485.874	4099.69
486.244	4170.2
486.615	4268.73
486.985	4384.66
487.356	4450.87
487.726	4544.65
488.097	4691.09
488.467	4796.85
488.837	4950.52
489.207	5000.69
489.578	5124.3
489.948	5217.18
490.318	5313.67
490.688	5414.69
491.058	5504.63
491.428	5634.34
491.798	5715.7
492.168	5884.05
492.538	5971.06
492.908	6062.81
493.278	6272.29
493.648	6272.07
494.017	6439.07
494.387	6514.32
494.757	6597.48
495.126	6760.64
495.496	6804.71
495.866	6902.11
496.235	7070.46
496.605	7126.73
496.974	7144.13
497.344	7291.47
497.713	7392.04
498.082	7508.42
498.452	7615.31
498.821	7674.97
499.19	7724.46
499.559	7867.05
499.928	8032.7
500.298	8097.1
500.667	8200.38
501.036	8231.11
501.405	8371.22
501.774	8411.45
502.143	8539.13
502.512	8630.42
502.88	8673.13
503.249	8770.98
503.618	8817.54
503.987	8944.76
504.356	9023.63
504.724	9059.34
505.093	9112.67
505.462	9212.33
505.83	9292.33
506.199	9318.09
506.567	9570.06
506.936	9493.45
507.304	9728.92
507.672	9708.13
508.041	9738.64
508.409	9929.82
508.777	9996.26
509.145	10123.04
509.514	10112.87
509.882	10158.29
510.25	10253.43
510.618	10302.7
510.986	10396.93
511.354	10468.34
511.722	10607.55
512.09	10696.13
512.458	10678.5
512.826	10722.35
513.193	10892.96
513.561	10948.55
513.929	10980.19
514.297	11152.84
514.664	11160.07
515.032	11229
515.4	11313.97
515.767	11468.31
516.135	11419.05
516.502	11396.9
516.869	11623.79
517.237	11686.61
517.604	11662.43
517.972	11816.33
518.339	11815.42
518.706	11870.79
519.073	11933.16
519.44	11985.36
519.808	12122.76
520.175	12200.72
520.542	12246.82
520.909	12411.34
521.276	12371.79
521.643	12515.07
522.009	12628.06
522.376	12628.74
522.743	12671.67
523.11	12827.37
523.477	12981.49
523.843	12983.08
524.21	13152.79
524.577	13206.57
524.943	13302.62
525.31	13302.16
525.676	13469.17
526.043	13474.36
526.409	13601.37
526.776	13747.8
527.142	13802.72
527.508	13800.68
527.874	13913.9
528.241	14049.26
528.607	13997.97
528.973	14223.04
529.339	14206.77
529.705	14297.62
530.071	14446.77
530.437	14503.26
530.803	14584.16
531.169	14641.34
531.535	14686.31
531.901	14735.35
532.267	14734.9
532.632	14900.77
532.998	14956.36
533.364	15044.27
533.73	15048.56
534.095	15146.64
534.461	15361.77
534.826	15351.15
535.192	15376.01
535.557	15514.08
535.923	15430.24
536.288	15594.76
536.653	15764.7
537.019	15620.3
537.384	15731.25
537.749	15758.6
538.114	15837.24
538.479	15949.33
538.845	16028.42
539.21	15997.46
539.575	16078.59
539.94	16105.03
540.305	16168.08
540.67	16233.84
541.034	16376.43
541.399	16387.51
541.764	16479.48
542.129	16495.75
542.494	16580.5
542.858	16643.77
543.223	16638.8
543.587	16816.2
543.952	16724.9
544.316	16834.27
544.681	16935.74
545.045	16953.37
545.41	17037.21
545.774	17033.82
546.138	17192.23
546.503	17178.9
546.867	17274.04
547.231	17423.41
547.595	17466.12
547.959	17520.13
548.324	17469.06
548.688	17549.51
549.052	17597.87
549.416	17657.08
549.779	17714.93
550.143	17765.78
550.507	17901.82
550.871	17869.05
551.235	17908.37
551.599	18069.27
551.962	18067.01
552.326	18120.79
552.689	18245.09
553.053	18227.91
553.417	18303.61
553.78	18578.86
554.143	18466.1
554.507	18522.14
554.87	18688.01
555.234	18800.1
555.597	18741.34
555.96	18740.44
556.323	18886.2
556.686	18839.87
557.05	18965.74
557.413	18874.45
557.776	19127.55
558.139	19209.58
558.502	19243.48
558.865	19264.04
559.228	19338.84
559.59	19373.64
559.953	19480.53
560.316	19646.4
560.679	19635.11
561.041	19859.28
561.404	19948.54
561.767	20030.35
562.129	19858.83
562.492	20120.29
562.854	20036.22
563.217	20112.83
563.579	20142.21
563.941	20260.17
564.304	20381.98
564.666	20454.52
565.028	20480.51
565.39	20587.4
565.753	20661.29
566.115	20780.16
566.477	20828.07
566.839	21008.18
567.201	21069.64
567.563	20992.81
567.925	21174.5
568.287	21242.52
568.648	21346.47
569.01	21416.3
569.372	21588.73
569.734	21610.42
570.095	21611.55
570.457	21810.42
570.819	21885.89
571.18	21793.69
571.542	22008.15
571.903	22063.29
572.265	22184.42
572.626	22278.65
572.987	22300.12
573.349	22483.17
573.71	22480.45
574.071	22600.9
574.432	22728.13
574.794	22840.22
575.155	22921.12
575.516	22947.79
575.877	23130.61
576.238	23249.25
576.599	23397.49
576.96	23436.14
577.32	23517.94
577.681	23725.39
578.042	23807.2
578.403	23901.89
578.763	24024.82
579.124	24161.54
579.485	24456.9
579.845	24571.25
580.206	24644.01
580.566	24753.39
580.927	25001.29
581.287	25254.84
581.648	25260.04
582.008	25559.7
582.368	25618.68
582.728	25755.17
583.089	25900.03
583.449	26166.46
583.809	26283.29
584.169	26531.65
584.529	26625.2
584.889	27066.32
585.249	26973.44
585.609	27308.35
585.969	27571.62
586.329	27613.88
586.688	27980.42
587.048	28094.09
587.408	28344.93
587.768	28617.47
588.127	28734.75
588.487	28910.79
588.846	29224.23
589.206	29328.18
589.565	29578.8
589.925	29941.95
590.284	30012.69
590.643	30261.04
591.003	30561.82
591.362	30793.23
591.721	30948.03
592.08	31112.54
592.44	31457.62
592.799	31615.58
593.158	31730.83
593.517	31990.71
593.876	32166.3
594.235	32236.36
594.593	32594.31
594.952	32913.85
595.311	33001.76
595.67	33212.83
596.029	33564.46
596.387	33881.96
596.746	34148.85
597.104	34139.13
597.463	34266.58
597.822	34649.85
598.18	34742.73
598.538	34982.72
598.897	35359.21
599.255	35170.52
599.613	35904.96
599.972	35789.03
600.33	36039.19
600.688	36011.17
601.046	36478.96
601.404	36759.85
601.762	36707.42
602.12	37004.37
602.478	37236.68
602.836	37371.14
603.194	37333.85
603.552	37600.06
603.91	37523.22
604.268	37853.61
604.625	37851.12
604.983	38287.04
605.341	38224.9
605.698	38500.82
606.056	38630.54
606.413	38710.99
606.771	38947.37
607.128	39145.78
607.485	39206.34
607.843	39290.18
608.2	39606.11
608.557	39764.75
608.914	39797.51
609.272	40084.96
609.629	40264.39
609.986	40503.48
610.343	40218.07
610.7	40715.45
611.057	40812.4
611.414	40813.76
611.771	40971.72
612.127	41308.66
612.484	41364.48
612.841	41544.13
613.198	41420.97
613.554	41565.6
613.911	41852.83
614.267	41870.68
614.624	41857.8
614.98	42142.54
615.337	42310.22
615.693	42299.14
616.05	42251.69
616.406	42755.18
616.762	42530.55
617.118	42695.52
617.475	42676.99
617.831	42892.35
618.187	42965.79
618.543	43092.57
618.899	43410.07
619.255	43272.9
619.611	43203.3
619.967	43616.4
620.323	43608.49
620.678	43422.28
621.034	43454.82
621.39	43550.41
621.746	43618.2
622.101	44124.86
622.457	43756.73
622.812	44042.6
623.168	44187.91
623.523	44133.22
623.879	44278.75
624.234	44155.36
624.589	44327.79
624.945	44220.22
625.3	44492.3
625.655	44248.02
626.01	44484.62
626.365	44513.77
626.72	44483.94
627.075	44560.33
627.43	44649.59
627.785	44494.34
628.14	44641.23
628.495	44735.69
628.85	44771.39
629.205	44594.67
629.559	44847.78
629.914	44689.59
630.269	44724.84
630.623	44633.32
630.978	44462.25
631.332	44774.33
631.687	44834.67
632.041	44655.01
632.396	44746.54
632.75	44725.74
633.104	44902.46
633.459	44530.04
633.813	44651.85
634.167	44636.26
634.521	44701.56
634.875	44751.96
635.229	44763.71
635.583	44533.89
635.937	44620.66
636.291	44520.55
636.645	44705.63
636.999	44589.03
637.352	44685.29
637.706	44501.34
638.06	44691.62
638.413	44408.47
638.767	44495.02
639.121	44547.67
639.474	44347
639.828	44430.16
640.181	44575.69
640.534	44518.07
640.888	44311.29
641.241	44165.53
641.594	44309.48
641.947	44375.25
642.301	44283.72
642.654	44172.54
643.007	44415.92
643.36	44235.14
643.713	44200.56
644.066	44373.44
644.419	44136.61
644.771	43867.69
645.124	43511.77
645.477	43346.57
645.83	43152.23
646.182	43063.87
646.535	43032.46
646.888	43139.35
647.24	42830.88
647.593	43218.89
647.945	43002.17
648.298	42879.92
648.65	42754.5
649.002	42655.74
649.355	42853.7
649.707	42825.23
650.059	43153.81
650.411	43523.29
650.763	43527.36
651.115	43847.58
651.467	43798.09
651.819	43738.88
652.171	43653.46
652.523	43501.37
652.875	43608.94
653.227	43496.62
653.578	43761.02
653.93	43655.72
654.282	43418.43
654.633	43406.01
654.985	43468.83
655.337	43363.07
655.688	43523.97
656.039	43625.21
656.391	43305.22
656.742	43406.91
657.094	43404.88
657.445	43466.12
657.796	43384.09
658.147	43296.18
658.498	43311.54
658.849	43443.29
659.2	43310.87
659.551	43165.79
659.902	43388.38
660.253	43260.02
660.604	43421.37
660.955	42932.57
661.306	43254.6
661.656	43232
662.007	43237.2
662.358	43180.02
662.708	43320.58
663.059	43080.14
663.409	43116.52
663.76	43158.1
664.11	43116.97
664.461	43143.64
664.811	43062.96
665.161	43036.98
665.511	43177.31
665.862	43123.53
666.212	43168.95
666.562	43224.09
666.912	43062.96
667.262	43033.13
667.612	43173.7
667.962	43208.95
668.312	42946.36
668.662	43315.16
669.011	43128.72
669.361	43086.69
669.711	42947.94
670.06	43096.18
670.41	42804.67
670.76	42940.03
671.109	43115.39
671.459	42928.73
671.808	42815.74
672.157	42937.09
672.507	42680.15
672.856	42876.53
673.205	42814.38
673.554	42947.49
673.904	42790.2
674.253	43036.75
674.602	42782.07
674.951	42231.35
675.3	42169.43
675.649	42612.58
675.998	42634.73
676.346	42737.32
676.695	42808.51
677.044	42390.44
677.393	42638.12
677.741	42704.78
678.09	42631.11
678.438	42443.77
678.787	42647.16
679.135	42538.68
679.484	42348.18
679.832	42512.02
680.181	42281.74
680.529	42360.61
680.877	42268.86
681.225	42176.21
681.573	42462.98
681.922	42117.23
682.27	42097.79
682.618	42001.3
682.966	41822.09
683.314	42137.56
683.661	41891.47
684.009	41672.72
684.357	41556.11
684.705	41545.26
685.053	41450.8
685.4	41545.72
685.748	41355.44
686.095	41325.83
686.443	41163.35
686.79	41150.7
687.138	41290.35
687.485	41200.19
687.832	41035.45
688.18	41132.17
688.527	40919.97
688.874	40853.3
689.221	40760.65
689.568	40739.41
689.915	40620.99
690.262	40731.73
690.609	40626.64
690.956	40443.6
691.303	40255.58
691.65	40135.13
691.997	40185.3
692.344	39905.76
692.69	39815.37
693.037	39919.77
693.383	39541.93
693.73	39857.62
694.077	39534.24
694.423	39486.79
694.769	39402.5
695.116	39295.38
695.462	39364.3
695.808	39162.28
696.155	39349.39
696.501	38835.5
696.847	38968.83
697.193	38730.87
697.539	38873.92
697.885	38614.04
698.231	38543.31
698.577	38675.28
698.923	38404.1
699.269	38340.38
699.614	38148.29
699.96	37923.89
700.306	38144.22
700.651	37958.92
700.997	37834.4
701.342	37721.18
701.688	37679.38
702.033	37499.95
702.379	37486.39
702.724	37322.55
703.069	37554.63
703.415	36998.04
703.76	37136.79
704.105	37093.18
704.45	36932.28
704.795	36744.03
705.14	36712.62
705.485	36673.75
705.83	36431.05
706.175	36612.06
706.52	36559.18
706.865	36384.5
707.209	36274.22
707.554	36033.09
707.899	36273.31
708.243	36096.59
708.588	36025.18
708.932	35742.25
709.277	35719.88
709.621	35828.58
709.966	35671.07
710.31	35692.76
710.654	35426.78
710.998	35447.34
711.342	35407.35
711.687	35244.19
712.031	35075.38
712.375	35062.5
712.719	35062.5
713.063	34971.2
713.407	35177.52
713.75	34909.05
714.094	34947.02
714.438	34654.37
714.782	34650.08
715.125	34554.03
715.469	34688.27
715.812	34386.81
716.156	34275.4
716.499	34397.65
716.843	34326.92
717.186	34105.69
717.53	34220.26
717.873	34210.99
718.216	34158.11
718.559	33912.24
718.902	33823.88
719.246	33896.43
719.589	33809.65
719.932	33590.44
720.275	33685.81
720.617	33647.62
720.96	33466.83
721.303	33450.56
721.646	33589.77
721.989	33298.7
722.331	33387.51
722.674	33323.11
723.016	33285.37
723.359	33285.14
723.701	33266.61
724.044	33072.94
724.386	32958.82
724.729	33096.67
725.071	33057.35
725.413	32921.31
725.755	32814.42
726.097	32746.4
726.439	32650.13
726.782	32436.58
727.124	32933.29
727.465	32579.17
727.807	32526.97
728.149	32502.34
728.491	32389.35
728.833	32560.19
729.175	32269.8
729.516	32299.63
729.858	32178.73
730.199	32180.31
730.541	32140.77
730.882	32222.12
731.224	32238.16
731.565	31961.11
731.906	31877.04
732.248	31845.86
732.589	31771.51
732.93	31704.39
733.271	31710.95
733.612	31787.1
733.953	31830.04
734.294	31643.83
734.635	31677.95
734.976	31651.96
735.317	31611.29
735.658	31425.3
735.999	31496.49
736.339	31285.65
736.68	31484.51
737.021	31268.02
737.361	31126.78
737.702	31268.7
738.042	31144.63
738.383	31080.68
738.723	31058.99
739.063	31038.42
739.404	31171.75
739.744	30895.37
740.084	30797.98
740.424	30881.36
740.764	30801.14
741.104	30807.47
741.444	30620.58
741.784	30579.68
742.124	30684.98
742.464	30616.06
742.804	30435.73
743.143	30485.89
743.483	30513.46
743.823	30456.29
744.162	30269.4
744.502	30432.79
744.841	30238.44
745.181	30459.91
745.52	30239.57
745.86	30247.26
746.199	30163.64
746.538	30173.13
746.877	30177.88
747.216	30089.52
747.556	30047.94
747.895	30018.33
748.234	29849.3
748.573	29819.24
748.911	29847.27
749.25	29870.77
749.589	29800.26
749.928	29811.11
750.267	29703.77
750.605	29550.1
750.944	29475.75
751.283	29480.04
751.621	29491.57
751.96	29340.84
752.298	29432.36
752.636	29362.98
752.975	29221.52
753.313	29075.08
753.651	29183.55
753.989	28908.53
754.327	29097.23
754.666	28914.86
755.004	28941.08
755.342	28968.65
755.679	28789.89
756.017	28688.43
756.355	28795.77
756.693	28543.57
