Data from hue_220_FLMS001491_00062.txt Node
Date: Tue Feb 07 16:39:47 GMT 2017
User: dcchb
Spectrometer: FLMS00149
Trigger mode: 0
Integration Time (sec): 2.000000E-2
Scans to average: 10
Electric dark correction enabled: true
Nonlinearity correction enabled: false
Boxcar width: 0
XAxis mode: Wavelengths
Number of Pixels in Spectrum: 2048
>>>>>Begin Spectral Data<<<<<
341.393	-11.88
341.776	-11.88
342.16	-11.88
342.543	-39.9
342.927	-70.86
343.31	-72.44
343.693	-66.57
344.077	-63.63
344.46	-54.14
344.843	-36.96
345.226	-48.26
345.61	-21.14
345.993	-4.19
346.376	-7.58
346.759	9.59
347.142	30.38
347.525	21.57
347.908	49.14
348.291	71.51
348.674	81.23
349.057	111.51
349.44	113.32
349.823	141.79
350.206	159.19
350.588	201
350.971	199.64
351.354	228.12
351.737	246.42
352.119	236.7
352.502	271.96
352.884	248.68
353.267	276.7
353.65	314.89
354.032	306.31
354.414	299.75
354.797	330.71
355.179	320.77
355.562	311.5
355.944	330.49
356.326	326.87
356.709	328.9
357.091	319.86
357.473	343.37
357.855	326.42
358.238	320.77
358.62	330.49
359.002	359.64
359.384	337.04
359.766	348.56
360.148	336.81
360.53	303.14
360.912	335.23
361.294	328.9
361.676	330.03
362.057	313.08
362.439	316.93
362.821	343.82
363.203	320.77
363.584	335.68
363.966	330.26
364.348	328.23
364.729	339.07
365.111	312.41
365.493	324.61
365.874	327.32
366.256	306.98
366.637	298.62
367.019	307.44
367.4	325.51
367.781	312.63
368.163	306.31
368.544	324.61
368.925	288.23
369.306	316.02
369.688	315.12
370.069	303.82
370.45	299.07
370.831	313.76
371.212	316.02
371.593	303.59
371.974	311.96
372.355	336.14
372.736	299.75
373.117	299.75
373.498	318.28
373.879	315.8
374.26	314.44
374.641	290.03
375.021	324.16
375.402	294.1
375.783	301.79
376.163	323.48
376.544	321.45
376.925	313.54
377.305	337.49
377.686	338.17
378.066	307.21
378.447	311.5
378.827	299.75
379.208	322.12
379.588	355.12
379.968	327.1
380.349	316.25
380.729	339.07
381.109	336.36
381.489	324.84
381.87	341.78
382.25	342.69
382.63	348.56
383.01	348.56
383.39	350.82
383.77	341.56
384.15	336.14
384.53	353.54
384.91	340.43
385.29	357.83
385.67	333.88
386.049	339.3
386.429	357.38
386.809	335.46
387.189	343.82
387.568	349.24
387.948	356.25
388.328	353.99
388.707	347.43
389.087	351.28
389.466	379.3
389.846	357.38
390.225	360.09
390.605	356.47
390.984	376.59
391.363	354.21
391.743	371.39
392.122	363.93
392.501	371.61
392.881	381.33
393.26	356.25
393.639	353.76
394.018	365.74
394.397	383.82
394.776	375.46
395.155	378.85
395.534	389.02
395.913	389.47
396.292	380.88
396.671	392.86
397.05	384.04
397.429	393.53
397.808	382.69
398.186	390.37
398.565	406.42
398.944	400.99
399.323	385.17
399.701	398.05
400.08	389.92
400.458	410.26
400.837	403.7
401.215	424.72
401.594	394.44
401.972	414.1
402.351	409.13
402.729	403.48
403.107	422.46
403.486	428.79
403.864	427.21
404.242	438.28
404.62	442.57
404.999	430.82
405.377	414.78
405.755	433.76
406.133	421.33
406.511	434.21
406.889	453.42
407.267	461.56
407.645	465.62
408.023	464.72
408.401	464.27
408.779	493.65
409.156	485.06
409.534	473.98
409.912	476.7
410.29	493.42
410.667	505.85
411.045	507.43
411.422	516.24
411.8	522.57
412.178	527.54
412.555	547.2
412.933	548.79
413.31	546.3
413.687	566.19
414.065	584.94
414.442	586.98
414.819	578.39
415.197	590.37
415.574	611.38
415.951	600.31
416.328	636.69
416.705	636.24
417.082	625.85
417.46	663.81
417.837	626.98
418.214	635.56
418.591	651.38
418.967	659.97
419.344	676.47
419.721	681.66
420.098	699.06
420.475	718.27
420.852	734.09
421.228	754.2
421.605	730.02
421.982	740.64
422.358	778.16
422.735	773.64
423.111	800.76
423.488	803.92
423.864	833.3
424.241	830.36
424.617	821.77
424.994	855.44
425.37	855.67
425.746	859.96
426.123	872.84
426.499	904.03
426.875	918.04
427.251	925.5
427.627	970.02
428.003	939.51
428.379	956.01
428.756	959.17
429.132	993.75
429.507	991.03
429.883	1014.54
430.259	1013.86
430.635	1003.69
431.011	1007.98
431.387	1041.2
431.763	1071.94
432.138	1085.49
432.514	1090.69
432.89	1095.66
433.265	1116.23
433.641	1162.78
434.016	1163.46
434.392	1171.14
434.767	1198.03
435.143	1221.76
435.518	1231.25
435.894	1278.03
436.269	1291.82
436.644	1298.14
437.02	1336.33
437.395	1353.51
437.77	1351.48
438.145	1405.71
438.52	1439.16
438.895	1432.15
439.271	1438.25
439.646	1476.67
440.021	1490.46
440.395	1517.8
440.77	1518.7
441.145	1530.91
441.52	1586.27
441.895	1576.1
442.27	1605.25
442.645	1610.45
443.019	1639.15
443.394	1646.38
443.769	1642.32
444.143	1635.08
444.518	1675.76
444.892	1682.09
445.267	1709.66
445.641	1707.17
446.016	1710.11
446.39	1755.53
446.764	1758.24
447.139	1788.07
447.513	1807.28
447.887	1782.42
448.262	1808.19
448.636	1814.06
449.01	1839.37
449.384	1850.9
449.758	1851.35
450.132	1876.89
450.506	1863.55
450.88	1914.62
451.254	1901.07
451.628	1929.77
452.002	1965.7
452.376	1981.29
452.75	1999.37
453.123	1994.4
453.497	2042.76
453.871	2039.82
454.244	2115.07
454.618	2079.59
454.992	2163.43
455.365	2122.53
455.739	2161.85
456.112	2192.58
456.486	2218.35
456.859	2207.27
457.232	2272.36
457.606	2234.16
457.979	2309.19
458.352	2358.23
458.725	2354.16
459.099	2365.46
459.472	2436.64
459.845	2466.47
460.218	2457.21
460.591	2469.19
460.964	2435.97
461.337	2522.07
461.71	2542.63
462.083	2616.53
462.456	2603.65
462.829	2638.22
463.201	2659.92
463.574	2658.56
463.947	2704.43
464.32	2749.41
464.692	2775.85
465.065	2773.81
465.438	2828.95
465.81	2817.88
466.183	2880.02
466.555	2922.28
466.928	2952.79
467.3	2915.73
467.672	2977.65
468.045	3075.72
468.417	3051.09
468.789	3073.24
469.161	3129.51
469.534	3135.84
469.906	3231.2
470.278	3231.2
470.65	3289.96
471.022	3271.43
471.394	3384.19
471.766	3400.69
472.138	3402.5
472.51	3521.14
472.882	3543.51
473.253	3560.23
473.625	3594.35
473.997	3675.71
474.369	3696.5
474.74	3742.37
475.112	3818.76
475.484	3855.14
475.855	3908.24
476.227	3875.03
476.598	4015.81
476.97	4074.12
477.341	4079.31
477.713	4125.19
478.084	4182.59
478.455	4254.68
478.827	4316.6
479.198	4434.56
479.569	4386.88
479.94	4535.35
480.311	4541.67
480.682	4656.47
481.053	4777.15
481.424	4777.15
481.795	4841.33
482.166	4907.99
482.537	4920.65
482.908	5041.77
483.279	5041.32
483.65	5160.87
484.021	5227.31
484.391	5270.47
484.762	5295.33
485.133	5399.05
485.503	5371.94
485.874	5479.05
486.244	5555.88
486.615	5679.72
486.985	5662.32
487.356	5766.27
487.726	5823.67
488.097	5879.04
488.467	5911.13
488.837	6011.24
489.207	6068.41
489.578	6194.06
489.948	6176.43
490.318	6277.45
490.688	6232.7
491.058	6338.01
491.428	6418.24
491.798	6502.98
492.168	6545.46
492.538	6576.42
492.908	6696.87
493.278	6639.25
493.648	6730.32
494.017	6837.43
494.387	6857.09
494.757	6888.73
495.126	6953.14
495.496	6966.7
495.866	6987.03
496.235	7118.1
496.605	7083.75
496.974	7106.58
497.344	7163.07
497.713	7125.11
498.082	7216.63
498.452	7230.64
498.821	7345.89
499.19	7338.66
499.559	7368.49
499.928	7376.85
500.298	7413.92
500.667	7403.97
501.036	7412.11
501.405	7511.31
501.774	7507.7
502.143	7526.45
502.512	7557.19
502.88	7579.56
503.249	7581.14
503.618	7657.75
503.987	7701.59
504.356	7702.72
504.724	7680.12
505.093	7754.02
505.462	7755.83
505.83	7804.19
506.199	7818.65
506.567	7893.22
506.936	7853.45
507.304	7912.89
507.672	7879.89
508.041	7977.29
508.409	7994.46
508.777	8000.34
509.145	7987.46
509.514	8027.46
509.882	8007.57
510.25	7997.4
510.618	8121.92
510.986	8079.66
511.354	8116.27
511.722	8135.93
512.09	8168.7
512.458	8178.19
512.826	8183.39
513.193	8198.08
513.561	8154.01
513.929	8262.93
514.297	8225.65
514.664	8290.73
515.032	8274.46
515.4	8350.16
515.767	8354.23
516.135	8326.89
516.502	8256.6
516.869	8355.59
517.237	8376.38
517.604	8323.72
517.972	8297.51
518.339	8365.75
518.706	8341.8
519.073	8357.85
519.44	8314.68
519.808	8406.43
520.175	8376.6
520.542	8447.56
520.909	8410.05
521.276	8386.09
521.643	8394
522.009	8423.15
522.376	8487.33
522.743	8433.78
523.11	8441.01
523.477	8517.84
523.843	8512.42
524.21	8523.94
524.577	8525.75
524.943	8488.69
525.31	8537.73
525.676	8542.7
526.043	8537.73
526.409	8613.66
526.776	8628.35
527.142	8610.49
527.508	8606.2
527.874	8641
528.241	8594.68
528.607	8568.24
528.973	8645.52
529.339	8608.01
529.705	8629.93
530.071	8678.06
530.437	8723.71
530.803	8693.43
531.169	8599.19
531.535	8581.12
531.901	8527.11
532.267	8530.04
532.632	8507.45
532.998	8528.24
533.364	8553.09
533.73	8542.7
534.095	8571.17
534.461	8575.92
534.826	8494.79
535.192	8538.41
535.557	8489.37
535.923	8452.98
536.288	8501.8
536.653	8431.29
537.019	8420.44
537.384	8391.74
537.749	8383.16
538.114	8388.8
538.479	8353.1
538.845	8345.19
539.21	8271.07
539.575	8235.81
539.94	8277.62
540.305	8240.56
540.67	8220.22
541.034	8182.93
541.399	8154.69
541.764	8157.4
542.129	8097.74
542.494	8126.44
542.858	8114.01
543.223	8112.88
543.587	8071.3
543.952	8033.33
544.316	7991.53
544.681	8008.02
545.045	8001.47
545.41	7974.13
545.774	7945.2
546.138	7925.09
546.503	7918.08
546.867	7841.93
547.231	7857.52
547.595	7872.43
547.959	7795.6
548.324	7757.64
548.688	7763.06
549.052	7697.52
549.416	7678.32
549.779	7695.94
550.143	7647.36
550.507	7705.66
550.871	7649.39
551.235	7606.23
551.599	7571.65
551.962	7587.7
552.326	7531.65
552.689	7567.58
553.053	7496.85
553.417	7539.79
553.78	7561.71
554.143	7501.6
554.507	7460.02
554.87	7420.02
555.234	7520.81
555.597	7455.04
555.96	7427.7
556.323	7433.35
556.686	7436.51
557.05	7369.62
557.413	7401.03
557.776	7469.28
558.139	7409.85
558.502	7371.2
558.865	7332.11
559.228	7345.67
559.59	7373.46
559.953	7336.4
560.316	7375.95
560.679	7362.39
561.041	7367.81
561.404	7341.15
561.767	7403.07
562.129	7312
562.492	7330.08
562.854	7400.58
563.217	7332.34
563.579	7364.2
563.941	7369.17
564.304	7341.37
564.666	7403.07
565.028	7448.94
565.39	7335.95
565.753	7431.32
566.115	7428.38
566.477	7451.88
566.839	7377.98
567.201	7422.95
567.563	7424.76
567.925	7415.05
568.287	7457.3
568.648	7446.23
569.01	7445.33
569.372	7507.02
569.734	7460.47
570.095	7528.49
570.457	7533.91
570.819	7547.47
571.18	7496.17
571.542	7521.71
571.903	7548.37
572.265	7555.83
572.626	7573.01
572.987	7547.47
573.349	7620.46
573.71	7610.75
574.071	7596.74
574.432	7598.54
574.794	7621.82
575.155	7627.69
575.516	7664.76
575.877	7701.82
576.238	7713.57
576.599	7632.44
576.96	7719.44
577.32	7743.85
577.681	7756.73
578.042	7751.08
578.403	7802.83
578.763	7819.55
579.124	7751.76
579.485	7799.89
579.845	7824.3
580.206	7861.36
580.566	7827.69
580.927	7857.75
581.287	7828.82
581.648	7825.88
582.008	7890.29
582.368	7844.41
582.728	7883.28
583.089	7923.51
583.449	7845.32
583.809	7954.47
584.169	7949.04
584.529	7968.7
584.889	8026.33
585.249	7953.11
585.609	8029.49
585.969	8025.42
586.329	8036.95
586.688	8021.81
587.048	8011.19
587.408	7992.21
587.768	8082.15
588.127	8094.35
588.487	8012.09
588.846	8106.78
589.206	8070.62
589.565	8068.36
589.925	8137.06
590.284	8089.83
590.643	8151.97
591.003	8207.79
591.362	8196.27
591.721	8186.55
592.08	8208.7
592.44	8279.43
592.799	8220.22
593.158	8234.23
593.517	8238.53
593.876	8251.41
594.235	8273.78
594.593	8254.57
594.952	8239.43
595.311	8215.7
595.67	8272.88
596.029	8340.44
596.387	8309.71
596.746	8319.88
597.104	8289.15
597.463	8361.01
597.822	8375.7
598.18	8287.79
598.538	8266.32
598.897	8355.13
599.255	8271.97
599.613	8423.38
599.972	8326.89
600.33	8431.29
600.688	8376.83
601.046	8412.08
601.404	8448.69
601.762	8444.85
602.12	8397.62
602.478	8405.3
602.836	8445.98
603.194	8468.12
603.552	8359.2
603.91	8340.22
604.268	8458.41
604.625	8364.85
604.983	8411.18
605.341	8452.76
605.698	8432.87
606.056	8437.62
606.413	8440.1
606.771	8433.78
607.128	8523.04
607.485	8475.81
607.843	8458.63
608.2	8557.16
608.557	8539.31
608.914	8549.93
609.272	8533.66
609.629	8626.76
609.986	8550.61
610.343	8524.85
610.7	8608.69
611.057	8619.76
611.414	8599.87
611.771	8554.68
612.127	8581.12
612.484	8652.98
612.841	8667.67
613.198	8661.57
613.554	8587.44
613.911	8690.49
614.267	8619.76
614.624	8655.46
614.98	8660.89
615.337	8742.24
615.693	8638.74
616.05	8647.56
616.406	8714.9
616.762	8662.7
617.118	8712.86
617.475	8725.29
617.831	8705.86
618.187	8710.38
618.543	8711.51
618.899	8803.71
619.255	8763.94
619.611	8787.21
619.967	8799.42
620.323	8735.69
620.678	8752.64
621.034	8767.55
621.39	8712.41
621.746	8773.2
622.101	8863.14
622.457	8743.37
622.812	8806.2
623.168	8808.23
623.523	8814.1
623.879	8843.71
624.234	8792.64
624.589	8750.83
624.945	8808.45
625.3	8787.44
625.655	8795.8
626.01	8799.42
626.365	8774.11
626.72	8757.38
627.075	8798.96
627.43	8732.98
627.785	8775.01
628.14	8795.35
628.495	8735.69
628.85	8776.82
629.205	8687.33
629.559	8778.63
629.914	8746.54
630.269	8746.08
630.623	8734.11
630.978	8714.9
631.332	8698.18
631.687	8724.16
632.041	8711.73
632.396	8709.7
632.75	8688.01
633.104	8619.08
633.459	8630.83
633.813	8652.3
634.167	8629.48
634.521	8615.69
634.875	8665.86
635.229	8619.76
635.583	8570.04
635.937	8548.35
636.291	8542.02
636.645	8568.24
636.999	8543.38
637.352	8562.81
637.706	8530.27
638.06	8514.45
638.413	8502.47
638.767	8513.55
639.121	8510.38
639.474	8448.01
639.828	8502.7
640.181	8432.87
640.534	8526.65
640.888	8475.13
641.241	8470.38
641.594	8420.44
641.947	8497.28
642.301	8410.27
642.654	8447.11
643.007	8461.8
643.36	8434.91
643.713	8477.39
644.066	8506.77
644.419	8378.41
644.771	8353.55
645.124	8280.33
645.477	8282.59
645.83	8241.92
646.182	8237.62
646.535	8171.86
646.888	8118.98
647.24	8124.18
647.593	8205.31
647.945	8138.19
648.298	8219.77
648.65	8141.13
649.002	8083.28
649.355	8122.6
649.707	8230.16
650.059	8178.19
650.411	8257.73
650.763	8226.78
651.115	8347.9
651.467	8291.18
651.819	8301.8
652.171	8315.13
652.523	8255.48
652.875	8245.08
653.227	8311.52
653.578	8300.22
653.93	8354.23
654.282	8338.64
654.633	8332.76
654.985	8258.19
655.337	8257.28
655.688	8335.7
656.039	8387.22
656.391	8261.35
656.742	8286.43
657.094	8331.86
657.445	8395.13
657.796	8335.47
658.147	8300.22
658.498	8293.21
658.849	8327.56
659.2	8297.51
659.551	8303.84
659.902	8420.67
660.253	8377.05
660.604	8415.7
660.955	8354.91
661.306	8319.65
661.656	8337.96
662.007	8330.95
662.358	8360.33
662.708	8403.04
663.059	8385.19
663.409	8238.07
663.76	8382.25
664.11	8352.65
664.461	8442.59
664.811	8351.07
665.161	8386.55
665.511	8332.08
665.862	8405.08
666.212	8467.22
666.562	8400.78
666.912	8364.85
667.262	8375.47
667.612	8401.91
667.962	8447.56
668.312	8421.12
668.662	8443.72
669.011	8403.72
669.361	8417.28
669.711	8442.59
670.06	8346.32
670.41	8423.61
670.76	8359.43
671.109	8421.12
671.459	8391.97
671.808	8381.57
672.157	8425.64
672.507	8388.8
672.856	8311.52
673.205	8320.33
673.554	8271.07
673.904	8307.23
674.253	8330.05
674.602	8304.29
674.951	8192.65
675.3	8179.32
675.649	8268.58
675.998	8291.63
676.346	8269.71
676.695	8333.67
677.044	8215.48
677.393	8148.13
677.741	8301.12
678.09	8218.87
678.438	8226.1
678.787	8237.62
679.135	8218.87
679.484	8184.52
679.832	8190.39
680.181	8180.9
680.529	8177.74
680.877	8196.27
681.225	8153.56
681.573	8144.52
681.922	8064.97
682.27	8134.12
682.618	8120.11
682.966	7994.92
683.314	8075.59
683.661	8037.18
684.009	8079.21
684.357	7963.51
684.705	7939.78
685.053	7949.49
685.4	7925.54
685.748	7899.55
686.095	7907.24
686.443	7825.43
686.79	7850.97
687.138	7893
687.485	7872.43
687.832	7803.51
688.18	7780.01
688.527	7786.79
688.874	7791.53
689.221	7780.69
689.568	7712.89
689.915	7675.15
690.262	7729.39
690.609	7679.67
690.956	7604.42
691.303	7593.57
691.65	7585.44
691.997	7566.68
692.344	7513.57
692.69	7494.82
693.037	7553.57
693.383	7458.66
693.73	7460.24
694.077	7419.56
694.423	7371.66
694.769	7431.77
695.116	7323.52
695.462	7316.29
695.808	7308.16
696.155	7340.47
696.501	7204.43
696.847	7302.96
697.193	7180.48
697.539	7270.42
697.885	7138.89
698.231	7034.04
698.577	7043.08
698.923	7117.2
699.269	6973.02
699.614	7000.14
699.96	6982.74
700.306	6969.41
700.651	6973.7
700.997	6858.68
701.342	6888.51
701.688	6853.7
702.033	6865.91
702.379	6856.64
702.724	6774.61
703.069	6826.13
703.415	6686.02
703.76	6756.98
704.105	6785.01
704.45	6701.39
704.795	6636.53
705.14	6599.47
705.485	6669.53
705.83	6603.54
706.175	6607.16
706.52	6590.43
706.865	6543.43
707.209	6507.27
707.554	6539.59
707.899	6510.44
708.243	6503.43
708.588	6427.05
708.932	6408.29
709.277	6386.82
709.621	6429.99
709.966	6424.79
710.31	6399.25
710.654	6229.77
710.998	6248.07
711.342	6345.02
711.687	6343.21
712.031	6293.04
712.375	6212.82
712.719	6280.16
713.063	6274.74
713.407	6274.96
713.75	6211.23
714.094	6145.7
714.438	6178.24
714.782	6204.91
715.125	6186.6
715.469	6142.54
715.812	6192.93
716.156	6117.23
716.499	6104.57
716.843	6140.73
717.186	6072.71
717.53	6125.59
717.873	6144.57
718.216	6100.96
718.559	6062.09
718.902	6048.53
719.246	6076.55
719.589	6055.98
719.932	6041.07
720.275	6012.14
720.617	6029.77
720.96	6024.8
721.303	5965.59
721.646	6040.17
721.989	5979.83
722.331	5982.99
722.674	5974.63
723.016	5991.58
723.359	5993.16
723.701	5984.12
724.044	5966.72
724.386	5900.06
724.729	6013.5
725.071	5943.45
725.413	5933.5
725.755	5982.77
726.097	5928.98
726.439	5855.31
726.782	5911.13
727.124	5968.3
727.465	5916.78
727.807	5885.14
728.149	5913.84
728.491	5826.61
728.833	5889.44
729.175	5947.29
729.516	5878.81
729.858	5901.41
730.199	5900.28
730.541	5867.74
730.882	5818.25
731.224	5939.6
731.565	5841.98
731.906	5893.96
732.248	5884.92
732.589	5886.05
732.93	5840.17
733.271	5861.41
733.612	5867.29
733.953	5898.02
734.294	5873.39
734.635	5882.66
734.976	5926.5
735.317	5881.53
735.658	5855.76
735.999	5859.38
736.339	5881.07
736.68	5926.5
737.021	5894.18
737.361	5911.81
737.702	5871.36
738.042	5963.78
738.383	5938.25
738.723	5967.63
739.063	5923.33
739.404	5976.89
739.744	5918.81
740.084	5977.34
740.424	6004.69
740.764	6052.6
741.104	6050.56
741.444	6014.18
741.784	5987.29
742.124	6063.89
742.464	6058.92
742.804	6080.62
743.143	6044.69
743.483	6090.33
743.823	6088.3
744.162	6110.22
744.502	6150.67
744.841	6177.79
745.181	6195.42
745.52	6246.49
745.86	6309.54
746.199	6279.03
746.538	6281.52
746.877	6438.35
747.216	6443.09
747.556	6451
747.895	6562.19
748.234	6489.19
748.573	6590.89
748.911	6687.15
749.25	6701.39
749.589	6776.87
749.928	6764.44
750.267	6901.16
750.605	6913.36
750.944	7006.47
751.283	6959.69
751.621	7136.86
751.96	7208.04
752.298	7320.81
752.636	7390.19
752.975	7451.43
753.313	7547.92
753.651	7652.55
753.989	7743.17
754.327	7850.51
754.666	7979.78
755.004	8090.51
755.342	8224.74
755.679	8330.05
756.017	8458.63
756.355	8551.29
756.693	8675.58
757.031	8832.41
757.368	8988.56
757.706	9124.15
758.044	9192.85
758.381	9430.36
758.719	9552.84
759.056	9699.28
759.394	9808.43
759.731	9969.33
760.068	10151.24
760.405	10261.98
760.743	10400.28
761.08	10612.7
761.417	10781.28
761.754	10929.98
762.091	11139.92
762.428	11189.41
762.765	11387.14
763.102	11649.28
763.438	11823.06
763.775	11866.91
764.112	12058.99
764.449	12265.31
764.785	12424.18
765.122	12586.89
765.458	12743.72
765.795	12856.71
766.131	13085.86
766.467	13206.98
766.804	13254.89
767.14	13378.28
767.476	13636.12
767.812	13715.9
768.148	13834.76
768.485	13983.23
