Data from hue_26_FLMS001491_00010.txt Node
Date: Tue Feb 07 17:13:30 GMT 2017
User: dcchb
Spectrometer: FLMS00149
Trigger mode: 0
Integration Time (sec): 2.000000E-2
Scans to average: 10
Electric dark correction enabled: true
Nonlinearity correction enabled: false
Boxcar width: 0
XAxis mode: Wavelengths
Number of Pixels in Spectrum: 2048
>>>>>Begin Spectral Data<<<<<
341.393	-11.98
341.776	-11.98
342.16	-11.98
342.543	-77.29
342.927	-61.02
343.31	-63.73
343.693	-61.47
344.077	-89.04
344.46	-59.66
344.843	-41.58
345.226	-50.62
345.61	-32.77
345.993	-24.18
346.376	1.58
346.759	26.67
347.142	28.7
347.525	50.85
347.908	63.5
348.291	76.83
348.674	84.29
349.057	90.62
349.44	155.25
349.823	145.31
350.206	181.92
350.588	203.61
350.971	207
351.354	216.27
351.737	254
352.119	265.53
352.502	259.2
352.884	273.21
353.267	286.32
353.65	296.72
354.032	290.16
354.414	306.88
354.797	325.87
355.179	311.4
355.562	302.14
355.944	334.68
356.326	324.06
356.709	316.83
357.091	327
357.473	338.75
357.855	349.37
358.238	355.92
358.62	352.31
359.002	342.36
359.384	340.33
359.766	350.95
360.148	332.19
360.53	333.1
360.912	332.87
361.294	334.91
361.676	326.09
362.057	326.55
362.439	348.92
362.821	311.4
363.203	314.57
363.584	312.53
363.966	322.25
364.348	348.47
364.729	333.78
365.111	333.55
365.493	320.67
365.874	328.58
366.256	299.88
366.637	313.44
367.019	322.93
367.4	335.81
367.781	298.75
368.163	327.9
368.544	321.8
368.925	306.66
369.306	338.3
369.688	338.75
370.069	311.86
370.45	308.01
370.831	345.53
371.212	319.54
371.593	327.22
371.974	297.85
372.355	327
372.736	331.97
373.117	322.93
373.498	313.44
373.879	306.88
374.26	313.66
374.641	305.98
375.021	321.12
375.402	330.84
375.783	335.36
376.163	319.54
376.544	333.32
376.925	342.36
377.305	311.86
377.686	342.82
378.066	330.39
378.447	323.61
378.827	337.39
379.208	338.3
379.588	334.68
379.968	324.06
380.349	329.48
380.729	338.97
381.109	341.23
381.489	350.27
381.87	340.56
382.25	323.61
382.63	330.84
383.01	342.14
383.39	338.07
383.77	352.76
384.15	341.46
384.53	337.62
384.91	355.7
385.29	333.1
385.67	350.5
386.049	359.09
386.429	338.52
386.809	363.61
387.189	355.92
387.568	350.27
387.948	331.74
388.328	353.44
388.707	350.73
389.087	343.95
389.466	380.78
389.846	358.18
390.225	368.35
390.605	356.83
390.984	363.15
391.363	384.62
391.743	355.92
392.122	371.06
392.501	378.75
392.881	381.68
393.26	397.73
393.639	372.42
394.018	375.58
394.397	367.9
394.776	368.13
395.155	367.22
395.534	389.37
395.913	384.4
396.292	409.03
396.671	381.01
397.05	364.51
397.429	393.44
397.808	377.39
398.186	391.4
398.565	383.94
398.944	375.81
399.323	389.37
399.701	405.64
400.08	418.29
400.458	418.52
400.837	399.76
401.215	414.23
401.594	406.54
401.972	397.5
402.351	410.84
402.729	411.97
403.107	407.22
403.486	414.45
403.864	415.36
404.242	407.9
404.62	417.62
404.999	441.12
405.377	411.97
405.755	429.82
406.133	419.65
406.511	416.71
406.889	421.01
407.267	423.49
407.645	433.89
408.023	436.37
408.401	428.69
408.779	436.15
409.156	431.85
409.534	435.92
409.912	446.54
410.29	432.76
410.667	455.13
411.045	463.94
411.422	451.51
411.8	460.33
412.178	461
412.555	471.4
412.933	470.72
413.31	460.33
413.687	458.07
414.065	511.4
414.442	460.55
414.819	466.43
415.197	492.64
415.574	495.81
415.951	497.84
416.328	486.99
416.705	494.9
417.082	509.14
417.46	478.41
417.837	501.91
418.214	482.93
418.591	507.33
418.967	510.27
419.344	505.75
419.721	504.39
420.098	528.8
420.475	487.22
420.852	510.5
421.228	524.96
421.605	529.25
421.982	530.61
422.358	539.87
422.735	537.84
423.111	547.33
423.488	538.74
423.864	556.6
424.241	549.59
424.617	550.49
424.994	569.7
425.37	544.84
425.746	535.81
426.123	574.9
426.499	584.62
426.875	571.06
427.251	568.12
427.627	575.35
428.003	588.01
428.379	587.33
428.756	592.75
429.132	594.33
429.507	597.05
429.883	614.9
430.259	606.99
430.635	642.47
431.011	632.07
431.387	623.94
431.763	615.13
432.138	663.49
432.514	660.1
432.89	644.73
433.265	648.8
433.641	651.28
434.016	674.33
434.392	665.75
434.767	686.76
435.143	683.15
435.518	662.36
435.894	701.45
436.269	694.22
436.644	715.46
437.02	703.71
437.395	697.61
437.77	690.15
438.145	743.26
438.52	728.79
438.895	715.01
439.271	733.31
439.646	729.02
440.021	760.66
440.395	727.21
440.77	736.48
441.145	749.81
441.52	756.14
441.895	728.57
442.27	741.22
442.645	791.39
443.019	769.25
443.394	786.42
443.769	779.64
444.143	790.94
444.518	784.61
444.892	790.94
445.267	793.88
445.641	831.62
446.016	808.79
446.39	818.96
446.764	819.19
447.139	817.83
447.513	808.79
447.887	833.88
448.262	831.84
448.636	843.82
449.01	833.88
449.384	844.5
449.758	847.66
450.132	845.63
450.506	865.74
450.88	859.41
451.254	882.91
451.628	864.84
452.002	885.63
452.376	894.21
452.75	892.41
453.123	897.38
453.497	908.45
453.871	891.95
454.244	936.47
454.618	940.09
454.992	972.63
455.365	965.17
455.739	955.46
456.112	986.19
456.486	973.31
456.859	965.4
457.232	1004.95
457.606	957.94
457.979	1004.72
458.352	1029.35
458.725	1028.9
459.099	1046.53
459.472	1082.46
459.845	1059.63
460.218	1078.16
460.591	1065.51
460.964	1063.7
461.337	1111.61
461.71	1115.9
462.083	1109.8
462.456	1136.69
462.829	1117.48
463.201	1152.06
463.574	1164.72
463.947	1192.96
464.32	1173.08
464.692	1223.7
465.065	1182.57
465.438	1237.48
465.81	1235.45
466.183	1273.86
466.555	1288.78
466.928	1282.9
467.3	1313.41
467.672	1307.99
468.045	1345.73
468.417	1314.99
468.789	1339.17
469.161	1370.13
469.534	1401.32
469.906	1407.42
470.278	1425.73
470.65	1439.96
471.022	1482.9
471.394	1504.14
471.766	1480.87
472.138	1523.35
472.51	1544.37
472.882	1591.37
473.253	1614.19
473.625	1607.19
473.997	1680.63
474.369	1664.81
474.74	1718.82
475.112	1696
475.484	1759.05
475.855	1776.22
476.227	1800.86
476.598	1857.58
476.97	1878.14
477.341	1902.1
477.713	1941.87
478.084	1958.59
478.455	1995.65
478.827	2031.13
479.198	2102.32
479.569	2104.35
479.94	2148.19
480.311	2183.45
480.682	2215.31
481.053	2310.9
481.424	2302.99
481.795	2360.39
482.166	2398.13
482.537	2444.46
482.908	2483.32
483.279	2495.53
483.65	2592.47
484.021	2609.42
484.391	2636.09
484.762	2716.99
485.133	2699.14
485.503	2754.5
485.874	2834.28
486.244	2883.31
486.615	2944.33
486.985	2959.47
487.356	3014.84
487.726	3089.18
488.097	3164.89
488.467	3156.08
488.837	3199.46
489.207	3257.54
489.578	3345
489.948	3389.06
490.318	3442.4
490.688	3430.64
491.058	3508.83
491.428	3554.71
491.798	3586.8
492.168	3629.96
492.538	3702.28
492.908	3756.74
493.278	3802.84
493.648	3819.33
494.017	3906.34
494.387	3929.84
494.757	3936.85
495.126	4006.45
495.496	4063.4
495.866	4065.43
496.235	4097.97
496.605	4138.65
496.974	4164.18
497.344	4250.06
497.713	4331.41
498.082	4321.24
498.452	4365.76
498.821	4367.34
499.19	4369.38
499.559	4469.04
499.928	4450.96
500.298	4479.66
500.667	4572.99
501.036	4611.18
501.405	4587.9
501.774	4633.78
502.143	4657.28
502.512	4667.67
502.88	4745.41
503.249	4751.06
503.618	4767.78
503.987	4829.7
504.356	4794
504.724	4878.06
505.093	4864.96
505.462	4958.06
505.83	4943.6
506.199	4959.42
506.567	5057.72
506.936	5006.42
507.304	5063.82
507.672	5130.71
508.041	5133.2
508.409	5156.25
508.777	5217.26
509.145	5230.6
509.514	5187.66
509.882	5236.92
510.25	5311.27
510.618	5260.88
510.986	5341.1
511.354	5357.15
511.722	5411.38
512.09	5457.48
512.458	5391.27
512.826	5487.54
513.193	5466.75
513.561	5518.27
513.929	5535
514.297	5607.76
514.664	5587.2
515.032	5643.92
515.4	5666.97
515.767	5684.37
516.135	5673.98
516.502	5684.82
516.869	5781.09
517.237	5773.41
517.604	5739.96
517.972	5873.74
518.339	5870.13
518.706	5880.3
519.073	5904.93
519.44	5926.17
519.808	6000.97
520.175	5998.03
520.542	6068.99
520.909	6082.1
521.276	6083
521.643	6023.57
522.009	6140.18
522.376	6180.85
522.743	6167.07
523.11	6245.94
523.477	6306.05
523.843	6358.48
524.21	6369.1
524.577	6404.8
524.943	6441.64
525.31	6493.61
525.676	6504.46
526.043	6540.62
526.409	6555.08
526.776	6609.54
527.142	6633.72
527.508	6668.07
527.874	6695.19
528.241	6731.8
528.607	6775.64
528.973	6796.66
529.339	6826.26
529.705	6854.96
530.071	6919.59
530.437	6973.83
530.803	6968.4
531.169	7035.52
531.535	7016.09
531.901	7061.06
532.267	7094.5
532.632	7161.39
532.998	7183.77
533.364	7192.58
533.73	7235.52
534.095	7323.88
534.461	7311.67
534.826	7391.9
535.192	7365
535.557	7447.26
535.923	7381.95
536.288	7449.52
536.653	7464.89
537.019	7464.66
537.384	7473.02
537.749	7578.56
538.114	7598.67
538.479	7581.27
538.845	7722.06
539.21	7644.54
539.575	7745.33
539.94	7706.24
540.305	7746.69
540.67	7819.91
541.034	7821.26
541.399	7887.48
541.764	7890.64
542.129	7934.03
542.494	7943.75
542.858	7970.19
543.223	8028.04
543.587	8100.35
543.952	8046.57
544.316	8072.78
544.681	8134.7
545.045	8201.59
545.41	8222.83
545.774	8187.81
546.138	8233.46
546.503	8248.82
546.867	8230.74
547.231	8370.85
547.595	8356.16
547.959	8388.71
548.324	8456.95
548.688	8410.4
549.052	8479.33
549.416	8506.89
549.779	8584.18
550.143	8609.49
550.507	8608.59
550.871	8626.89
551.235	8641.81
551.599	8688.59
551.962	8721.35
552.326	8702.37
552.689	8795.93
553.053	8715.03
553.417	8806.32
553.78	8894.68
554.143	8893.78
554.507	8919.99
554.87	8928.8
555.234	9024.62
555.597	8935.36
555.96	8982.81
556.323	9091.29
556.686	9068.46
557.05	9155.01
557.413	9155.47
557.776	9154.56
558.139	9193.66
558.502	9199.98
558.865	9276.14
559.228	9281.56
559.59	9383.93
559.953	9364.05
560.316	9460.77
560.679	9447.44
561.041	9414.67
561.404	9492.41
561.767	9614.66
562.129	9536.02
562.492	9623.25
562.854	9670.25
563.217	9691.5
563.579	9623.02
563.941	9749.35
564.304	9775.11
564.666	9817.59
565.028	9856.69
565.39	9925.39
565.753	9966.29
566.115	9942.79
566.477	10030.02
566.839	10038.83
567.201	10117.7
567.563	10088.55
567.925	10205.38
568.287	10165.16
568.648	10266.85
569.01	10285.61
569.372	10310.01
569.734	10332.16
570.095	10374.42
570.457	10364.93
570.819	10493.06
571.18	10511.14
571.542	10532.6
571.903	10532.83
572.265	10615.09
572.626	10703
572.987	10727.4
573.349	10790.68
573.71	10851.01
574.071	10911.8
574.432	10957.9
574.794	11046.94
575.155	11168.29
575.516	11047.39
575.877	11214.62
576.238	11179.14
576.599	11265.24
576.96	11405.35
577.32	11432.02
577.681	11591.11
578.042	11688.28
578.403	11722.63
578.763	11751.33
579.124	11957.65
579.485	12044.66
579.845	12124.2
580.206	12140.92
580.566	12298.21
580.927	12449.39
581.287	12592.66
581.648	12691.64
582.008	12931.86
582.368	13099.54
582.728	13187.45
583.089	13356.48
583.449	13498.63
583.809	13687.55
584.169	13872.4
584.529	13990.82
584.889	14278.27
585.249	14460.64
585.609	14493.4
585.969	14856.78
586.329	14974.3
586.688	15233.5
587.048	15411.35
587.408	15596.43
587.768	15744.9
588.127	15963.87
588.487	16260.14
588.846	16628.26
589.206	16754.81
589.565	16988.03
589.925	17307.57
590.284	17503.27
590.643	17888.57
591.003	18158.62
591.362	18449.46
591.721	18671.15
592.08	18940.97
592.44	19324.92
592.799	19556.77
593.158	19788.41
593.517	20084.67
593.876	20459.35
594.235	20630.42
594.593	20996.51
594.952	21320.8
595.311	21523.05
595.67	21852.08
596.029	22340.66
596.387	22656.58
596.746	22925.95
597.104	23120.07
597.463	23445.71
597.822	23780.39
598.18	23983.32
598.538	24260.61
598.897	24787.37
599.255	24754.15
599.613	25522.49
599.972	25493.79
600.33	25897.85
600.688	26067.56
601.046	26522.47
601.404	26920.65
601.762	27118.16
602.12	27515.43
602.478	27849.21
602.836	28114.29
603.194	28164.46
603.552	28500.72
603.91	28837.21
604.268	29086.92
604.625	29273.13
604.983	29625.44
605.341	29809.61
605.698	30222.03
606.056	30439.2
606.413	30613.66
606.771	30894.78
607.128	31266.97
607.485	31292.51
607.843	31637.81
608.2	31981.08
608.557	32292.26
608.914	32498.35
609.272	32789.87
609.629	32998.45
609.986	33347.6
610.343	33420.59
610.7	33766.57
611.057	33918.43
611.414	34106.22
611.771	34394.58
612.127	34628.92
612.484	34890.16
612.841	35067.78
613.198	35089.02
613.554	35348.22
613.911	35649.23
614.267	35826.63
614.624	35815.56
614.98	36193.4
615.337	36499.61
615.693	36605.82
616.05	36595.87
616.406	37144.11
616.762	36886.94
617.118	37076.99
617.475	37218.91
617.831	37546.36
618.187	37644.66
618.543	37881.49
618.899	38209.39
619.255	38182.27
619.611	38222.27
619.967	38594.01
620.323	38630.85
620.678	38724.86
621.034	38747.68
621.39	38877.62
621.746	38869.49
622.101	39371.85
622.457	39219.53
622.812	39425.63
623.168	39535.46
623.523	39706.98
623.879	39841.66
624.234	39734.32
624.589	39875.79
624.945	39999.85
625.3	40222.67
625.655	39996.01
626.01	40266.29
626.365	40271.26
626.72	40323.69
627.075	40398.49
627.43	40582.66
627.785	40446.62
628.14	40761.87
628.495	40769.32
628.85	40720.96
629.205	40659.04
629.559	41009.77
629.914	40880.06
630.269	40798.48
630.623	40972.03
630.978	40869.66
631.332	41051.12
631.687	41188.97
632.041	41037.79
632.396	41220.16
632.75	41182.87
633.104	41114.4
633.459	41037.79
633.813	41070.56
634.167	41089.54
634.521	41143.1
634.875	41091.35
635.229	41071.69
635.583	41093.38
635.937	41070.33
636.291	41161.18
636.645	41238.92
636.999	41066.94
637.352	41251.12
637.706	41026.04
638.06	41226.49
638.413	41093.61
638.767	41095.64
639.121	41168.41
639.474	41016.1
639.828	41069.43
640.181	41121.86
640.534	41146.04
640.888	40980.17
641.241	40821.07
641.594	40966.15
641.947	41182.42
642.301	41012.03
642.654	41150.78
643.007	41046.15
643.36	41067.17
643.713	41022.2
644.066	41049.54
644.419	40895.87
644.771	40615.88
645.124	40382.89
645.477	40370.24
645.83	40082.34
646.182	40033.3
646.535	39817.48
646.888	39783.81
647.24	39690.71
647.593	39843.25
647.945	39847.77
648.298	39511.73
648.65	39754.43
649.002	39500.43
649.355	39680.99
649.707	39790.14
650.059	39974.09
650.411	40548.54
650.763	40409.78
651.115	40785.59
651.467	40531.36
651.819	40594.19
652.171	40409.56
652.523	40658.14
652.875	40564.13
653.227	40342.67
653.578	40680.96
653.93	40621.76
654.282	40395.55
654.633	40387.64
654.985	40524.36
655.337	40514.87
655.688	40509.22
656.039	40518.48
656.391	40245.27
656.742	40330.24
657.094	40384.02
657.445	40498.14
657.796	40481.87
658.147	40278.26
658.498	40317.81
658.849	40421.99
659.2	40318.26
659.551	40285.72
659.902	40399.16
660.253	40309.45
660.604	40386.73
660.955	40199.39
661.306	40324.82
661.656	40231.26
662.007	40078.27
662.358	40225.16
662.708	40332.05
663.059	40277.13
663.409	39978.38
663.76	40336.79
664.11	40232.16
664.461	40377.92
664.811	40261.99
665.161	40166.63
665.511	40239.85
665.862	40221.54
666.212	40167.31
666.562	40272.39
666.912	40200.98
667.262	40159.17
667.612	40197.36
667.962	40177.02
668.312	40197.81
668.662	40309.67
669.011	40194.88
669.361	40114.43
669.711	40222.45
670.06	40108.78
670.41	40006.41
670.76	39968.44
671.109	40127.08
671.459	40077.14
671.808	40004.82
672.157	40009.12
672.507	39840.76
672.856	39792.63
673.205	39914.88
673.554	40076.69
673.904	39861.55
674.253	39967.54
674.602	40014.77
674.951	39285.07
675.3	39250.27
675.649	39834.21
675.998	39817.26
676.346	39959.18
676.695	39876.47
677.044	39616.13
677.393	39703.14
677.741	39783.81
678.09	39743.36
678.438	39423.82
678.787	39624.27
679.135	39626.08
679.484	39437.61
679.832	39524.61
680.181	39295.46
680.529	39391.51
680.877	39357.61
681.225	39193.77
681.573	39531.16
681.922	39262.7
682.27	39126.43
682.618	39158.29
682.966	39077.16
683.314	39240.1
683.661	39048.01
684.009	38865.42
684.357	38848.24
684.705	38874.23
685.053	38896.15
685.4	38790.17
685.748	38656.16
686.095	38632.88
686.443	38539.78
686.79	38417.97
687.138	38470.4
687.485	38451.42
687.832	38295.04
688.18	38297.52
688.527	38094.82
688.874	38085.1
689.221	37984.76
689.568	37911.55
689.915	37896.63
690.262	37766.92
690.609	37580.93
690.956	37566.92
691.303	37546.36
691.65	37355.4
691.997	37378.23
692.344	37185.91
692.69	37236.31
693.037	37194.05
693.383	36918.35
693.73	37124.45
694.077	36843.55
694.423	36768.07
694.769	36643.56
695.116	36644.01
695.462	36683.1
695.808	36512.94
696.155	36561.07
696.501	36423
696.847	36441.75
697.193	36085.38
697.539	36194.08
697.885	35941.88
698.231	35827.76
698.577	35857.14
698.923	35880.41
699.269	35700.08
699.614	35509.12
699.96	35368.11
700.306	35387.54
700.651	35328.34
700.997	35065.97
701.342	35115.46
701.688	35098.74
702.033	35007.44
702.379	34805.64
702.724	34817.16
703.069	34823.27
703.415	34592.31
703.76	34561.35
704.105	34660.78
704.45	34467.34
704.795	34265.77
705.14	34262.6
705.485	34063.51
705.83	34043.17
706.175	34125.2
706.52	34040.46
706.865	33871.2
707.209	33831.65
707.554	33664.2
707.899	33697.19
708.243	33566.35
708.588	33605.44
708.932	33327.26
709.277	33380.14
709.621	33325.23
709.966	33064.44
710.31	33103.08
710.654	32875.52
710.998	32961.17
711.342	33001.84
711.687	32903.99
712.031	32784.67
712.375	32595.53
712.719	32562.08
713.063	32536.09
713.407	32739.03
713.75	32477.11
714.094	32466.72
714.438	32353.05
714.782	32367.96
715.125	32220.62
715.469	32308.98
715.812	32081.19
716.156	31948.76
716.499	31986.05
716.843	31852.5
717.186	31880.07
717.53	31954.41
717.873	31897.69
718.216	31779.28
718.559	31682.78
718.902	31496.8
719.246	31649.56
719.589	31359.18
719.932	31344.94
720.275	31298.16
720.617	31257.26
720.96	31190.59
721.303	31245.51
721.646	31278.73
721.989	31060.65
722.331	31189.24
722.674	31059.52
723.016	31007.55
723.359	31049.58
723.701	31029.69
724.044	30772.07
724.386	30713.09
724.729	30743.82
725.071	30751.51
725.413	30743.37
725.755	30662.47
726.097	30581.12
726.439	30448.24
726.782	30366.89
727.124	30488.01
727.465	30215.93
727.807	30344.06
728.149	30286.21
728.491	30201.24
728.833	30309.71
729.175	30138.42
729.516	30062.94
729.858	29999.21
730.199	30132.77
730.541	29861.36
730.882	29956.05
731.224	30073.56
731.565	29783.85
731.906	29753.79
732.248	29839.22
732.589	29706.79
732.93	29497.76
733.271	29601.71
733.612	29643.29
733.953	29683.51
734.294	29435.84
734.635	29424.09
734.976	29434.93
735.317	29330.3
735.658	29321.71
735.999	29257.99
736.339	29309.74
736.68	29322.39
737.021	29232
737.361	29106.35
737.702	29265.22
738.042	29223.86
738.383	29038.33
738.723	29102.29
739.063	28902.29
739.404	28983.64
739.744	28896.42
740.084	28834.04
740.424	28851.22
740.764	28779.81
741.104	28932.57
741.444	28713.6
741.784	28544.11
742.124	28618.68
742.464	28649.87
742.804	28656.42
743.143	28530.32
743.483	28597.67
743.823	28336.88
744.162	28285.36
744.502	28351.8
744.841	28208.3
745.181	28344.11
745.52	28247.62
745.86	28210.78
746.199	28147.96
746.538	28068.41
746.877	28160.39
747.216	28073.84
747.556	28025.7
747.895	28022.54
748.234	27886.5
748.573	27856.67
748.911	27761.98
749.25	27845.6
749.589	27713.62
749.928	27726.5
750.267	27790.91
750.605	27854.63
750.944	27664.81
751.283	27548.43
751.621	27595.43
751.96	27458.49
752.298	27456
752.636	27504.14
752.975	27350.24
753.313	27290.13
753.651	27471.14
753.989	27111.15
754.327	27110.7
754.666	27039.52
755.004	27010.82
755.342	27258.27
755.679	26971.49
756.017	26722.69
756.355	26892.85
756.693	26738.73
757.031	26725.62
757.368	26687.21
757.706	26635.46
758.044	26532.86
758.381	26482.92
758.719	26378.52
759.056	26530.83
759.394	26346.43
759.731	26195.47
760.068	26274.79
