Data from hue_170_FLMS001491_00015.txt Node
Date: Tue Feb 07 16:48:19 GMT 2017
User: dcchb
Spectrometer: FLMS00149
Trigger mode: 0
Integration Time (sec): 2.000000E-2
Scans to average: 10
Electric dark correction enabled: true
Nonlinearity correction enabled: false
Boxcar width: 0
XAxis mode: Wavelengths
Number of Pixels in Spectrum: 2048
>>>>>Begin Spectral Data<<<<<
341.393	7.54
341.776	7.54
342.16	7.54
342.543	-73.13
342.927	-77.2
343.31	-59.57
343.693	-80.14
344.077	-63.87
344.46	-77.65
344.843	-55.51
345.226	-39.01
345.61	-28.39
345.993	-27.94
346.376	-15.06
346.759	17.94
347.142	29.46
347.525	39.18
347.908	71.72
348.291	72.63
348.674	94.09
349.057	122.12
349.44	140.87
349.823	112.85
350.206	160.31
350.588	190.59
350.971	210.47
351.354	229.01
351.737	248.44
352.119	265.16
352.502	254.32
352.884	274.88
353.267	309
353.65	301.55
354.032	297.03
354.414	307.87
354.797	303.81
355.179	330.7
355.562	331.38
355.944	340.41
356.326	325.5
356.709	345.61
357.091	334.31
357.473	347.42
357.855	372.5
358.238	362.79
358.62	362.79
359.002	331.38
359.384	344.93
359.766	354.88
360.148	358.95
360.53	336.35
360.912	349.45
361.294	353.75
361.676	330.02
362.057	326.18
362.439	353.52
362.821	339.28
363.203	344.93
363.584	346.97
363.966	334.09
364.348	338.61
364.729	351.49
365.111	316.69
365.493	321.66
365.874	336.57
366.256	318.04
366.637	311.49
367.019	308.78
367.4	332.73
367.781	317.59
368.163	320.3
368.544	318.27
368.925	297.48
369.306	353.97
369.688	349.23
370.069	324.14
370.45	309.46
370.831	295.9
371.212	326.18
371.593	311.26
371.974	297.7
372.355	313.52
372.736	314.65
373.117	313.3
373.498	326.63
373.879	329.79
374.26	308.78
374.641	311.04
375.021	309.46
375.402	347.87
375.783	335.67
376.163	331.6
376.544	359.17
376.925	355.33
377.305	335.22
377.686	331.6
378.066	326.18
378.447	326.4
378.827	335.22
379.208	334.99
379.588	341.54
379.968	337.7
380.349	338.15
380.729	322.79
381.109	323.01
381.489	348.32
381.87	325.5
382.25	333.41
382.63	334.54
383.01	347.42
383.39	358.95
383.77	351.94
384.15	345.16
384.53	349
384.91	355.78
385.29	357.82
385.67	357.59
386.049	339.06
386.429	352.84
386.809	361.88
387.189	341.77
387.568	356.46
387.948	366.85
388.328	365.05
388.707	360.3
389.087	361.88
389.466	363.24
389.846	370.92
390.225	351.71
390.605	373.86
390.984	364.14
391.363	379.51
391.743	376.8
392.122	374.54
392.501	380.19
392.881	378.38
393.26	370.47
393.639	385.61
394.018	388.32
394.397	386.97
394.776	370.7
395.155	374.09
395.534	394.2
395.913	396.91
396.292	401.43
396.671	399.85
397.05	409.79
397.429	398.72
397.808	409.11
398.186	412.5
398.565	396.23
398.944	411.6
399.323	400.53
399.701	431.94
400.08	392.62
400.458	396.01
400.837	417.47
401.215	416.12
401.594	435.78
401.972	419.06
402.351	393.75
402.729	415.67
403.107	402.79
403.486	434.2
403.864	428.55
404.242	428.1
404.62	416.12
404.999	437.81
405.377	427.42
405.755	428.55
406.133	440.53
406.511	458.38
406.889	460.41
407.267	449.56
407.645	473.07
408.023	461.99
408.401	473.29
408.779	495.44
409.156	490.47
409.534	485.5
409.912	493.18
410.29	479.85
410.667	524.59
411.045	501.09
411.422	501.31
411.8	514.2
412.178	512.39
412.555	515.33
412.933	533.86
413.31	525.49
413.687	531.37
414.065	557.58
414.442	586.28
414.819	556.23
415.197	564.82
415.574	566.85
415.951	562.1
416.328	591.03
416.705	541.31
417.082	548.09
417.46	591.71
417.837	593.06
418.214	591.71
418.591	588.77
418.967	597.36
419.344	606.4
419.721	602.33
420.098	629.22
420.475	617.47
420.852	654.98
421.228	632.61
421.605	668.54
421.982	650.69
422.358	659.28
422.735	665.6
423.111	690.24
423.488	692.5
423.864	688.88
424.241	703.34
424.617	690.24
424.994	694.53
425.37	697.47
425.746	714.87
426.123	739.73
426.499	743.34
426.875	737.01
427.251	760.52
427.627	770.91
428.003	757.58
428.379	790.35
428.756	785.37
429.132	798.93
429.507	791.7
429.883	795.09
430.259	815.66
430.635	825.37
431.011	819.27
431.387	823.34
431.763	846.84
432.138	856.33
432.514	861.98
432.89	859.72
433.265	897.01
433.641	922.55
434.016	915.99
434.392	927.07
434.767	918.7
435.143	948.31
435.518	951.47
435.894	945.14
436.269	998.7
436.644	977.69
437.02	1012.94
437.395	1018.59
437.77	1017.01
438.145	1034.41
438.52	1059.04
438.895	1068.31
439.271	1060.62
439.646	1110.56
440.021	1094.97
440.395	1105.14
440.77	1089.1
441.145	1137
441.52	1132.26
441.895	1148.98
442.27	1140.17
442.645	1174.52
443.019	1113.95
443.394	1183.1
443.769	1171.58
444.143	1185.36
444.518	1225.59
444.892	1211.35
445.267	1208.64
445.641	1217.23
446.016	1248.41
446.39	1257.23
446.764	1252.71
447.139	1269.88
447.513	1275.53
447.887	1278.24
448.262	1286.38
448.636	1281.63
449.01	1310.56
449.384	1357.34
449.758	1326.15
450.132	1357.11
450.506	1372.25
450.88	1361.18
451.254	1409.99
451.628	1415.19
452.002	1420.39
452.376	1412.93
452.75	1442.31
453.123	1440.95
453.497	1451.12
453.871	1455.19
454.244	1513.72
454.618	1528.41
454.992	1536.99
455.365	1549.65
455.739	1583.09
456.112	1616.99
456.486	1622.41
456.859	1650.44
457.232	1676.2
457.606	1657.89
457.979	1686.14
458.352	1736.08
458.725	1729.76
459.099	1762.52
459.472	1789.42
459.845	1800.26
460.218	1802.52
460.591	1836.19
460.964	1871.67
461.337	1917.55
461.71	1956.42
462.083	1969.07
462.456	1966.59
462.829	1974.27
463.201	2011.78
463.574	2020.14
463.947	2035.74
464.32	2104.44
464.692	2118.9
465.065	2153.25
465.438	2170.88
465.81	2230.31
466.183	2245.45
466.555	2290.87
466.928	2334.49
467.3	2346.69
467.672	2372
468.045	2442.96
468.417	2454.03
468.789	2477.99
469.161	2546.01
469.534	2562.5
469.906	2647.7
470.278	2652.9
470.65	2675.49
471.022	2756.85
471.394	2808.37
471.766	2847.69
472.138	2913.91
472.51	2985.32
472.882	3003.62
473.253	3042.26
473.625	3127.23
473.997	3196.16
474.369	3238.42
474.74	3268.02
475.112	3366.1
475.484	3426.44
475.855	3484.06
476.227	3548.01
476.598	3672.53
476.97	3726.77
477.341	3812.41
477.713	3921.34
478.084	3986.19
478.455	4121.78
478.827	4172.18
479.198	4270.93
479.569	4286.07
479.94	4461.44
480.311	4552.06
480.682	4671.37
481.053	4789.56
481.424	4911.14
481.795	4915.21
482.166	5104.13
482.537	5213.06
482.908	5336.67
483.279	5415.99
483.65	5548.87
484.021	5675.87
484.391	5777.33
484.762	5911.57
485.133	5999.48
485.503	6109.75
485.874	6330.09
486.244	6364.21
486.615	6489.18
486.985	6652.11
487.356	6763.75
487.726	6878.32
488.097	7068.37
488.467	7187.24
488.837	7319.89
489.207	7393.34
489.578	7628.58
489.948	7706.32
490.318	7885.53
490.688	7956.03
491.058	8105.86
491.428	8294.56
491.798	8345.18
492.168	8589.01
492.538	8629.69
492.908	8807.76
493.278	8952.17
493.648	8910.81
494.017	9072.84
494.387	9218.83
494.757	9400.29
495.126	9499.27
495.496	9566.39
495.866	9616.56
496.235	9842.54
496.605	9904.46
496.974	9987.17
497.344	10084.34
497.713	10209.31
498.082	10203.66
498.452	10408.4
498.821	10483.65
499.19	10439.13
499.559	10669.18
499.928	10711.67
500.298	10827.82
500.667	10918.44
501.036	10935.16
501.405	11079.79
501.774	11113.01
502.143	11173.35
502.512	11243.63
502.88	11365.21
503.249	11418.77
503.618	11471.87
503.987	11469.39
504.356	11575.15
504.724	11614.24
505.093	11669.83
505.462	11768.81
505.83	11844.52
506.199	11926.1
506.567	12124.06
506.936	12054.46
507.304	12205.87
507.672	12197.73
508.041	12246.77
508.409	12382.13
508.777	12390.04
509.145	12398.63
509.514	12403.15
509.882	12487.67
510.25	12530.38
510.618	12574.44
510.986	12666.42
511.354	12721.11
511.722	12751.39
512.09	12828.45
512.458	12838.17
512.826	12929.91
513.193	12926.52
513.561	12971.27
513.929	13004.26
514.297	13156.35
514.664	13179.85
515.032	13133.98
515.4	13328.55
515.767	13219.17
516.135	13342.78
516.502	13183.47
516.869	13395.21
517.237	13333.07
517.604	13314.76
517.972	13410.35
518.339	13462.1
518.706	13451.93
519.073	13538.94
519.44	13568.09
519.808	13618.48
520.175	13510.46
520.542	13674.3
520.909	13733.96
521.276	13624.59
521.643	13787.52
522.009	13818.7
522.376	13815.99
522.743	13833.17
523.11	13884.92
523.477	13924.69
523.843	13925.14
524.21	14046.72
524.577	14057.57
524.943	14163.1
525.31	14161.29
525.676	14164.01
526.043	14210.11
526.409	14124.23
526.776	14250.33
527.142	14225.93
527.508	14259.37
527.874	14309.99
528.241	14386.6
528.607	14298.47
528.973	14284.23
529.339	14265.7
529.705	14379.14
530.071	14309.54
530.437	14344.34
530.803	14382.08
531.169	14395.41
531.535	14371.46
531.901	14306.38
532.267	14282.65
532.632	14401.06
532.998	14306.83
533.364	14306.38
533.73	14281.07
534.095	14412.36
534.461	14301.18
534.826	14309.76
535.192	14209.88
535.557	14351.35
535.923	14181.86
536.288	14102.54
536.653	14202.88
537.019	14108.19
537.384	14061.41
537.749	14163.55
538.114	14051.24
538.479	14025.03
538.845	13961.98
539.21	13981.19
539.575	13913.84
539.94	13938.93
540.305	13967.4
540.67	13852.6
541.034	13837.91
541.399	13804.69
541.764	13702.55
542.129	13670.91
542.494	13724.7
542.858	13721.98
543.223	13650.35
543.587	13589.33
543.952	13487.64
544.316	13536.23
544.681	13559.28
545.045	13477.24
545.41	13513.4
545.774	13395.89
546.138	13337.59
546.503	13398.83
546.867	13245.39
547.231	13292.39
547.595	13208.78
547.959	13139.63
548.324	13145.28
548.688	13182.79
549.052	13089.68
549.416	13102.11
549.779	12945.73
550.143	12982.12
550.507	13008.56
550.871	13005.84
551.235	12893.08
551.599	12965.85
551.962	12876.36
552.326	12837.04
552.689	12842.01
553.053	12743.7
553.417	12740.31
553.78	12743.48
554.143	12659.19
554.507	12719.98
554.87	12671.39
555.234	12815.12
555.597	12654.44
555.96	12583.71
556.323	12539.19
556.686	12504.84
557.05	12635.91
557.413	12591.62
557.776	12548.68
558.139	12539.42
558.502	12594.56
558.865	12537.16
559.228	12569.7
559.59	12447.89
559.953	12495.8
560.316	12571.96
560.679	12509.59
561.041	12500.77
561.404	12501.9
561.767	12524.5
562.129	12452.64
562.492	12581.45
562.854	12486.31
563.217	12437.27
563.579	12434.56
563.941	12540.77
564.304	12458.74
564.666	12520.43
565.028	12532.41
565.39	12544.39
565.753	12577.38
566.115	12601.11
566.477	12549.59
566.839	12573.54
567.201	12678.17
567.563	12495.35
567.925	12653.54
568.287	12672.29
568.648	12653.99
569.01	12682.24
569.372	12745.96
569.734	12585.06
570.095	12635.46
570.457	12693.54
570.819	12698.28
571.18	12672.29
571.542	12769.47
571.903	12764.27
572.265	12789.13
572.626	12791.16
572.987	12768.34
573.349	12691.5
573.71	12752.29
574.071	12728.34
574.432	12760.2
574.794	12738.05
575.155	12838.39
575.516	12741.9
575.877	12775.34
576.238	12853.53
576.599	12820.99
576.96	12864.15
577.32	12819.63
577.681	12819.86
578.042	12809.92
578.403	12787.09
578.763	12806.75
579.124	12863.25
579.485	12839.52
579.845	12891.05
580.206	12828.9
580.566	12858.5
580.927	12839.07
581.287	12841.33
581.648	12823.7
582.008	12854.21
582.368	12827.77
582.728	12787.77
583.089	12807.21
583.449	12828
583.809	12809.92
584.169	12804.49
584.529	12731.95
584.889	12898.5
585.249	12713.42
585.609	12691.95
585.969	12683.14
586.329	12760.43
586.688	12771.73
587.048	12728.79
587.408	12724.72
587.768	12605.63
588.127	12625.29
588.487	12595.46
588.846	12648.79
589.206	12654.89
589.565	12623.93
589.925	12640.43
590.284	12567.44
590.643	12635.91
591.003	12697.6
591.362	12666.64
591.721	12583.26
592.08	12622.13
592.44	12572.18
592.799	12646.98
593.158	12562.24
593.517	12531.51
593.876	12591.62
594.235	12505.97
594.593	12550.49
594.952	12598.17
595.311	12563.37
595.67	12546.87
596.029	12641.56
596.387	12528.57
596.746	12528.34
597.104	12519.76
597.463	12496.03
597.822	12550.04
598.18	12454.67
598.538	12469.59
598.897	12498.06
599.255	12429.36
599.613	12620.54
599.972	12382.13
600.33	12479.76
600.688	12534.9
601.046	12508.46
601.404	12540.32
601.762	12508.91
602.12	12578.96
602.478	12489.7
602.836	12400.44
603.194	12432.3
603.552	12377.61
603.91	12358.63
604.268	12561.56
604.625	12490.6
604.983	12462.81
605.341	12493.32
605.698	12460.32
606.056	12420.55
606.413	12418.06
606.771	12554.78
607.128	12528.12
607.485	12495.58
607.843	12519.3
608.2	12503.94
608.557	12586.65
608.914	12584.84
609.272	12576.03
609.629	12617.83
609.986	12578.74
610.343	12604.05
610.7	12569.7
611.057	12568.12
611.414	12535.35
611.771	12674.33
612.127	12665.06
612.484	12635.68
612.841	12703.71
613.198	12590.94
613.554	12637.49
613.911	12651.73
614.267	12687.43
614.624	12742.8
614.98	12718.85
615.337	12786.42
615.693	12713.2
616.05	12691.05
616.406	12724.04
616.762	12739.64
617.118	12747.09
617.475	12728.79
617.831	12773.31
618.187	12760.88
618.543	12779.18
618.899	12852.4
619.255	12776.25
619.611	12788.68
619.967	12817.15
620.323	12811.05
620.678	12749.13
621.034	12790.71
621.39	12811.95
621.746	12718.85
622.101	12869.58
622.457	12874.32
622.812	12846.07
623.168	12808.79
623.523	12781.44
623.879	12820.76
624.234	12865.74
624.589	12829.35
624.945	12828.67
625.3	12855.11
625.655	12837.49
626.01	12857.37
626.365	12888.56
626.72	12799.3
627.075	12844.94
627.43	12812.4
627.785	12799.75
628.14	12831.39
628.495	12806.75
628.85	12842.46
629.205	12798.39
629.559	12775.79
629.914	12737.6
630.269	12746.42
630.623	12697.38
630.978	12733.54
631.332	12801.78
631.687	12842.23
632.041	12703.48
632.396	12750.03
632.75	12705.06
633.104	12677.94
633.459	12596.82
633.813	12581.22
634.167	12594.1
634.521	12587.1
634.875	12596.14
635.229	12504.39
635.583	12522.24
635.937	12459.87
636.291	12501.68
636.645	12488.12
636.999	12409.25
637.352	12503.94
637.706	12417.84
638.06	12487.44
638.413	12420.78
638.767	12455.35
639.121	12418.06
639.474	12354.34
639.828	12380.55
640.181	12338.07
640.534	12423.49
640.888	12384.17
641.241	12260.55
641.594	12380.78
641.947	12330.83
642.301	12308.69
642.654	12362.7
643.007	12290.61
643.36	12315.02
643.713	12259.88
644.066	12266.88
644.419	12198.86
644.771	12176.04
645.124	12089.26
645.477	11981.92
645.83	11975.82
646.182	11907.12
646.535	11841.13
646.888	11807.46
647.24	11768.36
647.593	11898.3
647.945	11836.61
648.298	11724.07
648.65	11818.98
649.002	11712.55
649.355	11752.77
649.707	11803.16
650.059	11895.59
650.411	11983.95
650.763	11999.77
651.115	12162.48
651.467	12129.26
651.819	12178.07
652.171	12066.66
652.523	12082.25
652.875	12118.18
653.227	12046.32
653.578	12076.6
653.93	11991.63
654.282	12032.54
654.633	12035.7
654.985	12035.93
655.337	12117.05
655.688	12094
656.039	12186.43
656.391	12002.26
656.742	12000.45
657.094	12086.77
657.445	12062.14
657.796	12137.62
658.147	12107.56
658.498	12078.86
658.849	12116.6
659.2	12069.15
659.551	12105.76
659.902	12137.62
660.253	12049.49
660.604	12086.77
660.955	12044.51
661.306	12175.81
661.656	12102.37
662.007	12196.15
662.358	12170.39
662.708	12137.62
663.059	12183.72
663.409	12105.53
663.76	12162.93
664.11	12180.1
664.461	12127.68
664.811	12145.98
665.161	12158.64
665.511	12146.88
665.862	12189.59
666.212	12175.58
666.562	12187.56
666.912	12166.54
667.262	12163.61
667.612	12205.64
667.962	12200.67
668.312	12187.33
668.662	12156.6
669.011	12117.05
669.361	12221.01
669.711	12122.93
670.06	12091.07
670.41	12147.56
670.76	12116.6
671.109	12152.76
671.459	12066.66
671.808	12073.89
672.157	12133.1
672.507	12034.8
672.856	12084.51
673.205	12140.56
673.554	12145.53
673.904	12052.88
674.253	12146.21
674.602	12043.61
674.951	11898.75
675.3	11811.75
675.649	11983.72
675.998	11962.93
676.346	11931.3
676.695	12059.88
677.044	11881.13
677.393	11996.83
677.741	12027.57
678.09	11960.22
678.438	11916.61
678.787	11857.63
679.135	11887.23
679.484	11797.51
679.832	11877.96
680.181	11711.19
680.529	11770.85
680.877	11793
681.225	11733.11
681.573	11804.97
681.922	11753.67
682.27	11736.5
682.618	11653.56
682.966	11660.8
683.314	11680.46
683.661	11656.73
684.009	11540.8
684.357	11491.53
684.705	11551.42
685.053	11586.67
685.4	11498.31
685.748	11450.63
686.095	11402.5
686.443	11418.54
686.79	11389.39
687.138	11483.85
687.485	11413.57
687.832	11361.82
688.18	11355.27
688.527	11265.33
688.874	11266.46
689.221	11208.6
689.568	11254.03
689.915	11103.3
690.262	11174.03
690.609	11058.55
690.956	11037.99
691.303	11008.16
691.65	11003.86
691.997	10993.24
692.344	10911.89
692.69	10917.54
693.037	10880.7
693.383	10793.02
693.73	10833.02
694.077	10790.54
694.423	10737.2
694.769	10790.76
695.116	10638
695.462	10683.65
695.808	10559.13
696.155	10605
696.501	10524.55
696.847	10453.82
697.193	10394.39
697.539	10440.04
697.885	10378.34
698.231	10346.25
698.577	10296.54
698.923	10274.62
699.269	10233.94
699.614	10159.82
699.96	10160.27
700.306	10084.79
700.651	10071.68
700.997	10061.74
701.342	10017
701.688	9987.39
702.033	9916.89
702.379	9962.99
702.724	9914.17
703.069	9965.25
703.415	9744.69
703.76	9814.06
704.105	9759.38
704.45	9718.7
704.795	9690.23
705.14	9665.37
705.485	9633.28
705.83	9514.18
706.175	9569.78
706.52	9523.68
706.865	9544.92
707.209	9442.32
707.554	9459.72
707.899	9384.24
708.243	9378.37
708.588	9352.16
708.932	9280.29
709.277	9290.91
709.621	9281.42
709.966	9256.56
710.31	9236
710.654	9174.53
710.998	9205.27
711.342	9175.21
711.687	9142.22
712.031	9092.5
712.375	9041.2
712.719	9117.13
713.063	9069.68
713.407	9083.01
713.75	9039.62
714.094	9004.82
714.438	8978.38
714.782	9006.85
715.125	8930.7
715.469	8919.4
715.812	8898.16
716.156	8864.94
716.499	8914.65
716.843	8909
717.186	8788.33
717.53	8805.95
717.873	8837.14
718.216	8802.79
718.559	8835.33
718.902	8707.88
719.246	8777.93
719.589	8757.14
719.932	8689.35
720.275	8762.11
720.617	8725.05
720.96	8661.33
721.303	8675.79
721.646	8661.33
721.989	8602.57
722.331	8703.36
722.674	8574.32
723.016	8648.67
723.359	8603.93
723.701	8568.22
724.044	8581.33
724.386	8519.18
724.729	8559.18
725.071	8528.9
725.413	8590.59
725.755	8574.32
726.097	8484.83
726.439	8444.61
726.782	8503.36
727.124	8525.51
727.465	8516.02
727.807	8468.11
728.149	8468.11
728.491	8443.25
728.833	8466.3
729.175	8515.57
729.516	8454.1
729.858	8423.37
730.199	8500.88
730.541	8473.99
730.882	8435.57
731.224	8471.05
731.565	8460.88
731.906	8430.82
732.248	8428.34
732.589	8385.4
732.93	8416.59
733.271	8378.85
733.612	8404.61
733.953	8438.28
734.294	8371.84
734.635	8398.51
734.976	8477.15
735.317	8423.82
735.658	8446.42
735.999	8455
736.339	8399.86
736.68	8516.02
737.021	8488.45
737.361	8486.64
737.702	8487.77
738.042	8496.58
738.383	8377.72
738.723	8473.53
739.063	8528.22
739.404	8475.12
739.744	8462.01
740.084	8528.22
740.424	8559.18
740.764	8532.06
741.104	8587.2
741.444	8599.63
741.784	8543.36
742.124	8537.04
742.464	8603.7
742.804	8605.96
743.143	8628.11
743.483	8633.08
743.823	8678.73
744.162	8698.61
744.502	8737.48
744.841	8771.38
745.181	8844.37
745.52	8782.68
745.86	8847.76
746.199	8846.63
746.538	8969.34
746.877	8994.88
747.216	9091.6
747.556	9020.86
747.895	9064.25
748.234	9136.57
748.573	9162.1
748.911	9221.76
749.25	9254.08
749.589	9350.8
749.928	9448.88
750.267	9516.44
750.605	9637.12
750.944	9599.38
751.283	9697.46
751.621	9791.92
751.96	9844.8
752.298	10073.94
752.636	10000.5
752.975	10107.84
753.313	10197.78
753.651	10355.07
753.989	10420.15
754.327	10569.52
754.666	10663.76
755.004	10862.62
755.342	10913.47
755.679	11078.44
756.017	11115.95
756.355	11324.31
756.693	11430.29
757.031	11600.01
757.368	11720.23
757.706	11827.8
758.044	12030.73
758.381	12302.59
