Data from hue_260_FLMS001491_00066.txt Node
Date: Tue Feb 07 15:59:24 GMT 2017
User: dcchb
Spectrometer: FLMS00149
Trigger mode: 0
Integration Time (sec): 2.000000E-2
Scans to average: 10
Electric dark correction enabled: true
Nonlinearity correction enabled: false
Boxcar width: 0
XAxis mode: Wavelengths
Number of Pixels in Spectrum: 2048
>>>>>Begin Spectral Data<<<<<
341.393	5.16
341.776	5.16
342.16	5.16
342.543	-51.57
342.927	-46.82
343.31	-63.09
343.693	-67.16
344.077	-83.2
344.46	-67.16
344.843	-52.47
345.226	-64.9
345.61	-23.77
345.993	-4.34
346.376	-11.79
346.759	33.63
347.142	34.53
347.525	50.58
347.908	58.26
348.291	76.34
348.674	88.54
349.057	96
349.44	114.3
349.823	149.33
350.206	163.34
350.588	189.11
350.971	196.34
351.354	206.96
351.737	237.24
352.119	244.24
352.502	269.56
352.884	292.38
353.267	261.87
353.65	279.5
354.032	308.2
354.414	313.85
354.797	307.97
355.179	293.74
355.562	319.5
355.944	311.81
356.326	326.95
356.709	299.84
357.091	335.77
357.473	343.23
357.855	357.91
358.238	344.13
358.62	340.74
359.002	352.26
359.384	338.03
359.766	331.47
360.148	324.24
360.53	324.47
360.912	337.8
361.294	316.33
361.676	331.7
362.057	336.22
362.439	305.03
362.821	327.18
363.203	305.03
363.584	315.43
363.966	331.02
364.348	309.78
364.729	299.38
365.111	317.01
365.493	309.1
365.874	299.61
366.256	310.68
366.637	299.84
367.019	333.73
367.4	304.81
367.781	313.4
368.163	298.93
368.544	299.16
368.925	298.25
369.306	329.89
369.688	311.59
370.069	300.51
370.45	306.62
370.831	314.07
371.212	311.81
371.593	300.97
371.974	327.18
372.355	304.81
372.736	314.75
373.117	321.53
373.498	319.05
373.879	320.63
374.26	322.89
374.641	301.87
375.021	312.49
375.402	316.56
375.783	307.75
376.163	311.81
376.544	318.59
376.925	315.66
377.305	312.49
377.686	308.42
378.066	331.93
378.447	327.18
378.827	330.12
379.208	335.54
379.588	318.14
379.968	317.92
380.349	335.77
380.729	336.9
381.109	321.08
381.489	330.12
381.87	337.35
382.25	315.43
382.63	340.74
383.01	344.36
383.39	328.54
383.77	343
384.15	326.73
384.53	337.8
384.91	347.29
385.29	348.2
385.67	342.77
386.049	339.16
386.429	336.67
386.809	330.57
387.189	348.88
387.568	339.84
387.948	332.15
388.328	351.13
388.707	350.91
389.087	358.59
389.466	355.2
389.846	362.21
390.225	380.96
390.605	365.37
390.984	361.3
391.363	368.08
391.743	355.65
392.122	363.34
392.501	378.25
392.881	355.43
393.26	375.77
393.639	381.64
394.018	386.84
394.397	377.8
394.776	374.86
395.155	377.35
395.534	380.74
395.913	377.35
396.292	386.16
396.671	388.2
397.05	393.85
397.429	387.52
397.808	399.04
398.186	397.24
398.565	415.54
398.944	402.88
399.323	394.98
399.701	402.88
400.08	407.86
400.458	403.79
400.837	398.37
401.215	409.66
401.594	399.72
401.972	424.13
402.351	414.18
402.729	442.21
403.107	423
403.486	430.68
403.864	423.68
404.242	415.54
404.62	427.29
404.999	407.86
405.377	441.75
405.755	432.49
406.133	444.24
406.511	463.45
406.889	453.28
407.267	469.78
407.645	460.06
408.023	462.77
408.401	475.88
408.779	485.14
409.156	476.78
409.534	492.6
409.912	501.19
410.29	503
410.667	520.62
411.045	498.48
411.422	526.72
411.8	532.15
412.178	532.82
412.555	537.12
412.933	533.05
413.31	556.78
413.687	553.62
414.065	567.85
414.442	585.03
414.819	560.39
415.197	578.02
415.574	591.35
415.951	603.11
416.328	595.65
416.705	628.42
417.082	627.06
417.46	613.73
417.837	626.83
418.214	622.09
418.591	671.13
418.967	658.47
419.344	647.17
419.721	660.05
420.098	673.16
420.475	674.74
420.852	669.77
421.228	703.22
421.605	725.81
421.982	721.52
422.358	693.72
422.735	740.96
423.111	736.66
423.488	749.09
423.864	764.68
424.241	788.86
424.617	767.85
424.994	789.54
425.37	804.91
425.746	817.56
426.123	833.16
426.499	818.02
426.875	829.77
427.251	886.26
427.627	859.82
428.003	866.15
428.379	877.9
428.756	885.81
429.132	901.4
429.507	892.82
429.883	921.06
430.259	915.41
430.635	950.89
431.011	948.86
431.387	969.65
431.763	997.22
432.138	993.15
432.514	1029.31
432.89	1013.94
433.265	1014.62
433.641	1048.29
434.016	1098.69
434.392	1094.84
434.767	1091.91
435.143	1118.12
435.518	1133.71
435.894	1146.37
436.269	1169.42
436.644	1196.54
437.02	1212.81
437.395	1239.7
437.77	1227.95
438.145	1241.96
438.52	1253.26
438.895	1280.6
439.271	1298.68
439.646	1340.94
440.021	1317.21
440.395	1325.57
440.77	1345.91
441.145	1347.72
441.52	1378.68
441.895	1364.44
442.27	1403.08
442.645	1417.55
443.019	1434.27
443.394	1420.03
443.769	1419.13
444.143	1443.76
444.518	1483.08
444.892	1496.87
445.267	1508.62
445.641	1507.94
446.016	1557.66
446.39	1515.17
446.764	1569.63
447.139	1527.38
447.513	1530.54
447.887	1589.52
448.262	1569.18
448.636	1564.89
449.01	1617.09
449.384	1607.82
449.758	1635.85
450.132	1634.72
450.506	1646.69
450.88	1695.28
451.254	1679.24
451.628	1673.81
452.002	1681.04
452.376	1709.29
452.75	1738.44
453.123	1744.09
453.497	1744.77
453.871	1773.92
454.244	1827.03
454.618	1825.22
454.992	1843.75
455.365	1824.99
455.739	1864.77
456.112	1884.2
456.486	1925.1
456.859	1938.44
457.232	1963.3
457.606	1969.4
457.979	1972.79
458.352	1989.96
458.725	2029.28
459.099	2040.36
459.472	2071.09
459.845	2101.6
460.218	2142.95
460.591	2147.02
460.964	2116.51
461.337	2187.24
461.71	2211.2
462.083	2243.29
462.456	2251.42
462.829	2247.58
463.201	2298.88
463.574	2293.91
463.947	2340.91
464.32	2349.95
464.692	2401.48
465.065	2412.1
465.438	2437.41
465.81	2486.22
466.183	2506.11
466.555	2497.97
466.928	2533.45
467.3	2510.4
467.672	2560.57
468.045	2632.66
468.417	2628.14
468.789	2647.57
469.161	2694.12
469.534	2744.74
469.906	2769.6
470.278	2802.82
470.65	2818.87
471.022	2868.36
471.394	2925.98
471.766	2958.98
472.138	2981.35
472.51	3008.69
472.882	3046.21
473.253	3084.4
473.625	3112.87
473.997	3158.52
474.369	3180.44
474.74	3228.8
475.112	3280.55
475.484	3325.29
475.855	3378.63
476.227	3362.36
476.598	3463.14
476.97	3474.44
477.341	3556.93
477.713	3598.06
478.084	3640.09
478.455	3707.2
478.827	3735.9
479.198	3806.64
479.569	3817.94
479.94	3924.83
480.311	3924.83
480.682	4014.77
481.053	4075.78
481.424	4132.28
481.795	4198.49
482.166	4256.79
482.537	4293.86
482.908	4365.27
483.279	4405.27
483.65	4464.25
484.021	4497.69
484.391	4554.87
484.762	4593.28
485.133	4608.2
485.503	4699.27
485.874	4770.68
486.244	4838.02
486.615	4868.3
486.985	4900.17
487.356	5043.67
487.726	5061.52
488.097	5119.37
488.467	5149.43
488.837	5246.6
489.207	5226.03
489.578	5366.6
489.948	5364.56
490.318	5449.98
490.688	5441.4
491.058	5495.41
491.428	5569.75
491.798	5674.38
492.168	5755.74
492.538	5734.95
492.908	5808.84
493.278	5825.12
493.648	5819.24
494.017	5904.21
494.387	5955.73
494.757	5982.63
495.126	6057.88
495.496	6070.76
495.866	6098.1
496.235	6119.12
496.605	6189.63
496.974	6221.49
497.344	6225.33
497.713	6268.49
498.082	6288.15
498.452	6374.25
498.821	6413.57
499.19	6348.94
499.559	6460.8
499.928	6424.42
500.298	6528.15
500.667	6530.63
501.036	6465.1
501.405	6553.23
501.774	6572.67
502.143	6645.21
502.512	6633.91
502.88	6681.14
503.249	6690.4
503.618	6738.09
503.987	6748.48
504.356	6794.58
504.724	6816.05
505.093	6825.99
505.462	6883.39
505.83	6884.07
506.199	6883.62
506.567	6955.93
506.936	6984.63
507.304	6982.15
507.672	7030.06
508.041	7065.53
508.409	7062.14
508.777	7094.69
509.145	7178.07
509.514	7154.35
509.882	7195.25
510.25	7167.9
510.618	7179.66
510.986	7222.37
511.354	7232.76
511.722	7292.2
512.09	7337.62
512.458	7264.63
512.826	7327.45
513.193	7369.03
513.561	7408.8
513.929	7420.1
514.297	7430.04
514.664	7468.91
515.032	7482.47
515.4	7478.63
515.767	7512.98
516.135	7512.08
516.502	7447.9
516.869	7558.18
517.237	7566.31
517.604	7491.74
517.972	7570.15
518.339	7587.78
518.706	7618.74
519.073	7535.13
519.44	7630.72
519.808	7688.8
520.175	7659.87
520.542	7735.12
520.909	7727.66
521.276	7713.88
521.643	7696.03
522.009	7814.44
522.376	7832.07
522.743	7832.97
523.11	7865.97
523.477	7942.57
523.843	7964.72
524.21	7938.05
524.577	7989.35
524.943	8020.54
525.31	8064.83
525.676	8033.19
526.043	8051.5
526.409	8096.69
526.776	8127.65
527.142	8085.85
527.508	8096.92
527.874	8090.14
528.241	8140.31
528.607	8170.14
528.973	8149.35
529.339	8137.37
529.705	8185.28
530.071	8216.69
530.437	8292.39
530.803	8279.97
531.169	8239.74
531.535	8221.44
531.901	8152.74
532.267	8276.58
532.632	8224.6
532.998	8263.02
533.364	8282
533.73	8262.34
534.095	8317.71
534.461	8266.18
534.826	8300.76
535.192	8275.9
535.557	8351.15
535.923	8266.41
536.288	8305.05
536.653	8333.3
537.019	8278.16
537.384	8331.26
537.749	8311.83
538.114	8299.85
538.479	8266.41
538.845	8241.77
539.21	8307.54
539.575	8268.21
539.94	8300.53
540.305	8218.72
540.67	8236.13
541.034	8208.1
541.399	8324.26
541.764	8263.02
542.129	8244.71
542.494	8219.4
542.858	8232.51
543.223	8245.84
543.587	8164.26
543.952	8222.57
544.316	8159.52
544.681	8210.59
545.045	8250.59
545.41	8167.43
545.774	8209.69
546.138	8167.43
546.503	8206.52
546.867	8158.39
547.231	8192.74
547.595	8219.4
547.959	8238.84
548.324	8158.16
548.688	8152.06
549.052	8170.36
549.416	8178.5
549.779	8117.48
550.143	8134.43
550.507	8141.21
550.871	8206.07
551.235	8042.01
551.599	8157.48
551.962	8084.26
552.326	8105.96
552.689	8164.04
553.053	8045.4
553.417	8146.41
553.78	8108.22
554.143	8133.98
554.507	8103.93
554.87	8156.35
555.234	8128.56
555.597	8078.62
555.96	8125.85
556.323	8119.29
556.686	8095.56
557.05	8155.9
557.413	8094.66
557.776	8190.25
558.139	8119.74
558.502	8167.2
558.865	8139.4
559.228	8178.5
559.59	8194.54
559.953	8231.83
560.316	8197.03
560.679	8202
561.041	8261.44
561.404	8239.51
561.767	8264.37
562.129	8264.6
562.492	8302.56
562.854	8366.52
563.217	8322.9
563.579	8348.21
563.941	8338.04
564.304	8376.91
564.666	8458.72
565.028	8368.33
565.39	8410.36
565.753	8429.79
566.115	8467.98
566.477	8463.69
566.839	8476.34
567.201	8511.82
567.563	8529.68
567.925	8573.52
568.287	8554.31
568.648	8580.3
569.01	8593.4
569.372	8598.15
569.734	8641.09
570.095	8686.28
570.457	8721.76
570.819	8728.77
571.18	8719.28
571.542	8774.42
571.903	8744.13
572.265	8794.08
572.626	8823.45
572.987	8783.91
573.349	8833.62
573.71	8846.73
574.071	8890.8
574.432	8864.81
574.794	8906.39
575.155	8946.62
575.516	8961.08
575.877	8978.7
576.238	8971.93
576.599	8986.84
576.96	9036.1
577.32	9036.1
577.681	9091.02
578.042	9076.1
578.403	9061.19
578.763	9075.88
579.124	9060.96
579.485	9175.08
579.845	9215.08
580.206	9185.48
580.566	9188.19
580.927	9193.84
581.287	9211.69
581.648	9235.2
582.008	9279.49
582.368	9268.41
582.728	9360.16
583.089	9315.64
583.449	9315.42
583.809	9371.46
584.169	9343.89
584.529	9389.99
584.889	9423.44
585.249	9408.07
585.609	9310.67
585.969	9460.73
586.329	9407.39
586.688	9420.95
587.048	9458.47
587.408	9400.84
587.768	9473.61
588.127	9552.47
588.487	9489.88
588.846	9585.69
589.206	9495.3
589.565	9521.52
589.925	9596.77
590.284	9588.18
590.643	9538.01
591.003	9580.27
591.362	9618.69
591.721	9686.93
592.08	9601.74
592.44	9627.73
592.799	9668.86
593.158	9681.96
593.517	9670.44
593.876	9692.58
594.235	9636.54
594.593	9607.39
594.952	9636.77
595.311	9687.61
595.67	9756.76
596.029	9763.77
596.387	9773.71
596.746	9833.37
597.104	9720.61
597.463	9785.92
597.822	9738.23
598.18	9753.6
598.538	9766.71
598.897	9875.18
599.255	9724.22
599.613	9893.26
599.972	9835.41
600.33	9839.7
600.688	9781.85
601.046	9811
601.404	9898.23
601.762	9895.52
602.12	9955.63
602.478	9919.92
602.836	9872.92
603.194	9840.15
603.552	9876.53
603.91	9826.59
604.268	9904.1
604.625	9824.11
604.983	9919.92
605.341	9832.92
605.698	9884.67
606.056	9920.6
606.413	9919.02
606.771	9906.14
607.128	9994.27
607.485	9916.53
607.843	9908.85
608.2	9974.61
608.557	9978.68
608.914	9932.8
609.272	10060.03
609.629	10030.2
609.986	10031.33
610.343	9939.58
610.7	10038.11
611.057	10074.49
611.414	10060.71
611.771	10072.24
612.127	10090.77
612.484	10038.56
612.841	10081.73
613.198	10057.32
613.554	10119.01
613.911	10106.13
614.267	10082.18
614.624	10142.29
614.98	10112.23
615.337	10150.43
615.693	10184.55
616.05	10167.6
616.406	10272
616.762	10209.41
617.118	10108.17
617.475	10106.36
617.831	10194.49
618.187	10241.72
618.543	10194.27
618.899	10263.87
619.255	10276.3
619.611	10197.43
619.967	10218.45
620.323	10286.24
620.678	10273.13
621.034	10260.93
621.39	10264.09
621.746	10253.25
622.101	10374.37
622.457	10255.73
622.812	10287.82
623.168	10364.88
623.523	10308.16
623.879	10314.49
624.234	10234.26
624.589	10261.83
624.945	10323.53
625.3	10290.08
625.655	10267.26
626.01	10288.27
626.365	10278.78
626.72	10269.29
627.075	10208.73
627.43	10271.33
627.785	10234.04
628.14	10237.88
628.495	10170.76
628.85	10203.53
629.205	10187.71
629.559	10252.8
629.914	10216.64
630.269	10203.76
630.623	10174.83
630.978	10212.12
631.332	10149.3
631.687	10171.89
632.041	10137.54
632.396	10173.02
632.75	10116.3
633.104	10106.13
633.459	10095.06
633.813	10107.26
634.167	10089.64
634.521	10070.43
634.875	10067.04
635.229	10025.68
635.583	10023.2
635.937	10048.73
636.291	9981.84
636.645	10020.71
636.999	9916.08
637.352	10024.33
637.706	9931.45
638.06	9910.43
638.413	9984.55
638.767	9864.11
639.121	9885.12
639.474	9858.46
639.828	9822.98
640.181	9890.55
640.534	9888.96
640.888	9881.96
641.241	9831.34
641.594	9835.63
641.947	9890.09
642.301	9824.56
642.654	9803.09
643.007	9901.39
643.36	9842.18
643.713	9771.23
644.066	9823.88
644.419	9791.11
644.771	9742.75
645.124	9613.26
645.477	9646.48
645.83	9579.14
646.182	9544.57
646.535	9516.54
646.888	9476.32
647.24	9452.82
647.593	9511.57
647.945	9459.6
648.298	9425.92
648.65	9403.78
649.002	9404.46
649.355	9462.76
649.707	9408.07
650.059	9478.58
650.411	9590.21
650.763	9545.92
651.115	9659.36
651.467	9597.67
651.819	9652.36
652.171	9672.02
652.523	9559.48
652.875	9606.94
653.227	9633.6
653.578	9645.35
653.93	9649.87
654.282	9585.02
654.633	9586.37
654.985	9619.14
655.337	9653.49
655.688	9588.86
656.039	9614.39
656.391	9543.89
656.742	9622.76
657.094	9586.82
657.445	9664.56
657.796	9653.49
658.147	9561.74
658.498	9617.33
658.849	9623.66
659.2	9678.12
659.551	9582.3
659.902	9596.09
660.253	9614.39
660.604	9651
660.955	9612.81
661.306	9604.22
661.656	9598.35
662.007	9614.39
662.358	9631.57
662.708	9605.13
663.059	9637.9
663.409	9627.95
663.76	9626.15
664.11	9644.68
664.461	9688.29
664.811	9582.53
665.161	9662.53
665.511	9549.54
665.862	9644.68
666.212	9637.9
666.562	9686.03
666.912	9621.63
667.262	9593.6
667.612	9620.95
667.962	9636.31
668.312	9651.68
668.662	9648.97
669.011	9656.43
669.361	9566.03
669.711	9619.37
670.06	9558.35
670.41	9596.09
670.76	9567.62
671.109	9657.56
671.459	9542.98
671.808	9564.45
672.157	9572.81
672.507	9475.64
672.856	9494.62
673.205	9516.09
673.554	9635.64
673.904	9501.4
674.253	9545.92
674.602	9495.75
674.951	9386.83
675.3	9390.9
675.649	9462.99
675.998	9387.06
676.346	9489.88
676.695	9497.34
677.044	9381.63
677.393	9427.28
677.741	9415.76
678.09	9411.91
678.438	9318.36
678.787	9446.26
679.135	9368.98
679.484	9312.71
679.832	9298.02
680.181	9318.58
680.529	9270.9
680.877	9334.63
681.225	9282.43
681.573	9258.02
681.922	9260.28
682.27	9170.11
682.618	9180.06
682.966	9279.26
683.314	9145.71
683.661	9229.77
684.009	9168.53
684.357	9092.15
684.705	9140.51
685.053	9148.87
685.4	9137.12
685.748	9051.47
686.095	9022.09
686.443	9014.64
686.79	9030.23
687.138	8968.54
687.485	8991.36
687.832	8880.85
688.18	8855.09
688.527	8866.62
688.874	8911.36
689.221	8866.84
689.568	8797.69
689.915	8795.88
690.262	8778.71
690.609	8764.47
690.956	8712.5
691.303	8713.85
691.65	8683.12
691.997	8679.28
692.344	8603.35
692.69	8575.78
693.037	8569
693.383	8488.77
693.73	8525.61
694.077	8453.97
694.423	8473.41
694.769	8412.17
695.116	8433.86
695.462	8323.58
695.808	8350.02
696.155	8365.84
696.501	8318.61
696.847	8267.31
697.193	8252.17
697.539	8230.48
697.885	8155.22
698.231	8162.68
698.577	8148.67
698.923	8102.12
699.269	8079.75
699.614	8041.1
699.96	8036.58
700.306	8013.98
700.651	8048.11
700.997	7936.25
701.342	7908
701.688	7905.51
702.033	7912.97
702.379	7874.1
702.724	7818.74
703.069	7831.39
703.415	7754.56
703.76	7788.91
704.105	7740.77
704.45	7696.93
704.795	7665.97
705.14	7661.68
705.485	7572.19
705.83	7611.06
706.175	7637.72
706.52	7556.14
706.865	7533.09
707.209	7610.6
707.554	7521.12
707.899	7540.78
708.243	7434.11
708.588	7430.27
708.932	7398.86
709.277	7381.23
709.621	7459.87
709.966	7327.67
710.31	7350.72
710.654	7287.22
710.998	7253.33
711.342	7283.38
711.687	7251.97
712.031	7213.55
712.375	7259.43
712.719	7178.53
713.063	7201.58
713.407	7169.26
713.75	7138.75
714.094	7106.44
714.438	7119.54
714.782	7159.54
715.125	7085.2
715.469	7133.33
715.812	7063.5
716.156	6990.96
716.499	7076.83
716.843	7025.76
717.186	7018.3
717.53	7016.04
717.873	7058.98
718.216	6995.48
718.559	6999.32
718.902	6906.89
719.246	6976.5
719.589	6950.28
719.932	6936.72
720.275	6913
720.617	6877.29
720.96	6929.72
721.303	6894.24
721.646	6899.89
721.989	6885.65
722.331	6873
722.674	6873
723.016	6852.43
723.359	6830.74
723.701	6903.5
724.044	6788.93
724.386	6740.35
724.729	6764.75
725.071	6796.39
725.413	6775.15
725.755	6844.75
726.097	6760.01
726.439	6784.19
726.782	6738.31
727.124	6775.6
727.465	6762.27
727.807	6780.57
728.149	6760.23
728.491	6707.8
728.833	6728.14
729.175	6705.32
729.516	6726.33
729.858	6690.86
730.199	6693.79
730.541	6687.92
730.882	6650.4
731.224	6733.57
731.565	6737.18
731.906	6662.83
732.248	6762.72
732.589	6714.58
732.93	6685.43
733.271	6711.19
733.612	6762.04
733.953	6676.84
734.294	6669.39
734.635	6658.09
734.976	6667.58
735.317	6609.28
735.658	6677.75
735.999	6686.56
736.339	6685.43
736.68	6691.08
737.021	6663.29
737.361	6680.23
737.702	6644.08
738.042	6731.53
738.383	6733.11
738.723	6657.41
739.063	6660.12
739.404	6702.38
739.744	6730.85
740.084	6751.42
740.424	6731.98
740.764	6721.14
741.104	6792.55
741.444	6780.34
741.784	6772.89
742.124	6753.23
742.464	6729.5
742.804	6758.2
743.143	6811.3
743.483	6816.5
743.823	6847.01
744.162	6801.36
744.502	6849.72
744.841	6852.88
745.181	6913.22
745.52	6879.78
745.86	6978.76
746.199	6916.61
746.538	6918.19
746.877	7014.91
747.216	7070.28
747.556	7073.67
747.895	7081.13
748.234	7089.71
748.573	7198.41
748.911	7229.15
749.25	7242.48
749.589	7300.56
749.928	7307.11
750.267	7394.79
750.605	7383.04
750.944	7469.82
751.283	7504.62
751.621	7550.49
751.96	7618.97
752.298	7755.69
752.636	7805.18
752.975	7836.36
753.313	7941.22
753.651	8033.42
753.989	8091.5
754.327	8133.08
754.666	8199.97
755.004	8224.83
755.342	8421.21
755.679	8524.93
756.017	8594.08
756.355	8655.78
756.693	8774.42
757.031	8909.1
757.368	8917.01
757.706	9142.77
758.044	9230.22
758.381	9322.65
758.719	9366.04
759.056	9597.67
759.394	9647.61
759.731	9702.08
760.068	9887.38
760.405	9989.3
760.743	10134.15
761.08	10282.63
761.417	10361.95
761.754	10443.3
762.091	10580.24
762.428	10672.67
762.765	10848.26
763.102	11041.02
763.438	11030.63
763.775	11137.74
764.112	11307.68
764.449	11448.24
764.785	11570.27
765.122	11582.93
765.458	11722.36
765.795	11807.33
766.131	11955.35
766.467	12059.75
766.804	12207.55
767.14	12126.42
767.476	12342.23
767.812	12474.66
768.148	12551.94
