Data from hue_340_FLMS001491_23.txt Node
Date: Mon Feb 06 15:42:41 GMT 2017
User: dcchb
Spectrometer: FLMS00149
Trigger mode: 0
Integration Time (sec): 2.000000E-2
Scans to average: 10
Electric dark correction enabled: true
Nonlinearity correction enabled: false
Boxcar width: 0
XAxis mode: Wavelengths
Number of Pixels in Spectrum: 2048
>>>>>Begin Spectral Data<<<<<
341.393	-2.4
341.776	-2.4
342.16	-2.4
342.543	-70.65
342.927	-56.86
343.31	-75.17
343.693	-77.65
344.077	-69.74
344.46	-61.38
344.843	-54.15
345.226	-53.7
345.61	-25.23
345.993	-3.08
346.376	7.99
346.759	10.48
347.142	19.97
347.525	44.15
347.908	54.09
348.291	75.11
348.674	103.13
349.057	105.17
349.44	133.41
349.823	149.69
350.206	179.74
350.588	206.63
350.971	207.76
351.354	231.72
351.737	244.82
352.119	252.28
352.502	254.54
352.884	253.19
353.267	293.64
353.65	285.27
354.032	303.58
354.414	302.22
354.797	318.72
355.179	324.37
355.562	327.99
355.944	328.89
356.326	323.69
356.709	333.41
357.091	326.86
357.473	337.48
357.855	340.19
358.238	328.89
358.62	345.61
359.002	361.43
359.384	344.93
359.766	333.86
360.148	339.06
360.53	343.58
360.912	353.52
361.294	328.21
361.676	341.77
362.057	313.07
362.439	331.83
362.821	355.1
363.203	334.31
363.584	332.05
363.966	317.14
364.348	333.18
364.729	330.47
365.111	320.3
365.493	318.72
365.874	311.04
366.256	323.47
366.637	305.16
367.019	314.43
367.4	316.69
367.781	307.87
368.163	336.57
368.544	317.82
368.925	316.23
369.306	322.79
369.688	315.33
370.069	318.04
370.45	311.04
370.831	291.83
371.212	317.82
371.593	324.37
371.974	314.65
372.355	310.81
372.736	308.33
373.117	307.42
373.498	304.48
373.879	339.28
374.26	318.95
374.641	307.65
375.021	317.59
375.402	331.83
375.783	325.73
376.163	325.73
376.544	326.63
376.925	342.22
377.305	310.59
377.686	315.1
378.066	329.57
378.447	327.08
378.827	321.21
379.208	337.48
379.588	321.88
379.968	334.54
380.349	347.65
380.729	332.73
381.109	330.02
381.489	341.54
381.87	318.49
382.25	306.97
382.63	344.48
383.01	345.16
383.39	347.42
383.77	353.97
384.15	333.41
384.53	332.96
384.91	353.07
385.29	338.61
385.67	349
386.049	358.04
386.429	345.16
386.809	360.75
387.189	345.84
387.568	350.81
387.948	349
388.328	350.81
388.707	360.3
389.087	341.09
389.466	370.47
389.846	346.29
390.225	356.23
390.605	347.87
390.984	338.15
391.363	374.09
391.743	382.45
392.122	356.91
392.501	372.28
392.881	367.76
393.26	354.2
393.639	368.89
394.018	382
394.397	381.77
394.776	372.5
395.155	378.61
395.534	389
395.913	374.76
396.292	389.45
396.671	397.59
397.05	393.52
397.429	363.47
397.808	373.86
398.186	393.97
398.565	390.58
398.944	354.2
399.323	366.4
399.701	406.85
400.08	407.31
400.458	395.55
400.837	379.06
401.215	392.84
401.594	393.52
401.972	416.8
402.351	388.78
402.729	380.41
403.107	398.49
403.486	407.31
403.864	419.73
404.242	392.62
404.62	408.89
404.999	432.39
405.377	400.53
405.755	428.55
406.133	427.64
406.511	422.9
406.889	425.16
407.267	424.48
407.645	430.58
408.023	450.02
408.401	443.91
408.779	435.33
409.156	415.44
409.534	438.27
409.912	436.68
410.29	466.06
410.667	445.95
411.045	455.89
411.422	471.94
411.8	488.43
412.178	465.84
412.555	468.1
412.933	474.65
413.31	478.49
413.687	483.24
414.065	474.2
414.442	474.2
414.819	480.07
415.197	486.4
415.574	497.02
415.951	494.31
416.328	512.39
416.705	530.47
417.082	492.73
417.46	518.49
417.837	522.56
418.214	523.23
418.591	530.47
418.967	525.95
419.344	533.86
419.721	555.78
420.098	553.06
420.475	542.67
420.852	542.9
421.228	572.27
421.605	570.24
421.982	559.17
422.358	569.79
422.735	578.6
423.111	565.27
423.488	596.91
423.864	603.01
424.241	597.58
424.617	620.18
424.994	598.26
425.37	614.31
425.746	595.78
426.123	616.11
426.499	617.02
426.875	626.96
427.251	645.49
427.627	637.81
428.003	645.27
428.379	670.12
428.756	661.76
429.132	650.01
429.507	671.71
429.883	674.64
430.259	683.68
430.635	683.91
431.011	693.85
431.387	711.48
431.763	701.31
432.138	720.74
432.514	716.9
432.89	702.44
433.265	729.56
433.641	727.07
434.016	746.51
434.392	752.61
434.767	751.93
435.143	755.09
435.518	794.87
435.894	759.16
436.269	788.31
436.644	773.85
437.02	793.06
437.395	791.48
437.77	803.68
438.145	782.89
438.52	827.18
438.895	836.45
439.271	805.49
439.646	853.4
440.021	836.22
440.395	838.48
440.77	852.72
441.145	840.74
441.52	855.66
441.895	868.76
442.27	869.67
442.645	880.74
443.019	858.14
443.394	871.25
443.769	878.71
444.143	865.82
444.518	895.88
444.892	872.38
445.267	916.44
445.641	934.98
446.016	921.87
446.39	911.7
446.764	938.14
447.139	923.9
447.513	929.1
447.887	925.03
448.262	930.68
448.636	940.85
449.01	931.59
449.384	935.43
449.758	944.01
450.132	933.39
450.506	949.44
450.88	959.16
451.254	960.06
451.628	968.65
452.002	1000.74
452.376	997.35
452.75	993.05
453.123	981.53
453.497	1009.55
453.871	992.15
454.244	1012.94
454.618	1017.01
454.992	1054.75
455.365	1014.3
455.739	1047.29
456.112	1044.8
456.486	1075.54
456.859	1064.69
457.232	1086.61
457.606	1067.18
457.979	1099.49
458.352	1102.65
458.725	1109.89
459.099	1129.09
459.472	1137.91
459.845	1143.56
460.218	1150.11
460.591	1178.81
460.964	1147.85
461.337	1162.99
461.71	1202.09
462.083	1218.36
462.456	1221.3
462.829	1220.39
463.201	1228.98
463.574	1227.4
463.947	1262.65
464.32	1249.54
464.692	1274.63
465.065	1290.9
465.438	1286.83
465.81	1315.3
466.183	1340.84
466.555	1337.45
466.928	1321.63
467.3	1351.91
467.672	1383.33
468.045	1416.54
468.417	1395.75
468.789	1384
469.161	1400.27
469.534	1458.58
469.906	1442.76
470.278	1436.21
470.65	1471.91
471.022	1511.91
471.394	1521.85
471.766	1523.21
472.138	1534.06
472.51	1564.79
472.882	1561.17
473.253	1595.07
473.625	1601.4
473.997	1657.22
474.369	1668.74
474.74	1664
475.112	1680.72
475.484	1736.99
475.855	1737.89
476.227	1742.64
476.598	1786.48
476.97	1813.37
477.341	1842.07
477.713	1884.1
478.084	1890.43
478.455	1902.86
478.827	1960.71
479.198	1966.36
479.569	1978.34
479.94	2059.24
480.311	2059.92
480.682	2059.01
481.053	2129.97
481.424	2178.33
481.795	2188.73
482.166	2211.1
482.537	2235.28
482.908	2258.1
483.279	2249.29
483.65	2361.38
484.021	2382.85
484.391	2378.1
484.762	2425.33
485.133	2415.16
485.503	2508.72
485.874	2549.85
486.244	2530.64
486.615	2583.97
486.985	2627.81
487.356	2636.63
487.726	2686.79
488.097	2682.27
488.467	2733.8
488.837	2773.8
489.207	2814.47
489.578	2831.87
489.948	2865.32
490.318	2886.79
490.688	2908.71
491.058	2970.85
491.428	2950.52
491.798	3004.53
492.168	3049.27
492.538	3038.42
492.908	3106.9
493.278	3124.52
493.648	3141.02
494.017	3164.75
494.387	3215.37
494.757	3221.24
495.126	3259.21
495.496	3285.42
495.866	3270.51
496.235	3331.97
496.605	3337.62
496.974	3379.43
497.344	3422.82
497.713	3422.59
498.082	3421.46
498.452	3470.5
498.821	3536.49
499.19	3510.05
499.559	3528.35
499.928	3548.69
500.298	3575.13
500.667	3592.31
501.036	3584.17
501.405	3620.78
501.774	3685.19
502.143	3656.26
502.512	3666.2
502.88	3718.41
503.249	3719.08
503.618	3709.14
503.987	3752.53
504.356	3725.86
504.724	3765.41
505.093	3806.31
505.462	3793.21
505.83	3837.95
506.199	3850.6
506.567	3927.67
506.936	3844.28
507.304	3929.7
507.672	3922.47
508.041	3903.03
508.409	3987.55
508.777	4005.4
509.145	4003.6
509.514	4039.98
509.882	4020.32
510.25	3996.82
510.618	4024.84
510.986	4077.27
511.354	4064.38
511.722	4084.72
512.09	4121.56
512.458	4064.84
512.826	4159.07
513.193	4171.5
513.561	4149.81
513.929	4148.22
514.297	4256.92
514.664	4214.66
515.032	4178.73
515.4	4265.96
515.767	4309.12
516.135	4256.47
516.502	4259.18
516.869	4373.3
517.237	4353.42
517.604	4336.02
517.972	4321.55
518.339	4385.28
518.706	4371.04
519.073	4392.96
519.44	4427.99
519.808	4455.11
520.175	4428.22
520.542	4447.65
520.909	4497.14
521.276	4513.41
521.643	4514.09
522.009	4520.87
522.376	4545.73
522.743	4568.1
523.11	4572.62
523.477	4626.18
523.843	4639.74
524.21	4624.37
524.577	4680.87
524.943	4688.1
525.31	4687.42
525.676	4753.18
526.043	4735.33
526.409	4830.24
526.776	4823.01
527.142	4912.27
527.508	4846.06
527.874	4842.22
528.241	4942.1
528.607	4964.47
528.973	4975.55
529.339	4998.82
529.705	5010.35
530.071	5047.64
530.437	5086.5
530.803	5082.89
531.169	5120.4
531.535	5088.99
531.901	5132.15
532.267	5161.53
532.632	5219.16
532.998	5206.95
533.364	5242.43
533.73	5277.01
534.095	5278.14
534.461	5322.66
534.826	5311.58
535.192	5318.81
535.557	5431.58
535.923	5392.94
536.288	5427.51
536.653	5446.5
537.019	5467.29
537.384	5448.08
537.749	5489.66
538.114	5521.3
538.479	5538.7
538.845	5526.27
539.21	5565.81
539.575	5611.24
539.94	5580.28
540.305	5631.8
540.67	5627.73
541.034	5646.94
541.399	5668.41
541.764	5685.58
542.129	5764.9
542.494	5745.02
542.858	5783.44
543.223	5787.73
543.587	5851.46
543.952	5811.23
544.316	5913.15
544.681	5894.85
545.045	5883.77
545.41	5970.1
545.774	5942.08
546.138	6003.99
546.503	6027.95
546.867	6034.95
547.231	6050.1
547.595	6079.47
547.959	6145.46
548.324	6078.34
548.688	6149.08
549.052	6160.83
549.416	6196.76
549.779	6161.05
550.143	6179.58
550.507	6231.33
550.871	6284.67
551.235	6301.84
551.599	6303.2
551.962	6342.06
552.326	6370.54
552.689	6359.47
553.053	6355.62
553.417	6330.09
553.78	6413.93
554.143	6474.26
554.507	6461.16
554.87	6526.92
555.234	6523.53
555.597	6500.03
555.96	6559.01
556.323	6534.6
556.686	6592.23
557.05	6612.11
557.413	6572.79
557.776	6638.55
558.139	6665.67
558.502	6638.55
558.865	6740.25
559.228	6757.42
559.59	6713.35
559.953	6749.96
560.316	6781.15
560.679	6806.69
561.041	6846.23
561.404	6879.9
561.767	6894.37
562.129	6944.99
562.492	6930.75
562.854	6939.34
563.217	6976.4
563.579	7026.11
563.941	7021.6
564.304	7087.36
564.666	7130.07
565.028	7120.35
565.39	7092.33
565.753	7187.24
566.115	7130.29
566.477	7228.82
566.839	7249.84
567.201	7303.62
567.563	7255.94
567.925	7311.08
568.287	7331.87
568.648	7311.53
569.01	7328.93
569.372	7399.66
569.734	7406.22
570.095	7498.19
570.457	7544.29
570.819	7509.49
571.18	7563.73
571.542	7520.56
571.903	7658.87
572.265	7673.1
572.626	7735.25
572.987	7733.67
573.349	7822.93
573.71	7825.42
574.071	7916.49
574.432	7885.75
574.794	8041.46
575.155	8049.59
575.516	7984.73
575.877	8105.18
576.238	8121
576.599	8251.39
576.96	8306.76
577.32	8402.35
577.681	8425.17
578.042	8461.33
578.403	8619.75
578.763	8618.62
579.124	8715.11
579.485	8805.28
579.845	8905.61
580.206	8976.35
580.566	9106.96
580.927	9197.13
581.287	9338.6
581.648	9421.31
582.008	9584.47
582.368	9691.36
582.728	9834.18
583.089	9826.27
583.449	9980.61
583.809	10213.38
584.169	10392.35
584.529	10505.35
584.889	10701.5
585.249	10797.99
585.609	11036.18
585.969	11148.04
586.329	11322.95
586.688	11477.07
587.048	11742.6
587.408	11930.62
587.768	12078.64
588.127	12291.96
588.487	12466.65
588.846	12823.93
589.206	12899.18
589.565	13208.78
589.925	13482.89
590.284	13741.19
590.643	13927.4
591.003	14155.87
591.362	14445.13
591.721	14672.02
592.08	14895.96
592.44	15271.32
592.799	15534.82
593.158	15705.89
593.517	15925.54
593.876	16192.88
594.235	16511.29
594.593	16760.77
594.952	17127.77
595.311	17266.52
595.67	17599.85
596.029	18087.29
596.387	18306.27
596.746	18576.09
597.104	18688.86
597.463	18926.82
597.822	19383.3
598.18	19477.31
598.538	19801.82
598.897	20148.48
599.255	20360.23
599.613	20826.2
599.972	20980.78
600.33	21273.88
600.688	21471.84
601.046	21749.34
601.404	22103.46
601.762	22419.16
602.12	22597.23
602.478	22869.77
602.836	23073.83
603.194	23377.32
603.552	23516.3
603.91	23792.23
604.268	24066.8
604.625	24293.46
604.983	24622.94
605.341	24683.5
605.698	25083.94
606.056	25410.94
606.413	25398.51
606.771	25706.75
607.128	26087.08
607.485	26106.97
607.843	26426.51
608.2	26746.95
608.557	26891.58
608.914	27158.69
609.272	27326.37
609.629	27656.53
609.986	27918.22
610.343	27974.04
610.7	28339.23
611.057	28418.09
611.414	28583.29
611.771	28863.05
612.127	29112.54
612.484	29148.7
612.841	29443.15
613.198	29566.31
613.554	29684.95
613.911	30019.18
614.267	30120.2
614.624	30207.88
614.98	30486.29
615.337	30533.52
615.693	30793.85
616.05	30932.83
616.406	31233.39
616.762	31159.72
617.118	31300.28
617.475	31442.42
617.831	31639.03
618.187	31816.42
618.543	31926.48
618.899	32239.92
619.255	32287.82
619.611	32498.89
619.967	32577.31
620.323	32692.78
620.678	32584.54
621.034	32808.49
621.39	32858.43
621.746	32940.69
622.101	33346.55
622.457	33203.05
622.812	33376.38
623.168	33579.31
623.523	33624.06
623.879	33746.77
624.234	33583.83
624.589	33957.61
624.945	33924.39
625.3	34000.55
625.655	34063.37
626.01	34155.8
626.365	34295.91
626.72	34291.16
627.075	34278.73
627.43	34310.14
627.785	34348.11
628.14	34507.88
628.495	34738.15
628.85	34448.44
629.205	34476.92
629.559	34723.01
629.914	34677.14
630.269	34759.85
630.623	34663.35
630.978	34659.74
631.332	34981.31
631.687	34915.78
632.041	34884.82
632.396	34939.51
632.75	34830.13
633.104	34939.96
633.459	34836.46
633.813	34877.13
634.167	34985.83
634.521	34844.59
634.875	34952.16
635.229	35064.47
635.583	34883.46
635.937	34917.81
636.291	34859.96
636.645	34952.61
636.999	34919.84
637.352	35053.17
637.706	34993.29
638.06	35038.03
638.413	35029.45
638.767	34862.9
639.121	34924.59
639.474	34809.11
639.828	34947.64
640.181	35030.12
640.534	34879.62
640.888	34925.04
641.241	34715.33
641.594	34848.21
641.947	34944.7
642.301	34867.64
642.654	34812.05
643.007	34901.09
643.36	34850.92
643.713	34803.01
644.066	34931.6
644.419	34719.4
644.771	34612.96
645.124	34183.59
645.477	34114.22
645.83	34009.13
646.182	33833.32
646.535	33959.42
646.888	33866.54
647.24	33765.07
647.593	33861.34
647.945	33878.06
648.298	33752.19
648.65	33735.92
649.002	33531.86
649.355	33687.33
649.707	33711.29
650.059	33746.32
650.411	34158.06
650.763	34261.33
651.115	34600.98
651.467	34539.06
651.819	34454.77
652.171	34435.11
652.523	34407.77
652.875	34261.1
653.227	34351.05
653.578	34480.31
653.93	34463.59
654.282	34166.42
654.633	34189.02
654.985	34223.59
655.337	34340.65
655.688	34390.14
656.039	34421.33
656.391	34048.91
656.742	34241.22
657.094	34107.21
657.445	34311.95
657.796	34188.11
658.147	34220.2
658.498	34194.67
658.849	34265.17
659.2	34033.77
659.551	34109.7
659.902	34206.42
660.253	34164.61
660.604	34217.49
660.955	34037.38
661.306	34269.01
661.656	34243.93
662.007	34204.38
662.358	34201.22
662.708	34116.02
663.059	34126.65
663.409	33809.59
663.76	34248.68
664.11	34199.41
664.461	34151.96
664.811	34146.31
665.161	34100.66
665.511	34048.46
665.862	34215
666.212	34194.89
666.562	34177.27
666.912	34039.87
667.262	33988.12
667.612	34027.89
667.962	34142.46
668.312	34014.56
668.662	34187.43
669.011	34161.67
669.361	34023.6
669.711	34050.71
670.06	33894.11
670.41	33888.69
670.76	33804.17
671.109	34030.83
671.459	34018.63
671.808	33867.89
672.157	33998.74
672.507	33715.36
672.856	33782.25
673.205	33876.03
673.554	33888.23
673.904	33810.27
674.253	33925.75
674.602	33911.96
674.951	33321.24
675.3	33171.19
675.649	33648.69
675.998	33775.02
676.346	33636.04
676.695	33758.29
677.044	33531.18
677.393	33573.89
677.741	33655.92
678.09	33607.34
678.438	33451.86
678.787	33599.2
679.135	33635.36
679.484	33278.53
679.832	33565.08
680.181	33339.1
680.529	33503.38
680.877	33412.99
681.225	33327.57
681.573	33582.7
681.922	33271.3
682.27	33118.31
682.618	33213.9
682.966	33077.18
683.314	33297.29
683.661	33081.47
684.009	33069.95
684.357	32913.12
684.705	32851.2
685.053	32942.5
685.4	32859.33
685.748	32730.52
686.095	32706.34
686.443	32603.97
686.79	32394.49
687.138	32697.98
687.485	32596.74
687.832	32359.91
688.18	32417.76
688.527	32238.33
688.874	32305.22
689.221	32186.36
689.568	32105
689.915	32023.42
690.262	32076.3
690.609	31890.77
690.956	31871.56
691.303	31665.92
691.65	31760.38
691.997	31711.57
692.344	31533.27
692.69	31533.49
693.037	31606.26
693.383	31312.03
693.73	31422.08
694.077	31306.61
694.423	31174.86
694.769	31076.78
695.116	31121.3
695.462	31001.3
695.808	30951.36
696.155	30945.94
696.501	30620.52
696.847	30691.48
697.193	30440.64
697.539	30572.39
697.885	30328.78
698.231	30360.19
698.577	30271.61
698.923	30232.74
699.269	30121.33
699.614	29881.11
699.96	29883.14
700.306	29849.02
700.651	29713.43
700.997	29557.27
701.342	29673.88
701.688	29551.62
702.033	29533.32
702.379	29591.85
702.724	29352.31
703.069	29425.07
703.415	29065.54
703.76	29069.38
704.105	29141.01
704.45	29104.63
704.795	28881.81
705.14	28823.28
705.485	28859.44
705.83	28666.22
706.175	28822.38
706.52	28648.37
706.865	28496.96
707.209	28619.22
707.554	28493.8
707.899	28395.27
708.243	28383.29
708.588	28226.91
708.932	28219.91
709.277	28092.23
709.621	28053.81
709.966	27993.47
710.31	27923.64
710.654	27774.72
710.998	27842.97
711.342	27746.93
711.687	27667.61
712.031	27619.25
712.375	27524.11
712.719	27598.23
713.063	27528.4
713.407	27481.17
713.75	27374.51
714.094	27363.21
714.438	27233.27
714.782	27295.19
715.125	27173.38
715.469	27177
715.812	27044.57
716.156	26817.46
716.499	26987.62
716.843	26999.37
717.186	26769.78
717.53	26895.87
717.873	26839.38
718.216	26958.02
718.559	26744.47
718.902	26576.34
719.246	26598.93
719.589	26423.12
719.932	26301.09
720.275	26472.16
720.617	26409.56
720.96	26264.03
721.303	26366.62
721.646	26272.39
721.989	26074.43
722.331	26242.11
722.674	26113.52
723.016	26103.81
723.359	26023.81
723.701	26109.23
724.044	25851.83
724.386	25758.28
724.729	25920.76
725.071	25870.82
725.413	25788.11
725.755	25832.17
726.097	25684.61
726.439	25485.74
726.782	25642.35
727.124	25624.5
727.465	25439.19
727.807	25438.06
728.149	25543.59
728.491	25469.02
728.833	25461.56
729.175	25443.94
729.516	25266.31
729.858	25261.34
730.199	25357.61
730.541	25236.71
730.882	25159.88
731.224	25346.76
731.565	25070.16
731.906	25138.41
732.248	25116.49
732.589	24983.61
732.93	24862.93
733.271	24856.15
733.612	24885.98
733.953	24900
734.294	24838.53
734.635	24645.99
734.976	24736.38
735.317	24720.56
735.658	24637.4
735.999	24550.63
736.339	24488.71
736.68	24648.93
737.021	24622.71
737.361	24334.13
737.702	24560.12
738.042	24460.46
738.383	24505.66
738.723	24434.92
739.063	24348.37
739.404	24393.12
739.744	24375.94
740.084	24309.05
740.424	24320.8
740.764	24128.49
741.104	24276.73
741.444	24118.55
741.784	24136.17
742.124	24133.91
742.464	23967.59
742.804	23971.66
743.143	23903.41
743.483	23916.52
743.823	23860.02
744.162	23813.7
744.502	23833.58
744.841	23748.39
745.181	23841.27
745.52	23689.63
745.86	23657.77
746.199	23782.28
746.538	23685.11
746.877	23730.76
747.216	23636.53
747.556	23590.2
747.895	23627.26
748.234	23434.5
748.573	23443.99
748.911	23453.03
749.25	23401.28
749.589	23302.75
749.928	23350.66
750.267	23302.3
750.605	23181.62
750.944	23163.54
751.283	23069.53
751.621	23147.05
751.96	23025.02
752.298	23024.34
752.636	23098.91
752.975	22825.7
753.313	22771.92
753.651	22949.09
753.989	22725.14
754.327	22801.75
754.666	22724.01
755.004	22585.03
755.342	22723.78
755.679	22659.6
756.017	22500.74
756.355	22573.95
756.693	22439.72
757.031	22385.03
757.368	22350.23
757.706	22355.43
758.044	22260.97
758.381	22338.25
758.719	22187.75
759.056	22232.72
759.394	22107.98
759.731	21937.81
760.068	22025.27
760.405	21878.15
760.743	21750.47
