Data from hue_200_FLMS001491_00061.txt Node
Date: Tue Feb 07 16:43:45 GMT 2017
User: dcchb
Spectrometer: FLMS00149
Trigger mode: 0
Integration Time (sec): 2.000000E-2
Scans to average: 10
Electric dark correction enabled: true
Nonlinearity correction enabled: false
Boxcar width: 0
XAxis mode: Wavelengths
Number of Pixels in Spectrum: 2048
>>>>>Begin Spectral Data<<<<<
341.393	-14.56
341.776	-14.56
342.16	-14.56
342.543	-66.09
342.927	-40.1
343.31	-73.54
343.693	-82.81
344.077	-63.6
344.46	-62.92
344.843	-66.99
345.226	-41.91
345.61	-34.45
345.993	8.04
346.376	-12.98
346.759	13.91
347.142	36.28
347.525	62.95
347.908	51.88
348.291	85.1
348.674	81.71
349.057	99.33
349.44	134.59
349.823	146.56
350.206	165.32
350.588	194.47
350.971	197.86
351.354	239.44
351.737	234.92
352.119	264.75
352.502	251.65
352.884	259.56
353.267	289.61
353.65	276.96
354.032	296.84
354.414	308.14
354.797	318.54
355.179	331.19
355.562	318.76
355.944	337.07
356.326	334.36
356.709	330.74
357.091	328.71
357.473	330.29
357.855	338.65
358.238	347.24
358.62	342.94
359.002	348.59
359.384	325.99
359.766	343.85
360.148	345.88
360.53	355.6
360.912	337.97
361.294	345.43
361.676	332.1
362.057	328.48
362.439	349.95
362.821	330.29
363.203	334.81
363.584	327.12
363.966	310.63
364.348	337.07
364.729	295.94
365.111	315.6
365.493	305.66
365.874	295.03
366.256	338.2
366.637	319.44
367.019	323.51
367.4	301.36
367.781	332.1
368.163	315.37
368.544	322.15
368.925	308.82
369.306	334.36
369.688	307.69
370.069	300.01
370.45	318.54
370.831	327.12
371.212	328.48
371.593	336.16
371.974	321.47
372.355	346.33
372.736	289.16
373.117	318.08
373.498	327.58
373.879	322.83
374.26	323.06
374.641	312.66
375.021	322.38
375.402	327.58
375.783	320.57
376.163	321.7
376.544	338.88
376.925	331.64
377.305	331.42
377.686	348.37
378.066	327.12
378.447	323.28
378.827	335.71
379.208	341.59
379.588	349.27
379.968	338.42
380.349	344.52
380.729	351.3
381.109	349.72
381.489	323.73
381.87	326.9
382.25	360.8
382.63	349.72
383.01	358.76
383.39	339.78
383.77	353.79
384.15	352.66
384.53	348.59
384.91	355.6
385.29	343.17
385.67	360.34
386.049	369.16
386.429	357.86
386.809	381.36
387.189	361.47
387.568	378.2
387.948	373.9
388.328	365.54
388.707	365.32
389.087	376.16
389.466	388.14
389.846	382.26
390.225	361.02
390.605	381.13
390.984	381.59
391.363	399.21
391.743	388.82
392.122	399.44
392.501	394.24
392.881	400.12
393.26	379.1
393.639	380.46
394.018	387.69
394.397	401.25
394.776	385.2
395.155	406.9
395.534	408.48
395.913	400.79
396.292	427.69
396.671	410.29
397.05	429.95
397.429	432.88
397.808	398.53
398.186	430.85
398.565	427.23
398.944	445.31
399.323	430.85
399.701	443.96
400.08	438.31
400.458	462.94
400.837	441.92
401.215	453.22
401.594	450.51
401.972	428.14
402.351	434.47
402.729	459.1
403.107	451.64
403.486	440.79
403.864	449.61
404.242	466.1
404.62	458.65
404.999	476.72
405.377	488.25
405.755	471.53
406.133	488.02
406.511	520.57
406.889	517.18
407.267	519.89
407.645	508.81
408.023	537.29
408.401	544.29
408.779	526.89
409.156	546.55
409.534	555.37
409.912	568.7
410.29	557.4
410.667	570.96
411.045	590.17
411.422	605.99
411.8	610.96
412.178	636.27
412.555	629.94
412.933	632.43
413.31	627.68
413.687	642.6
414.065	667.23
414.442	698.64
414.819	675.36
415.197	709.49
415.574	707.91
415.951	723.5
416.328	731.86
416.705	722.59
417.082	746.1
417.46	765.3
417.837	762.59
418.214	767.56
418.591	784.97
418.967	809.15
419.344	800.11
419.721	814.57
420.098	809.6
420.475	859.09
420.852	859.99
421.228	871.52
421.605	894.34
421.982	885.75
422.358	907.45
422.735	919.65
423.111	949.71
423.488	941.12
423.864	999.87
424.241	1003.49
424.617	1007.56
424.994	1031.96
425.37	1037.16
425.746	1048.91
426.123	1037.39
426.499	1069.93
426.875	1082.13
427.251	1120.32
427.627	1138.4
428.003	1161.23
428.379	1174.11
428.756	1178.4
429.132	1209.59
429.507	1238.29
429.883	1227.89
430.259	1238.29
430.635	1248
431.011	1241
431.387	1294.56
431.763	1343.37
432.138	1328.45
432.514	1341.33
432.89	1364.84
433.265	1408.23
433.641	1430.6
434.016	1468.56
434.392	1496.81
434.767	1535.91
435.143	1513.31
435.518	1553.53
435.894	1593.76
436.269	1604.38
436.644	1669.01
437.02	1650.25
437.395	1683.92
437.77	1716.01
438.145	1753.3
438.52	1761.44
438.895	1807.99
439.271	1821.77
439.646	1838.72
440.021	1867.87
440.395	1926.4
440.77	1921.88
441.145	1928.21
441.52	1960.3
441.895	1979.74
442.27	1991.04
442.645	2027.42
443.019	2090.69
443.394	2074.87
443.769	2110.35
444.143	2123.69
444.518	2167.75
444.892	2170.92
445.267	2202.78
445.641	2199.17
446.016	2186.06
446.39	2237.58
446.764	2255.89
447.139	2276.23
447.513	2277.13
447.887	2313.96
448.262	2315.09
448.636	2325.04
449.01	2389.44
449.384	2405.94
449.758	2427.41
450.132	2434.64
450.506	2468.99
450.88	2487.75
451.254	2539.72
451.628	2483.23
452.002	2560.06
452.376	2607.29
452.75	2584.01
453.123	2627.63
453.497	2667.4
453.871	2710.11
454.244	2730.45
454.618	2747.4
454.992	2771.13
455.365	2800.05
455.739	2847.51
456.112	2872.82
456.486	2911.91
456.859	2962.54
457.232	3024
457.606	2989.2
457.979	3035.08
458.352	3088.63
458.725	3181.96
459.099	3129.08
459.472	3220.83
459.845	3280.94
460.218	3294.28
460.591	3299.02
460.964	3334.95
461.337	3391.68
461.71	3466.93
462.083	3488.62
462.456	3496.53
462.829	3522.97
463.201	3614.27
463.574	3621.5
463.947	3612.69
464.32	3735.4
464.692	3737.88
465.065	3737.43
465.438	3842.74
465.81	3892.68
466.183	3934.49
466.555	4026.46
466.928	4011.32
467.3	4036.86
467.672	4124.76
468.045	4226.68
468.417	4255.38
468.789	4263.74
469.161	4334.93
469.534	4392.33
469.906	4486.34
470.278	4501.93
470.65	4515.94
471.022	4640.23
471.394	4716.61
471.766	4754.8
472.138	4798.19
472.51	4847.23
472.882	4935.14
473.253	5019.43
473.625	5066.66
473.997	5138.07
474.369	5253.1
474.74	5279.08
475.112	5326.99
475.484	5422.81
475.855	5514.11
476.227	5599.98
476.598	5746.42
476.97	5717.94
477.341	5859.86
477.713	5927.88
478.084	5970.59
478.455	6110.25
478.827	6148.67
479.198	6294.65
479.569	6386.17
479.94	6501.65
480.311	6554.08
480.682	6703.91
481.053	6865.26
481.424	6963.56
481.795	6956.33
482.166	7034.74
482.537	7204.68
482.908	7352.02
483.279	7319.48
483.65	7407.84
484.021	7648.97
484.391	7693.71
484.762	7788.17
485.133	7800.37
485.503	7891.67
485.874	8062.74
486.244	8147.94
486.615	8270.42
486.985	8358.78
487.356	8520.81
487.726	8586.12
488.097	8771.2
488.467	8759.44
488.837	8951.08
489.207	9043.05
489.578	9101.13
489.948	9132.54
490.318	9311.29
490.688	9278.98
491.058	9459.77
491.428	9496.6
491.798	9593.55
492.168	9784.5
492.538	9761
492.908	10001.67
493.278	10023.59
493.648	10048.9
494.017	10118.73
494.387	10163.7
494.757	10287.54
495.126	10360.31
495.496	10364.83
495.866	10421.1
496.235	10510.13
496.605	10647.3
496.974	10619.96
497.344	10756.91
497.713	10731.82
498.082	10755.1
498.452	10941.31
498.821	10918.71
499.19	10960.52
499.559	10994.87
499.928	11070.34
500.298	11153.73
500.667	11267.4
501.036	11259.72
501.405	11299.94
501.774	11281.41
502.143	11379.49
502.512	11422.88
502.88	11444.57
503.249	11524.34
503.618	11560.28
503.987	11517.11
504.356	11573.61
504.724	11661.06
505.093	11669.65
505.462	11705.36
505.83	11698.12
506.199	11839.14
506.567	11886.59
506.936	11867.39
507.304	11921.62
507.672	11984.9
508.041	11892.24
508.409	12112.35
508.777	12158.68
509.145	12233.7
509.514	12126.81
509.882	12328.62
510.25	12244.55
510.618	12375.17
510.986	12290.2
511.354	12470.31
511.722	12400.93
512.09	12470.76
512.458	12495.84
512.826	12482.74
513.193	12476.18
513.561	12539.46
513.929	12637.76
514.297	12642.28
514.664	12696.06
515.032	12672.34
515.4	12756.4
515.767	12730.64
516.135	12832.56
516.502	12668.95
516.869	12851.77
517.237	12811.54
517.604	12787.81
517.972	12854.7
518.339	12880.92
518.706	12829.17
519.073	12854.25
519.44	12899.67
519.808	13033.23
520.175	12945.78
520.542	13191.19
520.909	13106.45
521.276	13031.42
521.643	13006.34
522.009	13162.04
522.376	13127.01
522.743	13199.33
523.11	13174.92
523.477	13362.49
523.843	13308.7
524.21	13361.58
524.577	13425.76
524.943	13301.25
525.31	13373.79
525.676	13373.11
526.043	13480.9
526.409	13470.51
526.776	13456.95
527.142	13465.76
527.508	13531.07
527.874	13529.26
528.241	13499.89
528.607	13454.46
528.973	13567
529.339	13507.57
529.705	13499.21
530.071	13567
530.437	13541.47
530.803	13478.87
531.169	13567.23
531.535	13444.52
531.901	13488.36
532.267	13381.7
532.632	13520.45
532.998	13425.76
533.364	13484.29
533.73	13388.7
534.095	13450.62
534.461	13466.21
534.826	13501.69
535.192	13456.95
535.557	13456.72
535.923	13373.11
536.288	13376.05
536.653	13330.85
537.019	13294.69
537.384	13213.56
537.749	13239.33
538.114	13220.34
538.479	13107.81
538.845	13138.09
539.21	12980.12
539.575	12995.49
539.94	13002.95
540.305	13006.34
540.67	12888.15
541.034	12934.02
541.399	12948.26
541.764	12882.5
542.129	12829.85
542.494	12796.85
542.858	12764.76
543.223	12670.3
543.587	12730.87
543.952	12614.94
544.316	12651.32
544.681	12563.86
545.045	12672.79
545.41	12583.75
545.774	12479.35
546.138	12445.9
546.503	12404.55
546.867	12302.4
547.231	12445.45
547.595	12392.12
547.959	12291.56
548.324	12173.59
548.688	12235.29
549.052	12124.55
549.416	12151.67
549.779	12094.27
550.143	12038.68
550.507	12073.26
550.871	12013.82
551.235	11978.8
551.599	12015.4
551.962	11993.94
552.326	11882.07
552.689	11881.85
553.053	11751
553.417	11804.56
553.78	11786.26
554.143	11678.69
554.507	11830.32
554.87	11669.42
555.234	11792.59
555.597	11685.7
555.96	11626.71
556.323	11581.74
556.686	11628.52
557.05	11651.8
557.413	11581.29
557.776	11578.35
558.139	11691.35
558.502	11575.42
558.865	11534.51
559.228	11555.53
559.59	11506.04
559.953	11539.48
560.316	11502.42
560.679	11537
561.041	11554.63
561.404	11548.3
561.767	11579.03
562.129	11521.41
562.492	11586.94
562.854	11557.79
563.217	11544
563.579	11459.03
563.941	11532.48
564.304	11474.63
564.666	11563.21
565.028	11503.1
565.39	11581.97
565.753	11570.22
566.115	11595.3
566.477	11575.19
566.839	11560.28
567.201	11627.84
567.563	11603.44
567.925	11732.93
568.287	11659.48
568.648	11723.66
569.01	11684.34
569.372	11724.11
569.734	11628.07
570.095	11666.26
570.457	11641.85
570.819	11740.16
571.18	11723.43
571.542	11741.06
571.903	11699.93
572.265	11721.4
572.626	11709.2
572.987	11834.62
573.349	11778.35
573.71	11808.63
574.071	11780.83
574.432	11863.54
574.794	11901.06
575.155	11784
575.516	11775.18
575.877	11820.16
576.238	11874.84
576.599	11906.03
576.96	11749.42
577.32	11925.01
577.681	11947.38
578.042	11918.23
578.403	11896.99
578.763	11892.47
579.124	11929.76
579.485	11906.25
579.845	11911
580.206	11874.62
580.566	11806.37
580.927	11929.98
581.287	11854.5
581.648	11826.93
582.008	11889.31
582.368	11915.29
582.728	11856.54
583.089	11882.98
583.449	11924.33
583.809	11815.18
584.169	11897.89
584.529	11838.46
584.889	11921.17
585.249	11853.15
585.609	11856.54
585.969	11861.96
586.329	11834.62
586.688	11890.89
587.048	11774.28
587.408	11777.44
587.768	11791.68
588.127	11825.13
588.487	11831
588.846	11789.87
589.206	11777.44
589.565	11776.54
589.925	11799.36
590.284	11768.86
590.643	11759.82
591.003	11815.18
591.362	11738.35
591.721	11808.63
592.08	11752.36
592.44	11783.55
592.799	11755.3
593.158	11685.92
593.517	11710.78
593.876	11722.08
594.235	11645.7
594.593	11726.6
594.952	11724.34
595.311	11599.82
595.67	11710.1
596.029	11774.28
596.387	11692.48
596.746	11755.07
597.104	11739.03
597.463	11664.45
597.822	11782.19
598.18	11657.45
598.538	11650.22
598.897	11658.8
599.255	11605.7
599.613	11791.23
599.972	11663.78
600.33	11653.83
600.688	11651.12
601.046	11706.71
601.404	11729.76
601.762	11682.08
602.12	11689.09
602.478	11739.25
602.836	11807.5
603.194	11685.7
603.552	11705.13
603.91	11601.63
604.268	11627.62
604.625	11574.96
604.983	11698.12
605.341	11614.96
605.698	11669.2
606.056	11642.31
606.413	11645.02
606.771	11759.59
607.128	11706.94
607.485	11658.35
607.843	11724.79
608.2	11752.59
608.557	11798.01
608.914	11713.49
609.272	11723.89
609.629	11764.79
609.986	11785.35
610.343	11767.73
610.7	11831.23
611.057	11797.33
611.414	11783.32
611.771	11838.01
612.127	11766.6
612.484	11851.34
612.841	11865.58
613.198	11846.37
613.554	11789.65
613.911	11832.13
614.267	11884.11
614.624	11838.23
614.98	11849.99
615.337	11927.05
615.693	11900.61
616.05	11893.37
616.406	11896.54
616.762	11902.41
617.118	11805.92
617.475	11846.14
617.831	11956.2
618.187	11966.14
618.543	11934.95
618.899	11932.92
619.255	11923.43
619.611	11943.99
619.967	11944.9
620.323	12040.94
620.678	11960.26
621.034	12007.95
621.39	11933.37
621.746	11947.16
622.101	12122.29
622.457	12006.59
622.812	11958.68
623.168	12020.83
623.523	12006.37
623.879	12039.36
624.234	11930.66
624.589	12000.04
624.945	11966.82
625.3	11994.39
625.655	11935.86
626.01	11984.9
626.365	11986.7
626.72	11998
627.075	11916.65
627.43	11949.42
627.785	11911.68
628.14	11999.13
628.495	11904.67
628.85	11872.81
629.205	11935.86
629.559	11952.13
629.914	11853.15
630.269	11805.24
630.623	11889.98
630.978	11835.3
631.332	11857.44
631.687	11828.97
632.041	11696.09
632.396	11756.88
632.75	11773.83
633.104	11741.51
633.459	11638.47
633.813	11719.37
634.167	11695.41
634.521	11649.99
634.875	11670.1
635.229	11688.86
635.583	11560.73
635.937	11607.51
636.291	11576.09
636.645	11596.88
636.999	11564.34
637.352	11574.74
637.706	11517.56
638.06	11547.62
638.413	11477.79
638.767	11473.72
639.121	11471.01
639.474	11451.35
639.828	11483.44
640.181	11447.96
640.534	11464.01
640.888	11481.41
641.241	11388.98
641.594	11452.48
641.947	11363.67
642.301	11408.64
642.654	11450.45
643.007	11398.25
643.36	11358.02
643.713	11356.66
644.066	11386.49
644.419	11289.1
644.771	11242.32
645.124	11116.9
645.477	11084.13
645.83	11101.08
646.182	11064.69
646.535	10929.78
646.888	10976.56
647.24	10986.05
647.593	10967.97
647.945	10961.87
648.298	10909.44
648.65	10863.57
649.002	10873.97
649.355	11001.42
649.707	11001.87
650.059	10976.56
650.411	11115.77
650.763	11174.52
651.115	11251.13
651.467	11207.06
651.819	11214.07
652.171	11190.79
652.523	11162.55
652.875	11132.94
653.227	11127.07
653.578	11203.9
653.93	11191.25
654.282	11165.03
654.633	11077.8
654.985	11140.4
655.337	11106.73
655.688	11171.81
656.039	11139.27
656.391	11139.04
656.742	11218.36
657.094	11170.45
657.445	11248.42
657.796	11148.08
658.147	11156.67
658.498	11153.05
658.849	11174.07
659.2	11133.17
659.551	11086.39
659.902	11185.37
660.253	11162.77
660.604	11107.18
660.955	11172.49
661.306	11216.56
661.656	11159.38
662.007	11147.18
662.358	11251.58
662.708	11201.64
663.059	11182.88
663.409	11073.06
663.76	11218.82
664.11	11191.7
664.461	11176.56
664.811	11173.84
665.161	11205.93
665.511	11226.05
665.862	11198.48
666.212	11216.33
666.562	11259.04
666.912	11151.7
667.262	11208.87
667.612	11282.32
667.962	11216.1
668.312	11164.81
668.662	11229.66
669.011	11200.51
669.361	11128.87
669.711	11182.43
670.06	11146.05
670.41	11116.67
670.76	11169.78
671.109	11135.88
671.459	11178.82
671.808	11130.23
672.157	11164.35
672.507	11016.79
672.856	11029.44
673.205	11073.73
673.554	11052.04
673.904	11085.71
674.253	11189.66
674.602	11123.9
674.951	10907.86
675.3	10941.31
675.649	11009.56
675.998	11016.79
676.346	11041.64
676.695	11057.92
677.044	11014.53
677.393	10972.95
677.741	11026.28
678.09	10900.41
678.438	10870.58
678.787	10969.78
679.135	10901.54
679.484	10913.29
679.832	10909.9
680.181	10807.98
680.529	10866.06
680.877	10791.71
681.225	10808.2
681.573	10816.57
681.922	10696.8
682.27	10770.24
682.618	10727.98
682.966	10689.11
683.314	10714.65
683.661	10664.93
684.009	10681.65
684.357	10615.67
684.705	10587.65
685.053	10621.99
685.4	10570.02
685.748	10554.43
686.095	10571.6
686.443	10440.3
686.79	10439.63
687.138	10466.29
687.485	10458.16
687.832	10363.92
688.18	10420.19
688.527	10341.55
688.874	10340.65
689.221	10297.26
689.568	10306.97
689.915	10160.09
690.262	10228.33
690.609	10173.19
690.956	10082.35
691.303	10121.89
691.65	10049.58
691.997	9998.73
692.344	9993.76
692.69	9944.05
693.037	9953.09
693.383	9874.22
693.73	9988.11
694.077	9896.59
694.423	9822.47
694.769	9791.28
695.116	9748.57
695.462	9767.1
695.808	9659.31
696.155	9720.78
696.501	9598.52
696.847	9652.08
697.193	9585.86
697.539	9584.06
697.885	9451.18
698.231	9456.38
698.577	9444.62
698.923	9441.23
699.269	9365.3
699.614	9362.82
699.96	9301.13
700.306	9289.83
700.651	9236.27
700.997	9191.3
701.342	9164.18
701.688	9142.71
702.033	9096.84
702.379	9071.98
702.724	8982.49
703.069	9039.89
703.415	8954.24
703.76	8959.89
704.105	8994.47
704.45	8894.13
704.795	8777.75
705.14	8786.11
705.485	8780.91
705.83	8759.22
706.175	8807.58
706.52	8754.93
706.865	8667.02
707.209	8669.5
707.554	8677.64
707.899	8658.66
708.243	8651.88
708.588	8635.15
708.932	8476.51
709.277	8567.81
709.621	8546.57
709.966	8475.16
710.31	8460.92
710.654	8387.03
710.998	8412.56
711.342	8401.04
711.687	8364.65
712.031	8347.25
712.375	8324.65
712.719	8335.5
713.063	8359.68
713.407	8271.77
713.75	8219.12
714.094	8252.57
714.438	8265.45
714.782	8211.89
715.125	8228.84
715.469	8176.18
715.812	8150.65
716.156	8121.27
716.499	8056.64
716.843	8125.34
717.186	8140.7
717.53	8094.6
717.873	8130.53
718.216	8064.32
718.559	8044.21
718.902	7957.88
719.246	7956.98
719.589	8008.05
719.932	7990.65
720.275	8000.82
720.617	7908.62
720.96	7963.99
721.303	7949.3
721.646	7989.3
721.989	7946.36
722.331	7925.12
722.674	7879.69
723.016	7950.65
723.359	7882.41
723.701	7918.79
724.044	7898.22
724.386	7858.23
724.729	7904.33
725.071	7852.8
725.413	7813.26
725.755	7778.23
726.097	7829.98
726.439	7763.76
726.782	7734.16
727.124	7783.2
727.465	7790.2
727.807	7820.71
728.149	7761.05
728.491	7818.45
728.833	7759.7
729.175	7803.76
729.516	7755.18
729.858	7738.68
730.199	7758.12
730.541	7751.79
730.882	7691.68
731.224	7813.71
731.565	7754.73
731.906	7692.13
732.248	7729.87
732.589	7747.72
732.93	7665.91
733.271	7708.17
733.612	7718.34
733.953	7721.51
734.294	7712.92
734.635	7684.9
734.976	7742.3
735.317	7679.93
735.658	7728.51
735.999	7716.99
736.339	7671.56
736.68	7776.19
737.021	7719.47
737.361	7722.86
737.702	7772.35
738.042	7678.12
738.383	7705.91
738.723	7694.61
739.063	7689.42
739.404	7780.49
739.744	7790.66
740.084	7860.71
740.424	7811.22
740.764	7788.62
741.104	7837.89
741.444	7799.02
741.784	7836.76
742.124	7865.91
742.464	7836.08
742.804	7949.07
743.143	7851.67
743.483	7893.03
743.823	7871.11
744.162	7943.87
744.502	7985.45
744.841	7990.43
745.181	8044.66
745.52	8028.39
745.86	8120.59
746.199	8087.82
746.538	8134.38
746.877	8208.05
747.216	8245.33
747.556	8279.46
747.895	8364.43
748.234	8369.17
748.573	8413.01
748.911	8457.53
749.25	8535.04
749.589	8603.97
749.928	8609.84
750.267	8747.92
750.605	8756.51
750.944	8867.92
751.283	8911.08
751.621	9029.72
751.96	9084.63
752.298	9204.63
752.636	9243.5
752.975	9398.07
753.313	9407.11
753.651	9560.55
753.989	9674
754.327	9735.01
754.666	9861.56
755.004	9933.65
755.342	10112.18
755.679	10311.04
756.017	10365.05
756.355	10493.18
756.693	10699.73
757.031	10832.38
757.368	10931.14
757.706	11067.63
758.044	11190.79
758.381	11386.27
