Data from hue_280_FLMS001491_00044.txt Node
Date: Tue Feb 07 15:55:19 GMT 2017
User: dcchb
Spectrometer: FLMS00149
Trigger mode: 0
Integration Time (sec): 2.000000E-2
Scans to average: 10
Electric dark correction enabled: true
Nonlinearity correction enabled: false
Boxcar width: 0
XAxis mode: Wavelengths
Number of Pixels in Spectrum: 2048
>>>>>Begin Spectral Data<<<<<
341.393	-21.17
341.776	-21.17
342.16	-21.17
342.543	-60.94
342.927	-50.55
343.31	-68.63
343.693	-60.94
344.077	-71.11
344.46	-36.09
344.843	-40.83
345.226	-45.8
345.61	-36.99
345.993	-42.64
346.376	10.24
346.759	4.36
347.142	32.61
347.525	50.92
347.908	47.53
348.291	83.23
348.674	72.61
349.057	101.54
349.44	125.27
349.823	126.85
350.206	155.32
350.588	185.83
350.971	185.83
351.354	224.7
351.737	217.01
352.119	220.63
352.502	250.23
352.884	246.84
353.267	283.23
353.65	270.35
354.032	264.92
354.414	294.3
354.797	301.98
355.179	318.48
355.562	316.22
355.944	311.47
356.326	314.41
356.709	322.77
357.091	300.63
357.473	339.72
357.855	333.62
358.238	331.36
358.62	337.24
359.002	340.4
359.384	308.09
359.766	353.28
360.148	341.3
360.53	326.84
360.912	340.17
361.294	347.18
361.676	333.4
362.057	323.45
362.439	330.91
362.821	335.66
363.203	304.24
363.584	312.6
363.966	294.98
364.348	330.01
364.729	336.33
365.111	302.66
365.493	313.28
365.874	325.03
366.256	322.77
366.637	312.83
367.019	304.02
367.4	328.2
367.781	291.81
368.163	298.59
368.544	314.64
368.925	284.13
369.306	296.11
369.688	306.5
370.069	320.74
370.45	306.5
370.831	304.7
371.212	309.67
371.593	303.57
371.974	318.48
372.355	306.05
372.736	313.28
373.117	322.1
373.498	322.77
373.879	298.82
374.26	306.96
374.641	301.31
375.021	285.71
375.402	328.42
375.783	301.08
376.163	299.5
376.544	316.45
376.925	318.25
377.305	313.28
377.686	308.99
378.066	318.25
378.447	310.12
378.827	337.69
379.208	321.87
379.588	310.34
379.968	305.37
380.349	340.17
380.729	325.03
381.109	323.45
381.489	327.29
381.87	322.77
382.25	330.46
382.63	346.5
383.01	318.48
383.39	323.68
383.77	345.15
384.15	333.85
384.53	328.88
384.91	352.83
385.29	328.65
385.67	330.23
386.049	336.11
386.429	329.55
386.809	344.92
387.189	355.09
387.568	331.81
387.948	356.9
388.328	339.27
388.707	346.05
389.087	323.9
389.466	362.55
389.846	341.53
390.225	348.99
390.605	367.29
390.984	379.04
391.363	351.47
391.743	348.54
392.122	365.26
392.501	369.33
392.881	381.76
393.26	359.84
393.639	368.2
394.018	374.75
394.397	369.33
394.776	380.63
395.155	379.04
395.534	380.17
395.913	383.79
396.292	384.47
396.671	394.18
397.05	407.52
397.429	394.64
397.808	388.99
398.186	397.8
398.565	388.99
398.944	387.63
399.323	376.56
399.701	405.26
400.08	404.81
400.458	390.79
400.837	396.22
401.215	413.85
401.594	424.01
401.972	393.96
402.351	421.53
402.729	412.26
403.107	419.72
403.486	412.49
403.864	424.47
404.242	433.05
404.62	427.63
404.999	426.73
405.377	439.61
405.755	421.53
406.133	442.77
406.511	452.26
406.889	438.25
407.267	449.32
407.645	463.34
408.023	461.98
408.401	479.61
408.779	462.66
409.156	494.07
409.534	485.48
409.912	489.32
410.29	488.65
410.667	486.39
411.045	509.89
411.422	454.75
411.8	496.78
412.178	502.66
412.555	516.89
412.933	525.93
413.31	532.03
413.687	546.27
414.065	541.75
414.442	573.39
414.819	561.86
415.197	565.03
415.574	566.16
415.951	559.38
416.328	594.18
416.705	592.6
417.082	602.77
417.46	614.29
417.837	628.75
418.214	629.66
418.591	615.65
418.967	617.46
419.344	638.02
419.721	640.05
420.098	647.74
420.475	675.31
420.852	687.74
421.228	686.38
421.605	686.61
421.982	689.32
422.358	697
422.735	707.62
423.111	715.31
423.488	754.18
423.864	740.39
424.241	727.96
424.617	760.5
424.994	793.95
425.37	787.85
425.746	786.72
426.123	790.11
426.499	803.44
426.875	804.12
427.251	804.12
427.627	814.74
428.003	846.15
428.379	816.32
428.756	850.44
429.132	842.31
429.507	879.82
429.883	875.08
430.259	898.8
430.635	903.32
431.011	908.3
431.387	920.95
431.763	927.73
432.138	965.24
432.514	952.81
432.89	960.5
433.265	959.82
433.641	1003.66
434.016	982.64
434.392	1024
434.767	1052.92
435.143	1028.97
435.518	1032.36
435.894	1075.3
436.269	1100.61
436.644	1088.86
437.02	1082.53
437.395	1132.47
437.77	1132.92
438.145	1146.03
438.52	1165.69
438.895	1171.11
439.271	1176.31
439.646	1213.15
440.021	1205.91
440.395	1215.41
440.77	1205.69
441.145	1257.21
441.52	1257.89
441.895	1253.15
442.27	1261.51
442.645	1258.79
443.019	1286.82
443.394	1289.3
443.769	1299.7
444.143	1315.52
444.518	1340.83
444.892	1294.05
445.267	1294.95
445.641	1314.16
446.016	1324.56
446.39	1357.55
446.764	1383.76
447.139	1335.4
447.513	1380.83
447.887	1392.58
448.262	1358.68
448.636	1386.47
449.01	1394.61
449.384	1391.45
449.758	1425.57
450.132	1439.13
450.506	1460.6
450.88	1461.28
451.254	1441.61
451.628	1440.71
452.002	1464.21
452.376	1484.55
452.75	1498.34
453.123	1482.29
453.497	1513.03
453.871	1539.01
454.244	1545.11
454.618	1539.69
454.992	1570.2
455.365	1586.92
455.739	1604.77
456.112	1604.77
456.486	1627.37
456.859	1618.33
457.232	1674.83
457.606	1661.72
457.979	1673.92
458.352	1706.01
458.725	1714.38
459.099	1710.76
459.472	1752.57
459.845	1768.61
460.218	1754.37
460.591	1767.26
460.964	1772.45
461.337	1774.94
461.71	1825.11
462.083	1850.87
462.456	1840.93
462.829	1840.93
463.201	1859.91
463.574	1870.98
463.947	1923.18
464.32	1918.44
464.692	1971.32
465.065	1939.45
465.438	1956.63
465.81	1997.31
466.183	2006.8
466.555	2053.35
466.928	2035.05
467.3	2055.84
467.672	2085.44
468.045	2108.94
468.417	2135.38
468.789	2143.52
469.161	2144.87
469.534	2171.54
469.906	2206.11
470.278	2176.96
470.65	2233.68
471.022	2261.25
471.394	2291.99
471.766	2299.9
472.138	2297.41
472.51	2390.29
472.882	2413.57
473.253	2414.47
473.625	2423.28
473.997	2498.76
474.369	2473.68
474.74	2511.19
475.112	2559.78
475.484	2588.7
475.855	2618.31
476.227	2644.75
476.598	2668.93
476.97	2650.62
477.341	2717.97
477.713	2744.41
478.084	2776.72
478.455	2808.13
478.827	2858.07
479.198	2909.82
479.569	2883.84
479.94	2933.55
480.311	2963.61
480.682	3046.09
481.053	3100.33
481.424	3135.81
481.795	3119.08
482.166	3164.51
482.537	3170.61
482.908	3257.16
483.279	3261.91
483.65	3291.96
484.021	3353.2
484.391	3370.83
484.762	3396.82
485.133	3422.58
485.503	3450.38
485.874	3496.48
486.244	3541.67
486.615	3596.59
486.985	3601.56
487.356	3693.31
487.726	3700.09
488.097	3735.57
488.467	3748.22
488.837	3785.28
489.207	3845.85
489.578	3846.3
489.948	3876.8
490.318	3943.02
490.688	3956.58
491.058	3973.53
491.428	4059.85
491.798	4033.64
492.168	4110.02
492.538	4143.69
492.908	4184.37
493.278	4243.35
493.648	4226.4
494.017	4250.13
494.387	4307.98
494.757	4295.32
495.126	4341.88
495.496	4359.96
495.866	4382.33
496.235	4422.78
496.605	4430.01
496.974	4461.65
497.344	4460.07
497.713	4491.7
498.082	4541.65
498.452	4562.21
498.821	4560.85
499.19	4545.49
499.559	4587.29
499.928	4664.13
500.298	4620.51
500.667	4677.24
501.036	4648.31
501.405	4699.16
501.774	4654.41
502.143	4723.79
502.512	4730.34
502.88	4726.05
503.249	4781.87
503.618	4790
503.987	4771.7
504.356	4794.97
504.724	4857.34
505.093	4896.89
505.462	4842.2
505.83	4845.37
506.199	4941.86
506.567	4935.99
506.936	4940.51
507.304	5002.65
507.672	4997.68
508.041	4989.54
508.409	5026.83
508.777	5042.2
509.145	5048.07
509.514	5091.91
509.882	5087.62
510.25	5080.16
510.618	5107.28
510.986	5103.44
511.354	5126.49
511.722	5189.54
512.09	5183.21
512.458	5158.81
512.826	5263.66
513.193	5260.5
513.561	5243.1
513.929	5236.32
514.297	5288.75
514.664	5311.34
515.032	5295.98
515.4	5363.32
515.767	5359.25
516.135	5344.79
516.502	5345.69
516.869	5367.39
517.237	5374.62
517.604	5417.78
517.972	5418.01
518.339	5432.24
518.706	5405.58
519.073	5422.75
519.44	5479.47
519.808	5483.32
520.175	5491.23
520.542	5514.28
520.909	5563.31
521.276	5501.85
521.643	5581.17
522.009	5543.2
522.376	5611.9
522.743	5632.46
523.11	5665.91
523.477	5657.77
523.843	5712.01
524.21	5750.43
524.577	5745.91
524.943	5734.61
525.31	5743.2
525.676	5812.12
526.043	5834.95
526.409	5817.54
526.776	5888.28
527.142	5879.46
527.508	5902.51
527.874	5928.05
528.241	5949.52
528.607	5956.52
528.973	5989.52
529.339	6004.66
529.705	6066.35
530.071	6054.83
530.437	6098.67
530.803	6036.3
531.169	6201.26
531.535	6079.68
531.901	6112
532.267	6156.29
532.632	6192.9
532.998	6191.55
533.364	6232.68
533.73	6222.51
534.095	6270.19
534.461	6241.04
534.826	6304.76
535.192	6260.47
535.557	6341.6
535.923	6280.58
536.288	6300.92
536.653	6338.21
537.019	6332.56
537.384	6359.23
537.749	6340.69
538.114	6377.98
538.479	6398.55
538.845	6449.84
539.21	6400.35
539.575	6501.59
539.94	6455.27
540.305	6464.31
540.67	6482.39
541.034	6493.91
541.399	6497.98
541.764	6517.19
542.129	6560.35
542.494	6547.02
542.858	6552.21
543.223	6566.9
543.587	6589.05
543.952	6551.99
544.316	6564.19
544.681	6595.38
545.045	6634.92
545.41	6729.39
545.774	6652.78
546.138	6597.19
546.503	6647.58
546.867	6700.69
547.231	6662.27
547.595	6746.11
547.959	6764.64
548.324	6688.48
548.688	6759.44
549.052	6759.89
549.416	6809.61
549.779	6764.64
550.143	6784.98
550.507	6811.42
550.871	6794.69
551.235	6771.64
551.599	6858.2
551.962	6862.04
552.326	6871.3
552.689	6860.46
553.053	6853.45
553.417	6839.89
553.78	6945.42
554.143	6875.6
554.507	6917.4
554.87	6947.23
555.234	7011.41
555.597	6987.01
555.96	6984.07
556.323	7025.42
556.686	7012.09
557.05	7069.49
557.413	6996.04
557.776	7064.52
558.139	7109.26
558.502	7095.03
558.865	7083.05
559.228	7129.6
559.59	7138.64
559.953	7097.74
560.316	7275.13
560.679	7220.22
561.041	7229.71
561.404	7235.81
561.767	7365.3
562.129	7294.79
562.492	7331.63
562.854	7315.13
563.217	7302.7
563.579	7286.66
563.941	7398.52
564.304	7443.04
564.666	7466.31
565.028	7476.03
565.39	7445.75
565.753	7529.36
566.115	7521.68
566.477	7545.63
566.839	7571.4
567.201	7648.23
567.563	7606.42
567.925	7688.23
568.287	7659.53
568.648	7636.71
569.01	7718.29
569.372	7765.29
569.734	7737.27
570.095	7853.88
570.457	7824.95
570.819	7845.74
571.18	7864.04
571.542	7929.58
571.903	7915.57
572.265	7984.72
572.626	7982.46
572.987	7949.47
573.349	8090.71
573.71	8137.48
574.071	8125.96
574.432	8161.66
574.794	8197.82
575.155	8218.16
575.516	8152.4
575.877	8238.27
576.238	8267.88
576.599	8289.12
576.96	8327.31
577.32	8449.57
577.681	8429
578.042	8491.6
578.403	8436.91
578.763	8503.35
579.124	8536.12
579.485	8579.96
579.845	8650.01
580.206	8663.8
580.566	8740.63
580.927	8749.22
581.287	8776.11
581.648	8831.93
582.008	8901.31
582.368	8943.56
582.728	8979.95
583.089	9014.52
583.449	9044.13
583.809	9139.49
584.169	9225.59
584.529	9124.58
584.889	9233.73
585.249	9207.06
585.609	9261.52
585.969	9401.63
586.329	9417.68
586.688	9497
587.048	9501.06
587.408	9552.59
587.768	9678.23
588.127	9597.78
588.487	9722.53
588.846	9889.3
589.206	9846.37
589.565	9903.99
589.925	10046.59
590.284	10077.77
590.643	10140.59
591.003	10249.52
591.362	10233.25
591.721	10289.97
592.08	10375.84
592.44	10408.38
592.799	10491.32
593.158	10575.61
593.517	10619.9
593.876	10676.63
594.235	10704.42
594.593	10736.51
594.952	10869.84
595.311	10941.03
595.67	10890.63
596.029	11020.35
596.387	11093.56
596.746	11155.94
597.104	11168.14
597.463	11225.31
597.822	11276.16
598.18	11333.11
598.538	11363.61
598.897	11426.21
599.255	11372.43
599.613	11638.41
599.972	11581.46
600.33	11571.07
600.688	11586.88
601.046	11677.05
601.404	11799.99
601.762	11790.95
602.12	11922.02
602.478	11831.62
602.836	11974.22
603.194	11948.91
603.552	11995.24
603.91	11920.21
604.268	12164.04
604.625	12068.45
604.983	12183.71
605.341	12126.08
605.698	12148.45
606.056	12276.81
606.413	12286.75
606.771	12343.7
607.128	12307.09
607.485	12353.64
607.843	12328.11
608.2	12479.06
608.557	12499.63
608.914	12475
609.272	12550.93
609.629	12650.36
609.986	12661.43
610.343	12599.51
610.7	12693.75
611.057	12747.53
611.414	12788.89
611.771	12759.28
612.127	12881.54
612.484	12850.81
612.841	12960.63
613.198	12854.42
613.554	12928.54
613.911	13000.86
614.267	12951.82
614.624	12947.98
614.98	13076.79
615.337	13116.11
615.693	13186.39
616.05	13052.61
616.406	13153.62
616.762	13030.24
617.118	13248.99
617.475	13193.17
617.831	13233.39
618.187	13207.18
618.543	13205.15
618.899	13316.1
619.255	13258.03
619.611	13328.99
619.967	13468.42
620.323	13411.7
620.678	13359.95
621.034	13418.47
621.39	13306.84
621.746	13306.84
622.101	13496.89
622.457	13342.54
622.812	13471.81
623.168	13462.54
623.523	13437.68
623.879	13510
624.234	13490.34
624.589	13492.82
624.945	13557.91
625.3	13505.48
625.655	13441.3
626.01	13466.61
626.365	13512.26
626.72	13481.3
627.075	13553.84
627.43	13523.33
627.785	13466.38
628.14	13489.89
628.495	13508.64
628.85	13496.44
629.205	13446.95
629.559	13589.54
629.914	13480.17
630.269	13471.35
630.623	13526.04
630.978	13478.13
631.332	13449.43
631.687	13477.91
632.041	13409.21
632.396	13412.15
632.75	13525.14
633.104	13406.05
633.459	13352.04
633.813	13451.92
634.167	13362.88
634.521	13364.92
634.875	13442.43
635.229	13409.66
635.583	13261.64
635.937	13325.14
636.291	13332.83
636.645	13336.9
636.999	13293.73
637.352	13365.59
637.706	13218.25
638.06	13294.18
638.413	13258.25
638.767	13195.88
639.121	13230.68
639.474	13145.71
639.828	13247.41
640.181	13255.99
640.534	13199.05
640.888	13263.45
641.241	13181.19
641.594	13149.1
641.947	13147.52
642.301	13228.88
642.654	13206.95
643.007	13128.99
643.36	13170.57
643.713	13123.12
644.066	13141.42
644.419	13073.85
644.771	12967.64
645.124	12892.16
645.477	12891.26
645.83	12822.78
646.182	12812.16
646.535	12761.09
646.888	12745.72
647.24	12696.23
647.593	12759.51
647.945	12796.57
648.298	12750.92
648.65	12625.5
649.002	12651.26
649.355	12733.07
649.707	12745.27
650.059	12841.54
650.411	12952.05
650.763	13011.25
651.115	13039.28
651.467	13031.82
651.819	12986.17
652.171	13119.73
652.523	13021.2
652.875	13027.3
653.227	12989.11
653.578	13081.53
653.93	13096.22
654.282	12956.11
654.633	12939.17
654.985	12962.22
655.337	13099.61
655.688	12936
656.039	13086.28
656.391	12964.48
656.742	12920.63
657.094	13048.99
657.445	13098.94
657.796	13040.63
658.147	12951.82
658.498	13085.15
658.849	13068.88
659.2	13062.1
659.551	12953.18
659.902	13106.17
660.253	13089.67
660.604	13121.08
660.955	13051.93
661.306	13058.03
661.656	13098.26
662.007	13117.47
662.358	13071.82
662.708	13002.89
663.059	13107.3
663.409	12994.98
663.76	13118.14
664.11	13060.97
664.461	13167.18
664.811	13147.97
665.161	13164.7
665.511	13096
665.862	13092.16
666.212	13161.08
666.562	13189.1
666.912	13152.72
667.262	13143.23
667.612	13115.88
667.962	13127.86
668.312	13147.07
668.662	13142.32
669.011	13196.11
669.361	13116.79
669.711	13091.7
670.06	13216.67
670.41	13126.51
670.76	13108.2
671.109	13178.03
671.459	13042.89
671.808	13109.1
672.157	13164.47
672.507	13008.54
672.856	13068.43
673.205	13026.39
673.554	13121.31
673.904	13055.09
674.253	13091.7
674.602	12923.12
674.951	12791.37
675.3	12744.14
675.649	12895.1
675.998	12919.28
676.346	12944.14
676.695	12955.21
677.044	12920.41
677.393	12920.41
677.741	12921.09
678.09	12869.11
678.438	12807.64
678.787	12879.96
679.135	12872.05
679.484	12732.84
679.832	12827.3
680.181	12653.3
680.529	12743.69
680.877	12810.81
681.225	12728.55
681.573	12815.78
681.922	12734.88
682.27	12674.77
682.618	12697.36
682.966	12598.61
683.314	12644.71
683.661	12638.83
684.009	12491.72
684.357	12500.08
684.705	12502.11
685.053	12558.61
685.4	12467.77
685.748	12403.59
686.095	12460.08
686.443	12398.39
686.79	12288.79
687.138	12326.3
687.485	12298.73
687.832	12298.5
688.18	12218.96
688.527	12216.47
688.874	12218.73
689.221	12117.94
689.568	12040.88
689.915	12082.01
690.262	12085.18
690.609	11982.81
690.956	11977.38
691.303	11957.5
691.65	11924.95
691.997	11935.58
692.344	11772.64
692.69	11796.82
693.037	11709.37
693.383	11704.62
693.73	11708.24
694.077	11610.84
694.423	11591.63
694.769	11634.57
695.116	11566.09
695.462	11453.55
695.808	11511.41
696.155	11469.6
696.501	11395.7
696.847	11332.88
697.193	11247.46
697.539	11304.41
697.885	11252.43
698.231	11152.09
698.577	11115.94
698.923	11139.89
699.269	11070.97
699.614	11013.79
699.96	11027.13
700.306	10960.01
700.651	10889.05
700.997	10880.46
701.342	10810.63
701.688	10820.13
702.033	10824.64
702.379	10837.75
702.724	10789.84
703.069	10703.29
703.415	10588.49
703.76	10581.71
704.105	10669.62
704.45	10581.04
704.795	10576.74
705.14	10455.84
705.485	10413.36
705.83	10386.69
706.175	10383.53
706.52	10355.96
706.865	10370.65
707.209	10226.69
707.554	10215.17
707.899	10270.31
708.243	10139.47
708.588	10182.63
708.932	10082.29
709.277	10124.78
709.621	10077.32
709.966	10055.4
710.31	10106.92
710.654	9927.72
710.998	9917.32
711.342	9930.43
711.687	9959.81
712.031	9921.39
712.375	9839.81
712.719	9903.09
713.063	9864.22
713.407	9815.63
713.75	9806.37
714.094	9776.08
714.438	9683.21
714.782	9751.68
715.125	9663.32
715.469	9695.18
715.812	9592.13
716.156	9627.39
716.499	9612.47
716.843	9585.13
717.186	9600.27
717.53	9572.02
717.873	9599.59
718.216	9593.49
718.559	9516.88
718.902	9455.87
719.246	9496.32
719.589	9527.96
719.932	9437.79
720.275	9463.1
720.617	9431.01
720.96	9405.7
721.303	9416.77
721.646	9378.81
721.989	9336.32
722.331	9488.18
722.674	9319.37
723.016	9380.84
723.359	9349.43
723.701	9382.2
724.044	9348.98
724.386	9264.23
724.729	9311.46
725.071	9322.54
725.413	9330.45
725.755	9301.52
726.097	9282.99
726.439	9190.34
726.782	9285.25
727.124	9313.05
727.465	9256.32
727.807	9223.1
728.149	9220.39
728.491	9210.68
728.833	9194.63
729.175	9195.08
729.516	9145.37
729.858	9174.97
730.199	9160.73
730.541	9185.59
730.882	9113.96
731.224	9257.68
731.565	9195.54
731.906	9202.77
732.248	9122.77
732.589	9079.83
732.93	9164.35
733.271	9151.47
733.612	9132.26
733.953	9244.57
734.294	9154.18
734.635	9208.19
734.976	9199.38
735.317	9158.47
735.658	9156.89
735.999	9184.91
736.339	9166.84
736.68	9264.01
737.021	9123.22
737.361	9127.74
737.702	9232.82
738.042	9186.72
738.383	9154.18
738.723	9263.78
739.063	9223.78
739.404	9200.96
739.744	9301.29
740.084	9226.95
740.424	9259.04
740.764	9322.09
741.104	9304.23
741.444	9263.33
741.784	9274.85
742.124	9342.65
742.464	9321.86
742.804	9374.51
743.143	9410.67
743.483	9461.06
743.823	9416.55
744.162	9525.7
744.502	9506.94
744.841	9516.43
745.181	9565.92
745.52	9562.53
745.86	9613.6
746.199	9619.93
746.538	9675.75
746.877	9745.13
747.216	9791.45
747.556	9831.22
747.895	9871.68
748.234	9899.47
748.573	9936.53
748.911	9938.57
749.25	9996.87
749.589	10093.36
749.928	10180.37
750.267	10253.13
750.605	10284.32
750.944	10338.78
751.283	10460.81
751.621	10494.48
751.96	10564.09
752.298	10639.34
752.636	10809.28
752.975	10822.38
753.313	10904.19
753.651	11169.27
753.989	11061.7
754.327	11260.79
754.666	11312.99
755.004	11480.45
755.342	11636.37
755.679	11747.56
756.017	11767.9
756.355	11943.26
756.693	12057.83
757.031	12155.68
757.368	12359.07
757.706	12467.99
758.044	12564.03
758.381	12686.52
758.719	12832.95
759.056	13079.5
759.394	13106.84
759.731	13214.19
760.068	13321.08
760.405	13506.83
760.743	13587.96
761.08	13760.39
761.417	13900.5
761.754	14129.87
762.091	14247.38
