Data from hue_120_FLMS001491_00044.txt Node
Date: Tue Feb 07 16:59:26 GMT 2017
User: dcchb
Spectrometer: FLMS00149
Trigger mode: 0
Integration Time (sec): 2.000000E-2
Scans to average: 10
Electric dark correction enabled: true
Nonlinearity correction enabled: false
Boxcar width: 0
XAxis mode: Wavelengths
Number of Pixels in Spectrum: 2048
>>>>>Begin Spectral Data<<<<<
341.393	-19.76
341.776	-19.76
342.16	-19.76
342.543	-48.69
342.927	-65.41
343.31	-66.99
343.693	-45.52
344.077	-61.11
344.46	-55.46
344.843	-69.93
345.226	-40.78
345.61	-28.12
345.993	-5.3
346.376	-4.84
346.759	7.58
347.142	3.74
347.525	34.7
347.908	42.61
348.291	95.72
348.674	76.51
349.057	117.19
349.44	154.7
349.823	140.69
350.206	156.51
350.588	190.63
350.971	222.49
351.354	253.45
351.737	237.63
352.119	244.19
352.502	267.92
352.884	280.12
353.267	285.77
353.65	288.48
354.032	271.53
354.414	322.83
354.797	319.44
355.179	308.37
355.562	316.5
355.944	334.81
356.326	327.58
356.709	318.54
357.091	342.94
357.473	353.56
357.855	342.04
358.238	333.23
358.62	349.5
359.002	361.02
359.384	347.24
359.766	350.17
360.148	321.47
360.53	336.39
360.912	340.01
361.294	346.78
361.676	342.72
362.057	337.07
362.439	355.82
362.821	334.13
363.203	335.71
363.584	339.78
363.966	337.29
364.348	319.67
364.729	336.16
365.111	345.65
365.493	321.93
365.874	327.12
366.256	314.7
366.637	327.58
367.019	318.76
367.4	322.83
367.781	324.64
368.163	333.9
368.544	326.67
368.925	321.02
369.306	318.99
369.688	330.06
370.069	324.64
370.45	315.37
370.831	321.47
371.212	325.09
371.593	315.6
371.974	347.91
372.355	331.42
372.736	307.24
373.117	324.19
373.498	322.15
373.879	335.94
374.26	325.99
374.641	328.48
375.021	320.8
375.402	337.07
375.783	324.19
376.163	342.49
376.544	328.48
376.925	354.24
377.305	333.68
377.686	314.7
378.066	331.64
378.447	340.46
378.827	344.52
379.208	352.66
379.588	358.99
379.968	351.53
380.349	324.41
380.729	343.62
381.109	340.23
381.489	347.46
381.87	344.3
382.25	365.99
382.63	354.02
383.01	366.22
383.39	373.22
383.77	355.6
384.15	361.47
384.53	355.82
384.91	363.51
385.29	375.94
385.67	364.64
386.049	381.81
386.429	358.99
386.809	379.78
387.189	374.35
387.568	359.21
387.948	353.56
388.328	357.86
388.707	371.42
389.087	373.45
389.466	377.97
389.846	370.29
390.225	396.73
390.605	390.63
390.984	395.37
391.363	385.88
391.743	406.44
392.122	398.99
392.501	398.08
392.881	399.89
393.26	412.55
393.639	389.72
394.018	407.12
394.397	419.78
394.776	404.41
395.155	406.67
395.534	404.86
395.913	406.67
396.292	442.15
396.671	413.9
397.05	404.18
397.429	409.61
397.808	421.58
398.186	408.48
398.565	407.12
398.944	423.17
399.323	438.31
399.701	429.95
400.08	424.97
400.458	417.74
400.837	427.69
401.215	444.18
401.594	443.05
401.972	460
402.351	465.2
402.729	463.39
403.107	427.01
403.486	429.49
403.864	433.11
404.242	476.95
404.62	459.55
404.999	479.66
405.377	452.77
405.755	454.35
406.133	457.97
406.511	470.4
406.889	467.69
407.267	472.66
407.645	488.7
408.023	479.44
408.401	503.16
408.779	483.05
409.156	504.97
409.534	486.67
409.912	475.59
410.29	507.46
410.667	502.49
411.045	500.9
411.422	522.6
411.8	512.66
412.178	512.2
412.555	545.42
412.933	534.58
413.31	534.8
413.687	554.01
414.065	536.38
414.442	526.21
414.819	538.87
415.197	532.32
415.574	555.37
415.951	556.27
416.328	562.37
416.705	579.32
417.082	569.38
417.46	565.31
417.837	572.99
418.214	559.89
418.591	579.32
418.967	590.85
419.344	591.75
419.721	604.18
420.098	579.77
420.475	618.87
420.852	601.92
421.228	612.31
421.605	612.09
421.982	611.18
422.358	607.12
422.735	604.41
423.111	630.39
423.488	643.73
423.864	646.21
424.241	648.47
424.617	670.17
424.994	642.82
425.37	663.61
425.746	642.14
426.123	669.04
426.499	678.98
426.875	675.36
427.251	684.63
427.627	677.4
428.003	709.26
428.379	702.26
428.756	706.1
429.132	711.07
429.507	726.44
429.883	712.42
430.259	719.43
430.635	756.04
431.011	745.42
431.387	756.94
431.763	744.51
432.138	761.91
432.514	790.61
432.89	803.04
433.265	814.34
433.641	795.36
434.016	816.38
434.392	815.02
434.767	840.33
435.143	858.64
435.518	821.57
435.894	833.33
436.269	866.55
436.644	848.92
437.02	895.24
437.395	873.32
437.77	889.37
438.145	895.92
438.52	903.83
438.895	917.84
439.271	907.22
439.646	929.37
440.021	939.54
440.395	947.22
440.77	958.07
441.145	943.61
441.52	966.43
441.895	964.4
442.27	959.88
442.645	964.4
443.019	972.53
443.394	982.02
443.769	1002.36
444.143	977.05
444.518	995.13
444.892	1030.83
445.267	1037.39
445.641	1013.43
446.016	1024.96
446.39	1048.01
446.764	1044.39
447.139	1025.64
447.513	1056.82
447.887	1068.35
448.262	1056.37
448.636	1066.09
449.01	1100.44
449.384	1135.01
449.758	1112.19
450.132	1086.2
450.506	1103.83
450.88	1123.04
451.254	1143.15
451.628	1148.57
452.002	1142.7
452.376	1152.19
452.75	1172.98
453.123	1188.8
453.497	1202.13
453.871	1183.6
454.244	1234.44
454.618	1257.72
454.992	1274.44
455.365	1250.04
455.739	1287.1
456.112	1305.4
456.486	1307.66
456.859	1311.51
457.232	1324.39
457.606	1342.46
457.979	1311.28
458.352	1381.11
458.725	1393.08
459.099	1416.59
459.472	1432.41
459.845	1463.14
460.218	1493.65
460.591	1477.6
460.964	1475.79
461.337	1514.21
461.71	1577.71
462.083	1569.13
462.456	1560.31
462.829	1619.97
463.201	1632.63
463.574	1622.91
463.947	1662.46
464.32	1679.4
464.692	1725.51
465.065	1714.43
465.438	1764.6
465.81	1783.13
466.183	1812.73
466.555	1871.04
466.928	1850.93
467.3	1857.71
467.672	1920.75
468.045	1930.92
468.417	1970.92
468.789	1985.61
469.161	2043.46
469.534	2045.5
469.906	2134.99
470.278	2139.51
470.65	2175.89
471.022	2198.71
471.394	2248.43
471.766	2311.25
472.138	2330.46
472.51	2382.21
472.882	2437.13
473.253	2461.98
473.625	2519.61
473.997	2584.69
474.369	2590.57
474.74	2653.84
475.112	2735.87
475.484	2795.31
475.855	2861.97
476.227	2895.42
476.598	3002.31
476.97	3062.42
477.341	3143.1
477.713	3204.11
478.084	3338.12
478.455	3375.18
478.827	3423.54
479.198	3558.9
479.569	3604.55
479.94	3728.62
480.311	3807.26
480.682	3915.96
481.053	4053.58
481.424	4141.04
481.795	4245.44
482.166	4375.38
482.537	4412.44
482.908	4602.94
483.279	4656.05
483.65	4824.86
484.021	4944.86
484.391	5045.42
484.762	5130.39
485.133	5206.54
485.503	5409.7
485.874	5517.95
486.244	5651.96
486.615	5749.35
486.985	5937.37
487.356	6083.36
487.726	6213.98
488.097	6402.67
488.467	6545.27
488.837	6756.56
489.207	6879.95
489.578	7016.21
489.948	7136.66
490.318	7326.49
490.688	7395.86
491.058	7542.08
491.428	7769.41
491.798	7981.16
492.168	8164.21
492.538	8283.98
492.908	8452.79
493.278	8625.44
493.648	8662.95
494.017	8839.89
494.387	9065.43
494.757	9163.05
495.126	9311.52
495.496	9377.73
495.866	9536.15
496.235	9670.16
496.605	9812.75
496.974	9961.67
497.344	10139.97
497.713	10230.37
498.082	10308.56
498.452	10574.76
498.821	10640.3
499.19	10705.38
499.559	10824.25
499.928	10962.55
500.298	11069.44
500.667	11222.66
501.036	11210.91
501.405	11431.92
501.774	11487.51
502.143	11623.55
502.512	11764.56
502.88	11822.42
503.249	11807.95
503.618	12059.92
503.987	12116.19
504.356	12179.92
504.724	12312.8
505.093	12358.45
505.462	12528.84
505.83	12602.73
506.199	12708.72
506.567	12820.58
506.936	12849.05
507.304	13048.37
507.672	13079.56
508.041	13103.96
508.409	13249.27
508.777	13339.66
509.145	13471.64
509.514	13374.24
509.882	13613.78
510.25	13610.16
510.618	13697.39
510.986	13708.69
511.354	13801.8
511.722	13935.35
512.09	14083.82
512.458	13997.95
512.826	14159.98
513.193	14167.44
513.561	14277.72
513.929	14288.34
514.297	14388.9
514.664	14500.31
515.032	14531.27
515.4	14579.4
515.767	14606.75
516.135	14628.9
516.502	14537.82
516.869	14874.99
517.237	14851.04
517.604	14831.6
517.972	14920.19
518.339	14979.39
518.706	15007.19
519.073	15057.36
519.44	15065.04
519.808	15171.03
520.175	15109.33
520.542	15286.5
520.909	15303.68
521.276	15301.42
521.643	15502.54
522.009	15497.12
522.376	15540.51
522.743	15612.6
523.11	15695.76
523.477	15768.98
523.843	15807.4
524.21	15884.46
524.577	15882.65
524.943	15958.8
525.31	15944.79
525.676	16065.69
526.043	16097.33
526.409	16083.77
526.776	16243.99
527.142	16249.87
527.508	16223.66
527.874	16306.82
528.241	16319.7
528.607	16409.19
528.973	16563.99
529.339	16305.24
529.705	16541.61
530.071	16501.84
530.437	16538.9
530.803	16519.24
531.169	16581.61
531.535	16434.27
531.901	16422.75
532.267	16439.69
532.632	16541.39
532.998	16560.6
533.364	16569.86
533.73	16519.47
534.095	16643.98
534.461	16637.2
534.826	16673.36
535.192	16616.41
535.557	16745.68
535.923	16543.42
536.288	16570.76
536.653	16656.64
537.019	16517.66
537.384	16511.78
537.749	16580.03
538.114	16533.7
538.479	16443.08
538.845	16499.35
539.21	16453.25
539.575	16459.13
539.94	16353.82
540.305	16404.67
540.67	16289.42
541.034	16373.03
541.399	16353.14
541.764	16341.17
542.129	16380.04
542.494	16289.42
542.858	16220.94
543.223	16277.67
543.587	16300.26
543.952	16183.88
544.316	16290.32
544.681	16165.13
545.045	16086.03
545.41	16161.74
545.774	16102.53
546.138	16066.37
546.503	16098.69
546.867	16027.95
547.231	16096.88
547.595	16038.8
547.959	15929.2
548.324	15911.8
548.688	15856.21
549.052	15890.56
549.416	15880.39
549.779	15844
550.143	15780.73
550.507	15832.48
550.871	15864.57
551.235	15735.53
551.599	15807.62
551.962	15813.95
552.326	15745.7
552.689	15781.86
553.053	15742.31
553.417	15683.56
553.78	15778.92
554.143	15701.64
554.507	15707.06
554.87	15771.01
555.234	15800.16
555.597	15589.55
555.96	15665.48
556.323	15608.53
556.686	15580.28
557.05	15599.94
557.413	15684.46
557.776	15610.56
558.139	15621.41
558.502	15776.89
558.865	15491.02
559.228	15696.89
559.59	15756.1
559.953	15704.57
560.316	15713.84
560.679	15711.35
561.041	15867.96
561.404	15816.43
561.767	15791.12
562.129	15738.02
562.492	15797.68
562.854	15876.09
563.217	15768.75
563.579	15832.93
563.941	15883.78
564.304	15942.76
564.666	15948.41
565.028	15877.68
565.39	16002.87
565.753	15992.02
566.115	16012.14
566.477	16098.01
566.839	16022.08
567.201	16137.1
567.563	16091.46
567.925	16189.31
568.287	16201.51
568.648	16191.34
569.01	16244.45
569.372	16236.54
569.734	16207.38
570.095	16281.96
570.457	16262.52
570.819	16288.51
571.18	16307.49
571.542	16369.87
571.903	16369.41
572.265	16324.67
572.626	16432.01
572.987	16329.42
573.349	16431.79
573.71	16376.42
574.071	16469.98
574.432	16542.29
574.794	16696.86
575.155	16557.66
575.516	16446.47
575.877	16575.06
576.238	16538.22
576.599	16613.93
576.96	16614.83
577.32	16647.15
577.681	16633.59
578.042	16663.19
578.403	16611.89
578.763	16649.41
579.124	16661.61
579.485	16808.5
579.845	16705.22
580.206	16638.79
580.566	16626.81
580.927	16682.85
581.287	16704.77
581.648	16698.9
582.008	16733.7
582.368	16643.53
582.728	16706.58
583.089	16697.54
583.449	16736.86
583.809	16737.09
584.169	16763.53
584.529	16634.49
584.889	16691.21
585.249	16641.5
585.609	16605.57
585.969	16697.99
586.329	16585
586.688	16716.52
587.048	16603.31
587.408	16514.04
587.768	16518.79
588.127	16551.78
588.487	16563.31
588.846	16647.6
589.206	16531.22
589.565	16556.75
589.925	16574.38
590.284	16556.3
590.643	16490.54
591.003	16574.61
591.362	16546.81
591.721	16560.37
592.08	16538.9
592.44	16492.57
592.799	16493.48
593.158	16438.11
593.517	16539.35
593.876	16440.37
594.235	16511.33
594.593	16433.37
594.952	16450.54
595.311	16426.36
595.67	16446.02
596.029	16581.84
596.387	16593.14
596.746	16551.1
597.104	16429.75
597.463	16410.32
597.822	16485.12
598.18	16393.14
598.538	16454.16
598.897	16480.82
599.255	16272.69
599.613	16563.53
599.972	16415.97
600.33	16566.92
600.688	16441.28
601.046	16433.59
601.404	16542.29
601.762	16407.61
602.12	16552.01
602.478	16539.13
602.836	16478.56
603.194	16459.81
603.552	16462.52
603.91	16303.65
604.268	16468.85
604.625	16319.02
604.983	16448.73
605.341	16460.94
605.698	16491.9
606.056	16531.22
606.413	16487.83
606.771	16559.92
607.128	16578.45
607.485	16445.8
607.843	16475.4
608.2	16604.44
608.557	16641.72
608.914	16533.03
609.272	16663.42
609.629	16630.42
609.986	16670.42
610.343	16726.47
610.7	16668.62
611.057	16573.25
611.414	16633.14
611.771	16785.67
612.127	16673.59
612.484	16700.48
612.841	16869.29
613.198	16791.78
613.554	16714.94
613.911	16714.94
614.267	16865.9
614.624	16789.97
614.98	16823.87
615.337	16903.64
615.693	16830.42
616.05	16823.41
616.406	16885.33
616.762	16817.09
617.118	16826.58
617.475	16899.57
617.831	16815.96
618.187	16908.38
618.543	16949.96
618.899	17030.19
619.255	17010.08
619.611	16956.97
619.967	16997.65
620.323	17106.12
620.678	17048.72
621.034	17012.34
621.39	16966.01
621.746	16945.9
622.101	17116.97
622.457	16982.28
622.812	16995.84
623.168	17055.72
623.523	17052.56
623.879	17173.91
624.234	17051.66
624.589	17076.97
624.945	17084.42
625.3	17062.05
625.655	17126.23
626.01	16970.53
626.365	17020.47
626.72	17036.97
627.075	16971.43
627.43	17043.52
627.785	16929.85
628.14	17011.88
628.495	16942.05
628.85	16993.35
629.205	16942.96
629.559	16954.48
629.914	16918.33
630.269	16927.59
630.623	16812.57
630.978	16807.14
631.332	16989.74
631.687	16992.67
632.041	16829.52
632.396	16908.16
632.75	16871.1
633.104	16874.26
633.459	16806.01
633.813	16851.21
634.167	16770.31
634.521	16746.58
634.875	16749.07
635.229	16641.05
635.583	16716.98
635.937	16628.62
636.291	16567.6
636.645	16632.68
636.999	16638.56
637.352	16589.3
637.706	16458
638.06	16570.99
638.413	16601.27
638.767	16526.7
639.121	16522.86
639.474	16423.42
639.828	16465.91
640.181	16429.3
640.534	16370.32
640.888	16337.32
641.241	16382.97
641.594	16356.31
641.947	16424.1
642.301	16360.6
642.654	16345.46
643.007	16398.34
643.36	16279.25
643.713	16352.47
644.066	16268.4
644.419	16241.73
644.771	16225.24
645.124	16047.61
645.477	16058.69
645.83	15798.36
646.182	15882.87
646.535	15713.61
646.888	15833.16
647.24	15726.49
647.593	15875.19
647.945	15658.47
648.298	15674.97
648.65	15634.74
649.002	15632.48
649.355	15738.02
649.707	15704.12
650.059	15819.6
650.411	15942.31
650.763	16008.29
651.115	16096.88
651.467	16053.26
651.819	16072.25
652.171	16089.65
652.523	16027.5
652.875	15980.95
653.227	16008.29
653.578	16065.02
653.93	16123.32
654.282	15947.05
654.633	15990.22
654.985	16054.39
655.337	16015.3
655.688	16033.38
656.039	16095.07
656.391	15910.67
656.742	16012.14
657.094	15984.11
657.445	16065.02
657.796	16072.02
658.147	16011.91
658.498	16028.18
658.849	16006.26
659.2	15996.32
659.551	15984.57
659.902	16076.09
660.253	16105.47
660.604	16067.5
660.955	16005.58
661.306	16039.93
661.656	16016.88
662.007	16057.78
662.358	16120.61
662.708	16047.84
663.059	16086.03
663.409	15926.71
663.76	16202.19
664.11	16146.37
664.461	16108.63
664.811	16097.56
665.161	16142.3
665.511	16036.99
665.862	16060.04
666.212	16043.77
666.562	16102.53
666.912	15956.09
667.262	16016.2
667.612	16018.91
667.962	16093.49
668.312	15966.94
668.662	16055.75
669.011	16106.37
669.361	16001.51
669.711	15907.73
670.06	15973.27
670.41	15989.09
670.76	15981.85
671.109	15974.85
671.459	15919.93
671.808	15887.84
672.157	15928.52
672.507	15925.36
672.856	15955.41
673.205	15910.9
673.554	16038.58
673.904	15837
674.253	15973.94
674.602	15932.36
674.951	15732.14
675.3	15532.83
675.649	15879.03
675.998	15772.37
676.346	15862.08
676.695	15919.03
677.044	15748.64
677.393	15773.05
677.741	15748.19
678.09	15731.01
678.438	15637.68
678.787	15718.81
679.135	15734.4
679.484	15588.87
679.832	15660.51
680.181	15573.5
680.529	15536.67
680.877	15532.37
681.225	15507.74
681.573	15574.86
681.922	15513.62
682.27	15349.78
682.618	15436.11
682.966	15387.75
683.314	15399.5
683.661	15308.65
684.009	15232.49
684.357	15206.28
684.705	15244.25
685.053	15236.34
685.4	15177.58
685.748	15113.85
686.095	15092.84
686.443	15009.45
686.79	15016.91
687.138	15098.04
687.485	15003.12
687.832	15001.77
688.18	15016
688.527	14867.76
688.874	14869.11
689.221	14771.49
689.568	14629.12
689.915	14758.84
690.262	14734.65
690.609	14672.96
690.956	14609.91
691.303	14513.64
691.65	14508.9
691.997	14470.93
692.344	14378.28
692.69	14370.14
693.037	14353.87
693.383	14250.83
693.73	14239.98
694.077	14180.09
694.423	14159.53
694.769	14173.09
695.116	14130.83
695.462	14025.75
695.808	13998.63
696.155	13962.02
696.501	13853.1
696.847	13819.88
697.193	13821.68
697.539	13868.24
697.885	13739.2
698.231	13734.91
698.577	13651.07
698.923	13603.39
699.269	13598.41
699.614	13453.56
699.96	13437.74
700.306	13426.21
700.651	13339.89
700.997	13286.11
701.342	13263.96
701.688	13260.12
702.033	13145.09
702.379	13230.51
702.724	13119.78
703.069	13161.36
703.415	13016.73
703.76	13068.48
704.105	12958.43
704.45	12856.51
704.795	12942.39
705.14	12871.43
705.485	12834.82
705.83	12691.77
706.175	12787.36
706.52	12657.65
706.865	12599.57
707.209	12623.52
707.554	12611.09
707.899	12595.5
708.243	12522.51
708.588	12409.97
708.932	12421.04
709.277	12385.11
709.621	12323.87
709.966	12243.42
710.31	12333.14
710.654	12233.03
710.998	12220.37
711.342	12260.37
711.687	12149.41
712.031	12143.76
712.375	12087.94
712.719	12138.34
713.063	12003.43
713.407	12114.38
713.75	12053.14
714.094	12012.92
714.438	11949.19
714.782	12018.57
715.125	11889.98
715.469	11926.14
715.812	11882.98
716.156	11835.75
716.499	11725.02
716.843	11850.66
717.186	11687.73
717.53	11856.09
717.873	11814.51
718.216	11716.88
718.559	11740.38
718.902	11561.86
719.246	11669.42
719.589	11630.33
719.932	11584.23
720.275	11574.74
720.617	11549.43
720.96	11556.21
721.303	11539.48
721.646	11555.08
721.989	11478.47
722.331	11529.09
722.674	11514.4
723.016	11472.37
723.359	11421.75
723.701	11502.65
724.044	11297.46
724.386	11313.5
724.729	11373.61
725.071	11356.66
725.413	11277.12
725.755	11307.17
726.097	11244.13
726.439	11238.7
726.782	11266.27
727.124	11352.37
727.465	11285.48
727.807	11299.49
728.149	11249.55
728.491	11206.61
728.833	11284.8
729.175	11337.91
729.516	11180.4
729.858	11282.99
730.199	11273.95
730.541	11182.43
730.882	11155.31
731.224	11151.02
731.565	11168.2
731.906	11177.01
732.248	11199.61
732.589	11148.76
732.93	11124.58
733.271	11080.06
733.612	11152.83
733.953	11088.2
734.294	11172.94
734.635	11119.61
734.976	11202.32
735.317	11051.36
735.658	11134.98
735.999	11158.03
736.339	11177.91
736.68	11128.65
737.021	11156.44
737.361	11024.47
737.702	11091.13
738.042	11101.53
738.383	11157.12
738.723	11158.25
739.063	11101.08
739.404	11184.92
739.744	11129.55
740.084	11148.31
740.424	11217.46
740.764	11115.54
741.104	11212.94
741.444	11157.57
741.784	11175.2
742.124	11220.4
742.464	11195.99
742.804	11240.06
743.143	11244.58
743.483	11262.2
743.823	11225.59
744.162	11308.76
744.502	11263.79
744.841	11371.35
745.181	11342.2
745.52	11403.44
745.86	11473.5
746.199	11473.95
746.538	11519.37
746.877	11599.6
747.216	11664.23
747.556	11695.41
747.895	11792.81
748.234	11785.13
748.573	11834.84
748.911	11837.78
749.25	11985.8
749.589	11879.36
749.928	11975.86
750.267	12192.12
750.605	12195.29
750.944	12247.26
751.283	12191.44
751.621	12400.25
751.96	12449.29
752.298	12598.89
752.636	12650.19
752.975	12655.16
753.313	12779.9
753.651	12917.08
753.989	12972.67
754.327	13095.38
754.666	13197.07
755.004	13273.22
755.342	13531.3
755.679	13676.83
