Data from hue_270_FLMS001491_00080.txt Node
Date: Tue Feb 07 15:57:42 GMT 2017
User: dcchb
Spectrometer: FLMS00149
Trigger mode: 0
Integration Time (sec): 2.000000E-2
Scans to average: 10
Electric dark correction enabled: true
Nonlinearity correction enabled: false
Boxcar width: 0
XAxis mode: Wavelengths
Number of Pixels in Spectrum: 2048
>>>>>Begin Spectral Data<<<<<
341.393	-12.03
341.776	-12.03
342.16	-12.03
342.543	-76.21
342.927	-60.85
343.31	-68.08
343.693	-62.65
344.077	-77.34
344.46	-58.36
344.843	-62.2
345.226	-37.57
345.61	-38.93
345.993	-6.61
346.376	-8.64
346.759	12.37
347.142	18.93
347.525	44.46
347.908	45.14
348.291	59.83
348.674	123.56
349.057	116.1
349.44	123.56
349.823	151.8
350.206	162.43
350.588	183.44
350.971	200.39
351.354	193.61
351.737	231.35
352.119	231.58
352.502	279.26
352.884	255.3
353.267	262.31
353.65	289.88
354.032	304.79
354.414	305.25
354.797	309.31
355.179	323.1
355.562	305.47
355.944	312.25
356.326	298.24
356.709	329.43
357.091	320.16
357.473	331.91
357.855	317.9
358.238	332.59
358.62	300.95
359.002	320.39
359.384	329.88
359.766	339.14
360.148	347.28
360.53	326.04
360.912	315.87
361.294	333.72
361.676	327.39
362.057	318.58
362.439	307.28
362.821	323.78
363.203	321.07
363.584	315.42
363.966	301.4
364.348	300.95
364.729	325.13
365.111	305.7
365.493	313.61
365.874	300.5
366.256	306.83
366.637	299.14
367.019	297.79
367.4	318.13
367.781	304.79
368.163	295.98
368.544	282.87
368.925	308.64
369.306	306.38
369.688	309.31
370.069	301.63
370.45	312.03
370.831	309.54
371.212	304.34
371.593	307.28
371.974	307.05
372.355	299.6
372.736	304.57
373.117	313.16
373.498	286.94
373.879	306.6
374.26	296.88
374.641	312.25
375.021	331.91
375.402	309.77
375.783	321.07
376.163	328.07
376.544	336.88
376.925	316.09
377.305	320.39
377.686	323.32
378.066	326.26
378.447	351.57
378.827	335.75
379.208	347.05
379.588	320.61
379.968	310.44
380.349	338.01
380.729	305.02
381.109	329.2
381.489	326.26
381.87	345.02
382.25	347.5
382.63	331.46
383.01	332.36
383.39	323.32
383.77	341.18
384.15	342.08
384.53	353.38
384.91	331.91
385.29	344.12
385.67	340.5
386.049	345.02
386.429	347.5
386.809	366.26
387.189	360.16
387.568	338.69
387.948	353.83
388.328	342.31
388.707	350.89
389.087	359.71
389.466	367.84
389.846	345.92
390.225	362.87
390.605	364.23
390.984	379.59
391.363	387.96
391.743	378.69
392.122	377.79
392.501	363.32
392.881	386.37
393.26	363.78
393.639	407.16
394.018	377.79
394.397	379.37
394.776	391.35
395.155	377.11
395.534	413.94
395.913	391.8
396.292	397.22
396.671	421.18
397.05	396.09
397.429	398.8
397.808	383.66
398.186	400.16
398.565	428.63
398.944	395.19
399.323	403.55
399.701	396.77
400.08	394.74
400.458	406.03
400.837	389.54
401.215	431.34
401.594	424.11
401.972	417.79
402.351	412.36
402.729	420.27
403.107	412.81
403.486	438.8
403.864	425.7
404.242	411.01
404.62	425.24
404.999	458.01
405.377	420.27
405.755	453.72
406.133	467.95
406.511	454.85
406.889	459.82
407.267	460.95
407.645	477.67
408.023	455.52
408.401	480.16
408.779	483.55
409.156	486.03
409.534	506.37
409.912	505.01
410.29	502.53
410.667	501.85
411.045	517.9
411.422	507.73
411.8	508.86
412.178	539.36
412.555	541.62
412.933	541.17
413.31	555.86
413.687	554.51
414.065	569.19
414.442	557.44
414.819	588.4
415.197	580.72
415.574	594.73
415.951	608.74
416.328	613.26
416.705	611
417.082	620.27
417.46	623.66
417.837	631.11
418.214	643.99
418.591	654.84
418.967	666.37
419.344	652.13
419.721	662.98
420.098	665.69
420.475	668.4
420.852	667.72
421.228	714.05
421.605	696.87
421.982	722.64
422.358	725.12
422.735	729.42
423.111	748.62
423.488	765.57
423.864	773.71
424.241	791.11
424.617	783.43
424.994	794.72
425.37	833.37
425.746	841.28
426.123	852.35
426.499	836.08
426.875	838.57
427.251	840.37
427.627	879.24
428.003	900.48
428.379	893.03
428.756	906.81
429.132	910.2
429.507	929.41
429.883	923.54
430.259	959.01
430.635	950.88
431.011	954.72
431.387	974.38
431.763	986.58
432.138	984.55
432.514	1031.1
432.89	1029.97
433.265	1058.45
433.641	1072.01
434.016	1097.54
434.392	1109.52
434.767	1110.2
435.143	1099.8
435.518	1150.2
435.894	1141.16
436.269	1171.21
436.644	1209.4
437.02	1207.37
437.395	1213.92
437.77	1260.48
438.145	1243.53
438.52	1282.4
438.895	1285.33
439.271	1292.79
439.646	1295.05
440.021	1309.51
440.395	1327.59
440.77	1337.76
441.145	1366.46
441.52	1365.78
441.895	1359.91
442.27	1383.41
442.645	1403.97
443.019	1409.17
443.394	1444.2
443.769	1451.43
444.143	1422.28
444.518	1483.97
444.892	1468.61
445.267	1476.97
445.641	1493.24
446.016	1493.46
446.39	1523.75
446.764	1517.19
447.139	1514.71
447.513	1540.92
447.887	1506.12
448.262	1536.63
448.636	1563.07
449.01	1577.76
449.384	1572.56
449.758	1589.96
450.132	1616.85
450.506	1622.05
450.88	1630.18
451.254	1635.83
451.628	1629.28
452.002	1695.94
452.376	1699.11
452.75	1704.08
453.123	1694.59
453.497	1723.06
453.871	1753.12
454.244	1784.53
454.618	1768.03
454.992	1798.09
455.365	1807.58
455.739	1870.85
456.112	1850.74
456.486	1849.39
456.859	1884.41
457.232	1926.22
457.606	1915.37
457.979	1904.98
458.352	1984.07
458.725	1980
459.099	1994.69
459.472	2018.2
459.845	2053.9
460.218	2024.75
460.591	2055.71
460.964	2074.47
461.337	2102.26
461.71	2109.04
462.083	2176.16
462.456	2177.74
462.829	2178.42
463.201	2205.54
463.574	2202.15
463.947	2216.83
464.32	2258.87
464.692	2252.54
465.065	2312.43
465.438	2348.58
465.81	2317.85
466.183	2332.99
466.555	2396.94
466.928	2424.96
467.3	2412.54
467.672	2459.09
468.045	2525.07
468.417	2507.45
468.789	2514
469.161	2521.46
469.534	2592.42
469.906	2620.21
470.278	2598.97
470.65	2645.07
471.022	2703.6
471.394	2752.64
471.766	2776.59
472.138	2782.92
472.51	2818.17
472.882	2884.84
473.253	2903.37
473.625	2927.32
473.997	2946.76
474.369	2953.99
474.74	3027.89
475.112	3069.47
475.484	3072.18
475.855	3126.64
476.227	3130.71
476.598	3236.24
476.97	3207.09
477.341	3297.26
477.713	3368.22
478.084	3357.82
478.455	3438.05
478.827	3429.01
479.198	3499.06
479.569	3528.21
479.94	3622.22
480.311	3638.27
480.682	3688.21
481.053	3768.43
481.424	3843.01
481.795	3843.01
482.166	3854.08
482.537	3948.99
482.908	4004.81
483.279	4013.85
483.65	4056.33
484.021	4115.99
484.391	4156.67
484.762	4194.86
485.133	4172.72
485.503	4262.43
485.874	4352.15
486.244	4351.02
486.615	4418.81
486.985	4464.01
487.356	4504.68
487.726	4565.7
488.097	4620.39
488.467	4649.09
488.837	4724.57
489.207	4789.42
489.578	4816.77
489.948	4812.02
490.318	4891.57
490.688	4920.49
491.058	4945.58
491.428	5017.21
491.798	5102.63
492.168	5126.81
492.538	5172.91
492.908	5172.69
493.278	5222.86
493.648	5261.5
494.017	5299.92
494.387	5377.88
494.757	5376.75
495.126	5398.67
495.496	5412
495.866	5429.63
496.235	5483.42
496.605	5522.96
496.974	5525.67
497.344	5618.55
497.713	5615.84
498.082	5626.91
498.452	5704.88
498.821	5710.08
499.19	5710.98
499.559	5777.64
499.928	5748.27
500.298	5755.95
500.667	5776.06
501.036	5812.45
501.405	5861.03
501.774	5927.7
502.143	5912.1
502.512	5932.67
502.88	5972.89
503.249	6011.54
503.618	6008.37
503.987	6031.2
504.356	6035.94
504.724	6035.04
505.093	6109.16
505.462	6072.78
505.83	6149.39
506.199	6126.11
506.567	6238.2
506.936	6162.95
507.304	6252.66
507.672	6276.61
508.041	6277.29
508.409	6229.38
508.777	6343.73
509.145	6321.36
509.514	6310.29
509.882	6375.82
510.25	6344.64
510.618	6407.01
510.986	6422.15
511.354	6422.6
511.722	6415.14
512.09	6517.96
512.458	6454.24
512.826	6472.77
513.193	6534.91
513.561	6496.95
513.929	6553.22
514.297	6579.66
514.664	6592.54
515.032	6609.71
515.4	6646.77
515.767	6618.3
516.135	6667.11
516.502	6586.44
516.869	6634.35
517.237	6679.99
517.604	6719.09
517.972	6723.16
518.339	6745.08
518.706	6758.86
519.073	6668.69
519.44	6748.69
519.808	6795.92
520.175	6791.86
520.542	6797.28
520.909	6913.21
521.276	6824.62
521.643	6865.75
522.009	6912.53
522.376	6938.74
522.743	6955.69
523.11	6955.92
523.477	7006.76
523.843	7016.03
524.21	7028.23
524.577	7090.83
524.943	7096.25
525.31	7141.9
525.676	7194.33
526.043	7175.35
526.409	7199.08
526.776	7237.49
527.142	7220.09
527.508	7213.54
527.874	7250.15
528.241	7255.8
528.607	7307.77
528.973	7361.11
529.339	7362.01
529.705	7386.87
530.071	7405.85
530.437	7415.79
530.803	7394.33
531.169	7473.87
531.535	7393.65
531.901	7417.15
532.267	7481.55
532.632	7455.34
532.998	7514.32
533.364	7562.68
533.73	7549.8
534.095	7537.15
534.461	7527.43
534.826	7540.08
535.192	7553.87
535.557	7654.66
535.923	7619.86
536.288	7607.65
536.653	7657.6
537.019	7599.29
537.384	7639.29
537.749	7710.25
538.114	7642
538.479	7672.28
538.845	7686.07
539.21	7673.87
539.575	7664.15
539.94	7660.76
540.305	7691.72
540.67	7659.86
541.034	7748.21
541.399	7719.51
541.764	7728.33
542.129	7795.9
542.494	7744.15
542.858	7754.32
543.223	7722.9
543.587	7763.36
543.952	7726.75
544.316	7838.61
544.681	7751.6
545.045	7816.24
545.41	7829.12
545.774	7753.86
546.138	7877.25
546.503	7816.91
546.867	7833.41
547.231	7873.63
547.595	7867.99
547.959	7882
548.324	7876.35
548.688	7853.3
549.052	7873.18
549.416	7890.81
549.779	7872.73
550.143	7862.79
550.507	7937.81
550.871	7945.5
551.235	7891.26
551.599	7894.43
551.962	7911.37
552.326	7925.38
552.689	7966.97
553.053	7915.89
553.417	7947.98
553.78	8019.39
554.143	7964.71
554.507	7948.89
554.87	7971.03
555.234	8060.97
555.597	8031.14
555.96	8057.58
556.323	7989.11
556.686	8023.24
557.05	8049
557.413	8105.72
557.776	8125.15
558.139	8178.49
558.502	8124.25
558.865	8117.47
559.228	8232.72
559.59	8257.13
559.953	8219.39
560.316	8324.7
560.679	8261.87
561.041	8320.85
561.404	8321.31
561.767	8332.15
562.129	8353.4
562.492	8413.96
562.854	8449.66
563.217	8399.04
563.579	8420.74
563.941	8438.14
564.304	8436.11
564.666	8533.5
565.028	8548.19
565.39	8557.23
565.753	8581.86
566.115	8674.07
566.477	8667.06
566.839	8725.82
567.201	8707.74
567.563	8663.44
567.925	8739.6
568.287	8772.59
568.648	8848.98
569.01	8820.5
569.372	8920.84
569.734	8777.57
570.095	8865.47
570.457	8953.15
570.819	8930.1
571.18	9003.77
571.542	8986.15
571.903	8991.35
572.265	9101.85
572.626	9079.93
572.987	9110.66
573.349	9127.16
573.71	9210.77
574.071	9172.58
574.432	9244.67
574.794	9259.81
575.155	9248.06
575.516	9239.7
575.877	9307.27
576.238	9356.08
576.599	9367.38
576.96	9364.9
577.32	9382.52
577.681	9457.55
578.042	9516.98
578.403	9482.18
578.763	9543.2
579.124	9515.4
579.485	9574.61
579.845	9649.41
580.206	9673.14
580.566	9663.87
580.927	9657.32
581.287	9717.88
581.648	9789.97
582.008	9828.16
582.368	9754.49
582.728	9827.93
583.089	9814.6
583.449	9900.93
583.809	9984.54
584.169	9968.72
584.529	9975.27
584.889	10013.69
585.249	10025.44
585.609	9990.19
585.969	10100.02
586.329	10041.26
586.688	10109.06
587.048	10061.15
587.408	10114.48
587.768	10174.82
588.127	10157.19
588.487	10230.18
588.846	10274.93
589.206	10281.48
589.565	10268.37
589.925	10314.02
590.284	10361.48
590.643	10422.49
591.003	10429.27
591.362	10430.18
591.721	10437.18
592.08	10469.05
592.44	10505.43
592.799	10548.37
593.158	10513.11
593.517	10586.56
593.876	10633.11
594.235	10554.92
594.593	10610.96
594.952	10704.07
595.311	10638.99
595.67	10647.8
596.029	10729.15
596.387	10789.04
596.746	10728.25
597.104	10788.13
597.463	10771.19
597.822	10821.81
598.18	10823.84
598.538	10826.1
598.897	10846.44
599.255	10794.01
599.613	10936.15
599.972	10825.65
600.33	10899.09
600.688	10871.75
601.046	10985.87
601.404	10962.37
601.762	10985.42
602.12	11021.57
602.478	10948.58
602.836	11025.42
603.194	10958.98
603.552	11016.6
603.91	10940.67
604.268	11009.15
604.625	10977.96
604.983	11004.85
605.341	11012.99
605.698	11063.83
606.056	11081.01
606.413	11096.6
606.771	11116.04
607.128	11109.48
607.485	11086.21
607.843	11038.98
608.2	11173.44
608.557	11164.85
608.914	11128.24
609.272	11171.85
609.629	11158.97
609.986	11364.84
610.343	11146.77
610.7	11345.63
611.057	11267.44
611.414	11217.28
611.771	11267.9
612.127	11304.73
612.484	11288.69
612.841	11358.97
613.198	11258.86
613.554	11306.09
613.911	11404.84
614.267	11333.2
614.624	11420.66
614.98	11331.85
615.337	11404.62
615.693	11393.54
616.05	11417.04
616.406	11446.65
616.762	11420.21
617.118	11335.69
617.475	11470.15
617.831	11455.46
618.187	11490.26
618.543	11427.67
618.899	11495.69
619.255	11551.96
619.611	11572.29
619.967	11571.62
620.323	11617.04
620.678	11520.09
621.034	11496.14
621.39	11528.68
621.746	11476.7
622.101	11581.11
622.457	11534.1
622.812	11637.6
623.168	11567.32
623.523	11568.23
623.879	11582.46
624.234	11566.87
624.589	11605.74
624.945	11556.93
625.3	11641.9
625.655	11597.15
626.01	11618.85
626.365	11586.76
626.72	11543.37
627.075	11549.02
627.43	11549.7
627.785	11561.9
628.14	11552.41
628.495	11557.61
628.85	11521.22
629.205	11536.36
629.559	11584.05
629.914	11479.19
630.269	11533.88
630.623	11454.33
630.978	11470.83
631.332	11477.16
631.687	11494.1
632.041	11463.37
632.396	11471.96
632.75	11428.34
633.104	11438.96
633.459	11344.96
633.813	11379.76
634.167	11323.26
634.521	11268.57
634.875	11337.05
635.229	11254.11
635.583	11330.49
635.937	11284.62
636.291	11280.1
636.645	11293.88
636.999	11257.5
637.352	11267.9
637.706	11212.98
638.06	11233.09
638.413	11246.88
638.767	11215.92
639.121	11260.21
639.474	11173.21
639.828	11174.34
640.181	11169.82
640.534	11187.45
640.888	11116.26
641.241	11150.16
641.594	11107.9
641.947	11185.41
642.301	11094.12
642.654	11189.25
643.007	11148.8
643.36	11069.26
643.713	11031.29
644.066	11126.88
644.419	10989.71
644.771	11004.63
645.124	10877.62
645.477	10883.5
645.83	10845.08
646.182	10693
646.535	10729.6
646.888	10762.37
647.24	10705.88
647.593	10687.35
647.945	10775.48
648.298	10618.87
648.65	10620.68
649.002	10683.05
649.355	10663.39
649.707	10691.41
650.059	10799.89
650.411	10905.19
650.763	10837.4
651.115	10916.49
651.467	10914.01
651.819	10930.73
652.171	10935.48
652.523	10877.17
652.875	10915.36
653.227	10849.6
653.578	10957.62
653.93	10909.49
654.282	10923.05
654.633	10867.68
654.985	10867
655.337	10913.55
655.688	10902.48
656.039	10956.94
656.391	10865.19
656.742	10940.22
657.094	10936.61
657.445	10848.02
657.796	10914.46
658.147	10875.82
658.498	10842.82
658.849	10812.99
659.2	10802.37
659.551	10842.14
659.902	10886.21
660.253	10935.7
660.604	10940.45
660.955	10842.82
661.306	10883.95
661.656	10938.19
662.007	10903.61
662.358	10870.39
662.708	10916.04
663.059	10946.32
663.409	10892.99
663.76	10865.42
664.11	10926.89
664.461	10892.31
664.811	10879.43
665.161	10908.36
665.511	10888.02
665.862	10894.12
666.212	10983.16
666.562	10892.31
666.912	10908.13
667.262	10918.53
667.612	10954.01
667.962	10930.05
668.312	10947
668.662	10962.59
669.011	10930.73
669.361	10931.41
669.711	10879.66
670.06	10897.96
670.41	10849.15
670.76	10890.05
671.109	10858.64
671.459	10830.17
671.808	10811.18
672.157	10866.1
672.507	10800.34
672.856	10773.22
673.205	10794.24
673.554	10833.56
673.904	10776.61
674.253	10874.23
674.602	10831.07
674.951	10693.67
675.3	10609.83
675.649	10772.54
675.998	10783.61
676.346	10752.43
676.695	10749.04
677.044	10740.9
677.393	10732.32
677.741	10813.22
678.09	10709.04
678.438	10695.48
678.787	10725.76
679.135	10712.2
679.484	10557.86
679.832	10646.44
680.181	10535.03
680.529	10620.46
680.877	10619.55
681.225	10578.2
681.573	10627.01
681.922	10469.95
682.27	10480.57
682.618	10514.02
682.966	10471.76
683.314	10506.79
683.661	10462.27
684.009	10429.95
684.357	10425.66
684.705	10379.33
685.053	10324.19
685.4	10358.77
685.748	10290.75
686.095	10258.66
686.443	10251.43
686.79	10205.55
687.138	10259.11
687.485	10276.28
687.832	10187.02
688.18	10212.1
688.527	10120.81
688.874	10109.96
689.221	10086.91
689.568	10021.6
689.915	9955.16
690.262	9973.24
690.609	9999.45
690.956	9848.05
691.303	9929.17
691.65	9866.8
691.997	9873.13
692.344	9813.47
692.69	9826.8
693.037	9782.51
693.383	9694.83
693.73	9703.87
694.077	9681.5
694.423	9700.93
694.769	9641.05
695.116	9622.06
695.462	9561.05
695.808	9513.14
696.155	9503.65
696.501	9428.4
696.847	9380.71
697.193	9272.02
697.539	9403.99
697.885	9301.85
698.231	9284.45
698.577	9291.68
698.923	9265.69
699.269	9173.04
699.614	9124.68
699.96	9094.62
700.306	9102.53
700.651	9019.82
700.997	9043.32
701.342	9051.23
701.688	9056.88
702.033	8982.31
702.379	8944.57
702.724	8927.17
703.069	8960.61
703.415	8792.25
703.76	8821.63
704.105	8815.98
704.45	8733.5
704.795	8756.78
705.14	8661.18
705.485	8689.43
705.83	8632.03
706.175	8622.99
706.52	8647.17
706.865	8561.07
707.209	8544.35
707.554	8506.39
707.899	8493.51
708.243	8397.69
708.588	8455.77
708.932	8443.11
709.277	8379.61
709.621	8398.14
709.966	8342.1
710.31	8357.92
710.654	8234.08
710.998	8291.93
711.342	8263.23
711.687	8272.95
712.031	8239.95
712.375	8234.76
712.719	8184.59
713.063	8227.98
713.407	8234.53
713.75	8140.75
714.094	8200.86
714.438	8117.02
714.782	8147.3
715.125	8071.14
715.469	8090.13
715.812	8083.8
716.156	8014.42
716.499	8042.22
716.843	8032.5
717.186	8050.81
717.53	8016
717.873	8071.82
718.216	7987.76
718.559	7965.16
718.902	7914.31
719.246	7980.07
719.589	7905.5
719.932	7894.65
720.275	7867.31
720.617	7819.85
720.96	7841.09
721.303	7885.61
721.646	7837.25
721.989	7855.33
722.331	7857.82
722.674	7831.38
723.016	7786.86
723.359	7797.25
723.701	7771.94
724.044	7732.4
724.386	7738.5
724.729	7810.36
725.071	7788.89
725.413	7709.35
725.755	7754.32
726.097	7720.87
726.439	7672.06
726.782	7715.67
727.124	7753.64
727.465	7711.38
727.807	7721.32
728.149	7632.74
728.491	7612.4
728.833	7627.77
729.175	7666.18
729.516	7637.71
729.858	7661.66
730.199	7645.62
730.541	7667.54
730.882	7634.32
731.224	7712.74
731.565	7626.86
731.906	7637.03
732.248	7631.61
732.589	7665.5
732.93	7563.13
733.271	7556.58
733.612	7658.05
733.953	7581.67
734.294	7614.21
734.635	7552.74
734.976	7643.81
735.317	7624.6
735.658	7633.64
735.999	7637.03
736.339	7599.07
736.68	7625.28
737.021	7606.3
737.361	7616.69
737.702	7609.69
738.042	7553.42
738.383	7623.25
738.723	7606.98
739.063	7593.64
739.404	7642
739.744	7685.17
740.084	7640.42
740.424	7679.29
740.764	7649.23
741.104	7705.96
741.444	7633.87
741.784	7674.32
742.124	7702.11
742.464	7742.56
742.804	7725.62
743.143	7711.61
743.483	7796.57
743.823	7715.45
744.162	7830.25
744.502	7829.12
744.841	7759.97
745.181	7842
745.52	7834.99
745.86	7927.87
746.199	7886.52
746.538	7966.06
746.877	8045.38
747.216	8037.92
747.556	8109.11
747.895	8193.17
748.234	8063.91
748.573	8224.59
748.911	8189.11
749.25	8296.67
749.589	8304.81
749.928	8378.03
750.267	8465.71
750.605	8531.92
750.944	8545.71
751.283	8681.75
751.621	8715.65
751.96	8864.57
752.298	8795.64
752.636	8940.5
752.975	9028.18
753.313	9086.71
753.651	9206.48
753.989	9265.01
754.327	9385.23
754.666	9434.95
755.004	9610.09
755.342	9726.47
755.679	9820.25
756.017	9863.19
756.355	9999.91
756.693	10097.98
757.031	10321.93
757.368	10378.2
757.706	10545.88
758.044	10699.78
758.381	10784.52
758.719	10920.11
759.056	11086.66
759.394	11225.41
759.731	11287.1
760.068	11512.86
760.405	11585.4
760.743	11702.46
761.08	11905.17
761.417	11955.11
761.754	12145.16
762.091	12375.66
762.428	12421.76
762.765	12600.06
763.102	12797.8
763.438	12897.01
