Data from hue_180_FLMS001491_00063.txt Node
Date: Tue Feb 07 16:47:19 GMT 2017
User: dcchb
Spectrometer: FLMS00149
Trigger mode: 0
Integration Time (sec): 2.000000E-2
Scans to average: 10
Electric dark correction enabled: true
Nonlinearity correction enabled: false
Boxcar width: 0
XAxis mode: Wavelengths
Number of Pixels in Spectrum: 2048
>>>>>Begin Spectral Data<<<<<
341.393	-23.88
341.776	-23.88
342.16	-23.88
342.543	-72.47
342.927	-57.55
343.31	-70.66
343.693	-63.2
344.077	-46.03
344.46	-75.63
344.843	-55.75
345.226	-55.75
345.61	-34.73
345.993	-21.17
346.376	-9.19
346.759	9.11
347.142	31.03
347.525	48.66
347.908	48.66
348.291	80.52
348.674	90.24
349.057	123.91
349.44	141.76
349.823	141.54
350.206	160.97
350.588	181.08
350.971	207.52
351.354	228.54
351.737	226.28
352.119	249.1
352.502	268.99
352.884	275.54
353.267	268.99
353.65	287.07
354.032	298.82
354.414	302.89
354.797	300.85
355.179	319.84
355.562	313.28
355.944	310.8
356.326	357.58
356.709	334.98
357.091	323.45
357.473	334.53
357.855	327.29
358.238	326.84
358.62	341.98
359.002	348.31
359.384	344.69
359.766	319.61
360.148	342.43
360.53	332.94
360.912	330.46
361.294	332.94
361.676	312.15
362.057	327.97
362.439	332.27
362.821	326.62
363.203	317.8
363.584	323.23
363.966	327.07
364.348	320.74
364.729	330.91
365.111	332.49
365.493	334.3
365.874	331.14
366.256	316.67
366.637	317.8
367.019	318.25
367.4	313.73
367.781	315.54
368.163	311.47
368.544	299.5
368.925	316.67
369.306	312.6
369.688	315.77
370.069	319.84
370.45	317.35
370.831	311.47
371.212	293.17
371.593	328.65
371.974	299.05
372.355	313.51
372.736	311.93
373.117	308.54
373.498	308.99
373.879	306.28
374.26	325.03
374.641	318.48
375.021	319.16
375.402	306.5
375.783	312.83
376.163	318.48
376.544	306.73
376.925	315.09
377.305	325.94
377.686	322.32
378.066	328.88
378.447	319.84
378.827	314.64
379.208	331.36
379.588	315.32
379.968	330.23
380.349	330.46
380.729	341.98
381.109	316.22
381.489	327.97
381.87	312.15
382.25	327.29
382.63	332.72
383.01	348.31
383.39	335.88
383.77	321.64
384.15	334.07
384.53	334.07
384.91	336.78
385.29	346.05
385.67	345.82
386.049	342.21
386.429	351.25
386.809	337.69
387.189	355.09
387.568	354.41
387.948	364.58
388.328	344.02
388.707	355.09
389.087	355.54
389.466	362.32
389.846	369.78
390.225	361.87
390.605	368.42
390.984	366.16
391.363	375.88
391.743	369.55
392.122	370.23
392.501	379.72
392.881	375.88
393.26	384.69
393.639	359.38
394.018	370.46
394.397	367.29
394.776	383.79
395.155	387.18
395.534	369.78
395.913	380.85
396.292	385.6
396.671	376.56
397.05	376.56
397.429	385.37
397.808	381.98
398.186	364.81
398.565	406.61
398.944	400.51
399.323	406.61
399.701	384.47
400.08	383.34
400.458	390.79
400.837	416.78
401.215	403
401.594	409.33
401.972	396.67
402.351	393.05
402.729	412.26
403.107	408.87
403.486	433.73
403.864	432.6
404.242	424.47
404.62	435.77
404.999	424.24
405.377	441.19
405.755	430.34
406.133	431.92
406.511	456.78
406.889	462.21
407.267	456.78
407.645	477.35
408.023	478.48
408.401	478.93
408.779	465.82
409.156	479.15
409.534	487.74
409.912	467.18
410.29	506.27
410.667	500.62
411.045	515.76
411.422	509.66
411.8	533.16
412.178	523.67
412.555	544.69
412.933	527.97
413.31	528.87
413.687	551.69
414.065	576.55
414.442	593.28
414.819	586.72
415.197	577.23
415.574	610.9
415.951	592.15
416.328	592.82
416.705	607.29
417.082	600.73
417.46	640.96
417.837	642.77
418.214	638.92
418.591	653.39
418.967	651.35
419.344	655.87
419.721	681.63
420.098	666.49
420.475	690.22
420.852	662.2
421.228	711.01
421.605	725.02
421.982	746.27
422.358	718.7
422.735	728.19
423.111	753.05
423.488	778.36
423.864	765.47
424.241	792.59
424.617	791.01
424.994	816.55
425.37	815.19
425.746	821.29
426.123	847.05
426.499	825.81
426.875	867.84
427.251	867.17
427.627	871.46
428.003	901.29
428.379	918.01
428.756	897
429.132	895.64
429.507	919.82
429.883	916.43
430.259	949.88
430.635	979.71
431.011	967.5
431.387	991.46
431.763	1002.76
432.138	1004.34
432.514	1021.51
432.89	981.06
433.265	1070.55
433.641	1079.14
434.016	1078.23
434.392	1090.21
434.767	1129.53
435.143	1124.33
435.518	1141.28
435.894	1134.73
436.269	1189.87
436.644	1205.91
437.02	1230.77
437.395	1231.22
437.77	1224.67
438.145	1265.8
438.52	1285.69
438.895	1303.09
439.271	1312.35
439.646	1345.35
440.021	1372.46
440.395	1359.13
440.77	1370.88
441.145	1395.06
441.52	1434.16
441.895	1434.16
442.27	1438
442.645	1438.22
443.019	1449.52
443.394	1475.51
443.769	1480.48
444.143	1491.1
444.518	1519.35
444.892	1522.52
445.267	1539.92
445.641	1542.63
446.016	1574.72
446.39	1594.15
446.764	1582.85
447.139	1597.32
447.513	1620.59
447.887	1605.68
448.262	1620.37
448.636	1676.41
449.01	1681.38
449.384	1685.22
449.758	1734.49
450.132	1729.97
450.506	1740.82
450.88	1752.57
451.254	1751.21
451.628	1789.18
452.002	1764.09
452.376	1796.41
452.75	1817.65
453.123	1861.04
453.497	1858.33
453.871	1882.96
454.244	1919.57
454.618	1929.29
454.992	1960.92
455.365	1960.47
455.739	2009.51
456.112	2031.66
456.486	2051.77
456.859	2090.41
457.232	2129.73
457.606	2101.71
457.979	2152.33
458.352	2154.14
458.725	2173.35
459.099	2256.51
459.472	2262.84
459.845	2284.08
460.218	2277.07
460.591	2363.62
460.964	2345.55
461.337	2394.58
461.71	2440.01
462.083	2458.76
462.456	2495.37
462.829	2489.27
463.201	2549.61
463.574	2555.94
463.947	2597.06
464.32	2620.57
464.692	2683.16
465.065	2680.45
465.438	2745.99
465.81	2769.26
466.183	2816.04
466.555	2864.4
466.928	2880.45
467.3	2953.67
467.672	2938.75
468.045	3008.13
468.417	3035.92
468.789	3058.3
469.161	3101.23
469.534	3197.95
469.906	3227.33
470.278	3244.73
470.65	3302.36
471.022	3350.27
471.394	3454.22
471.766	3465.52
472.138	3515.46
472.51	3576.7
472.882	3634.78
473.253	3684.04
473.625	3745.51
473.997	3855.34
474.369	3896.69
474.74	3930.14
475.112	3978.5
475.484	4084.93
475.855	4170.36
476.227	4180.3
476.598	4293.52
476.97	4343.91
477.341	4475.66
477.713	4517.92
478.084	4578.26
478.455	4696.44
478.827	4722.88
479.198	4903.22
479.569	4949.54
479.94	5065.47
480.311	5161.97
480.682	5229.99
481.053	5336.88
481.424	5445.13
481.795	5488.74
482.166	5619.58
482.537	5683.99
482.908	5883.31
483.279	5927.15
483.65	6096.63
484.021	6159.46
484.391	6275.61
484.762	6317.19
485.133	6420.01
485.503	6453.69
485.874	6659.78
486.244	6698.65
486.615	6856.39
486.985	6959.44
487.356	7094.8
487.726	7234.91
488.097	7275.59
488.467	7387.9
488.837	7547.44
489.207	7645.97
489.578	7721.45
489.948	7785.63
490.318	7929.81
490.688	7966.41
491.058	8137.48
491.428	8295.9
491.798	8313.3
492.168	8504.48
492.538	8538.38
492.908	8632.84
493.278	8774.53
493.648	8850.69
494.017	8869.22
494.387	9021.75
494.757	9085.26
495.126	9160.28
495.496	9204.8
495.866	9284.8
496.235	9347.17
496.605	9445.7
496.974	9555.98
497.344	9536.54
497.713	9610.89
498.082	9659.25
498.452	9748.74
498.821	9791.68
499.19	9871.9
499.559	9943.09
499.928	9966.36
500.298	10113.48
500.667	10120.03
501.036	10095.85
501.405	10238.45
501.774	10203.87
502.143	10283.42
502.512	10324.54
502.88	10368.84
503.249	10338.56
503.618	10466.46
503.987	10505.11
504.356	10530.87
504.724	10601.6
505.093	10558.66
505.462	10637.76
505.83	10666.46
506.199	10702.61
506.567	10852.21
506.936	10847.92
507.304	10917.75
507.672	10882.27
508.041	10964.3
508.409	11037.97
508.777	11050.18
509.145	11077.29
509.514	11080.91
509.882	11144.64
510.25	11115.48
510.618	11243.62
510.986	11146.22
511.354	11197.29
511.722	11339.21
512.09	11338.98
512.458	11286.55
512.826	11331.07
513.193	11370.17
513.561	11367
513.929	11447.91
514.297	11506.66
514.664	11536.94
515.032	11512.99
515.4	11597.28
515.767	11583.95
516.135	11652.19
516.502	11512.76
516.869	11623.27
517.237	11712.98
517.604	11617.17
517.972	11704.4
518.339	11664.85
518.706	11632.08
519.073	11763.38
519.44	11708.92
519.808	11828.46
520.175	11773.32
520.542	11917.05
520.909	11865.3
521.276	11821
521.643	11789.82
522.009	11926.99
522.376	11858.97
522.743	11900.1
523.11	11980.09
523.477	11955.01
523.843	11959.3
524.21	12017.61
524.577	12051.05
524.943	12043.82
525.31	12079.75
525.676	12085.4
526.043	12085.18
526.409	12116.81
526.776	12149.58
527.142	12088.79
527.508	12103.71
527.874	12137.15
528.241	12163.59
528.607	12136.7
528.973	12082.92
529.339	12072.52
529.705	12240.65
530.071	12190.48
530.437	12241.33
530.803	12098.51
531.169	12098.74
531.535	12036.36
531.901	12106.64
532.267	12045.63
532.632	12034.1
532.998	12044.27
533.364	11979.87
533.73	11929.47
534.095	11978.06
534.461	11922.69
534.826	11931.28
535.192	11868.46
535.557	11913.66
535.923	11842.02
536.288	11744.85
536.653	11816.94
537.019	11669.59
537.384	11655.36
537.749	11643.38
538.114	11689.93
538.479	11575.81
538.845	11573.1
539.21	11458.53
539.575	11541.91
539.94	11496.94
540.305	11443.39
540.67	11418.3
541.034	11388.02
541.399	11300.56
541.764	11282.49
542.129	11249.04
542.494	11299.21
542.858	11134.92
543.223	11065.09
543.587	11119.55
543.952	11059.21
544.316	11046.56
544.681	10988.03
545.045	11037.07
545.41	10914.36
545.774	10852.89
546.138	10870.97
546.503	10749.39
546.867	10693.12
547.231	10757.08
547.595	10717.3
547.959	10656.51
548.324	10593.24
548.688	10596.85
549.052	10534.26
549.416	10480.47
549.779	10449.97
550.143	10433.69
550.507	10393.24
550.871	10362.74
551.235	10299.69
551.599	10359.12
551.962	10232.57
552.326	10266.24
552.689	10213.81
553.053	10142.85
553.417	10115.96
553.78	10169.97
554.143	10076.64
554.507	10034.84
554.87	10044.1
555.234	10077.77
555.597	10045.68
555.96	9898.79
556.323	9936.98
556.686	9938.34
557.05	9898.57
557.413	9947.38
557.776	9911
558.139	9891.34
558.502	9865.35
558.865	9860.83
559.228	9859.25
559.59	9809.98
559.953	9813.37
560.316	9846.37
560.679	9843.88
561.041	9733.6
561.404	9779.25
561.767	9818.34
562.129	9682.53
562.492	9763.43
562.854	9747.16
563.217	9713.71
563.579	9650.66
563.941	9677.1
564.304	9762.53
564.666	9748.97
565.028	9714.17
565.39	9704.9
565.753	9708.74
566.115	9741.06
566.477	9801.39
566.839	9749.19
567.201	9727.05
567.563	9729.53
567.925	9798.46
568.287	9684.34
568.648	9726.59
569.01	9768.85
569.372	9797.33
569.734	9759.81
570.095	9720.27
570.457	9743.77
570.819	9770.66
571.18	9737.44
571.542	9779.25
571.903	9761.85
572.265	9747.38
572.626	9732.24
572.987	9743.32
573.349	9771.57
573.71	9843.2
574.071	9817.21
574.432	9794.16
574.794	9858.79
575.155	9811.56
575.516	9727.5
575.877	9816.99
576.238	9842.52
576.599	9814.95
576.96	9816.76
577.32	9788.97
577.681	9837.1
578.042	9834.39
578.403	9702.87
578.763	9840.49
579.124	9817.89
579.485	9833.94
579.845	9838.91
580.206	9765.01
580.566	9751.9
580.927	9732.92
581.287	9791.9
581.648	9756.2
582.008	9822.19
582.368	9776.76
582.728	9728.63
583.089	9746.71
583.449	9735.41
583.809	9788.29
584.169	9759.36
584.529	9706.48
584.889	9823.09
585.249	9711
585.609	9659.25
585.969	9766.37
586.329	9718.69
586.688	9697.44
587.048	9667.61
587.408	9613.15
587.768	9609.31
588.127	9642.98
588.487	9571.8
588.846	9668.06
589.206	9559.14
589.565	9645.47
589.925	9581.29
590.284	9533.38
590.643	9610.44
591.003	9537.67
591.362	9573.6
591.721	9627.16
592.08	9539.48
592.44	9634.39
592.799	9602.76
593.158	9475.75
593.517	9509.88
593.876	9490.89
594.235	9470.78
594.593	9498.58
594.952	9511.68
595.311	9531.57
595.67	9473.95
596.029	9463.78
596.387	9487.28
596.746	9491.12
597.104	9452.48
597.463	9440.05
597.822	9529.54
598.18	9343.33
598.538	9378.36
598.897	9455.64
599.255	9392.59
599.613	9570.67
599.972	9487.96
600.33	9429.43
600.688	9414.74
601.046	9459.48
601.404	9372.03
601.762	9393.27
602.12	9460.39
602.478	9390.78
602.836	9432.82
603.194	9348.98
603.552	9431.24
603.91	9379.03
604.268	9364.12
604.625	9396.66
604.983	9449.54
605.341	9315.53
605.698	9426.94
606.056	9387.85
606.413	9383.78
606.771	9419.48
607.128	9426.49
607.485	9426.72
607.843	9329.99
608.2	9387.85
608.557	9431.91
608.914	9340.62
609.272	9408.41
609.629	9452.48
609.986	9480.27
610.343	9438.47
610.7	9432.59
611.057	9411.35
611.414	9405.92
611.771	9464
612.127	9510.78
612.484	9461.97
612.841	9483.89
613.198	9527.5
613.554	9486.15
613.911	9527.96
614.267	9545.36
614.624	9495.41
614.98	9521.18
615.337	9610.44
615.693	9563.43
616.05	9512.14
616.406	9565.47
616.762	9522.08
617.118	9474.17
617.475	9541.06
617.831	9567.5
618.187	9602.53
618.543	9566.6
618.899	9553.72
619.255	9576.09
619.611	9574.51
619.967	9608.63
620.323	9586.49
620.678	9612.25
621.034	9602.3
621.39	9563.21
621.746	9565.47
622.101	9663.09
622.457	9590.33
622.812	9635.3
623.168	9640.27
623.523	9677.56
623.879	9708.06
624.234	9562.76
624.589	9636.88
624.945	9513.27
625.3	9585.13
625.655	9529.76
626.01	9629.87
626.365	9529.76
626.72	9571.8
627.075	9651.34
627.43	9650.44
627.785	9512.59
628.14	9617.67
628.495	9572.25
628.85	9554.85
629.205	9492.25
629.559	9621.06
629.914	9541.06
630.269	9516.43
630.623	9503.1
630.978	9535.19
631.332	9545.36
631.687	9500.61
632.041	9459.71
632.396	9468.52
632.75	9492.02
633.104	9502.65
633.459	9457.68
633.813	9402.08
634.167	9444.79
634.521	9369.99
634.875	9426.26
635.229	9351.92
635.583	9320.73
635.937	9334.06
636.291	9417.9
636.645	9386.49
636.999	9312.82
637.352	9301.29
637.706	9235.08
638.06	9241.86
638.413	9292.26
638.767	9286.83
639.121	9261.07
639.474	9237.79
639.828	9217.23
640.181	9257
640.534	9167.06
640.888	9225.82
641.241	9177
641.594	9142.66
641.947	9177.46
642.301	9171.13
642.654	9228.75
643.007	9174.52
643.36	9125.48
643.713	9159.38
644.066	9175.2
644.419	9080.06
644.771	9082.09
645.124	8899.5
645.477	8987.18
645.83	8919.84
646.182	8912.6
646.535	8864.92
646.888	8878.48
647.24	8779.5
647.593	8929.78
647.945	8834.87
648.298	8796.22
648.65	8806.39
649.002	8780.63
649.355	8853.85
649.707	8758.48
650.059	8879.16
650.411	8977.91
650.763	9003.22
651.115	9063.56
651.467	9068.76
651.819	9003.22
652.171	9037.12
652.523	9030.12
652.875	9043.22
653.227	8982.89
653.578	9049.1
653.93	8986.28
654.282	9057.01
654.633	8981.53
654.985	9015.88
655.337	8995.09
655.688	9070.11
656.039	9013.84
656.391	8993.51
656.742	9055.43
657.094	8986.95
657.445	9077.57
657.796	9053.17
658.147	9034.41
658.498	9009.55
658.849	9079.83
659.2	8985.82
659.551	9042.77
659.902	9075.09
660.253	9080.96
660.604	9027.63
660.955	9013.84
661.306	9050.91
661.656	9076.67
662.007	9102.88
662.358	9076.44
662.708	9076.89
663.059	9110.11
663.409	9014.3
663.76	9159.6
664.11	9106.72
664.461	9124.35
664.811	9099.49
665.161	9123.22
665.511	9083.9
665.862	9123.67
666.212	9088.65
666.562	9144.01
666.912	9138.81
667.262	9118.47
667.612	9084.58
667.962	9061.53
668.312	9079.61
668.662	9104.46
669.011	9110.79
669.361	9075.54
669.711	9085.71
670.06	9012.26
670.41	9109.89
670.76	9020.17
671.109	9090.91
671.459	9052.71
671.808	9064.69
672.157	9116.67
672.507	9089.78
672.856	9023.56
673.205	9070.11
673.554	9026.73
673.904	9021.75
674.253	9108.76
674.602	9043.9
674.951	8912.6
675.3	8808.88
675.649	8958.71
675.998	8941.08
676.346	8954.19
676.695	8956.9
677.044	8935.2
677.393	8859.5
677.741	8987.18
678.09	8854.75
678.438	8830.8
678.787	8879.16
679.135	8834.64
679.484	8848.65
679.832	8866.96
680.181	8740.86
680.529	8831.25
680.877	8823.12
681.225	8762.33
681.573	8857.46
681.922	8756.9
682.27	8733.17
682.618	8774.98
682.966	8703.12
683.314	8696.79
683.661	8677.13
684.009	8606.85
684.357	8689.79
684.705	8647.3
685.053	8621.76
685.4	8555.55
685.748	8569.56
686.095	8517.81
686.443	8504.93
686.79	8490.24
687.138	8496.12
687.485	8504.93
687.832	8457.7
688.18	8374.09
688.527	8364.82
688.874	8386.74
689.221	8353.52
689.568	8319.85
689.915	8305.84
690.262	8377.7
690.609	8240.53
690.956	8271.49
691.303	8249.8
691.65	8217.93
691.997	8236.69
692.344	8099.52
692.69	8125.28
693.037	8107.65
693.383	7992.4
693.73	8048.45
694.077	8014.1
694.423	7946.53
694.769	7960.77
695.116	7938.17
695.462	7897.49
695.808	7878.06
696.155	7900.2
696.501	7737.95
696.847	7762.58
697.193	7730.49
697.539	7754.67
697.885	7688
698.231	7654.11
698.577	7697.27
698.923	7669.25
699.269	7558.06
699.614	7546.31
699.96	7460.21
700.306	7563.04
700.651	7455.69
700.997	7445.07
701.342	7408.46
701.688	7379.54
702.033	7347.22
702.379	7413.89
702.724	7320.33
703.069	7296.15
703.415	7297.73
703.76	7245.76
704.105	7224.06
704.45	7206.21
704.795	7188.58
705.14	7150.39
705.485	7133.22
705.83	7074.46
706.175	7092.54
706.52	7095.93
706.865	7018.64
707.209	7052.77
707.554	7021.81
707.899	6994.01
708.243	6954.92
708.588	6989.72
708.932	6884.18
709.277	6802.6
709.621	6870.4
709.966	6836.28
710.31	6880.12
710.654	6794.69
710.998	6803.28
711.342	6814.13
711.687	6760.12
712.031	6720.8
712.375	6714.47
712.719	6732.77
713.063	6695.94
713.407	6690.06
713.75	6706.56
714.094	6634.92
714.438	6646.22
714.782	6629.73
715.125	6636.05
715.469	6647.13
715.812	6632.21
716.156	6563.74
716.499	6558.77
716.843	6595.83
717.186	6509.96
717.53	6588.6
717.873	6572.55
718.216	6560.35
718.559	6518.09
718.902	6519
719.246	6491.65
719.589	6487.58
719.932	6480.35
720.275	6491.65
720.617	6497.3
720.96	6452.56
721.303	6456.62
721.646	6474.25
721.989	6386.12
722.331	6491.88
722.674	6421.14
723.016	6415.04
723.359	6376.85
723.701	6393.35
724.044	6375.5
724.386	6403.07
724.729	6368.49
725.071	6350.86
725.413	6353.8
725.755	6379.11
726.097	6347.7
726.439	6339.34
726.782	6287.59
727.124	6354.25
727.465	6345.67
727.807	6326.46
728.149	6380.47
728.491	6258.89
728.833	6338.89
729.175	6302.96
729.516	6289.4
729.858	6330.07
730.199	6328.49
730.541	6268.15
730.882	6253.47
731.224	6328.49
731.565	6288.72
731.906	6312.9
732.248	6292.11
732.589	6306.35
732.93	6226.57
733.271	6251.21
733.612	6236.52
733.953	6274.03
734.294	6293.69
734.635	6271.09
734.976	6300.24
735.317	6262.73
735.658	6286.68
735.999	6312
736.339	6260.7
736.68	6314.93
737.021	6333.92
737.361	6262.96
737.702	6328.94
738.042	6302.5
738.383	6345.67
738.723	6372.56
739.063	6346.57
739.404	6445.55
739.744	6374.14
740.084	6393.8
740.424	6391.54
740.764	6434.25
741.104	6428.38
741.444	6465.21
741.784	6424.53
742.124	6484.87
742.464	6454.36
742.804	6504.76
743.143	6485.32
743.483	6530.75
743.823	6504.31
744.162	6563.97
744.502	6607.81
744.841	6620.69
745.181	6670.86
745.52	6667.92
745.86	6711.98
746.199	6767.8
746.538	6774.13
746.877	6830.4
747.216	6869.49
747.556	6852.77
747.895	6976.61
748.234	6977.74
748.573	6979.32
748.911	7062.26
749.25	7103.16
749.589	7193.33
749.928	7246.21
750.267	7317.39
750.605	7397.16
750.944	7489.82
751.283	7491.17
751.621	7586.54
751.96	7579.08
752.298	7760.77
752.636	7844.38
752.975	7921.9
753.313	7977.94
753.651	8095.22
753.989	8195.79
754.327	8298.84
754.666	8369.34
755.004	8500.86
755.342	8626.74
755.679	8776.79
756.017	8841.19
756.355	9018.14
756.693	9089.55
757.031	9291.58
757.368	9409.31
757.706	9540.84
758.044	9658.35
758.381	9810.66
758.719	9955.06
759.056	10128.84
759.394	10283.64
759.731	10373.58
760.068	10483.41
760.405	10642.05
760.743	10810.63
761.08	11023.28
761.417	11176.05
761.754	11336.5
762.091	11594.79
762.428	11651.06
762.765	11792.75
763.102	12075.23
763.438	12129.7
763.775	12248.11
764.112	12481.32
764.449	12738.27
764.785	12808.32
765.122	12864.37
765.458	13041.08
765.795	13194.53
766.131	13375.99
