Data from hue_220_FLMS001491_00093.txt Node
Date: Tue Feb 07 16:40:11 GMT 2017
User: dcchb
Spectrometer: FLMS00149
Trigger mode: 0
Integration Time (sec): 2.000000E-2
Scans to average: 10
Electric dark correction enabled: true
Nonlinearity correction enabled: false
Boxcar width: 0
XAxis mode: Wavelengths
Number of Pixels in Spectrum: 2048
>>>>>Begin Spectral Data<<<<<
341.393	-24.28
341.776	-24.28
342.16	-24.28
342.543	-64.05
342.927	-78.74
343.31	-59.31
343.693	-76.93
344.077	-62.02
344.46	-72.87
344.843	-62.02
345.226	-56.14
345.61	-12.3
345.993	-10.27
346.376	1.48
346.759	-11.62
347.142	24.76
347.525	41.93
347.908	63.4
348.291	81.71
348.674	88.03
349.057	122.16
349.44	124.42
349.823	139.11
350.206	158.99
350.588	187.69
350.971	214.36
351.354	224.08
351.737	244.19
352.119	212.32
352.502	268.14
352.884	267.24
353.267	269.95
353.65	284.41
354.032	297.97
354.414	295.03
354.797	305.43
355.179	318.08
355.562	300.01
355.944	328.93
356.326	324.64
356.709	306.56
357.091	339.55
357.473	331.87
357.855	357.86
358.238	346.78
358.62	350.17
359.002	340.91
359.384	352.43
359.766	343.17
360.148	350.85
360.53	323.06
360.912	341.59
361.294	317.86
361.676	347.91
362.057	330.97
362.439	314.24
362.821	320.34
363.203	321.25
363.584	308.14
363.966	325.09
364.348	318.31
364.729	324.41
365.111	311.31
365.493	339.78
365.874	319.67
366.256	303.17
366.637	309.72
367.019	309.5
367.4	310.85
367.781	328.48
368.163	293.68
368.544	307.01
368.925	317.41
369.306	314.92
369.688	306.56
370.069	310.63
370.45	302.72
370.831	312.44
371.212	337.75
371.593	319.44
371.974	318.54
372.355	309.05
372.736	323.51
373.117	296.16
373.498	300.46
373.879	295.03
374.26	289.61
374.641	306.56
375.021	326.22
375.402	314.92
375.783	299.78
376.163	323.51
376.544	328.71
376.925	316.73
377.305	314.47
377.686	313.79
378.066	363.06
378.447	303.4
378.827	344.52
379.208	307.46
379.588	316.05
379.968	332.77
380.349	302.27
380.729	335.26
381.109	321.02
381.489	336.62
381.87	321.93
382.25	343.62
382.63	335.71
383.01	322.15
383.39	342.72
383.77	331.87
384.15	334.58
384.53	355.37
384.91	332.55
385.29	345.65
385.67	327.8
386.049	336.39
386.429	355.6
386.809	346.11
387.189	345.88
387.568	349.5
387.948	350.4
388.328	346.78
388.707	365.54
389.087	367.35
389.466	361.7
389.846	350.85
390.225	351.08
390.605	358.99
390.984	376.61
391.363	361.93
391.743	375.26
392.122	351.98
392.501	346.56
392.881	359.89
393.26	356.95
393.639	379.55
394.018	382.94
394.397	359.67
394.776	358.54
395.155	383.62
395.534	396.95
395.913	367.8
396.292	384.52
396.671	391.53
397.05	390.85
397.429	382.26
397.808	390.63
398.186	384.07
398.565	384.3
398.944	405.99
399.323	396.95
399.701	398.31
400.08	397.4
400.458	408.48
400.837	424.07
401.215	412.77
401.594	426.33
401.972	415.48
402.351	424.97
402.729	420
403.107	418.87
403.486	431.53
403.864	427.01
404.242	432.88
404.62	443.51
404.999	429.49
405.377	419.1
405.755	451.64
406.133	418.65
406.511	442.15
406.889	441.02
407.267	469.27
407.645	463.62
408.023	466.56
408.401	476.5
408.779	501.13
409.156	472.43
409.534	496.39
409.912	515.14
410.29	516.72
410.667	494.58
411.045	500.9
411.422	535.93
411.8	521.47
412.178	560.79
412.555	554.24
412.933	572.09
413.31	547.68
413.687	579.77
414.065	580
414.442	617.96
414.819	599.89
415.197	589.26
415.574	614.35
415.951	620.45
416.328	629.04
416.705	620.22
417.082	649.15
417.46	653.67
417.837	653.67
418.214	668.58
418.591	692.09
418.967	686.21
419.344	689.6
419.721	679.66
420.098	697.28
420.475	734.8
420.852	735.25
421.228	723.27
421.605	761.24
421.982	758.3
422.358	770.05
422.735	790.39
423.111	801.69
423.488	817.05
423.864	819.09
424.241	825.19
424.617	845.3
424.994	857.05
425.37	878.07
425.746	870.39
426.123	905.41
426.499	923.94
426.875	929.82
427.251	918.97
427.627	928.69
428.003	967.56
428.379	992.42
428.756	975.92
429.132	973.66
429.507	1002.36
429.883	1007.33
430.259	1036.48
430.635	1028.12
431.011	1047.56
431.387	1040.55
431.763	1067.22
432.138	1077.39
432.514	1094.79
432.89	1121.68
433.265	1158.06
433.641	1172.07
434.016	1169.14
434.392	1219.53
434.767	1216.14
435.143	1261.79
435.518	1261.56
435.894	1266.76
436.269	1295.23
436.644	1325.97
437.02	1328.68
437.395	1346.76
437.77	1403.93
438.145	1401.45
438.52	1433.76
438.895	1459.52
439.271	1454.55
439.646	1507.43
440.021	1514.44
440.395	1496.13
440.77	1528.22
441.145	1544.27
441.52	1552.85
441.895	1583.36
442.27	1610.03
442.645	1608.67
443.019	1636.02
443.394	1650.71
443.769	1648.45
444.143	1662.46
444.518	1693.64
444.892	1687.09
445.267	1718.05
445.641	1685.05
446.016	1738.16
446.39	1746.97
446.764	1759.4
447.139	1762.34
447.513	1793.3
447.887	1789.91
448.262	1836.69
448.636	1822
449.01	1871.72
449.384	1902
449.758	1879.63
450.132	1891.15
450.506	1884.15
450.88	1906.29
451.254	1923.92
451.628	1924.6
452.002	1964.82
452.376	1982.67
452.75	1991.94
453.123	2017.93
453.497	2046.18
453.871	2052.5
454.244	2109.9
454.618	2104.93
454.992	2125.95
455.365	2119.62
455.739	2167.08
456.112	2195.1
456.486	2238.94
456.859	2236.68
457.232	2262.21
457.606	2259.73
457.979	2280.52
458.352	2332.27
458.725	2376.79
459.099	2376.56
459.472	2420.63
459.845	2402.1
460.218	2471.7
460.591	2459.27
460.964	2490.46
461.337	2561.64
461.71	2567.52
462.083	2590.79
462.456	2583.79
462.829	2597.12
463.201	2670.11
463.574	2650.23
463.947	2688.64
464.32	2749.89
464.692	2755.31
465.065	2818.13
465.438	2797.57
465.81	2810
466.183	2867.4
466.555	2961.86
466.928	2926.6
467.3	2917.79
467.672	2970.67
468.045	3062.65
468.417	3130.21
468.789	3084.57
469.161	3167.28
469.534	3147.16
469.906	3228.29
470.278	3247.95
470.65	3253.83
471.022	3301.51
471.394	3391.45
471.766	3419.25
472.138	3424.44
472.51	3492.69
472.882	3527.04
473.253	3574.5
473.625	3605.68
473.997	3738.33
474.369	3669.18
474.74	3725.9
475.112	3793.47
475.484	3833.02
475.855	3894.49
476.227	3939.46
476.598	4000.93
476.97	4062.85
477.341	4115.5
477.713	4157.53
478.084	4164.54
478.455	4259.68
478.827	4337.64
479.198	4460.57
479.569	4425.55
479.94	4497.18
480.311	4558.65
480.682	4657.63
481.053	4769.49
481.424	4795.93
481.795	4767.46
482.166	4905.08
482.537	4916.83
482.908	5010.62
483.279	5060.33
483.65	5106.21
484.021	5213.55
484.391	5246.54
484.762	5283.38
485.133	5329.93
485.503	5401.79
485.874	5468.23
486.244	5549.81
486.615	5623.93
486.985	5665.74
487.356	5755
487.726	5809.24
488.097	5877.94
488.467	5910.48
488.837	6022.79
489.207	6026.41
489.578	6151.83
489.948	6184.37
490.318	6282.9
490.688	6316.12
491.058	6342.56
491.428	6436.79
491.798	6411.26
492.168	6624.59
492.538	6570.8
492.908	6595.66
493.278	6730.12
493.648	6713.85
494.017	6768.76
494.387	6830
494.757	6916.78
495.126	6871.81
495.496	6885.82
495.866	6968.08
496.235	7073.61
496.605	7025.93
496.974	7126.04
497.344	7102.54
497.713	7134.85
498.082	7262.54
498.452	7265.7
498.821	7282.42
499.19	7288.98
499.559	7403.1
499.928	7369.65
500.298	7416.88
500.667	7486.71
501.036	7503.21
501.405	7552.24
501.774	7512.47
502.143	7502.75
502.512	7578.68
502.88	7593.6
503.249	7707.5
503.618	7613.26
503.987	7672.92
504.356	7705.46
504.724	7725.12
505.093	7697.33
505.462	7794.72
505.83	7805.57
506.199	7908.62
506.567	7938.9
506.936	7836.53
507.304	7948.17
507.672	7935.74
508.041	7946.58
508.409	8041.5
508.777	8031.1
509.145	8039.01
509.514	8039.01
509.882	8074.04
510.25	8092.57
510.618	8147.94
510.986	8079.24
511.354	8133.25
511.722	8193.13
512.09	8147.94
512.458	8207.59
512.826	8286.69
513.193	8260.25
513.561	8237.42
513.929	8282.4
514.297	8313.81
514.664	8319.91
515.032	8363.52
515.4	8411.88
515.767	8331.66
516.135	8363.07
516.502	8321.94
516.869	8428.83
517.237	8369.4
517.604	8357.2
517.972	8347.93
518.339	8385.22
518.706	8383.18
519.073	8418.21
519.44	8463.63
519.808	8465.89
520.175	8469.96
520.542	8536.17
520.909	8520.13
521.276	8455.72
521.643	8484.42
522.009	8491.88
522.376	8511.32
522.743	8537.08
523.11	8537.53
523.477	8586.57
523.843	8598.77
524.21	8602.84
524.577	8666.57
524.943	8672.44
525.31	8687.36
525.676	8695.49
526.043	8719.45
526.409	8689.62
526.776	8714.7
527.142	8710.63
527.508	8746.79
527.874	8725.32
528.241	8732.78
528.607	8806
528.973	8782.27
529.339	8726.9
529.705	8818.2
530.071	8814.13
530.437	8817.52
530.803	8769.39
531.169	8844.64
531.535	8804.19
531.901	8769.39
532.267	8761.25
532.632	8794.02
532.998	8794.02
533.364	8757.41
533.73	8786.34
534.095	8718.09
534.461	8763.74
534.826	8782.04
535.192	8705.66
535.557	8746.79
535.923	8695.27
536.288	8669.73
536.653	8769.61
537.019	8685.1
537.384	8637.64
537.749	8665.21
538.114	8617.98
538.479	8606.23
538.845	8653.46
539.21	8591.31
539.575	8595.38
539.94	8542.28
540.305	8571.88
540.67	8547.92
541.034	8498.66
541.399	8495.95
541.764	8561.71
542.129	8471.32
542.494	8436.52
542.858	8502.28
543.223	8444.42
543.587	8469.73
543.952	8453.69
544.316	8395.16
544.681	8354.94
545.045	8348.61
545.41	8366.91
545.774	8370.98
546.138	8333.69
546.503	8355.84
546.867	8298.67
547.231	8361.94
547.595	8231.78
547.959	8272.9
548.324	8240.81
548.688	8214.15
549.052	8192.23
549.416	8232.68
549.779	8102.74
550.143	8183.19
550.507	8125.34
550.871	8202.62
551.235	8099.12
551.599	8162.4
551.962	8107.26
552.326	8047.37
552.689	8095.73
553.053	8054.38
553.417	8016.87
553.78	8133.47
554.143	8047.37
554.507	8010.54
554.87	8047.37
555.234	8081.5
555.597	8048.05
555.96	8058.67
556.323	7942.07
556.686	7991.33
557.05	8025.9
557.413	8031.55
557.776	7938.68
558.139	7992.69
558.502	8007.37
558.865	7989.52
559.228	8002.18
559.59	7943.87
559.953	7972.35
560.316	8033.14
560.679	7961.73
561.041	8007.15
561.404	8007.83
561.767	8021.84
562.129	7975.74
562.492	8032.01
562.854	8069.75
563.217	7987.04
563.579	8040.14
563.941	8049.18
564.304	8082.4
564.666	8142.06
565.028	8095.96
565.39	8045.57
565.753	8149.29
566.115	8088.28
566.477	8139.8
566.839	8164.21
567.201	8196.07
567.563	8105.45
567.925	8178.44
568.287	8106.81
568.648	8181.83
569.01	8197.43
569.372	8260.25
569.734	8233.58
570.095	8259.57
570.457	8293.47
570.819	8264.32
571.18	8272.45
571.542	8264.77
571.903	8319.68
572.265	8381.38
572.626	8319.68
572.987	8403.3
573.349	8343.18
573.71	8384.09
574.071	8402.62
574.432	8465.67
574.794	8496.17
575.155	8481.94
575.516	8414.82
575.877	8508.15
576.238	8488.27
576.599	8552.22
576.96	8530.98
577.32	8534.82
577.681	8595.38
578.042	8644.19
578.403	8657.3
578.763	8517.42
579.124	8607.58
579.485	8662.27
579.845	8655.94
580.206	8618.21
580.566	8714.7
580.927	8645.78
581.287	8697.53
581.648	8682.16
582.008	8704.31
582.368	8727.58
582.728	8813
583.089	8763.96
583.449	8870.18
583.809	8780.24
584.169	8778.2
584.529	8806.68
584.889	8888.25
585.249	8817.52
585.609	8825.88
585.969	8893.23
586.329	8818.88
586.688	8868.82
587.048	8931.42
587.408	8883.06
587.768	8926.22
588.127	8921.25
588.487	8915.6
588.846	8991.76
589.206	8930.74
589.565	8973
589.925	8962.38
590.284	8952.43
590.643	9038.31
591.003	8982.49
591.362	9034.24
591.721	9041.02
592.08	9094.35
592.44	9128.25
592.799	9025.43
593.158	9059.78
593.517	9064.07
593.876	9105.42
594.235	9090.06
594.593	9126.67
594.952	9162.15
595.311	9083.73
595.67	9137.51
596.029	9215.03
596.387	9184.52
596.746	9216.16
597.104	9122.15
597.463	9141.58
597.822	9231.07
598.18	9130.73
598.538	9164.86
598.897	9200.11
599.255	9207.57
599.613	9266.78
599.972	9242.6
600.33	9247.34
600.688	9219.09
601.046	9211.86
601.404	9294.35
601.762	9255.48
602.12	9319.66
602.478	9342.48
602.836	9279.66
603.194	9306.1
603.552	9207.57
603.91	9225.65
604.268	9250.51
604.625	9255.03
604.983	9312.65
605.341	9246.89
605.698	9311.97
606.056	9296.61
606.413	9316.72
606.771	9312.65
607.128	9315.14
607.485	9297.74
607.843	9285.76
608.2	9393.78
608.557	9378.19
608.914	9343.16
609.272	9393.33
609.629	9363.72
609.986	9473.1
610.343	9394
610.7	9482.14
611.057	9448.92
611.414	9484.4
611.771	9480.33
612.127	9504.51
612.484	9448.92
612.841	9499.31
613.198	9420.9
613.554	9457.51
613.911	9485.75
614.267	9577.05
614.624	9503.38
614.98	9531.18
615.337	9562.81
615.693	9503.83
616.05	9483.27
616.406	9631.51
616.762	9495.02
617.118	9580.89
617.475	9578.18
617.831	9610.04
618.187	9591.51
618.543	9596.26
618.899	9607.78
619.255	9666.77
619.611	9630.16
619.967	9664.05
620.323	9691.85
620.678	9647.78
621.034	9672.19
621.39	9567.33
621.746	9577.28
622.101	9667.9
622.457	9635.35
622.812	9667.44
623.168	9710.38
623.523	9641.91
623.879	9706.09
624.234	9623.38
624.589	9650.72
624.945	9677.16
625.3	9621.57
625.655	9658.86
626.01	9581.12
626.365	9655.92
626.72	9571.85
627.075	9587.45
627.43	9609.37
627.785	9619.54
628.14	9660.66
628.495	9614.79
628.85	9586.77
629.205	9561.68
629.559	9548.8
629.914	9560.78
630.269	9578.86
630.623	9529.14
630.978	9574.56
631.332	9590.61
631.687	9579.76
632.041	9521.91
632.396	9553.55
632.75	9575.92
633.104	9588.12
633.459	9465.64
633.813	9469.93
634.167	9537.05
634.521	9452.76
634.875	9486.43
635.229	9437.17
635.583	9407.56
635.937	9397.39
636.291	9422.25
636.645	9468.13
636.999	9446.21
637.352	9391.07
637.706	9348.36
638.06	9376.6
638.413	9360.56
638.767	9332.09
639.121	9349.94
639.474	9283.95
639.828	9314.01
640.181	9310.62
640.534	9213.67
640.888	9332.54
641.241	9231.3
641.594	9190.62
641.947	9286.66
642.301	9257.51
642.654	9257.96
643.007	9281.69
643.36	9229.26
643.713	9197.63
644.066	9256.83
644.419	9202.15
644.771	9146.1
645.124	9069.27
645.477	9049.83
645.83	8944.52
646.182	8937.52
646.535	9008.25
646.888	8972.09
647.24	8877.41
647.593	8946.33
647.945	8905.2
648.298	8886
648.65	8849.61
649.002	8896.39
649.355	8894.81
649.707	8906.33
650.059	8987.91
650.411	9025.88
650.763	9079.66
651.115	9122.37
651.467	9091.64
651.819	9129.38
652.171	9110.85
652.523	9055.71
652.875	9052.54
653.227	9018.2
653.578	9132.99
653.93	9086.67
654.282	9022.26
654.633	9020.45
654.985	9080.57
655.337	9090.96
655.688	9111.75
656.039	9089.61
656.391	9026.78
656.742	9102.03
657.094	9034.24
657.445	9119.66
657.796	9026.56
658.147	9137.51
658.498	9058.19
658.849	9056.84
659.2	9042.38
659.551	9040.79
659.902	9097.97
660.253	9121.92
660.604	9070.17
660.955	9008.7
661.306	9059.32
661.656	9062.71
662.007	9090.06
662.358	9155.14
662.708	9105.65
663.059	9128.93
663.409	9031.75
663.76	9160.11
664.11	9131.64
664.461	9147.68
664.811	9168.02
665.161	9108.81
665.511	9143.84
665.862	9134.12
666.212	9241.47
666.562	9204.4
666.912	9174.8
667.262	9140.9
667.612	9155.14
667.962	9110.85
668.312	9099.1
668.662	9257.51
669.011	9135.03
669.361	9135.03
669.711	9011.42
670.06	9156.5
670.41	9048.02
670.76	9089.61
671.109	9116.27
671.459	9101.58
671.808	9081.47
672.157	9137.29
672.507	8991.3
672.856	9060
673.205	8974.13
673.554	9075.14
673.904	9044.64
674.253	9066.1
674.602	9067.91
674.951	8931.19
675.3	8882.61
675.649	9027.46
675.998	8999.89
676.346	9016.16
676.695	9023.84
677.044	8981.81
677.393	9020.68
677.741	9025.2
678.09	8971.42
678.438	8874.02
678.787	8998.31
679.135	8957.86
679.484	8936.39
679.832	8972.77
680.181	8859.1
680.529	8875.15
680.877	8874.02
681.225	8835.38
681.573	8854.13
681.922	8768.03
682.27	8798.54
682.618	8754.25
682.966	8748.82
683.314	8812.32
683.661	8714.47
684.009	8678.54
684.357	8655.27
684.705	8606.45
685.053	8668.83
685.4	8647.58
685.748	8613.69
686.095	8642.39
686.443	8571.88
686.79	8585.21
687.138	8522.84
687.485	8589.05
687.832	8504.08
688.18	8502.28
688.527	8468.38
688.874	8453.01
689.221	8412.79
689.568	8401.49
689.915	8429.96
690.262	8334.82
690.609	8323.3
690.956	8358.1
691.303	8225.9
691.65	8208.05
691.997	8152.91
692.344	8210.53
692.69	8175.96
693.037	8149.52
693.383	8085.79
693.73	8080.14
694.077	8075.17
694.423	8083.98
694.769	7987.04
695.116	7943.42
695.462	7951.33
695.808	7932.8
696.155	7934.38
696.501	7844.44
696.847	7890.54
697.193	7826.81
697.539	7829.53
697.885	7705.91
698.231	7827.72
698.577	7722.41
698.923	7720.15
699.269	7682.19
699.614	7572.81
699.96	7524.45
700.306	7625.69
700.651	7504.34
700.997	7554.28
701.342	7485.58
701.688	7473.6
702.033	7431.8
702.379	7331.91
702.724	7338.01
703.069	7438.35
703.415	7312.48
703.76	7337.34
704.105	7303.21
704.45	7255.3
704.795	7208.53
705.14	7223.89
705.485	7194.74
705.83	7236.55
706.175	7143.44
706.52	7122.88
706.865	7072.03
707.209	7077.91
707.554	7056.66
707.899	7134.4
708.243	7067.29
708.588	7033.16
708.932	7007.85
709.277	6997.91
709.621	6997.46
709.966	6961.75
710.31	6949.1
710.654	6880.62
710.998	6916.1
711.342	6878.82
711.687	6871.81
712.031	6761.31
712.375	6821.19
712.719	6858.03
713.063	6824.35
713.407	6835.65
713.75	6784.13
714.094	6764.7
714.438	6769.21
714.782	6733.06
715.125	6673.62
715.469	6713.17
715.812	6698.48
716.156	6700.97
716.499	6662.1
716.843	6655.55
717.186	6656.22
717.53	6643.57
717.873	6640.86
718.216	6640.18
718.559	6568.09
718.902	6510.01
719.246	6590.01
719.589	6552.95
719.932	6532.61
720.275	6549.33
720.617	6491.93
720.96	6514.31
721.303	6486.96
721.646	6587.98
721.989	6492.61
722.331	6501.2
722.674	6498.26
723.016	6484.02
723.359	6501.43
723.701	6503.23
724.044	6461.88
724.386	6492.61
724.729	6432.5
725.071	6466.4
725.413	6465.72
725.755	6408.32
726.097	6393.63
726.439	6351.37
726.782	6382.33
727.124	6446.29
727.465	6389.56
727.807	6401.31
728.149	6366.51
728.491	6351.82
728.833	6397.25
729.175	6351.82
729.516	6366.97
729.858	6388.43
730.199	6348.21
730.541	6373.29
730.882	6294.88
731.224	6417.13
731.565	6340.75
731.906	6364.03
732.248	6352.73
732.589	6337.14
732.93	6311.15
733.271	6362.67
733.612	6415.78
733.953	6331.26
734.294	6351.82
734.635	6321.09
734.976	6401.09
735.317	6337.59
735.658	6334.65
735.999	6350.02
736.339	6347.98
736.68	6361.77
737.021	6350.47
737.361	6374.87
737.702	6383.69
738.042	6334.88
738.383	6392.73
738.723	6399.73
739.063	6389.56
739.404	6412.16
739.744	6402.44
740.084	6369.68
740.424	6424.36
740.764	6522.44
741.104	6399.51
741.444	6461.2
741.784	6447.87
742.124	6466.62
742.464	6480.18
742.804	6540.29
743.143	6571.25
743.483	6548.66
743.823	6574.42
744.162	6549.11
744.502	6571.25
744.841	6601.31
745.181	6657.81
745.52	6602.67
745.86	6712.04
746.199	6707.97
746.538	6773.28
746.877	6845.14
747.216	6858.25
747.556	6873.62
747.895	6898.48
748.234	6982.77
748.573	6996.55
748.911	7040.17
749.25	7077.91
749.589	7142.31
749.928	7159.26
750.267	7287.85
750.605	7365.58
750.944	7411.23
751.283	7403.55
751.621	7489.65
751.96	7608.51
752.298	7662.07
752.636	7789.98
752.975	7823.42
753.313	7852.58
753.651	8091.21
753.989	8076.52
754.327	8202.17
754.666	8278.55
755.004	8416.63
755.342	8521.94
755.679	8700.24
756.017	8743.85
756.355	8918.54
756.693	8928.03
757.031	9074.01
757.368	9267.91
757.706	9394.91
758.044	9486.88
758.381	9709.93
758.719	9751.28
759.056	10010.03
759.394	10107.21
759.731	10229.91
760.068	10381.1
760.405	10504.94
760.743	10645.04
761.08	10851.59
761.417	11032.15
761.754	11170.68
762.091	11316.21
762.428	11520.05
762.765	11658.8
763.102	11875.52
763.438	11939.7
763.775	12070.54
764.112	12299.46
764.449	12514.83
764.785	12652.9
765.122	12833.24
765.458	12889.05
765.795	13087.24
766.131	13306.67
766.467	13385.76
766.804	13541.01
767.14	13667.11
767.476	13809.48
767.812	13893.1
768.148	14036.14
768.485	14220.32
768.821	14344.83
