Data from hue_200_FLMS001491_00093.txt Node
Date: Tue Feb 07 16:44:12 GMT 2017
User: dcchb
Spectrometer: FLMS00149
Trigger mode: 0
Integration Time (sec): 2.000000E-2
Scans to average: 10
Electric dark correction enabled: true
Nonlinearity correction enabled: false
Boxcar width: 0
XAxis mode: Wavelengths
Number of Pixels in Spectrum: 2048
>>>>>Begin Spectral Data<<<<<
341.393	-12.7
341.776	-12.7
342.16	-12.7
342.543	-56.31
342.927	-56.76
343.31	-59.48
343.693	-81.17
344.077	-75.75
344.46	-72.58
344.843	-55.41
345.226	-36.88
345.61	-19.93
345.993	-38.23
346.376	-0.95
346.759	16.45
347.142	28.66
347.525	48.32
347.908	75.66
348.291	69.79
348.674	93.97
349.057	107.53
349.44	120.86
349.823	139.39
350.206	159.05
350.588	204.25
350.971	201.31
351.354	220.52
351.737	229.1
352.119	244.92
352.502	255.32
352.884	264.81
353.267	285.6
353.65	288.76
354.032	313.4
354.414	300.97
354.797	315.2
355.179	330.57
355.562	342.55
355.944	303.23
356.326	336.67
356.709	311.81
357.091	339.38
357.473	314.3
357.855	335.77
358.238	336.45
358.62	339.38
359.002	328.31
359.384	338.03
359.766	332.6
360.148	330.8
360.53	348.65
360.912	342.1
361.294	337.58
361.676	319.95
362.057	309.55
362.439	315.66
362.821	338.93
363.203	316.56
363.584	334.41
363.966	331.7
364.348	342.32
364.729	333.73
365.111	301.87
365.493	317.69
365.874	304.36
366.256	308.65
366.637	321.08
367.019	307.97
367.4	318.82
367.781	318.82
368.163	298.71
368.544	313.85
368.925	323.34
369.306	341.19
369.688	298.25
370.069	306.16
370.45	315.43
370.831	326.95
371.212	310.01
371.593	302.55
371.974	290.35
372.355	314.53
372.736	329.44
373.117	324.24
373.498	332.15
373.879	326.5
374.26	326.28
374.641	310.91
375.021	298.03
375.402	305.49
375.783	317.01
376.163	322.21
376.544	338.71
376.925	308.2
377.305	317.24
377.686	319.95
378.066	333.73
378.447	344.81
378.827	338.48
379.208	308.42
379.588	333.28
379.968	319.72
380.349	318.59
380.729	334.41
381.109	345.94
381.489	336.22
381.87	319.95
382.25	344.13
382.63	328.76
383.01	330.34
383.39	354.3
383.77	340.29
384.15	350
384.53	320.18
384.91	353.62
385.29	353.17
385.67	343
386.049	365.82
386.429	344.58
386.809	340.29
387.189	350.23
387.568	357.46
387.948	373.51
388.328	337.35
388.707	353.62
389.087	366.73
389.466	397.24
389.846	358.37
390.225	379.16
390.605	360.63
390.984	358.59
391.363	359.72
391.743	359.5
392.122	375.77
392.501	354.07
392.881	358.14
393.26	359.5
393.639	393.17
394.018	391.59
394.397	385.03
394.776	370.12
395.155	390.91
395.534	380.29
395.913	396.56
396.292	378.93
396.671	382.09
397.05	380.29
397.429	397.69
397.808	366.73
398.186	409.21
398.565	416.44
398.944	403.11
399.323	415.99
399.701	412.6
400.08	406.5
400.458	415.77
400.837	439.49
401.215	414.86
401.594	425.26
401.972	426.39
402.351	428.87
402.729	415.09
403.107	410.34
403.486	422.32
403.864	435.43
404.242	444.47
404.62	444.47
404.999	436.1
405.377	434.75
405.755	434.97
406.133	443.34
406.511	469.1
406.889	471.58
407.267	469.78
407.645	483.11
408.023	498.7
408.401	460.28
408.779	495.54
409.156	500.06
409.534	507.29
409.912	514.75
410.29	515.65
410.667	536.44
411.045	541.64
411.422	538.93
411.8	549.77
412.178	576.21
412.555	585.93
412.933	563.56
413.31	618.47
413.687	627.06
414.065	614.63
414.442	629.09
414.819	633.16
415.197	623.67
415.574	635.65
415.951	651.69
416.328	634.07
416.705	687.85
417.082	671.8
417.46	697.34
417.837	676.55
418.214	729.66
418.591	706.61
418.967	707.06
419.344	723.33
419.721	742.76
420.098	751.8
420.475	745.93
420.852	789.09
421.228	810.11
421.605	795.19
421.982	791.8
422.358	865.02
422.735	846.26
423.111	842.65
423.488	889.43
423.864	882.42
424.241	895.75
424.617	906.6
424.994	918.58
425.37	947.5
425.746	945.02
426.123	980.72
426.499	983.89
426.875	1020.27
427.251	1031.57
427.627	1043.09
428.003	1031.34
428.379	1044.45
428.756	1087.84
429.132	1090.78
429.507	1093.71
429.883	1109.53
430.259	1131.23
430.635	1171.68
431.011	1155.18
431.387	1200.6
431.763	1203.09
432.138	1213.94
432.514	1223.65
432.89	1224.33
433.265	1267.72
433.641	1313.14
434.016	1323.31
434.392	1359.24
434.767	1356.08
435.143	1399.47
435.518	1406.25
435.894	1426.36
436.269	1471.78
436.644	1458.68
437.02	1533.93
437.395	1536.87
437.77	1570.99
438.145	1599.92
438.52	1633.59
438.895	1649.41
439.271	1666.35
439.646	1696.86
440.021	1720.36
440.395	1747.71
440.77	1753.13
441.145	1768.95
441.52	1819.12
441.895	1825.45
442.27	1843.52
442.645	1887.14
443.019	1902.28
443.394	1897.08
443.769	1933.01
444.143	1944.09
444.518	1978.66
444.892	1951.09
445.267	1997.65
445.641	2011.2
446.016	2054.37
446.39	2069.51
446.764	2089.39
447.139	2062.05
447.513	2138.21
447.887	2124.2
448.262	2137.75
448.636	2146.79
449.01	2166.45
449.384	2205.32
449.758	2196.06
450.132	2232.67
450.506	2265.66
450.88	2242.84
451.254	2296.39
451.628	2321.48
452.002	2336.85
452.376	2349.95
452.75	2343.62
453.123	2382.27
453.497	2457.97
453.871	2441.93
454.244	2514.47
454.618	2512.43
454.992	2556.27
455.365	2550.4
455.739	2605.09
456.112	2607.35
456.486	2641.92
456.859	2658.42
457.232	2730.06
457.606	2685.76
457.979	2781.81
458.352	2820.9
458.725	2845.31
459.099	2875.59
459.472	2907.45
459.845	2909.49
460.218	2974.34
460.591	2982.7
460.964	3035.81
461.337	3066.77
461.71	3151.06
462.083	3177.05
462.456	3187.44
462.829	3182.92
463.201	3235.58
463.574	3285.52
463.947	3325.52
464.32	3382.47
464.692	3384.05
465.065	3452.97
465.438	3452.75
465.81	3482.8
466.183	3494.1
466.555	3631.05
466.928	3637.83
467.3	3636.25
467.672	3667.88
468.045	3780.2
468.417	3787.65
468.789	3807.09
469.161	3876.69
469.534	3911.49
469.906	3991.94
470.278	4036.69
470.65	4102.9
471.022	4144.71
471.394	4184.93
471.766	4244.82
472.138	4314.65
472.51	4400.29
472.882	4408.43
473.253	4462.21
473.625	4544.7
473.997	4694.3
474.369	4685.03
474.74	4710.57
475.112	4812.03
475.484	4873.28
475.855	4912.14
476.227	4942.2
476.598	5073.27
476.97	5154.17
477.341	5219.48
477.713	5278.91
478.084	5316.43
478.455	5496.76
478.827	5500.6
479.198	5640.94
479.569	5649.53
479.94	5828.96
480.311	5820.82
480.682	5948.95
481.053	6053.58
481.424	6164.09
481.795	6189.4
482.166	6353.01
482.537	6371.32
482.908	6501.48
483.279	6512.55
483.65	6675.71
484.021	6744.64
484.391	6834.58
484.762	6906.22
485.133	6900.79
485.503	6992.09
485.874	7141.46
486.244	7229.15
486.615	7291.29
486.985	7388.92
487.356	7454.22
487.726	7581.23
488.097	7651.06
488.467	7724.05
488.837	7857.6
489.207	7913.87
489.578	8011.27
489.948	8083.81
490.318	8196.13
490.688	8231.38
491.058	8378.27
491.428	8383.92
491.798	8502.56
492.168	8584.59
492.538	8591.14
492.908	8731.03
493.278	8792.72
493.648	8779.61
494.017	8933.73
494.387	8990.68
494.757	8966.5
495.126	9115.42
495.496	9107.06
495.866	9154.29
496.235	9207.4
496.605	9263.44
496.974	9346.83
497.344	9415.98
497.713	9453.04
498.082	9454.85
498.452	9497.34
498.821	9562.64
499.19	9565.58
499.559	9614.85
499.928	9719.48
500.298	9691.68
500.667	9807.38
501.036	9743.2
501.405	9763.99
501.774	9837.44
502.143	9862.07
502.512	9978.9
502.88	9983.65
503.249	9927.38
503.618	10082.18
503.987	10028.85
504.356	10083.53
504.724	10100.93
505.093	10132.57
505.462	10140.48
505.83	10126.02
506.199	10283.53
506.567	10317.43
506.936	10248.5
507.304	10271.78
507.672	10361.72
508.041	10315.62
508.409	10322.4
508.777	10473.35
509.145	10507.48
509.514	10420.93
509.882	10523.75
510.25	10468.83
510.618	10584.76
510.986	10526.46
511.354	10628.15
511.722	10657.08
512.09	10688.94
512.458	10686
512.826	10667.02
513.193	10713.57
513.561	10764.87
513.929	10828.37
514.297	10829.05
514.664	10837.41
515.032	10807.36
515.4	10861.14
515.767	10873.8
516.135	10949.5
516.502	10763.97
516.869	10920.35
517.237	10842.84
517.604	10804.19
517.972	10940.91
518.339	10890.29
518.706	10932.78
519.073	10889.61
519.44	10930.97
519.808	10968.71
520.175	10931.87
520.542	10994.02
520.909	11011.65
521.276	10990.18
521.643	10944.98
522.009	11001.25
522.376	11018.2
522.743	11021.36
523.11	11068.37
523.477	11200.12
523.843	11112.66
524.21	11095.49
524.577	11184.3
524.943	11199.66
525.31	11142.26
525.676	11241.7
526.043	11214.8
526.409	11267.91
526.776	11208.02
527.142	11211.19
527.508	11205.99
527.874	11213
528.241	11177.74
528.607	11243.73
528.973	11201.92
529.339	11164.41
529.705	11133.9
530.071	11222.26
530.437	11220.91
530.803	11184.75
531.169	11165.54
531.535	11010.97
531.901	11069.95
532.267	11036.5
532.632	11078.08
532.998	10997.86
533.364	11062.04
533.73	10957.86
534.095	10973
534.461	10997.18
534.826	10982.95
535.192	10998.09
535.557	10947.01
535.923	10834.93
536.288	10918.09
536.653	10833.8
537.019	10737.08
537.384	10738.88
537.749	10649.62
538.114	10619.34
538.479	10566.91
538.845	10579.34
539.21	10502.51
539.575	10497.08
539.94	10461.6
540.305	10461.38
540.67	10402.62
541.034	10255.73
541.399	10247.15
541.764	10332.34
542.129	10242.85
542.494	10205.56
542.858	10172.57
543.223	10127.37
543.587	10083.76
543.952	10001.73
544.316	10003.76
544.681	9908.17
545.045	9888.74
545.41	9958.34
545.774	9886.03
546.138	9848.51
546.503	9774.84
546.867	9668.18
547.231	9694.39
547.595	9666.37
547.959	9653.26
548.324	9554.96
548.688	9528.75
549.052	9597.22
549.416	9523.78
549.779	9441.29
550.143	9418.69
550.507	9347.51
550.871	9331.92
551.235	9270.9
551.599	9292.59
551.962	9227.74
552.326	9205.82
552.689	9115.88
553.053	9113.39
553.417	9039.49
553.78	9174.86
554.143	9017.57
554.507	9022.55
554.87	8980.51
555.234	8975.54
555.597	8858.93
555.96	8886.05
556.323	8856.45
556.686	8875.43
557.05	8761.31
557.413	8790.23
557.776	8806.28
558.139	8810.12
558.502	8765.38
558.865	8714.76
559.228	8792.04
559.59	8726.73
559.953	8700.52
560.316	8750.91
560.679	8639.28
561.041	8702.55
561.404	8674.98
561.767	8619.17
562.129	8648.32
562.492	8617.36
562.854	8640.63
563.217	8545.27
563.579	8607.64
563.941	8612.16
564.304	8538.72
564.666	8582.1
565.028	8549.79
565.39	8555.44
565.753	8599.51
566.115	8569.22
566.477	8611.26
566.839	8542.78
567.201	8524.93
567.563	8526.06
567.925	8621.43
568.287	8584.59
568.648	8581.2
569.01	8629.11
569.372	8615.78
569.734	8599.73
570.095	8623.91
570.457	8608.77
570.819	8575.78
571.18	8587.75
571.542	8577.13
571.903	8605.83
572.265	8573.52
572.626	8601.99
572.987	8607.19
573.349	8578.72
573.71	8598.38
574.071	8611.26
574.432	8639.5
574.794	8619.62
575.155	8609
575.516	8643.57
575.877	8594.53
576.238	8609
576.599	8603.12
576.96	8642.89
577.32	8609.45
577.681	8588.21
578.042	8649.9
578.403	8611.48
578.763	8570.13
579.124	8580.97
579.485	8688.54
579.845	8642.67
580.206	8616.45
580.566	8703.01
580.927	8632.95
581.287	8671.59
581.648	8608.09
582.008	8585.49
582.368	8681.09
582.728	8704.36
583.089	8601.31
583.449	8583.69
583.809	8627.3
584.169	8663.68
584.529	8607.87
584.889	8634.31
585.249	8539.85
585.609	8564.7
585.969	8584.82
586.329	8541.88
586.688	8584.59
587.048	8507.98
587.408	8496.68
587.768	8501.65
588.127	8494.88
588.487	8495.55
588.846	8521.99
589.206	8459.85
589.565	8485.16
589.925	8511.37
590.284	8548.43
590.643	8539.39
591.003	8540.75
591.362	8532.39
591.721	8484.03
592.08	8519.51
592.44	8448.32
592.799	8491.71
593.158	8453.97
593.517	8459.62
593.876	8547.76
594.235	8396.8
594.593	8454.42
594.952	8506.4
595.311	8462.11
595.67	8468.21
596.029	8416.01
596.387	8405.39
596.746	8466.18
597.104	8424.37
597.463	8376.23
597.822	8420.3
598.18	8458.04
598.538	8362.22
598.897	8433.63
599.255	8324.48
599.613	8477.7
599.972	8399.74
600.33	8426.4
600.688	8354.99
601.046	8423.69
601.404	8440.87
601.762	8428.66
602.12	8414.43
602.478	8423.01
602.836	8432.96
603.194	8333.98
603.552	8405.39
603.91	8402.9
604.268	8401.32
604.625	8372.84
604.983	8386.4
605.341	8407.65
605.698	8445.61
606.056	8463.24
606.413	8407.42
606.771	8337.59
607.128	8432.05
607.485	8346.63
607.843	8343.24
608.2	8432.05
608.557	8389.12
608.914	8437.7
609.272	8408.32
609.629	8431.83
609.986	8545.04
610.343	8405.84
610.7	8506.17
611.057	8363.13
611.414	8440.87
611.771	8429.34
612.127	8489.23
612.484	8453.97
612.841	8482.22
613.198	8416.91
613.554	8446.29
613.911	8532.16
614.267	8470.47
614.624	8478.38
614.98	8520.41
615.337	8524.25
615.693	8424.37
616.05	8491.03
616.406	8574.65
616.762	8481.99
617.118	8510.69
617.475	8563.12
617.831	8545.95
618.187	8538.72
618.543	8543.24
618.899	8517.93
619.255	8537.36
619.611	8554.31
619.967	8572.84
620.323	8585.04
620.678	8492.84
621.034	8519.51
621.39	8545.72
621.746	8524.71
622.101	8558.15
622.457	8477.93
622.812	8561.99
623.168	8562.9
623.523	8564.03
623.879	8610.8
624.234	8483.58
624.589	8573.52
624.945	8558.15
625.3	8543.69
625.655	8511.15
626.01	8566.51
626.365	8519.96
626.72	8552.05
627.075	8491.49
627.43	8510.24
627.785	8503.01
628.14	8481.32
628.495	8514.99
628.85	8492.84
629.205	8486.06
629.559	8548.21
629.914	8463.69
630.269	8475.22
630.623	8405.39
630.978	8512.5
631.332	8479.96
631.687	8463.46
632.041	8442.45
632.396	8453.52
632.75	8359.74
633.104	8430.02
633.459	8339.63
633.813	8388.66
634.167	8341.21
634.521	8374.65
634.875	8335.56
635.229	8363.81
635.583	8378.27
635.937	8308.67
636.291	8293.3
636.645	8300.53
636.999	8222.34
637.352	8315.9
637.706	8274.32
638.06	8307.99
638.413	8198.61
638.767	8201.78
639.121	8206.97
639.474	8202.91
639.828	8183.25
640.181	8192.51
640.534	8204.26
640.888	8216.92
641.241	8133.98
641.594	8099.18
641.947	8179.86
642.301	8169.01
642.654	8152.74
643.007	8164.71
643.36	8202.23
643.713	8121.1
644.066	8164.71
644.419	8133.98
644.771	8075.23
645.124	8046.3
645.477	8015.57
645.83	7922.69
646.182	7928.56
646.535	7890.6
646.888	7925.85
647.24	7809.24
647.593	7849.24
647.945	7922.91
648.298	7847.89
648.65	7836.36
649.002	7853.99
649.355	7891.95
649.707	7896.7
650.059	7926.3
650.411	7994.1
650.763	7947.09
651.115	8036.13
651.467	8075.68
651.819	8030.48
652.171	7994.78
652.523	8033.87
652.875	8075.68
653.227	8016.02
653.578	7997.26
653.93	8055.57
654.282	8029.8
654.633	7976.25
654.985	8066.64
655.337	8077.71
655.688	8051.5
656.039	8050.59
656.391	8034.32
656.742	8002.23
657.094	8038.84
657.445	8032.06
657.796	8078.39
658.147	8035.45
658.498	7990.48
658.849	8072.06
659.2	8016.7
659.551	8056.47
659.902	8114.32
660.253	8149.57
660.604	8111.38
660.955	7985.74
661.306	8121.78
661.656	8065.96
662.007	8121.1
662.358	8108.9
662.708	8093.53
663.059	8104.6
663.409	8078.62
663.76	8145.05
664.11	8094.66
664.461	8148.9
664.811	8095.11
665.161	8096.02
665.511	8064.6
665.862	8088.56
666.212	8100.08
666.562	8167.43
666.912	8093.08
667.262	8157.03
667.612	8140.53
667.962	8192.28
668.312	8054.21
668.662	8134.66
669.011	8157.71
669.361	8066.86
669.711	8135.11
670.06	8150.48
670.41	8083.36
670.76	8128.78
671.109	8114.09
671.459	8063.02
671.808	8022.35
672.157	8081.78
672.507	8053.31
672.856	8028.22
673.205	8077.26
673.554	8126.98
673.904	8011.5
674.253	8070.03
674.602	8053.08
674.951	8003.36
675.3	7922.24
675.649	8028.9
675.998	8050.14
676.346	8013.31
676.695	8025.74
677.044	7966.3
677.393	7997.49
677.741	8031.84
678.09	7948.9
678.438	7911.61
678.787	7918.17
679.135	7950.03
679.484	7876.59
679.832	7936.25
680.181	7882.91
680.529	7878.62
680.877	7845.63
681.225	7830.71
681.573	7898.06
681.922	7776.02
682.27	7807.89
682.618	7751.17
682.966	7745.74
683.314	7800.2
683.661	7769.92
684.009	7756.82
684.357	7654.9
684.705	7664.16
685.053	7697.83
685.4	7710.26
685.748	7616.25
686.095	7642.69
686.443	7592.75
686.79	7600.89
687.138	7623.03
687.485	7538.29
687.832	7491.51
688.18	7528.12
688.527	7467.56
688.874	7558.4
689.221	7494.9
689.568	7430.27
689.915	7371.29
690.262	7418.52
690.609	7415.36
690.956	7347.11
691.303	7327
691.65	7289.94
691.997	7242.93
692.344	7199.32
692.69	7247
693.037	7246.55
693.383	7185.76
693.73	7160
694.077	7207
694.423	7140.11
694.769	7076.61
695.116	7101.01
695.462	7017.63
695.808	7018.53
696.155	7030.51
696.501	6997.29
696.847	6930.17
697.193	6926.1
697.539	6943.05
697.885	6837.74
698.231	6818.31
698.577	6809.95
698.923	6830.29
699.269	6757.52
699.614	6695.15
699.96	6690.63
700.306	6727.01
700.651	6663.74
700.997	6650.63
701.342	6647.69
701.688	6591.65
702.033	6606.79
702.379	6517.53
702.724	6551.88
703.069	6516.4
703.415	6507.13
703.76	6471.65
704.105	6461.71
704.45	6430.75
704.795	6400.24
705.14	6379.45
705.485	6346.23
705.83	6309.17
706.175	6317.31
706.52	6279.79
706.865	6264.88
707.209	6266.91
707.554	6231.21
707.899	6251.32
708.243	6247.7
708.588	6187.14
708.932	6104.43
709.277	6181.72
709.621	6169.74
709.966	6082.06
710.31	6116.86
710.654	6075.73
710.998	6033.7
711.342	6056.52
711.687	6014.71
712.031	6026.92
712.375	5951.89
712.719	5989.4
713.063	5977.65
713.407	6003.19
713.75	5949.41
714.094	5980.37
714.438	5907.6
714.782	5953.93
715.125	5901.05
715.469	5928.39
715.812	5909.18
716.156	5849.52
716.499	5860.59
716.843	5883.64
717.186	5795.29
717.53	5859.01
717.873	5849.52
718.216	5794.61
718.559	5776.98
718.902	5796.19
719.246	5823.99
719.589	5761.61
719.932	5795.74
720.275	5765.23
720.617	5741.28
720.96	5726.13
721.303	5740.15
721.646	5730.88
721.989	5759.13
722.331	5786.02
722.674	5736.53
723.016	5742.63
723.359	5715.51
723.701	5682.07
724.044	5708.28
724.386	5676.42
724.729	5715.06
725.071	5701.28
725.413	5694.05
725.755	5712.12
726.097	5706.25
726.439	5587.16
726.782	5634.61
727.124	5686.14
727.465	5649.07
727.807	5690.66
728.149	5640.94
728.491	5634.61
728.833	5639.81
729.175	5650.88
729.516	5658.57
729.858	5658.34
730.199	5660.15
730.541	5631.22
730.882	5632.8
731.224	5681.39
731.565	5669.41
731.906	5586.03
732.248	5668.06
732.589	5658.79
732.93	5628.74
733.271	5612.24
733.612	5634.61
733.953	5605.01
734.294	5634.84
734.635	5637.55
734.976	5680.71
735.317	5615.18
735.658	5615.18
735.999	5706.02
736.339	5694.95
736.68	5726.81
737.021	5653.14
737.361	5672.58
737.702	5722.07
738.042	5656.53
738.383	5686.81
738.723	5750.77
739.063	5683.65
739.404	5718.45
739.744	5739.69
740.084	5781.27
740.424	5773.59
740.764	5746.47
741.104	5807.04
741.444	5800.71
741.784	5772.01
742.124	5855.85
742.464	5814.27
742.804	5854.94
743.143	5845.91
743.483	5889.97
743.823	5916.86
744.162	5954.6
744.502	5929.29
744.841	5976.98
745.181	6047.48
745.52	6047.48
745.86	6014.49
746.199	6123.41
746.538	6147.14
746.877	6160.7
747.216	6201.6
747.556	6284.99
747.895	6299.9
748.234	6320.7
748.573	6391.2
748.911	6439.11
749.25	6520.69
749.589	6551.65
749.928	6566.11
750.267	6723.62
750.605	6741.02
750.944	6842.04
751.283	6887.91
751.621	7008.36
751.96	7025.31
752.298	7135.14
752.636	7218.98
752.975	7232.54
753.313	7370.61
753.651	7463.72
753.989	7585.97
754.327	7708.91
754.666	7753.88
755.004	7847.43
755.342	8041.78
755.679	8125.17
756.017	8274.54
756.355	8437.25
756.693	8581.65
757.031	8692.61
757.368	8858.03
757.706	8975.99
758.044	9150
758.381	9357.68
758.719	9422.76
759.056	9623.89
759.394	9738.68
759.731	9883.54
760.068	10061.61
760.405	10262.96
760.743	10363.07
761.08	10436.97
761.417	10736.85
761.754	10831.54
762.091	11041.48
762.428	11167.8
762.765	11368.02
763.102	11542.93
763.438	11709.48
763.775	11789.93
764.112	12013.65
764.449	12297.94
764.785	12333.19
765.122	12503.81
765.458	12636.46
765.795	12835.55
766.131	13036.68
766.467	13123.45
766.804	13271.93
