Data from hue_10_FLMS001491_80.txt Node
Date: Mon Feb 06 15:32:32 GMT 2017
User: dcchb
Spectrometer: FLMS00149
Trigger mode: 0
Integration Time (sec): 2.000000E-2
Scans to average: 10
Electric dark correction enabled: true
Nonlinearity correction enabled: false
Boxcar width: 0
XAxis mode: Wavelengths
Number of Pixels in Spectrum: 2048
>>>>>Begin Spectral Data<<<<<
341.393	-13.59
341.776	-13.59
342.16	-13.59
342.543	-51.33
342.927	-70.76
343.31	-61.04
343.693	-71.66
344.077	-76.64
344.46	-43.64
344.843	-55.17
345.226	-41.61
345.61	-33.93
345.993	-28.28
346.376	10.82
346.759	-5
347.142	28.22
347.525	47.88
347.908	51.27
348.291	71.16
348.674	85.85
349.057	121.78
349.44	143.24
349.823	139.18
350.206	150.25
350.588	203.13
350.971	201.1
351.354	239.97
351.737	223.02
352.119	257.37
352.502	261.89
352.884	286.07
353.267	273.86
353.65	286.07
354.032	300.08
354.414	333.97
354.797	319.29
355.179	326.06
355.562	337.36
355.944	336.46
356.326	329.45
356.709	340.98
357.091	337.36
357.473	330.13
357.855	352.5
358.238	345.05
358.62	343.24
359.002	357.02
359.384	344.6
359.766	352.05
360.148	337.82
360.53	360.19
360.912	362.9
361.294	352.05
361.676	326.74
362.057	334.88
362.439	335.1
362.821	336.46
363.203	323.13
363.584	323.13
363.966	329
364.348	321.09
364.729	328.55
365.111	322.9
365.493	298.49
365.874	321.77
366.256	316.8
366.637	309.34
367.019	312.05
367.4	308.89
367.781	309.34
368.163	305.5
368.544	320.42
368.925	317.25
369.306	320.19
369.688	302.34
370.069	333.3
370.45	305.27
370.831	310.02
371.212	314.99
371.593	311.6
371.974	310.02
372.355	316.8
372.736	333.07
373.117	303.92
373.498	308.66
373.879	311.6
374.26	310.7
374.641	333.07
375.021	302.56
375.402	300.98
375.783	300.98
376.163	344.6
376.544	304.14
376.925	313.18
377.305	329.91
377.686	330.81
378.066	325.61
378.447	317.25
378.827	305.27
379.208	338.27
379.588	329.91
379.968	316.57
380.349	320.19
380.729	340.08
381.109	329.45
381.489	333.52
381.87	335.56
382.25	338.95
382.63	354.99
383.01	342.79
383.39	342.34
383.77	353.86
384.15	329.68
384.53	344.14
384.91	331.04
385.29	340.98
385.67	333.52
386.049	338.27
386.429	332.62
386.809	329.68
387.189	353.41
387.568	322.9
387.948	352.73
388.328	346.4
388.707	352.73
389.087	339.4
389.466	345.73
389.846	344.82
390.225	340.53
390.605	355.44
390.984	333.07
391.363	360.41
391.743	363.8
392.122	359.74
392.501	347.31
392.881	352.28
393.26	347.53
393.639	359.51
394.018	364.26
394.397	357.25
394.776	362.45
395.155	376.46
395.534	367.42
395.913	359.74
396.292	385.27
396.671	353.41
397.05	380.3
397.429	367.42
397.808	390.47
398.186	377.36
398.565	356.12
398.944	371.49
399.323	380.75
399.701	383.92
400.08	353.41
400.458	344.6
400.837	394.76
401.215	384.14
401.594	379.85
401.972	370.81
402.351	396.35
402.729	377.81
403.107	355.22
403.486	385.72
403.864	383.24
404.242	396.12
404.62	388.66
404.999	375.33
405.377	386.4
405.755	408.55
406.133	386.63
406.511	393.63
406.889	385.27
407.267	390.24
407.645	396.35
408.023	410.81
408.401	398.38
408.779	392.5
409.156	429.56
409.534	423.24
409.912	432.28
410.29	418.27
410.667	431.37
411.045	396.8
411.422	422.11
411.8	412.62
412.178	428.66
412.555	408.55
412.933	402.67
413.31	425.27
413.687	421.66
414.065	438.6
414.442	417.81
414.819	438.6
415.197	424.82
415.574	441.77
415.951	435.44
416.328	434.31
416.705	453.52
417.082	446.06
417.46	443.8
417.837	449.9
418.214	447.19
418.591	463.91
418.967	447.19
419.344	455.1
419.721	471.37
420.098	453.29
420.475	468.66
420.852	470.69
421.228	464.37
421.605	466.85
421.982	471.15
422.358	458.26
422.735	468.66
423.111	486.74
423.488	478.6
423.864	484.25
424.241	486.06
424.617	456.23
424.994	474.31
425.37	491.71
425.746	514.99
426.123	495.1
426.499	495.33
426.875	492.61
427.251	516.79
427.627	525.61
428.003	517.92
428.379	518.38
428.756	508.66
429.132	495.78
429.507	497.13
429.883	547.98
430.259	524.03
430.635	530.13
431.011	524.03
431.387	524.7
431.763	557.92
432.138	550.47
432.514	564.02
432.89	552.27
433.265	580.97
433.641	575.78
434.016	556.57
434.392	582.78
434.767	567.41
435.143	559.05
435.518	555.21
435.894	593.63
436.269	584.14
436.644	602.89
437.02	584.36
437.395	592.27
437.77	590.92
438.145	600.41
438.52	599.73
438.895	604.02
439.271	594.53
439.646	610.13
440.021	623.68
440.395	619.16
440.77	618.94
441.145	625.94
441.52	634.98
441.895	635.66
442.27	617.81
442.645	637.47
443.019	640.41
443.394	620.52
443.769	650.58
444.143	644.25
444.518	666.17
444.892	651.71
445.267	652.16
445.641	664.59
446.016	643.12
446.39	653.51
446.764	677.92
447.139	670.01
447.513	686.28
447.887	676.34
448.262	674.76
448.636	667.07
449.01	687.86
449.384	687.64
449.758	692.61
450.132	703
450.506	677.69
450.88	693.74
451.254	710.01
451.628	697.58
452.002	705.72
452.376	710.91
452.75	718.82
453.123	725.38
453.497	730.35
453.871	716.34
454.244	742.78
454.618	745.94
454.992	738.48
455.365	756.56
455.739	757.47
456.112	751.59
456.486	752.04
456.859	766.05
457.232	805.83
457.606	775.09
457.979	771.48
458.352	794.98
458.725	809.22
459.099	817.58
459.472	833.85
459.845	823.68
460.218	837.46
460.591	844.02
460.964	847.18
461.337	842.89
461.71	865.71
462.083	875.43
462.456	858.25
462.829	864.58
463.201	881.98
463.574	900.74
463.947	900.29
464.32	919.04
464.692	938.48
465.065	935.31
465.438	933.51
465.81	939.83
466.183	972.38
466.555	991.81
466.928	964.01
467.3	978.25
467.672	982.32
468.045	1005.82
468.417	1045.59
468.789	998.36
469.161	1070
469.534	1033.39
469.906	1047.85
470.278	1078.81
470.65	1086.27
471.022	1142.54
471.394	1129.89
471.766	1137.79
472.138	1134.63
472.51	1173.05
472.882	1201.75
473.253	1201.3
473.625	1220.96
473.997	1192.93
474.369	1231.8
474.74	1296.89
475.112	1274.06
475.484	1332.59
475.855	1359.71
476.227	1356.32
476.598	1366.94
476.97	1407.39
477.341	1429.31
477.713	1469.09
478.084	1471.12
478.455	1475.64
478.827	1516.09
479.198	1581.4
479.569	1590.66
479.94	1632.25
480.311	1630.66
480.682	1639.25
481.053	1706.59
481.424	1757.21
481.795	1755.63
482.166	1787.04
482.537	1838.57
482.908	1875.4
483.279	1884.22
483.65	1930.99
484.021	1979.35
484.391	2013.25
484.762	2054.38
485.133	2105.68
485.503	2098.45
485.874	2158.33
486.244	2199.91
486.615	2239.46
486.985	2249.63
487.356	2315.62
487.726	2352.45
488.097	2384.32
488.467	2402.39
488.837	2458.21
489.207	2529.62
489.578	2521.71
489.948	2599.68
490.318	2582.28
490.688	2632.9
491.058	2696.62
491.428	2716.51
491.798	2757.87
492.168	2782.5
492.538	2803.97
492.908	2863.4
493.278	2932.32
493.648	2950.4
494.017	3008.93
494.387	2982.49
494.757	3033.79
495.126	3078.53
495.496	3075.82
495.866	3108.36
496.235	3143.17
496.605	3170.74
496.974	3176.61
497.344	3250.96
497.713	3295.93
498.082	3318.53
498.452	3339.54
498.821	3364.63
499.19	3358.53
499.559	3421.12
499.928	3423.61
500.298	3415.25
500.667	3459.77
501.036	3435.81
501.405	3506.77
501.774	3526.43
502.143	3562.14
502.512	3606.43
502.88	3587.67
503.249	3617.28
503.618	3589.03
503.987	3676.03
504.356	3652.08
504.724	3671.97
505.093	3695.02
505.462	3700.21
505.83	3761.45
506.199	3790.83
506.567	3817.95
506.936	3833.32
507.304	3827.67
507.672	3859.31
508.041	3876.48
508.409	3857.5
508.777	3867.44
509.145	3923.71
509.514	3929.36
509.882	3985.4
510.25	3935.24
510.618	4000.32
510.986	3974.1
511.354	4024.95
511.722	4034.22
512.09	4026.08
512.458	4038.96
512.826	4075.8
513.193	4104.95
513.561	4119.19
513.929	4136.59
514.297	4133.42
514.664	4135.91
515.032	4130.71
515.4	4200.99
515.767	4177.49
516.135	4213.65
516.502	4179.52
516.869	4242.35
517.237	4226.3
517.604	4216.58
517.972	4284.38
518.339	4230.37
518.706	4265.85
519.073	4291.16
519.44	4296.36
519.808	4335
520.175	4315.11
520.542	4306.98
520.909	4343.13
521.276	4359.18
521.643	4351.04
522.009	4393.98
522.376	4389.69
522.743	4406.41
523.11	4450.7
523.477	4478.95
523.843	4463.36
524.21	4500.64
524.577	4527.76
524.943	4532.28
525.31	4508.1
525.676	4571.38
526.043	4597.14
526.409	4614.31
526.776	4666.74
527.142	4657.7
527.508	4707.42
527.874	4702.9
528.241	4770.24
528.607	4724.37
528.973	4752.16
529.339	4781.31
529.705	4817.47
530.071	4858.6
530.437	4863.12
530.803	4899.73
531.169	4885.72
531.535	4926.4
531.901	4905.83
532.267	4892.5
532.632	4978.15
532.998	4987.41
533.364	4997.35
533.73	5034.42
534.095	5063.79
534.461	5088.88
534.826	5081.19
535.192	5124.13
535.557	5150.8
535.923	5172.04
536.288	5140.85
536.653	5172.27
537.019	5177.91
537.384	5193.06
537.749	5206.39
538.114	5261.3
538.479	5251.59
538.845	5271.92
539.21	5280.96
539.575	5310.79
539.94	5327.29
540.305	5370.45
540.67	5398.7
541.034	5369.32
541.399	5398.47
541.764	5438.92
542.129	5465.36
542.494	5515.31
542.858	5508.98
543.223	5519.83
543.587	5577.45
543.952	5574.29
544.316	5591.46
544.681	5646.38
545.045	5722.53
545.41	5670.78
545.774	5665.81
546.138	5727.28
546.503	5702.42
546.867	5740.16
547.231	5748.97
547.595	5797.11
547.959	5842.98
548.324	5831.46
548.688	5863.77
549.052	5831.46
549.416	5863.55
549.779	5936.31
550.143	5918.46
550.507	5929.31
550.871	5992.81
551.235	5964.56
551.599	6032.36
551.962	5971.79
552.326	6030.1
552.689	6095.18
553.053	6078.23
553.417	6103.77
553.78	6147.83
554.143	6152.13
554.507	6128.85
554.87	6204.1
555.234	6216.08
555.597	6189.19
555.96	6244.33
556.323	6216.76
556.686	6261.5
557.05	6263.31
557.413	6307.83
557.776	6316.64
558.139	6282.74
558.502	6326.13
558.865	6346.25
559.228	6391.89
559.59	6448.39
559.953	6437.77
560.316	6500.82
560.679	6445.23
561.041	6518.67
561.404	6460.14
561.767	6534.94
562.129	6524.09
562.492	6542.17
562.854	6566.13
563.217	6608.61
563.579	6627.59
563.941	6667.59
564.304	6682.73
564.666	6702.85
565.028	6721.38
565.39	6737.87
565.753	6739
566.115	6812.22
566.477	6867.14
566.839	6784.43
567.201	6826.91
567.563	6860.36
567.925	6905.55
568.287	6908.94
568.648	6894.03
569.01	6919.34
569.372	6969.96
569.734	7023.97
570.095	7022.39
570.457	7089.05
570.819	7131.76
571.18	7076.62
571.542	7201.36
571.903	7206.11
572.265	7219.89
572.626	7317.29
572.987	7328.37
573.349	7370.85
573.71	7463.05
574.071	7447.69
574.432	7518.64
574.794	7602.03
575.155	7622.82
575.516	7597.74
575.877	7775.36
576.238	7832.53
576.599	7880.89
576.96	7965.41
577.32	7965.64
577.681	8153.88
578.042	8211.51
578.403	8333.76
578.763	8469.81
579.124	8472.29
579.485	8573.31
579.845	8771.27
580.206	8825.28
580.566	8952.5
580.927	9099.39
581.287	9250.58
581.648	9418.03
582.008	9615.76
582.368	9743.67
582.728	9889.43
583.089	10038.13
583.449	10236.31
583.809	10380.26
584.169	10581.16
584.529	10776.64
584.889	11069.96
585.249	11276.06
585.609	11460.69
585.969	11737.06
586.329	11967.11
586.688	12245.3
587.048	12457.72
587.408	12650.26
587.768	12925.06
588.127	13259.51
588.487	13417.25
588.846	13822.66
589.206	14000.28
589.565	14345.58
589.925	14814.95
590.284	15012.23
590.643	15304.65
591.003	15723.85
591.362	16060.79
591.721	16382.59
592.08	16712.75
592.44	17012.86
592.799	17455.56
593.158	17739.17
593.517	18175.77
593.876	18512.71
594.235	18808.74
594.593	19130.54
594.952	19543.41
595.311	19861.6
595.67	20261.36
596.029	20853.89
596.387	21130.04
596.746	21504.27
597.104	21751.04
597.463	22114.42
597.822	22521.87
598.18	22875.98
598.538	23190.1
598.897	23736.52
599.255	23902.39
599.613	24641.81
599.972	24785.08
600.33	25133.32
600.688	25530.37
601.046	25988.21
601.404	26413.06
601.762	26680.63
602.12	27157.22
602.478	27469.53
602.836	27753.37
603.194	28032.23
603.552	28331.66
603.91	28621.14
604.268	29206.89
604.625	29412.76
604.983	29797.38
605.341	29949.24
605.698	30354.43
606.056	30843.68
606.413	31061.53
606.771	31490.67
607.128	31765.69
607.485	31904.44
607.843	32289.07
608.2	32897.19
608.557	33144.64
608.914	33207.91
609.272	33671.4
609.629	33958.17
609.986	34277.94
610.343	34527.43
610.7	35001.09
611.057	35103
611.414	35338.7
611.771	35565.82
612.127	35944.11
612.484	36087.84
612.841	36453.25
613.198	36651.66
613.554	36774.6
613.911	37191.99
614.267	37446.44
614.624	37553.11
614.98	37829.71
615.337	38154.67
615.693	38304.5
616.05	38446.42
616.406	38782.45
616.762	38863.36
617.118	38908.1
617.475	39243.01
617.831	39471.02
618.187	39691.36
618.543	39868.3
618.899	40115.98
619.255	40373.83
619.611	40337.89
619.967	40706.02
620.323	40911.89
620.678	40816.07
621.034	40886.13
621.39	41110.3
621.746	41212.45
622.101	41714.13
622.457	41313.69
622.812	41764.52
623.168	41896.05
623.523	42015.59
623.879	42103.27
624.234	42084.51
624.589	42165.19
624.945	42417.84
625.3	42435.69
625.655	42695.8
626.01	42669.36
626.365	42831.84
626.72	42880.43
627.075	42927.88
627.43	43030.03
627.785	42973.31
628.14	43191.6
628.495	43293.07
628.85	43343.01
629.205	43183.24
629.559	43678.6
629.914	43663.23
630.269	43599.05
630.623	43493.97
630.978	43545.49
631.332	43749.1
631.687	43799.05
632.041	43712.49
632.396	43836.79
632.75	43723.34
633.104	43891.02
633.459	43689.44
633.813	43868.2
634.167	43843.34
634.521	43899.38
634.875	43917.24
635.229	43880.85
635.583	43776
635.937	43784.13
636.291	43835.43
636.645	44084.91
636.999	43888.54
637.352	44091.69
637.706	43829.33
638.06	43900.06
638.413	43998.36
638.767	43804.92
639.121	44037.46
639.474	43795.2
639.828	43887.63
640.181	43884.69
640.534	43973.5
640.888	43840.4
641.241	43643.8
641.594	43768.76
641.947	43969.44
642.301	43867.74
642.654	43773.28
643.007	43892.38
643.36	43965.6
643.713	43844.69
644.066	43920.17
644.419	43749.78
644.771	43594.53
645.124	43149.8
645.477	43041.1
645.83	42868
646.182	42684.5
646.535	42638.62
646.888	42689.7
647.24	42568.8
647.593	42767.43
647.945	42800.88
648.298	42527.22
648.65	42508.23
649.002	42427.1
649.355	42516.59
649.707	42463.49
650.059	42701.22
650.411	43105.96
650.763	43130.59
651.115	43745.26
651.467	43494.2
651.819	43514.76
652.171	43445.61
652.523	43422.56
652.875	43447.87
653.227	43225.28
653.578	43592.95
653.93	43333.97
654.282	43257.14
654.633	43184.82
654.985	43253.3
655.337	43225.28
655.688	43262.79
656.039	43398.83
656.391	43003.13
656.742	43116.35
657.094	43171.27
657.445	43355.89
657.796	43392.73
658.147	43009.24
658.498	43101.89
658.849	43178.72
659.2	43090.59
659.551	42988.45
659.902	43227.08
660.253	43042.46
660.604	43084.71
660.955	42965.62
661.306	43027.77
661.656	43018.73
662.007	43132.85
662.358	42981.21
662.708	42952.06
663.059	43000.42
663.409	42693.54
663.76	42999.75
664.11	43001.33
664.461	43063.02
664.811	42916.36
665.161	42973.76
665.511	42804.72
665.862	42946.19
666.212	43067.99
666.562	42982.34
666.912	42912.97
667.262	42873.65
667.612	42764.27
667.962	42901.89
668.312	42882.23
668.662	42985.96
669.011	42955.68
669.361	42795.91
669.711	42748.9
670.06	42654.44
670.41	42808.34
670.76	42682.01
671.109	42843.14
671.459	42647.44
671.808	42678.4
672.157	42815.12
672.507	42571.06
672.856	42531.06
673.205	42755.01
673.554	42715.46
673.904	42572.41
674.253	42879.07
674.602	42633.88
674.951	42084.06
675.3	41951.41
675.649	42622.13
675.998	42536.93
676.346	42533.09
676.695	42638.62
677.044	42328.12
677.393	42290.39
677.741	42562.92
678.09	42472.98
678.438	42307.79
678.787	42433.66
679.135	42401.34
679.484	41985.08
679.832	42252.19
680.181	42003.16
680.529	42178.98
680.877	41882.03
681.225	41985.31
681.573	42239.31
681.922	41889.49
682.27	41727.24
682.618	41802.71
682.966	41667.12
683.314	41782.6
683.661	41633.91
684.009	41454.93
684.357	41391.43
684.705	41396.62
685.053	41458.99
685.4	41390.52
685.748	41230.07
686.095	41190.3
686.443	40876.86
686.79	40928.16
687.138	41073.92
687.485	41060.59
687.832	40776.07
688.18	40892.68
688.527	40752.12
688.874	40788.05
689.221	40606.36
689.568	40449.98
689.915	40360.72
690.262	40350.78
690.609	40274.84
690.956	40232.59
691.303	40139.48
691.65	39890.45
691.997	39979.94
692.344	39743.33
692.69	39777.23
693.037	39722.09
693.383	39488.65
693.73	39556.9
694.077	39338.6
694.423	39368.2
694.769	39244.14
695.116	39163.24
695.462	39089.57
695.808	39009.34
696.155	39136.12
696.501	38706.3
696.847	38755.11
697.193	38511.5
697.539	38702.68
697.885	38266.54
698.231	38296.82
698.577	38323.03
698.923	38128.23
699.269	37997.62
699.614	37883.5
699.96	37813.67
700.306	37838.98
700.651	37574.58
700.997	37575.48
701.342	37482.38
701.688	37409.16
702.033	37183.63
702.379	37370.97
702.724	37191.08
703.069	37256.85
703.415	36741.15
703.76	36840.81
704.105	36909.96
704.45	36752.9
704.795	36536.19
705.14	36434.04
705.485	36580.48
705.83	36296.19
706.175	36305.23
706.52	36306.59
706.865	36001.96
707.209	36105.24
707.554	35995.64
707.899	36015.52
708.243	35944.34
708.588	35894.85
708.932	35587.96
709.277	35661.63
709.621	35602.43
709.966	35284.47
710.31	35408.76
710.654	35173.96
710.998	35099.61
711.342	35210.12
711.687	35100.07
712.031	34927.64
712.375	34824.59
712.719	34845.38
713.063	34851.94
713.407	34913.18
713.75	34564.71
714.094	34684.03
714.438	34593.64
714.782	34518.84
715.125	34463.92
715.469	34367.2
715.812	34259.18
716.156	34042.69
716.499	34110.04
716.843	34186.19
717.186	33879.08
717.53	34081.79
717.873	34079.08
718.216	33936.03
718.559	33755.24
718.902	33583.72
719.246	33595.02
719.589	33560.22
719.932	33477.28
720.275	33418.75
720.617	33410.62
720.96	33434.35
721.303	33181.25
721.646	33374.01
721.989	33165.43
722.331	33235.26
722.674	33042.94
723.016	33176.73
723.359	33028.26
723.701	33066.45
724.044	32830.52
724.386	32670.75
724.729	32898.77
725.071	32749.39
725.413	32801.14
725.755	32711.2
726.097	32588.49
726.439	32427.82
726.782	32424.88
727.124	32475.5
727.465	32340.36
727.807	32289.97
728.149	32302.17
728.491	32261.04
728.833	32277.99
729.175	32127.26
729.516	32114.61
729.858	32106.7
730.199	32099.47
730.541	31956.87
730.882	31841.62
731.224	31980.37
731.565	31867.38
731.906	31751.23
732.248	31684.79
732.589	31589.65
732.93	31699.93
733.271	31497.67
733.612	31510.33
733.953	31565.92
734.294	31342.42
734.635	31270.79
734.976	31266.95
735.317	31185.14
735.658	31215.87
735.999	31253.84
736.339	31117.8
736.68	31202.99
737.021	31157.34
737.361	30974.3
737.702	31121.41
738.042	30976.11
738.383	30927.07
738.723	30934.3
739.063	30890.68
739.404	30797.13
739.744	30690.01
740.084	30695.66
740.424	30650.47
740.764	30717.13
741.104	30662.67
741.444	30490.47
741.784	30372.51
742.124	30478.94
742.464	30349.91
742.804	30380.42
743.143	30366.63
743.483	30319.4
743.823	30193.75
744.162	30211.15
744.502	30105.85
744.841	30025.4
745.181	30181.33
745.52	29922.12
745.86	29962.57
746.199	29964.16
746.538	29914.44
746.877	29880.77
747.216	29952.63
747.556	29892.52
747.895	29820.2
748.234	29641.9
748.573	29667.67
748.911	29706.99
749.25	29490.72
749.589	29524.62
749.928	29471.06
750.267	29435.58
750.605	29299.99
750.944	29257.06
751.283	29222.03
751.621	29291.18
751.96	28988.59
752.298	29151.75
752.636	29118.08
752.975	28918.99
753.313	28794.02
753.651	28839.44
753.989	28766
754.327	28714.92
754.666	28580.92
755.004	28561.03
755.342	28601.93
755.679	28490.52
756.017	28340.47
756.355	28458.43
756.693	28355.84
757.031	28351.77
757.368	28084.88
757.706	28187.03
758.044	28162.62
758.381	28213.47
758.719	27966.69
759.056	28042.62
759.394	27757.21
759.731	27746.13
760.068	27747.72
760.405	27657.78
760.743	27471.34
761.08	27643.54
761.417	27507.5
