Data from hue_36_FLMS001491_00089.txt Node
Date: Tue Feb 07 17:30:25 GMT 2017
User: dcchb
Spectrometer: FLMS00149
Trigger mode: 0
Integration Time (sec): 2.000000E-2
Scans to average: 10
Electric dark correction enabled: true
Nonlinearity correction enabled: false
Boxcar width: 0
XAxis mode: Wavelengths
Number of Pixels in Spectrum: 2048
>>>>>Begin Spectral Data<<<<<
341.393	-28.15
341.776	-28.15
342.16	-28.15
342.543	-65.89
342.927	-73.12
343.31	-54.81
343.693	-71.31
344.077	-76.74
344.46	-68.83
344.843	-79.67
345.226	-45.55
345.61	-19.79
345.993	-10.07
346.376	-20.01
346.759	13.43
347.142	40.1
347.525	44.17
347.908	64.05
348.291	79.64
348.674	91.17
349.057	114.22
349.44	109.93
349.823	148.12
350.206	146.99
350.588	194.9
350.971	213.88
351.354	228.57
351.737	217.95
352.119	247.1
352.502	262.46
352.884	269.24
353.267	279.87
353.65	307.66
354.032	299.3
354.414	304.05
354.797	308.34
355.179	331.39
355.562	338.85
355.944	319.86
356.326	335.68
356.709	355.8
357.091	334.78
357.473	340.65
357.855	346.08
358.238	342.46
358.62	351.73
359.002	333.88
359.384	343.14
359.766	343.59
360.148	353.76
360.53	331.39
360.912	331.62
361.294	330.03
361.676	318.28
362.057	325.29
362.439	321.45
362.821	329.13
363.203	335.01
363.584	331.62
363.966	324.84
364.348	324.16
364.729	322.35
365.111	323.71
365.493	333.88
365.874	327.55
366.256	320.99
366.637	326.19
367.019	334.1
367.4	330.71
367.781	309.24
368.163	329.36
368.544	285.06
368.925	313.99
369.306	310.6
369.688	325.97
370.069	337.94
370.45	337.94
370.831	330.26
371.212	321.22
371.593	318.73
371.974	299.75
372.355	310.6
372.736	320.32
373.117	289.81
373.498	294.78
373.879	295.68
374.26	302.92
374.641	318.96
375.021	310.37
375.402	337.72
375.783	302.01
376.163	325.06
376.544	318.28
376.925	325.74
377.305	331.84
377.686	325.97
378.066	323.25
378.447	341.11
378.827	332.29
379.208	330.03
379.588	317.15
379.968	326.87
380.349	337.27
380.729	336.81
381.109	318.28
381.489	330.71
381.87	333.42
382.25	345.85
382.63	317.15
383.01	333.65
383.39	343.59
383.77	333.88
384.15	346.76
384.53	325.06
384.91	345.63
385.29	359.41
385.67	340.65
386.049	342.46
386.429	364.84
386.809	350.37
387.189	365.51
387.568	347.43
387.948	368.68
388.328	354.21
388.707	356.02
389.087	344.95
389.466	365.96
389.846	358.51
390.225	367.55
390.605	336.14
390.984	363.71
391.363	353.99
391.743	361.9
392.122	360.99
392.501	369.13
392.881	355.12
393.26	357.38
393.639	351.95
394.018	377.04
394.397	371.39
394.776	371.39
395.155	372.07
395.534	360.54
395.913	377.94
396.292	367.55
396.671	373.2
397.05	381.78
397.429	367.55
397.808	381.78
398.186	390.15
398.565	373.65
398.944	408.45
399.323	393.31
399.701	387.21
400.08	385.4
400.458	393.53
400.837	389.24
401.215	395.79
401.594	370.03
401.972	386.76
402.351	405.06
402.729	373.2
403.107	415.68
403.486	382.24
403.864	411.61
404.242	386.53
404.62	403.93
404.999	395.79
405.377	406.42
405.755	395.34
406.133	415.68
406.511	417.26
406.889	415.46
407.267	403.93
407.645	428.79
408.023	421.1
408.401	430.14
408.779	430.37
409.156	405.96
409.534	420.65
409.912	422.46
410.29	424.95
410.667	439.41
411.045	451.84
411.422	448.22
411.8	461.56
412.178	469.47
412.555	459.3
412.933	470.82
413.31	438.73
413.687	464.04
414.065	455
414.442	446.87
414.819	459.52
415.197	473.76
415.574	464.95
415.951	485.96
416.328	472.85
416.705	449.58
417.082	444.38
417.46	490.03
417.837	492.06
418.214	494.55
418.591	494.78
418.967	462.91
419.344	502.01
419.721	500.42
420.098	484.38
420.475	480.76
420.852	501.78
421.228	500.42
421.605	500.65
421.982	508.11
422.358	509.69
422.735	515.57
423.111	511.95
423.488	518.96
423.864	526.86
424.241	528.9
424.617	524.6
424.994	543.14
425.37	530.03
425.746	537.71
426.123	533.64
426.499	525.96
426.875	542.01
427.251	538.39
427.627	562.8
428.003	551.95
428.379	572.74
428.756	556.69
429.132	573.87
429.507	553.76
429.883	590.14
430.259	581.1
430.635	577.26
431.011	559.86
431.387	584.94
431.763	612.51
432.138	605.05
432.514	602.12
432.89	598.95
433.265	621.33
433.641	592.17
434.016	615.45
434.392	631.72
434.767	633.53
435.143	636.47
435.518	639.18
435.894	648.22
436.269	659.29
436.644	635.79
437.02	652.74
437.395	654.09
437.77	674.21
438.145	680.53
438.52	661.1
438.895	682.34
439.271	689.57
439.646	683.92
440.021	714.88
440.395	704.04
440.77	688.67
441.145	695
441.52	721.21
441.895	702.68
442.27	733.19
442.645	717.59
443.019	693.41
443.394	713.75
443.769	744.94
444.143	717.37
444.518	735.45
444.892	760.3
445.267	725.28
445.641	746.29
446.016	761.43
446.39	753.98
446.764	759.85
447.139	751.49
447.513	743.36
447.887	775.67
448.262	765.95
448.636	774.54
449.01	781.1
449.384	757.82
449.758	794.43
450.132	756.01
450.506	800.08
450.88	812.05
451.254	789.23
451.628	794.88
452.002	812.28
452.376	834.65
452.75	812.51
453.123	824.71
453.497	828.1
453.871	852.73
454.244	843.92
454.618	856.12
454.992	858.16
455.365	903.8
455.739	896.8
456.112	912.39
456.486	886.18
456.859	909.68
457.232	912.39
457.606	912.39
457.979	906.97
458.352	958.72
458.725	946.51
459.099	966.18
459.472	971.37
459.845	980.86
460.218	991.71
460.591	989.9
460.964	997.81
461.337	1024.25
461.71	1029.22
462.083	1050.24
462.456	1036.91
462.829	1043.01
463.201	1072.84
463.574	1073.07
463.947	1041.2
464.32	1115.32
464.692	1128.43
465.065	1126.4
465.438	1114.87
465.81	1175.89
466.183	1148.32
466.555	1197.81
466.928	1191.03
467.3	1212.95
467.672	1236.9
468.045	1259.5
468.417	1266.05
468.789	1281.65
469.161	1286.84
469.534	1294.75
469.906	1324.13
470.278	1381.08
470.65	1387.41
471.022	1386.73
471.394	1400.51
471.766	1414.52
472.138	1437.12
472.51	1488.65
472.882	1483
473.253	1551.24
473.625	1552.83
473.997	1605.71
474.369	1595.54
474.74	1645.71
475.112	1679.6
475.484	1692.03
475.855	1747.4
476.227	1764.12
476.598	1807.06
476.97	1855.64
477.341	1928.18
477.713	1920.95
478.084	1979.48
478.455	2060.16
478.827	2073.49
479.198	2158.69
479.569	2191.45
479.94	2283.2
480.311	2286.14
480.682	2366.36
481.053	2432.58
481.424	2513.03
481.795	2525
482.166	2589.86
482.537	2655.62
482.908	2735.39
483.279	2803.19
483.65	2862.4
484.021	2954.82
484.391	2989.62
484.762	3100.13
485.133	3102.84
485.503	3203.86
485.874	3300.13
486.244	3344.87
486.615	3442.49
486.985	3577.41
487.356	3657.86
487.726	3736.5
488.097	3785.54
488.467	3838.42
488.837	3978.98
489.207	4042.48
489.578	4182.81
489.948	4266.88
490.318	4371.28
490.688	4372.41
491.058	4507.1
491.428	4630.71
491.798	4727.66
492.168	4806.75
492.538	4902.57
492.908	5039.74
493.278	5098.72
493.648	5139.62
494.017	5261.88
494.387	5358.15
494.757	5394.99
495.126	5490.12
495.496	5569.67
495.866	5617.58
496.235	5774.86
496.605	5889.66
496.974	5916.33
497.344	6018.92
497.713	6122.2
498.082	6198.13
498.452	6202.42
498.821	6324
499.19	6395.41
499.559	6478.35
499.928	6561.51
500.298	6687.61
500.667	6773.25
501.036	6754.27
501.405	6845.79
501.774	6911.56
502.143	6968.96
502.512	7108.39
502.88	7109.74
503.249	7154.49
503.618	7208.72
503.987	7306.57
504.356	7417.08
504.724	7467.25
505.093	7584.76
505.462	7638.09
505.83	7679.44
506.199	7752.66
506.567	7874.92
506.936	7838.54
507.304	7965.99
507.672	8041.92
508.041	8117.85
508.409	8127.79
508.777	8210.05
509.145	8268.36
509.514	8360.78
509.882	8400.1
510.25	8401.01
510.618	8426.32
510.986	8539.08
511.354	8675.13
511.722	8725.07
512.09	8836.93
512.458	8810.49
512.826	8883.71
513.193	8903.82
513.561	8954.21
513.929	9076.47
514.297	9198.95
514.664	9156.69
515.032	9205.51
515.4	9273.75
515.767	9417.25
516.135	9416.57
516.502	9438.27
516.869	9596.91
517.237	9546.74
517.604	9565.95
517.972	9633.29
518.339	9773.4
518.706	9771.37
519.073	9824.02
519.44	9907.63
519.808	9971.59
520.175	9960.74
520.542	10110.57
520.909	10052.94
521.276	10164.58
521.643	10273.95
522.009	10360.96
522.376	10401.86
522.743	10393.27
523.11	10498.81
523.477	10699.48
523.843	10655.64
524.21	10828.97
524.577	10940.6
524.943	10882.98
525.31	10901.28
525.676	10986.93
526.043	11113.93
526.409	11126.13
526.776	11213.82
527.142	11275.06
527.508	11309.41
527.874	11426.47
528.241	11474.15
528.607	11506.01
528.973	11647.93
529.339	11645.67
529.705	11779.68
530.071	11838.88
530.437	11958.43
530.803	11990.97
531.169	12018.99
531.535	12065.77
531.901	12075.26
532.267	12160.68
532.632	12276.39
532.998	12260.79
533.364	12367.91
533.73	12411.98
534.095	12502.14
534.461	12559.77
534.826	12607.45
535.192	12614.91
535.557	12700.78
535.923	12750.5
536.288	12752.76
536.653	12884.96
537.019	12839.31
537.384	12889.25
537.749	12982.81
538.114	13010.38
538.479	13086.53
538.845	13155.46
539.21	13120.66
539.575	13241.33
539.94	13348
540.305	13383.7
540.67	13319.3
541.034	13461.89
541.399	13350.71
541.764	13559.74
542.129	13512.29
542.494	13639.51
542.858	13619.18
543.223	13702.79
543.587	13727.87
543.952	13753.86
544.316	13884.71
544.681	13896.68
545.045	13916.57
545.41	13992.73
545.774	14085.15
546.138	14083.34
546.503	14136.68
546.867	14101.65
547.231	14334.86
547.595	14338.25
547.959	14331.7
548.324	14385.48
548.688	14429.1
549.052	14524.24
549.416	14601.52
549.779	14557.68
550.143	14592.26
550.507	14677.91
550.871	14803.78
551.235	14734.17
551.599	14881.97
551.962	14894.85
552.326	14988.18
552.689	15074.05
553.053	15016.43
553.417	15064.34
553.78	15197.67
554.143	15145.69
554.507	15219.13
554.87	15229.98
555.234	15403.99
555.597	15381.62
555.96	15383.88
556.323	15429.52
556.686	15481.5
557.05	15565.11
557.413	15654.15
557.776	15649.86
558.139	15871.77
558.502	15780.25
558.865	15887.14
559.228	16058.21
559.59	16018.66
559.953	16066.57
560.316	16163.97
560.679	16184.76
561.041	16337.52
561.404	16346.79
561.767	16480.12
562.129	16417.97
562.492	16607.12
562.854	16554.24
563.217	16575.48
563.579	16646.89
563.941	16775.7
564.304	16805.98
564.666	16960.78
565.028	16891.63
565.39	17019.54
565.753	17144.05
566.115	17127.33
566.477	17202.13
566.839	17227.44
567.201	17401.68
567.563	17438.28
567.925	17491.84
568.287	17572.74
568.648	17594.66
569.01	17752.85
569.372	17804.83
569.734	17770.48
570.095	17958.72
570.457	18031.49
570.819	18015.22
571.18	18049.34
571.542	18215.44
571.903	18218.6
572.265	18250.69
572.626	18348.54
572.987	18377.47
573.349	18499.5
573.71	18568.2
574.071	18675.31
574.432	18774.97
574.794	18951.46
575.155	19015.87
575.516	19011.12
575.877	19078.69
576.238	19177
576.599	19329.08
576.96	19322.53
577.32	19372.7
577.681	19654.05
578.042	19757.77
578.403	19759.13
578.763	19938.56
579.124	20198.44
579.485	20286.8
579.845	20447.24
580.206	20490.86
580.566	20673.45
580.927	20794.58
581.287	20974.01
581.648	20998.64
582.008	21326.32
582.368	21290.84
582.728	21618.74
583.089	21713.43
583.449	21927.66
583.809	22066.41
584.169	22212.85
584.529	22423.46
584.889	22751.59
585.249	22747.3
585.609	22935.77
585.969	23229.09
586.329	23227.74
586.688	23552.93
587.048	23686.03
587.408	23869.3
587.768	24177.09
588.127	24243.76
588.487	24447.82
588.846	24736.62
589.206	24956.05
589.565	25101.36
589.925	25458.41
590.284	25551.29
590.643	25836.03
591.003	26007.1
591.362	26410.48
591.721	26524.6
592.08	26776.57
592.44	26925.27
592.799	27176.11
593.158	27317.8
593.517	27514.86
593.876	27865.58
594.235	27943.54
594.593	28251.56
594.952	28443.87
595.311	28608.16
595.67	29002.05
596.029	29251.53
596.387	29419.21
596.746	29647.45
597.104	29676.83
597.463	29952.08
597.822	30144.62
598.18	30300.55
598.538	30595.9
598.897	30891.26
599.255	30786.41
599.613	31403.57
599.972	31428.43
600.33	31631.13
600.688	31710
601.046	32008.3
601.404	32387.04
601.762	32255.52
602.12	32599.02
602.478	32948.16
602.836	33067.7
603.194	32998.1
603.552	33304.08
603.91	33265.44
604.268	33662.94
604.625	33662.72
604.983	34015.25
605.341	33923.5
605.698	34210.05
606.056	34534.56
606.413	34472.86
606.771	34716.7
607.128	34945.85
607.485	34891.16
607.843	35132.28
608.2	35425.38
608.557	35568.2
608.914	35467.41
609.272	35897.91
609.629	36042.77
609.986	36298.13
610.343	36137
610.7	36491.57
611.057	36584.67
611.414	36591.23
611.771	36791.9
612.127	37010.43
612.484	37162.96
612.841	37247.26
613.198	37273.7
613.554	37458.32
613.911	37556.4
614.267	37673.23
614.624	37733.57
614.98	37954.58
615.337	38012.66
615.693	38112.09
616.05	38181.92
616.406	38537.16
616.762	38519.31
617.118	38463.27
617.475	38511.85
617.831	38751.4
618.187	38809.7
618.543	38971.05
618.899	39111.16
619.255	39083.59
619.611	39124.95
619.967	39287.88
620.323	39570.81
620.678	39305.73
621.034	39195.45
621.39	39478.38
621.746	39486.29
622.101	39861.42
622.457	39578.04
622.812	39716.34
623.168	39841.99
623.523	40002.21
623.879	40081.53
624.234	39929.44
624.589	40103.68
624.945	40023.91
625.3	40274.07
625.655	40228.19
626.01	40392.26
626.365	40476.55
626.72	40389.32
627.075	40368.98
627.43	40428.87
627.785	40328.76
628.14	40405.14
628.495	40450.79
628.85	40375.99
629.205	40372.82
629.559	40480.84
629.914	40407.17
630.269	40550.45
630.623	40468.41
630.978	40564.23
631.332	40636.32
631.687	40658.24
632.041	40449.2
632.396	40557.22
632.75	40542.31
633.104	40582.53
633.459	40493.95
633.813	40466.61
634.167	40654.62
634.521	40551.35
634.875	40667.05
635.229	40425.25
635.583	40463.44
635.937	40467.51
636.291	40413.95
636.645	40456.44
636.999	40354.74
637.352	40524.68
637.706	40361.75
638.06	40533.5
638.413	40461.41
638.767	40281.98
639.121	40369.43
639.474	40204.01
639.828	40177.57
640.181	40172.83
640.534	40384.57
640.888	40229.32
641.241	39992.04
641.594	40160.85
641.947	40348.87
642.301	40295.31
642.654	40269.32
643.007	40261.19
643.36	40238.14
643.713	40125.15
644.066	40225.26
644.419	39885.6
644.771	39803.8
645.124	39366.97
645.477	39292.17
645.83	39086.08
646.182	38964.72
646.535	38966.76
646.888	39020.77
647.24	38893.99
647.593	39133.31
647.945	38964.27
648.298	38846.54
648.65	38720.44
649.002	38730.15
649.355	38853.54
649.707	38768.8
650.059	38738.74
650.411	39271.16
650.763	39427.99
651.115	39777.13
651.467	39577.14
651.819	39712.5
652.171	39487.65
652.523	39478.61
652.875	39493.07
653.227	39269.8
653.578	39435.67
653.93	39455.11
654.282	39254.43
654.633	39169.24
654.985	39262.34
655.337	39327.43
655.688	39327.65
656.039	39526.97
656.391	39246.98
656.742	39126.53
657.094	39237.03
657.445	39282.91
657.796	39266.64
658.147	39290.14
658.498	39286.75
658.849	39350.93
659.2	39179.86
659.551	39154.78
659.902	39425.95
660.253	39188.45
660.604	39328.78
660.955	39060.54
661.306	39239.97
661.656	39129.24
662.007	39224.15
662.358	39197.26
662.708	38981.22
663.059	39154.32
663.409	38903.03
663.76	39169.24
664.11	39289.24
664.461	39190.71
664.811	39102.35
665.161	39208.11
665.511	38987.77
665.862	38903.03
666.212	39077.49
666.562	39144.83
666.912	39013.08
667.262	38989.13
667.612	39104.83
667.962	39016.25
668.312	39070.94
668.662	39371.72
669.011	39076.81
669.361	38999.75
669.711	38976.48
670.06	38884.05
670.41	38901.67
670.76	38748.01
671.109	38995.01
671.459	38970.15
671.808	38719.98
672.157	38928.34
672.507	38672.3
672.856	38714.56
673.205	38836.37
673.554	38952.52
673.904	38718.85
674.253	38844.73
674.602	38907.55
674.951	38270.73
675.3	38095.37
675.649	38751.85
675.998	38782.13
676.346	38575.36
676.695	38832.3
677.044	38473.66
677.393	38648.57
677.741	38597.5
678.09	38601.34
678.438	38557.28
678.787	38503.49
679.135	38478.18
679.484	38316.61
679.832	38465.53
680.181	38285.42
680.529	38335.59
680.877	38287.91
681.225	38165.65
681.573	38368.36
681.922	38136.05
682.27	37988.7
682.618	38022.6
682.966	37995.71
683.314	38006.78
683.661	37818.31
684.009	37714.14
684.357	37587.13
684.705	37553.46
685.053	37659.45
685.4	37499.68
685.748	37409.28
686.095	37331.77
686.443	37374.71
686.79	37138.56
687.138	37336.07
687.485	37372.9
687.832	37206.35
688.18	37243.64
688.527	37020.82
688.874	37040.71
689.221	36867.38
689.568	36743.31
689.915	36674.84
690.262	36694.05
690.609	36732.69
690.956	36487.05
691.303	36494.28
691.65	36332.02
691.997	36370.22
692.344	36172.93
692.69	36087.06
693.037	36104.46
693.383	35928.42
693.73	36053.16
694.077	35767.29
694.423	35745.83
694.769	35670.57
695.116	35730.91
695.462	35559.62
695.808	35478.49
696.155	35497.7
696.501	35237.59
696.847	35186.52
697.193	34947.65
697.539	35255.22
697.885	34927.99
698.231	34854.78
698.577	34846.19
698.923	34770.48
699.269	34532.98
699.614	34353.55
699.96	34385.41
700.306	34324.39
700.651	34160.78
700.997	34080.78
701.342	34125.53
701.688	34134.12
702.033	33881.92
702.379	33828.81
702.724	33719.44
703.069	33839.44
703.415	33528.48
703.76	33541.59
704.105	33542.27
704.45	33411.88
704.795	33149.28
705.14	33167.36
705.485	33173.24
705.83	33064.09
706.175	33046.24
706.52	32912.68
706.865	32690.99
707.209	32839.69
707.554	32769.18
707.899	32851.21
708.243	32448.06
708.588	32550.88
708.932	32232.7
709.277	32373.26
709.621	32343.43
709.966	32194.51
710.31	32200.38
710.654	31947.06
710.998	32109.99
711.342	32111.34
711.687	31827.06
712.031	31875.19
712.375	31758.59
712.719	31738.47
713.063	31656.44
713.407	31691.02
713.75	31584.13
714.094	31496.22
714.438	31343.91
714.782	31392.95
715.125	31145.95
715.469	31324.02
715.812	31132.39
716.156	31028.21
716.499	31028.44
716.843	30938.95
717.186	30807.2
717.53	30911.83
717.873	30831.38
718.216	30879.51
718.559	30607.88
718.902	30437.04
719.246	30575.11
719.589	30457.15
719.932	30357.72
720.275	30229.13
720.617	30246.31
720.96	30287.21
721.303	30391.62
721.646	30249.25
721.989	30103.49
722.331	30087.22
722.674	29978.75
723.016	30095.8
723.359	29915.24
723.701	30060.33
724.044	29772.2
724.386	29714.8
724.729	29802.93
725.071	29740.56
725.413	29736.04
725.755	29671.41
726.097	29566.33
726.439	29412.66
726.782	29513.9
727.124	29546.89
727.465	29357.52
727.807	29317.29
728.149	29325.88
728.491	29274.13
728.833	29348.03
729.175	29198.43
729.516	29113.91
729.858	29094.02
730.199	29057.87
730.541	29028.26
730.882	29013.12
731.224	29030.3
731.565	28765.67
731.906	28771.77
732.248	28892.45
732.589	28601.61
732.93	28664.43
733.271	28663.07
733.612	28655.62
733.953	28766.8
734.294	28505.11
734.635	28494.04
734.976	28486.36
735.317	28335.4
735.658	28428.96
735.999	28426.92
736.339	28262.18
736.68	28397.77
737.021	28277.77
737.361	28144.67
737.702	28229.19
738.042	28175.63
738.383	27967.05
738.723	28042.53
739.063	27969.76
739.404	28088.63
739.744	27985.13
740.084	27820.16
740.424	27928.4
740.764	27854.73
741.104	27926.6
741.444	27734.96
741.784	27706.49
742.124	27771.12
742.464	27633.27
742.804	27665.81
743.143	27546.27
743.483	27527.51
743.823	27442.77
744.162	27505.14
744.502	27373.62
744.841	27403.9
745.181	27388.98
745.52	27290.91
745.86	27307.63
746.199	27317.57
746.538	27176.33
746.877	27330.68
747.216	27322.54
747.556	27097.47
747.895	27147.41
748.234	26957.58
748.573	26949.9
748.911	26954.64
749.25	26951.03
749.589	26801.88
749.928	26843.91
750.267	26770.24
750.605	26677.36
750.944	26645.05
751.283	26505.62
751.621	26645.95
751.96	26405.28
752.298	26523.02
752.636	26489.57
752.975	26385.17
753.313	26245.51
753.651	26436.24
753.989	26291.38
754.327	26251.84
754.666	26099.53
755.004	26130.94
755.342	26110.6
755.679	26039.64
756.017	25900.89
756.355	26030.6
756.693	25886.88
757.031	25888.68
757.368	25700.89
