Data from hue_240_FLMS001491_00032.txt Node
Date: Tue Feb 07 16:35:23 GMT 2017
User: dcchb
Spectrometer: FLMS00149
Trigger mode: 0
Integration Time (sec): 2.000000E-2
Scans to average: 10
Electric dark correction enabled: true
Nonlinearity correction enabled: false
Boxcar width: 0
XAxis mode: Wavelengths
Number of Pixels in Spectrum: 2048
>>>>>Begin Spectral Data<<<<<
341.393	-13.4
341.776	-13.4
342.16	-13.4
342.543	-93.4
342.927	-64.93
343.31	-71.71
343.693	-75.1
344.077	-56.11
344.46	-81.88
344.843	-28.09
345.226	-57.7
345.61	-25.83
345.993	-11.14
346.376	-7.75
346.759	4.45
347.142	30.21
347.525	43.77
347.908	51.45
348.291	81.06
348.674	93.94
349.057	110.43
349.44	121.73
349.823	147.95
350.206	146.59
350.588	176.87
350.971	200.83
351.354	216.87
351.737	233.14
352.119	226.82
352.502	258
352.884	262.07
353.267	267.27
353.65	275.63
354.032	296.64
354.414	283.31
354.797	291.9
355.179	314.72
355.562	315.4
355.944	316.53
356.326	301.62
356.709	304.1
357.091	324.21
357.473	329.86
357.855	325.12
358.238	343.88
358.62	326.47
359.002	325.12
359.384	349.07
359.766	332.12
360.148	342.07
360.53	338
360.912	326.93
361.294	309.3
361.676	349.3
362.057	330.09
362.439	335.29
362.821	321.73
363.203	327.83
363.584	322.41
363.966	318.79
364.348	316.76
364.729	321.05
365.111	316.98
365.493	306.14
365.874	317.21
366.256	308.17
366.637	305.46
367.019	283.31
367.4	299.81
367.781	308.17
368.163	287.38
368.544	295.06
368.925	298.68
369.306	319.47
369.688	297.77
370.069	303.88
370.45	317.89
370.831	325.8
371.212	307.94
371.593	292.13
371.974	297.77
372.355	295.97
372.736	300.03
373.117	297.55
373.498	295.29
373.879	296.87
374.26	298.23
374.641	299.58
375.021	324.89
375.402	323.76
375.783	315.4
376.163	312.92
376.544	312.92
376.925	322.63
377.305	300.71
377.686	302.97
378.066	315.63
378.447	314.5
378.827	314.05
379.208	306.14
379.588	317.89
379.968	325.57
380.349	343.2
380.729	323.99
381.109	333.03
381.489	348.39
381.87	349.3
382.25	307.04
382.63	329.86
383.01	334.38
383.39	330.09
383.77	324.89
384.15	348.17
384.53	329.41
384.91	343.65
385.29	350.88
385.67	356.76
386.049	346.81
386.429	361.05
386.809	337.55
387.189	352.01
387.568	340.49
387.948	354.27
388.328	361.05
388.707	349.07
389.087	369.64
389.466	355.63
389.846	359.24
390.225	377.09
390.605	349.3
390.984	376.64
391.363	335.06
391.743	362.63
392.122	372.12
392.501	366.02
392.881	368.28
393.26	364.67
393.639	365.8
394.018	376.87
394.397	365.8
394.776	386.81
395.155	373.7
395.534	389.07
395.913	383.2
396.292	389.75
396.671	398.79
397.05	371.22
397.429	390.2
397.808	382.97
398.186	398.56
398.565	399.92
398.944	398.79
399.323	407.15
399.701	405.12
400.08	402.18
400.458	386.13
400.837	396.3
401.215	424.33
401.594	422.52
401.972	411.22
402.351	417.77
402.729	422.52
403.107	420.26
403.486	414.16
403.864	425.23
404.242	444.44
404.62	413.48
404.999	409.41
405.377	425.23
405.755	439.47
406.133	421.84
406.511	453.25
406.889	450.09
407.267	452.12
407.645	456.19
408.023	471.78
408.401	459.58
408.779	456.87
409.156	459.13
409.534	472.01
409.912	471.33
410.29	492.35
410.667	484.44
411.045	503.19
411.422	491.44
411.8	498.22
412.178	528.96
412.555	509.29
412.933	532.34
413.31	553.81
413.687	544.1
414.065	557.2
414.442	530.54
414.819	547.49
415.197	576.19
415.574	579.58
415.951	564.43
416.328	566.92
416.705	599.24
417.082	589.29
417.46	595.85
417.837	618.67
418.214	612.57
418.591	601.95
418.967	618.67
419.344	621.83
419.721	640.14
420.098	620.93
420.475	664.54
420.852	651.21
421.228	640.36
421.605	665
421.982	677.65
422.358	674.94
422.735	710.87
423.111	698.67
423.488	704.32
423.864	729.85
424.241	741.15
424.617	727.14
424.994	725.79
425.37	742.73
425.746	764.88
426.123	763.07
426.499	757.88
426.875	769.17
427.251	792
427.627	813.02
428.003	834.71
428.379	811.89
428.756	817.99
429.132	851.43
429.507	858.44
429.883	851.66
430.259	876.29
430.635	885.33
431.011	878.1
431.387	874.03
431.763	925.33
432.138	928.49
432.514	944.76
432.89	926.91
433.265	936.63
433.641	957.19
434.016	981.15
434.392	1020.47
434.767	1042.61
435.143	1025.44
435.518	1058.66
435.894	1056.85
436.269	1079
436.644	1106.57
437.02	1093.01
437.395	1099.34
437.77	1139.56
438.145	1133.01
438.52	1148.15
438.895	1162.84
439.271	1190.41
439.646	1178.43
440.021	1236.06
440.395	1233.34
440.77	1214.81
441.145	1246.45
441.52	1271.08
441.895	1274.47
442.27	1294.58
442.645	1269.05
443.019	1301.36
443.394	1298.65
443.769	1341.36
444.143	1314.7
444.518	1317.86
444.892	1354.7
445.267	1365.09
445.641	1387.24
446.016	1378.65
446.39	1385.2
446.764	1415.26
447.139	1397.41
447.513	1406.22
447.887	1425.2
448.262	1439.21
448.636	1446.45
449.01	1442.15
449.384	1476.27
449.758	1483.28
450.132	1489.83
450.506	1492.32
450.88	1492.77
451.254	1510.4
451.628	1525.54
452.002	1549.95
452.376	1545.65
452.75	1611.19
453.123	1567.35
453.497	1631.98
453.871	1618.42
454.244	1659.77
454.618	1650.96
454.992	1686.89
455.365	1675.37
455.739	1692.99
456.112	1728.47
456.486	1744.97
456.859	1795.81
457.232	1763.05
457.606	1804.85
457.979	1791.07
458.352	1826.77
458.725	1852.99
459.099	1849.6
459.472	1909.48
459.845	1887.34
460.218	1902.25
460.591	1942.7
460.964	1950.16
461.337	1997.62
461.71	2005.98
462.083	2052.53
462.456	2047.79
462.829	2019.99
463.201	2074
463.574	2105.18
463.947	2117.61
464.32	2135.24
464.692	2177.73
465.065	2180.21
465.438	2235.8
465.81	2253.88
466.183	2270.15
466.555	2268.57
466.928	2302.24
467.3	2314.44
467.672	2343.14
468.045	2399.19
468.417	2438.74
468.789	2433.76
469.161	2480.54
469.534	2486.42
469.906	2524.38
470.278	2520.54
470.65	2578.62
471.022	2590.37
471.394	2628.11
471.766	2674.44
472.138	2695.68
472.51	2770.93
472.882	2784.04
473.253	2814.77
473.625	2823.36
473.997	2900.19
474.369	2905.39
474.74	2921.43
475.112	3002.11
475.484	3037.82
475.855	3092.5
476.227	3081.88
476.598	3152.61
476.97	3195.33
477.341	3278.26
477.713	3320.07
478.084	3323.68
478.455	3420.86
478.827	3380.41
479.198	3501.98
479.569	3539.95
479.94	3608.2
480.311	3638.93
480.682	3647.52
481.053	3771.13
481.424	3802.77
481.795	3786.72
482.166	3807.96
482.537	3909.43
482.908	3997.34
483.279	4028.75
483.65	4074.17
484.021	4149.42
484.391	4260.61
484.762	4235.52
485.133	4251.12
485.503	4254.73
485.874	4376.76
486.244	4394.62
486.615	4501.05
486.985	4540.83
487.356	4593.71
487.726	4650.65
488.097	4690.65
488.467	4692.01
488.837	4845.68
489.207	4896.07
489.578	4924.09
489.948	4979.46
490.318	4976.07
490.688	4989.85
491.058	5068.95
491.428	5111.21
491.798	5146.46
492.168	5259
492.538	5279.11
492.908	5366.79
493.278	5377.64
493.648	5406.57
494.017	5462.84
494.387	5498.54
494.757	5504.19
495.126	5606.34
495.496	5617.41
495.866	5625.77
496.235	5687.46
496.605	5670.74
496.974	5775.14
497.344	5757.52
497.713	5784.18
498.082	5824.63
498.452	5891.53
498.821	5936.95
499.19	5922.71
499.559	5994.57
499.928	6016.04
500.298	5977.63
500.667	6055.36
501.036	6082.03
501.405	6087.9
501.774	6143.72
502.143	6195.02
502.512	6185.53
502.88	6267.11
503.249	6179.65
503.618	6262.14
503.987	6320.89
504.356	6287.22
504.724	6370.61
505.093	6315.7
505.462	6322.7
505.83	6398.63
506.199	6412.87
506.567	6529.48
506.936	6457.39
507.304	6522.02
507.672	6487.67
508.041	6538.74
508.409	6536.25
508.777	6634.33
509.145	6632.3
509.514	6648.57
509.882	6669.13
510.25	6664.39
510.618	6721.33
510.986	6760.66
511.354	6701
511.722	6777.15
512.09	6817.15
512.458	6843.82
512.826	6848.34
513.193	6892.4
513.561	6903.25
513.929	6932.4
514.297	6954.1
514.664	6976.02
515.032	6981.21
515.4	6993.64
515.767	7025.73
516.135	7013.3
516.502	6952.51
516.869	7097.14
517.237	7121.78
517.604	7063.25
517.972	7119.52
518.339	7157.03
518.706	7133.08
519.073	7146.86
519.44	7122.68
519.808	7245.84
520.175	7201.32
520.542	7246.97
520.909	7266.18
521.276	7286.97
521.643	7354.76
522.009	7252.85
522.376	7315.44
522.743	7370.36
523.11	7427.3
523.477	7382.33
523.843	7466.63
524.21	7447.19
524.577	7523.12
524.943	7472.5
525.31	7523.12
525.676	7544.36
526.043	7577.58
526.409	7622.1
526.776	7598.83
527.142	7669.33
527.508	7685.83
527.874	7666.62
528.241	7734.87
528.607	7717.92
528.973	7742.78
529.339	7704.59
529.705	7787.75
530.071	7810.35
530.437	7796.56
530.803	7857.35
531.169	7804.7
531.535	7797.46
531.901	7772.15
532.267	7751.82
532.632	7772.83
532.998	7853.51
533.364	7788.43
533.73	7818.71
534.095	7885.37
534.461	7854.41
534.826	7828.42
535.192	7858.48
535.557	7817.35
535.923	7897.8
536.288	7904.13
536.653	7896.44
537.019	7872.72
537.384	7869.33
537.749	7898.03
538.114	7861.42
538.479	7840.18
538.845	7844.47
539.21	7839.72
539.575	7894.19
539.94	7839.27
540.305	7872.94
540.67	7829.33
541.034	7811.48
541.399	7840.85
541.764	7830.68
542.129	7816.22
542.494	7796.56
542.858	7832.49
543.223	7822.1
543.587	7838.59
543.952	7749.78
544.316	7787.97
544.681	7767.18
545.045	7778.26
545.41	7737.81
545.774	7734.87
546.138	7757.69
546.503	7782.32
546.867	7741.19
547.231	7814.19
547.595	7793.17
547.959	7754.3
548.324	7761.08
548.688	7758.37
549.052	7674.76
549.416	7751.82
549.779	7703.91
550.143	7669.78
550.507	7797.01
550.871	7769.44
551.235	7715.66
551.599	7678.15
551.962	7704.81
552.326	7749.78
552.689	7806.5
553.053	7753.62
553.417	7747.3
553.78	7796.33
554.143	7720.86
554.507	7729.9
554.87	7699.84
555.234	7803.34
555.597	7777.58
555.96	7771.25
556.323	7766.05
556.686	7744.58
557.05	7763.12
557.413	7762.44
557.776	7755.66
558.139	7810.12
558.502	7826.39
558.865	7784.36
559.228	7791.36
559.59	7838.14
559.953	7819.16
560.316	7873.17
560.679	7917.24
561.041	7855.32
561.404	7941.87
561.767	7891.7
562.129	7877.69
562.492	7910.68
562.854	7931.92
563.217	7919.27
563.579	7971.7
563.941	8003.56
564.304	8004.69
564.666	8008.08
565.028	8055.08
565.39	8098.47
565.753	8077.91
566.115	8070.45
566.477	8091.02
566.839	8139.83
567.201	8180.51
567.563	8186.61
567.925	8197.91
568.287	8191.13
568.648	8184.8
569.01	8260.28
569.372	8294.17
569.734	8222.54
570.095	8235.19
570.457	8378.24
570.819	8338.47
571.18	8348.41
571.542	8360.61
571.903	8428.63
572.265	8412.59
572.626	8444.45
572.987	8440.16
573.349	8489.2
573.71	8483.32
574.071	8480.38
574.432	8604.9
574.794	8638.57
575.155	8583.66
575.516	8565.13
575.877	8596.31
576.238	8595.86
576.599	8657.55
576.96	8674.73
577.32	8625.01
577.681	8688.51
578.042	8685.8
578.403	8709.08
578.763	8675.86
579.124	8732.81
579.485	8767.83
579.845	8857.55
580.206	8742.52
580.566	8803.77
580.927	8762.64
581.287	8913.59
581.648	8785.01
582.008	8855.97
582.368	8891.22
582.728	8875.63
583.089	8863.88
583.449	8895.29
583.809	8919.02
584.169	8882.63
584.529	8971.9
584.889	8991.78
585.249	8895.51
585.609	8951.56
585.969	8935.74
586.329	8922.86
586.688	9032.23
587.048	8995.17
587.408	9018.22
587.768	8973.93
588.127	9032.46
588.487	9036.53
588.846	9056.19
589.206	8987.72
589.565	9078.11
589.925	9103.42
590.284	9057.32
590.643	9064.55
591.003	9147.26
591.362	9141.61
591.721	9089.63
592.08	9085.34
592.44	9150.42
592.799	9196.75
593.158	9115.62
593.517	9107.71
593.876	9150.2
594.235	9198.33
594.593	9206.47
594.952	9160.82
595.311	9115.85
595.67	9213.02
596.029	9231.33
596.387	9229.07
596.746	9247.37
597.104	9217.54
597.463	9222.96
597.822	9263.87
598.18	9218.44
598.538	9235.17
598.897	9314.26
599.255	9200.14
599.613	9312.68
599.972	9227.94
600.33	9327.14
600.688	9292.57
601.046	9283.53
601.404	9267.48
601.762	9302.51
602.12	9312.9
602.478	9285.56
602.836	9328.05
603.194	9302.74
603.552	9333.47
603.91	9340.02
604.268	9347.93
604.625	9243.75
604.983	9286.92
605.341	9257.99
605.698	9366.46
606.056	9341.38
606.413	9340.93
606.771	9320.81
607.128	9435.16
607.485	9361.49
607.843	9370.76
608.2	9409.17
608.557	9451.88
608.914	9433.13
609.272	9522.16
609.629	9469.28
609.986	9515.84
610.343	9464.77
610.7	9502.05
611.057	9473.58
611.414	9438.55
611.771	9519.68
612.127	9500.47
612.484	9464.54
612.841	9549.06
613.198	9524.88
613.554	9570.75
613.911	9554.48
614.267	9580.69
614.624	9539.34
614.98	9598.32
615.337	9575.72
615.693	9646.23
616.05	9656.17
616.406	9659.11
616.762	9683.97
617.118	9589.51
617.475	9579.79
617.831	9621.15
618.187	9624.31
618.543	9662.95
618.899	9723.52
619.255	9689.39
619.611	9697.08
619.967	9700.92
620.323	9688.71
620.678	9711.99
621.034	9693.01
621.39	9773.91
621.746	9657.75
622.101	9743.85
622.457	9633.12
622.812	9697.98
623.168	9778.88
623.523	9645.33
623.879	9755.83
624.234	9605.55
624.589	9701.82
624.945	9686
625.3	9720.8
625.655	9657.3
626.01	9677.19
626.365	9678.54
626.72	9691.43
627.075	9722.39
627.43	9648.04
627.785	9658.66
628.14	9634.48
628.495	9642.39
628.85	9638.09
629.205	9656.62
629.559	9734.59
629.914	9643.52
630.269	9634.93
630.623	9609.39
630.978	9576.17
631.332	9599.9
631.687	9632.9
632.041	9589.73
632.396	9507.7
632.75	9577.98
633.104	9513.13
633.459	9544.54
633.813	9493.47
634.167	9544.09
634.521	9459.57
634.875	9448.95
635.229	9435.61
635.583	9432
635.937	9430.19
636.291	9418.44
636.645	9441.04
636.999	9429.06
637.352	9457.99
637.706	9369.4
638.06	9370.76
638.413	9362.62
638.767	9407.37
639.121	9389.51
639.474	9284.43
639.828	9333.7
640.181	9354.49
640.534	9327.14
640.888	9322.17
641.241	9227.26
641.594	9269.06
641.947	9286.46
642.301	9268.16
642.654	9286.46
643.007	9257.31
643.36	9246.01
643.713	9207.37
644.066	9251.44
644.419	9229.29
644.771	9173.47
645.124	9055.96
645.477	9104.77
645.83	8987.49
646.182	8995.63
646.535	8892.58
646.888	8912.24
647.24	8860.94
647.593	8954.5
647.945	8901.39
648.298	8864.33
648.65	8904.55
649.002	8865.23
649.355	8888.28
649.707	8884.89
650.059	8966.02
650.411	8986.36
650.763	8946.13
651.115	9065.68
651.467	9072.46
651.819	9054.83
652.171	9046.25
652.523	9088.28
652.875	9102.97
653.227	9023.42
653.578	9065.91
653.93	9031.56
654.282	9013.03
654.633	8965.57
654.985	9030.88
655.337	9011.9
655.688	9068.84
656.039	9065.91
656.391	8981.39
656.742	9036.3
657.094	9052.12
657.445	9004.44
657.796	9005.12
658.147	8953.14
658.498	9033.82
658.849	9039.24
659.2	8968.28
659.551	8975.06
659.902	9054.83
660.253	9038.56
660.604	8998.56
660.955	8979.58
661.306	9012.57
661.656	9015.06
662.007	9056.64
662.358	8958.11
662.708	8946.59
663.059	8933.03
663.409	8945.23
663.76	8983.65
664.11	9041.5
664.461	9053.48
664.811	9055.06
665.161	9018.68
665.511	9018.68
665.862	9003.31
666.212	8971.22
666.562	9041.05
666.912	8988.17
667.262	8973.03
667.612	8999.01
667.962	9026.13
668.312	9025
668.662	9012.12
669.011	8981.39
669.361	8958.79
669.711	8972.8
670.06	8993.59
670.41	8936.64
670.76	8954.72
671.109	8937.55
671.459	8979.35
671.808	8973.03
672.157	8923.99
672.507	8927.83
672.856	8870.66
673.205	8909.75
673.554	8950.2
673.904	8907.94
674.253	8935.74
674.602	8828.17
674.951	8747.5
675.3	8751.56
675.649	8912.92
675.998	8809.42
676.346	8813.03
676.695	8866.36
677.044	8797.89
677.393	8834.73
677.741	8821.62
678.09	8782.75
678.438	8781.39
678.787	8797.21
679.135	8802.41
679.484	8794.73
679.832	8797.66
680.181	8719.93
680.529	8728.29
680.877	8729.19
681.225	8662.3
681.573	8707.05
681.922	8655.52
682.27	8594.28
682.618	8616.43
682.966	8571
683.314	8640.61
683.661	8639.93
684.009	8648.52
684.357	8539.14
684.705	8532.59
685.053	8509.31
685.4	8515.19
685.748	8546.15
686.095	8462.31
686.443	8452.36
686.79	8401.06
687.138	8375.75
687.485	8375.53
687.832	8371.69
688.18	8408.97
688.527	8320.16
688.874	8285.81
689.221	8338.02
689.568	8244.46
689.915	8293.04
690.262	8225.7
690.609	8225.93
690.956	8210.79
691.303	8159.94
691.65	8180.05
691.997	8128.53
692.344	8075.2
692.69	8074.97
693.037	8146.38
693.383	8037.46
693.73	8051.47
694.077	8010.34
694.423	7944.81
694.769	7973.05
695.116	7879.27
695.462	7971.47
695.808	7931.92
696.155	7867.29
696.501	7840.4
696.847	7887.86
697.193	7770.57
697.539	7767.18
697.885	7703.23
698.231	7718.82
698.577	7750.01
698.923	7661.65
699.269	7645.83
699.614	7600.86
699.96	7561.76
700.306	7608.77
700.651	7541.43
700.997	7506.62
701.342	7472.5
701.688	7442.67
702.033	7380.75
702.379	7394.54
702.724	7337.36
703.069	7406.51
703.415	7305.27
703.76	7309.57
704.105	7307.08
704.45	7294.65
704.795	7288.55
705.14	7225.73
705.485	7218.27
705.83	7224.6
706.175	7136.24
706.52	7183.7
706.865	7126.07
707.209	7115.45
707.554	7076.58
707.899	7051.27
708.243	7079.07
708.588	7122.68
708.932	6995.9
709.277	6992.74
709.621	6990.03
709.966	7014.89
710.31	6906.64
710.654	6851.05
710.998	6900.99
711.342	6852.63
711.687	6858.28
712.031	6859.86
712.375	6850.82
712.719	6858.73
713.063	6810.37
713.407	6896.92
713.75	6762.01
714.094	6778.06
714.438	6762.01
714.782	6753.88
715.125	6729.92
715.469	6724.72
715.812	6685.86
716.156	6644.5
716.499	6670.49
716.843	6729.02
717.186	6694.44
717.53	6677.95
717.873	6689.02
718.216	6660.09
718.559	6606.99
718.902	6554.33
719.246	6648.57
719.589	6595.24
719.932	6546.42
720.275	6566.76
720.617	6571.96
720.96	6525.18
721.303	6550.04
721.646	6535.35
721.989	6556.14
722.331	6538.74
722.674	6508.68
723.016	6533.09
723.359	6473.88
723.701	6527.89
724.044	6474.56
724.386	6447.22
724.729	6496.93
725.071	6510.04
725.413	6480.66
725.755	6476.37
726.097	6476.82
726.439	6394.11
726.782	6381.23
727.124	6461
727.465	6457.16
727.807	6449.7
728.149	6416.48
728.491	6437.5
728.833	6416.26
729.175	6381
729.516	6353.21
729.858	6415.81
730.199	6439.31
730.541	6420.33
730.882	6333.77
731.224	6389.37
731.565	6352.76
731.906	6360.21
732.248	6354.11
732.589	6375.81
732.93	6373.32
733.271	6312.53
733.612	6388.01
733.953	6402.02
734.294	6371.29
734.635	6326.32
734.976	6371.29
735.317	6356.82
735.658	6341.46
735.999	6312.98
736.339	6315.02
736.68	6337.84
737.021	6298.07
737.361	6301.46
737.702	6305.53
738.042	6347.79
738.383	6299.88
738.723	6326.99
739.063	6321.57
739.404	6340.1
739.744	6300.1
740.084	6348.46
740.424	6355.24
740.764	6342.59
741.104	6381
741.444	6346.43
741.784	6359.31
742.124	6371.29
742.464	6369.25
742.804	6366.09
743.143	6460.32
743.483	6396.82
743.823	6435.47
744.162	6411.74
744.502	6442.92
744.841	6468.69
745.181	6528.57
745.52	6501.68
745.86	6500.55
746.199	6510.49
746.538	6516.59
746.877	6583.03
747.216	6661
747.556	6676.82
747.895	6618.96
748.234	6661.68
748.573	6654.44
748.911	6744.61
749.25	6746.64
749.589	6826.42
749.928	6825.06
750.267	6840.2
750.605	6947.77
750.944	6917.49
751.283	6968.79
751.621	7047.43
751.96	7065.28
752.298	7174.43
752.636	7163.58
752.975	7246.52
753.313	7280.19
753.651	7331.49
753.989	7338.72
754.327	7503.91
754.666	7462.56
755.004	7586.17
755.342	7721.31
755.679	7725.38
756.017	7782.78
756.355	7920.85
756.693	7973.28
757.031	8034.52
757.368	8074.52
757.706	8159.94
758.044	8284.01
758.381	8342.76
758.719	8458.92
759.056	8585.92
759.394	8661.17
759.731	8704.56
760.068	8759.25
760.405	8873.59
760.743	8928.73
761.08	9030.65
761.417	9089.63
761.754	9199.46
762.091	9399.23
762.428	9432
762.765	9493.69
763.102	9639.45
763.438	9684.42
763.775	9727.13
764.112	9887.58
764.449	9960.57
764.785	10086.67
765.122	10025.65
765.458	10202.37
765.795	10229.72
766.131	10325.08
766.467	10410.73
766.804	10471.52
767.14	10556.49
767.476	10654.11
767.812	10684.62
768.148	10732.08
768.485	10817.72
768.821	10869.93
769.157	10864.05
769.492	11019.75
