Data from hue_120_FLMS001491_00002.txt Node
Date: Tue Feb 07 16:58:50 GMT 2017
User: dcchb
Spectrometer: FLMS00149
Trigger mode: 0
Integration Time (sec): 2.000000E-2
Scans to average: 10
Electric dark correction enabled: true
Nonlinearity correction enabled: false
Boxcar width: 0
XAxis mode: Wavelengths
Number of Pixels in Spectrum: 2048
>>>>>Begin Spectral Data<<<<<
341.393	-13.84
341.776	-13.84
342.16	-13.84
342.543	-63.56
342.927	-66.04
343.31	-75.76
343.693	-62.65
344.077	-77.57
344.46	-74.4
344.843	-41.19
345.226	-46.83
345.61	-28.3
345.993	-8.42
346.376	-16.1
346.759	16.21
347.142	12.15
347.525	30.23
347.908	73.61
348.291	79.72
348.674	101.64
349.057	117.68
349.44	127.85
349.823	122.65
350.206	160.17
350.588	185.48
350.971	213.05
351.354	220.05
351.737	245.36
352.119	254.17
352.502	280.61
352.884	273.16
353.267	279.26
353.65	299.37
354.032	293.95
354.414	283.33
354.797	303.89
355.179	314.06
355.562	311.8
355.944	330.78
356.326	329.65
356.709	327.62
357.091	321.97
357.473	326.26
357.855	344.34
358.238	327.17
358.62	346.83
359.002	339.82
359.384	343.66
359.766	322.65
360.148	328.52
360.53	340.5
360.912	321.07
361.294	326.26
361.676	335.75
362.057	318.13
362.439	327.84
362.821	342.31
363.203	317.9
363.584	328.97
363.966	331.46
364.348	333.49
364.729	329.88
365.111	331.46
365.493	309.99
365.874	317.68
366.256	328.75
366.637	301.4
367.019	291.01
367.4	321.52
367.781	309.99
368.163	345.7
368.544	302.99
368.925	325.58
369.306	324
369.688	309.77
370.069	315.42
370.45	313.61
370.831	307.73
371.212	307.28
371.593	334.85
371.974	307.73
372.355	317
372.736	340.73
373.117	320.61
373.498	318.81
373.879	317.9
374.26	319.26
374.641	312.48
375.021	296.21
375.402	326.49
375.783	299.82
376.163	357.67
376.544	323.78
376.925	330.56
377.305	309.99
377.686	321.97
378.066	307.96
378.447	324
378.827	340.05
379.208	335.3
379.588	340.05
379.968	330.1
380.349	325.13
380.729	325.36
381.109	340.5
381.489	357.9
381.87	338.24
382.25	339.37
382.63	364.91
383.01	342.76
383.39	351.8
383.77	345.02
384.15	334.17
384.53	345.47
384.91	330.56
385.29	335.53
385.67	348.41
386.049	347.73
386.429	382.08
386.809	365.36
387.189	349.54
387.568	346.6
387.948	329.88
388.328	355.87
388.707	357.9
389.087	360.61
389.466	369.88
389.846	359.71
390.225	365.13
390.605	364.23
390.984	365.13
391.363	370.33
391.743	375.07
392.122	366.26
392.501	369.43
392.881	406.94
393.26	382.98
393.639	391.57
394.018	383.21
394.397	375.75
394.776	388.41
395.155	380.5
395.534	400.61
395.913	401.29
396.292	404
396.671	381.63
397.05	419.59
397.429	384.79
397.808	413.27
398.186	406.03
398.565	387.96
398.944	377.33
399.323	420.05
399.701	433.38
400.08	420.05
400.458	399.93
400.837	410.1
401.215	425.7
401.594	410.1
401.972	429.08
402.351	418.46
402.729	403.32
403.107	437.22
403.486	419.59
403.864	428.63
404.242	441.97
404.62	428.18
404.999	441.74
405.377	442.87
405.755	432.02
406.133	439.48
406.511	434.51
406.889	449.88
407.267	446.94
407.645	431.34
408.023	465.47
408.401	456.43
408.779	472.25
409.156	470.89
409.534	465.47
409.912	478.57
410.29	475.19
410.667	481.06
411.045	467.95
411.422	487.39
411.8	508.86
412.178	495.07
412.555	479.48
412.933	490.1
413.31	488.74
413.687	498.24
414.065	493.49
414.442	492.81
414.819	493.94
415.197	538.23
415.574	485.35
415.951	516.31
416.328	535.07
416.705	511.34
417.082	534.17
417.46	557.44
417.837	523.09
418.214	517.22
418.591	540.49
418.967	523.32
419.344	538.69
419.721	539.36
420.098	543.21
420.475	574.17
420.852	567.61
421.228	563.09
421.605	561.51
421.982	574.39
422.358	590.66
422.735	577.78
423.111	584.79
423.488	586.37
423.864	594.73
424.241	595.63
424.617	589.08
424.994	608.74
425.37	616.42
425.746	589.31
426.123	612.13
426.499	638.57
426.875	623.66
427.251	610.55
427.627	634.96
428.003	630.89
428.379	655.07
428.756	626.37
429.132	655.29
429.507	647.84
429.883	646.93
430.259	662.75
430.635	682.64
431.011	680.38
431.387	677.67
431.763	704.56
432.138	702.75
432.514	711.56
432.89	705.69
433.265	728.74
433.641	741.84
434.016	719.47
434.392	714.5
434.767	773.03
435.143	736.42
435.518	756.53
435.894	769.87
436.269	769.41
436.644	747.95
437.02	762.18
437.395	793.37
437.77	799.7
438.145	803.54
438.52	780.94
438.895	814.61
439.271	793.82
439.646	837.66
440.021	815.74
440.395	839.24
440.77	806.93
441.145	862.29
441.52	830.2
441.895	853.93
442.27	869.07
442.645	867.27
443.019	871.56
443.394	867.72
443.769	888.73
444.143	885.12
444.518	888.28
444.892	871.11
445.267	909.52
445.641	895.06
446.016	899.35
446.39	904.33
446.764	913.37
447.139	900.94
447.513	916.53
447.887	894.84
448.262	949.98
448.636	944.1
449.01	950.2
449.384	947.04
449.758	969.18
450.132	990.43
450.506	973.25
450.88	955.17
451.254	977.77
451.628	1007.6
452.002	1009.63
452.376	1020.71
452.75	1061.61
453.123	1047.37
453.497	1078.56
453.871	1054.15
454.244	1088.73
454.618	1075.17
454.992	1093.7
455.365	1105.9
455.739	1125.11
456.112	1156.3
456.486	1157.88
456.859	1173.02
457.232	1210.31
457.606	1211.21
457.979	1200.82
458.352	1224.09
458.725	1216.41
459.099	1220.02
459.472	1248.05
459.845	1257.54
460.218	1257.76
460.591	1291.43
460.964	1302.51
461.337	1330.53
461.71	1337.08
462.083	1344.54
462.456	1382.05
462.829	1419.12
463.201	1434.48
463.574	1428.83
463.947	1458.89
464.32	1492.79
464.692	1514.25
465.065	1512.45
465.438	1514.03
465.81	1550.86
466.183	1542.95
466.555	1631.54
466.928	1614.82
467.3	1639.22
467.672	1661.59
468.045	1677.87
468.417	1722.84
468.789	1744.3
469.161	1782.95
469.534	1791.31
469.906	1841.48
470.278	1871.31
470.65	1853.23
471.022	1903.17
471.394	1968.93
471.766	1994.92
472.138	2045.77
472.51	2050.74
472.882	2114.46
473.253	2166.67
473.625	2204.41
473.997	2271.3
474.369	2301.35
474.74	2325.53
475.112	2427
475.484	2458.86
475.855	2488.92
476.227	2542.25
476.598	2642.36
476.97	2697.95
477.341	2785.41
477.713	2870.38
478.084	2907.66
478.455	2973.42
478.827	3057.26
479.198	3145.62
479.569	3223.59
479.94	3365.28
480.311	3382.45
480.682	3470.81
481.053	3584.03
481.424	3726.85
481.795	3762.33
482.166	3902.44
482.537	3960.74
482.908	4142.43
483.279	4226.27
483.65	4324.35
484.021	4440.5
484.391	4566.83
484.762	4667.17
485.133	4786.26
485.503	4920.72
485.874	5072.8
486.244	5157.55
486.615	5326.13
486.985	5494.49
487.356	5630.08
487.726	5706.46
488.097	5931.99
488.467	6011.76
488.837	6193.45
489.207	6314.13
489.578	6467.34
489.948	6608.81
490.318	6778.97
490.688	6901
491.058	7119.98
491.428	7177.16
491.798	7367.43
492.168	7545.51
492.538	7678.39
492.908	7875.89
493.278	8091.71
493.648	8128.32
494.017	8311.14
494.387	8467.52
494.757	8528.76
495.126	8738.47
495.496	8834.06
495.866	8975.53
496.235	9159.7
496.605	9313.14
496.974	9408.06
497.344	9502.07
497.713	9691.21
498.082	9793.36
498.452	9936.41
498.821	10003.75
499.19	10117.87
499.559	10352.89
499.928	10379.11
500.298	10522.15
500.667	10677.4
501.036	10724.86
501.405	10958.3
501.774	10990.84
502.143	11104.96
502.512	11226.77
502.88	11281.68
503.249	11330.72
503.618	11488.23
503.987	11550.83
504.356	11704.27
504.724	11768
505.093	11864.72
505.462	11950.36
505.83	12113.07
506.199	12208.89
506.567	12396.68
506.936	12356.68
507.304	12513.29
507.672	12572.72
508.041	12645.03
508.409	12720.51
508.777	12830.11
509.145	12910.56
509.514	12961.64
509.882	13064.91
510.25	13019.94
510.618	13226.04
510.986	13261.06
511.354	13319.37
511.722	13370.89
512.09	13563.88
512.458	13534.5
512.826	13605.24
513.193	13631.22
513.561	13621.73
513.929	13799.35
514.297	13868.96
514.664	13847.26
515.032	13969.52
515.4	14054.26
515.767	14082.29
516.135	14099.69
516.502	14016.3
516.869	14202.96
517.237	14235.95
517.604	14174.94
517.972	14336.74
518.339	14333.35
518.706	14385.78
519.073	14418.32
519.44	14508.49
519.808	14545.55
520.175	14544.87
520.542	14729.73
520.909	14745.32
521.276	14736.05
521.643	14757.3
522.009	14744.41
522.376	14863.96
522.743	14902.83
523.11	14926.56
523.477	15066.89
523.843	15103.05
524.21	15160
524.577	15196.15
524.943	15212.42
525.31	15183.73
525.676	15212.88
526.043	15290.61
526.409	15344.17
526.776	15323.83
527.142	15467.56
527.508	15358.64
527.874	15375.81
528.241	15442.93
528.607	15435.02
528.973	15550.95
529.339	15430.27
529.705	15593.43
530.071	15649.02
530.437	15555.47
530.803	15598.86
531.169	15591.62
531.535	15475.02
531.901	15494.45
532.267	15499.65
532.632	15518.86
532.998	15557.27
533.364	15592.3
533.73	15517.05
534.095	15535.58
534.461	15497.16
534.826	15539.42
535.192	15574.22
535.557	15589.36
535.923	15433.89
536.288	15404.28
536.653	15443.38
537.019	15428.69
537.384	15276.6
537.749	15458.07
538.114	15215.59
538.479	15318.18
538.845	15244.51
539.21	15225.98
539.575	15235.02
539.94	15197.51
540.305	15227.57
540.67	15116.16
541.034	15197.96
541.399	15118.87
541.764	15084.52
542.129	15010.4
542.494	14978.98
542.858	14943.73
543.223	14858.31
543.587	14889.72
543.952	14885.88
544.316	14836.39
544.681	14753.23
545.045	14774.24
545.41	14662.61
545.774	14644.53
546.138	14684.76
546.503	14534.93
546.867	14579.45
547.231	14622.61
547.595	14521.82
547.959	14492.9
548.324	14433.91
548.688	14359.11
549.052	14382.62
549.416	14330.41
549.779	14305.33
550.143	14280.47
550.507	14313.24
550.871	14310.98
551.235	14102.62
551.599	14221.04
551.962	14123.19
552.326	14190.3
552.689	14197.31
553.053	14006.58
553.417	14026.69
553.78	14114.83
554.143	14012
554.507	13966.13
554.87	13963.64
555.234	14083.64
555.597	13887.71
555.96	13944.89
556.323	13909.63
556.686	13876.87
557.05	13901.72
557.413	13937.88
557.776	13893.14
558.139	13870.09
558.502	13826.25
558.865	13818.79
559.228	13849.07
559.59	13822.18
559.953	13841.84
560.316	13935.17
560.679	13764.55
561.041	13880.03
561.404	13810.88
561.767	13939.46
562.129	13778.79
562.492	13889.52
562.854	13842.74
563.217	13817.89
563.579	13812.46
563.941	13823.76
564.304	13869.64
564.666	14019.69
565.028	13958.45
565.39	14003.19
565.753	13966.81
566.115	13920.26
566.477	13957.77
566.839	13984.21
567.201	14027.15
567.563	13946.47
567.925	14066.69
568.287	13979.24
568.648	13989.63
569.01	14066.47
569.372	14090.65
569.734	14063.98
570.095	14159.8
570.457	14085.22
570.819	14038.22
571.18	14037.99
571.542	14100.36
571.903	14138.55
572.265	14141.49
572.626	14165.45
572.987	14180.14
573.349	14274.82
573.71	14179.68
574.071	14219.23
574.432	14286.57
574.794	14323.18
575.155	14347.59
575.516	14242.51
575.877	14301.04
576.238	14269.62
576.599	14298.78
576.96	14219.23
577.32	14251.77
577.681	14297.42
578.042	14378.77
578.403	14346.91
578.763	14328.83
579.124	14279.34
579.485	14275.73
579.845	14358.21
580.206	14284.54
580.566	14295.84
580.927	14355.05
581.287	14352.79
581.648	14278.89
582.008	14382.84
582.368	14332
582.728	14323.18
583.089	14310.75
583.449	14324.09
583.809	14357.76
584.169	14329.96
584.529	14231.43
584.889	14261.49
585.249	14122.51
585.609	14123.64
585.969	14218.1
586.329	14209.29
586.688	14248.16
587.048	14232.11
587.408	14243.64
587.768	14147.14
588.127	14185.79
588.487	14165.45
588.846	14253.35
589.206	14203.19
589.565	14149.18
589.925	14150.53
590.284	14167.03
590.643	14100.14
591.003	14156.41
591.362	14230.08
591.721	14080.03
592.08	14120.7
592.44	14126.35
592.799	14143.98
593.158	14107.37
593.517	14041.61
593.876	14028.28
594.235	14063.53
594.593	13981.95
594.952	14087.03
595.311	14024.66
595.67	14065.56
596.029	14084.54
596.387	14034.6
596.746	14117.76
597.104	14062.85
597.463	14004.32
597.822	14079.12
598.18	14041.38
598.538	13961.61
598.897	14014.72
599.255	13963.87
599.613	14114.37
599.972	14037.77
600.33	14070.53
600.688	13971.55
601.046	13984.66
601.404	14099.91
601.762	14015.62
602.12	14088.39
602.478	14107.37
602.836	14003.42
603.194	13986.24
603.552	13999.8
603.91	13915.06
604.268	14118.67
604.625	13929.97
604.983	14099.69
605.341	13940.14
605.698	14093.58
606.056	13998.67
606.413	14010.87
606.771	14054.72
607.128	14056.52
607.485	14003.42
607.843	14039.12
608.2	14096.52
608.557	14086.13
608.914	14060.14
609.272	14205.45
609.629	14098.1
609.986	14209.74
610.343	14124.77
610.7	14236.18
611.057	14186.01
611.414	14048.61
611.771	14157.76
612.127	14203.64
612.484	14137.42
612.841	14243.64
613.198	14176.52
613.554	14141.72
613.911	14227.37
614.267	14278.44
614.624	14221.72
614.98	14218.1
615.337	14356.18
615.693	14317.76
616.05	14299.23
616.406	14404.76
616.762	14304.2
617.118	14289.06
617.475	14385.1
617.831	14357.76
618.187	14364.76
618.543	14456.51
618.899	14444.31
619.255	14353.46
619.611	14312.79
619.967	14479.79
620.323	14412.22
620.678	14416.51
621.034	14376.74
621.39	14384.65
621.746	14313.92
622.101	14519.79
622.457	14386.68
622.812	14387.81
623.168	14444.54
623.523	14520.24
623.879	14505.78
624.234	14361.15
624.589	14414.25
624.945	14408.6
625.3	14430.75
625.655	14428.04
626.01	14451.09
626.365	14424.65
626.72	14343.52
627.075	14417.42
627.43	14464.42
627.785	14317.76
628.14	14435.04
628.495	14465.1
628.85	14427.36
629.205	14362.73
629.559	14409.28
629.914	14352.56
630.269	14437.53
630.623	14335.39
630.978	14404.54
631.332	14388.27
631.687	14402.05
632.041	14356.63
632.396	14244.54
632.75	14218.1
633.104	14280.02
633.459	14234.15
633.813	14215.84
634.167	14185.33
634.521	14198.21
634.875	14208.38
635.229	14172
635.583	14120.02
635.937	14129.97
636.291	14097.2
636.645	14122.06
636.999	14106.47
637.352	14153.7
637.706	14102.62
638.06	14129.29
638.413	14034.83
638.767	13991.21
639.121	14035.96
639.474	13979.24
639.828	13984.43
640.181	13997.09
640.534	13909.86
640.888	13906.47
641.241	13835.29
641.594	13866.92
641.947	13859.47
642.301	13789.41
642.654	13877.09
643.007	13898.79
643.36	13832.57
643.713	13757.77
644.066	13857.66
644.419	13732.46
644.771	13744.44
645.124	13593.48
645.477	13498.12
645.83	13459.48
646.182	13482.3
646.535	13408.4
646.888	13424.68
647.24	13408.63
647.593	13419.93
647.945	13429.87
648.298	13304.45
648.65	13379.93
649.002	13254.51
649.355	13344
649.707	13376.09
650.059	13383.09
650.411	13525.46
650.763	13527.05
651.115	13759.58
651.467	13622.86
651.819	13656.31
652.171	13709.87
652.523	13605.46
652.875	13643.43
653.227	13594.61
653.578	13640.71
653.93	13640.04
654.282	13641.62
654.633	13583.99
654.985	13610.21
655.337	13598.23
655.688	13659.25
656.039	13695.4
656.391	13549.87
656.742	13620.15
657.094	13568.85
657.445	13642.97
657.796	13688.62
658.147	13623.99
658.498	13621.05
658.849	13654.5
659.2	13642.07
659.551	13596.2
659.902	13616.99
660.253	13612.24
660.604	13609.98
660.955	13661.73
661.306	13711
661.656	13734.27
662.007	13650.88
662.358	13701.73
662.708	13712.35
663.059	13660.38
663.409	13580.15
663.76	13643.43
664.11	13657.21
664.461	13662.86
664.811	13711.9
665.161	13668.96
665.511	13663.77
665.862	13610.66
666.212	13758.68
666.562	13713.93
666.912	13773.37
667.262	13651.79
667.612	13740.37
667.962	13730.88
668.312	13647.04
668.662	13781.05
669.011	13753.71
669.361	13640.94
669.711	13683.88
670.06	13684.1
670.41	13665.12
670.76	13590.32
671.109	13662.18
671.459	13637.1
671.808	13596.65
672.157	13680.71
672.507	13556.2
672.856	13582.19
673.205	13552.81
673.554	13618.34
673.904	13577.89
674.253	13551
674.602	13574.95
674.951	13412.02
675.3	13349.65
675.649	13489.08
675.998	13491.57
676.346	13535.18
676.695	13559.81
677.044	13512.36
677.393	13489.08
677.741	13499.93
678.09	13395.3
678.438	13373.83
678.787	13449.53
679.135	13497.67
679.484	13340.38
679.832	13393.72
680.181	13310.55
680.529	13325.92
680.877	13296.54
681.225	13317.56
681.573	13337.45
681.922	13152.37
682.27	13227.39
682.618	13195.3
682.966	13130.45
683.314	13202.08
683.661	13158.69
684.009	13093.38
684.357	13053.61
684.705	13019.04
685.053	13058.36
685.4	12924.8
685.748	12925.93
686.095	12825.59
686.443	12845.26
686.79	12777.91
687.138	12892.03
687.485	12828.08
687.832	12789.44
688.18	12696.78
688.527	12721.19
688.874	12680.29
689.221	12670.34
689.568	12618.59
689.915	12560.52
690.262	12545.6
690.609	12535.21
690.956	12453.63
691.303	12509.22
691.65	12370.47
691.997	12364.82
692.344	12285.95
692.69	12249.56
693.037	12276.46
693.383	12130.47
693.73	12206.85
694.077	12186.97
694.423	12086.86
694.769	11944.26
695.116	12007.09
695.462	12014.54
695.808	11984.94
696.155	11934.54
696.501	11766.41
696.847	11820.65
697.193	11685.74
697.539	11767.09
697.885	11718.28
698.231	11708.56
698.577	11687.77
698.923	11639.86
699.269	11480.77
699.614	11457.27
699.96	11483.71
700.306	11456.37
700.651	11338.4
700.997	11354.45
701.342	11294.11
701.688	11241.46
702.033	11235.35
702.379	11193.1
702.724	11196.26
703.069	11239.2
703.415	11062.48
703.76	11051.4
704.105	11057.05
704.45	10988.13
704.795	10958.75
705.14	10889.15
705.485	10917.17
705.83	10725.54
706.175	10785.2
706.52	10832.65
706.865	10756.5
707.209	10666.1
707.554	10693.45
707.899	10662.04
708.243	10649.38
708.588	10592.89
708.932	10527.35
709.277	10436.73
709.621	10433.57
709.966	10546.11
710.31	10531.42
710.654	10387.47
710.998	10403.06
711.342	10415.04
711.687	10403.51
712.031	10335.94
712.375	10271.54
712.719	10311.54
713.063	10268.37
713.407	10265.21
713.75	10226.79
714.094	10272.44
714.438	10218.88
714.782	10228.38
715.125	10219.11
715.469	10152.22
715.812	10122.84
716.156	10072.45
716.499	10091.66
716.843	10158.32
717.186	10033.13
717.53	10052.11
717.873	10114.93
718.216	9964.65
718.559	9968.04
718.902	9958.1
719.246	9950.87
719.589	9889.85
719.932	9847.37
720.275	9885.79
720.617	9857.76
720.96	9853.02
721.303	9830.19
721.646	9829.97
721.989	9752.91
722.331	9823.41
722.674	9754.04
723.016	9779.12
723.359	9760.59
723.701	9767.37
724.044	9792.45
724.386	9660.25
724.729	9688.95
725.071	9737.09
725.413	9683.98
725.755	9624.1
726.097	9629.29
726.439	9640.59
726.782	9616.41
727.124	9669.07
727.465	9641.05
727.807	9545.68
728.149	9599.47
728.491	9598.34
728.833	9570.09
729.175	9576.64
729.516	9616.87
729.858	9590.43
730.199	9667.71
730.541	9614.38
730.882	9550.2
731.224	9654.83
731.565	9568.51
731.906	9618
732.248	9656.64
732.589	9535.51
732.93	9567.15
733.271	9535.51
733.612	9515.63
733.953	9567.83
734.294	9499.58
734.635	9507.72
734.976	9543.87
735.317	9460.03
735.658	9480.15
735.999	9530.99
736.339	9584.1
736.68	9612.8
737.021	9575.96
737.361	9556.08
737.702	9599.24
738.042	9549.52
738.383	9596.75
738.723	9585.68
739.063	9577.54
739.404	9624.32
739.744	9674.94
740.084	9637.43
740.424	9620.48
740.764	9626.58
741.104	9787.48
741.444	9646.24
741.784	9643.53
742.124	9713.13
742.464	9774.38
742.804	9755.17
743.143	9672.68
743.483	9825.67
743.823	9817.99
744.162	9806.24
744.502	9892.56
744.841	9820.48
745.181	9915.84
745.52	9986.12
745.86	10033.35
746.199	9996.29
746.538	10072.67
746.877	10107.47
747.216	10188.15
747.556	10139.34
747.895	10316.51
748.234	10280.58
748.573	10324.42
748.911	10407.13
749.25	10510.85
749.589	10528.48
749.928	10551.53
750.267	10660.68
750.605	10706.55
750.944	10824.52
751.283	10869.49
751.621	10923.95
751.96	11025.42
752.298	11147.67
752.636	11342.02
752.975	11373.88
753.313	11396.93
753.651	11598.51
753.989	11666.08
754.327	11829.46
754.666	11860.42
755.004	12057.48
755.342	12269.9
755.679	12381.09
756.017	12493.63
756.355	12673.51
756.693	12836.67
757.031	12999.38
757.368	13040.05
