Data from hue_230_FLMS001491_00010.txt Node
Date: Tue Feb 07 16:36:44 GMT 2017
User: dcchb
Spectrometer: FLMS00149
Trigger mode: 0
Integration Time (sec): 2.000000E-2
Scans to average: 10
Electric dark correction enabled: true
Nonlinearity correction enabled: false
Boxcar width: 0
XAxis mode: Wavelengths
Number of Pixels in Spectrum: 2048
>>>>>Begin Spectral Data<<<<<
341.393	-1.95
341.776	-1.95
342.16	-1.95
342.543	-57.09
342.927	-73.59
343.31	-53.93
343.693	-76.98
344.077	-59.35
344.46	-42.4
344.843	-54.15
345.226	-43.3
345.61	-43.53
345.993	-17.99
346.376	-7.15
346.759	12.51
347.142	18.39
347.525	44.83
347.908	71.95
348.291	64.04
348.674	85.51
349.057	101.55
349.44	113.08
349.823	117.14
350.206	145.62
350.588	196.01
350.971	191.49
351.354	206.86
351.737	247.99
352.119	230.36
352.502	259.06
352.884	263.58
353.267	272.62
353.65	285.73
354.032	303.81
354.414	300.87
354.797	290.92
355.179	318.04
355.562	325.95
355.944	333.41
356.326	313.3
356.709	324.82
357.091	342
357.473	318.27
357.855	311.49
358.238	342
358.62	337.25
359.002	336.35
359.384	315.1
359.766	328.66
360.148	340.19
360.53	323.47
360.912	334.09
361.294	318.27
361.676	329.57
362.057	319.85
362.439	332.96
362.821	340.41
363.203	333.64
363.584	309.23
363.966	324.14
364.348	301.32
364.729	327.31
365.111	293.41
365.493	337.48
365.874	332.05
366.256	299.74
366.637	296.8
367.019	304.94
367.4	325.73
367.781	313.3
368.163	292.73
368.544	295.67
368.925	311.94
369.306	319.85
369.688	321.43
370.069	306.52
370.45	301.55
370.831	304.71
371.212	313.97
371.593	344.93
371.974	320.53
372.355	301.77
372.736	305.61
373.117	314.43
373.498	298.61
373.879	315.33
374.26	317.36
374.641	305.84
375.021	304.48
375.402	312.17
375.783	308.78
376.163	331.83
376.544	320.75
376.925	332.28
377.305	331.6
377.686	323.01
378.066	323.92
378.447	322.11
378.827	346.74
379.208	319.85
379.588	301.09
379.968	327.99
380.349	331.6
380.729	340.64
381.109	337.93
381.489	334.09
381.87	326.63
382.25	347.19
382.63	339.51
383.01	361.43
383.39	325.73
383.77	345.39
384.15	358.49
384.53	341.77
384.91	342
385.29	348.78
385.67	341.32
386.049	352.39
386.429	341.32
386.809	371.83
387.189	341.32
387.568	352.84
387.948	340.87
388.328	356.69
388.707	367.31
389.087	348.1
389.466	346.52
389.846	350.36
390.225	367.76
390.605	362.56
390.984	350.58
391.363	374.99
391.743	345.39
392.122	357.82
392.501	373.41
392.881	383.8
393.26	368.89
393.639	372.96
394.018	369.11
394.397	380.87
394.776	391.94
395.155	404.14
395.534	375.22
395.913	394.2
396.292	403.69
396.671	400.75
397.05	415.67
397.429	398.49
397.808	390.13
398.186	384.71
398.565	397.36
398.944	410.02
399.323	386.52
399.701	383.13
400.08	413.41
400.458	407.98
400.837	399.62
401.215	419.28
401.594	414.09
401.972	427.42
402.351	423.12
402.729	435.33
403.107	437.81
403.486	412.73
403.864	422.22
404.242	452.28
404.62	427.42
404.999	439.85
405.377	446.17
405.755	445.27
406.133	438.94
406.511	464.25
406.889	462.9
407.267	469
407.645	497.47
408.023	476.91
408.401	472.84
408.779	473.74
409.156	477.36
409.534	493.41
409.912	505.83
410.29	519.85
410.667	504.03
411.045	520.52
411.422	496.57
411.8	516.46
412.178	524.59
412.555	548.09
412.933	537.47
413.31	556.23
413.687	574.53
414.065	550.13
414.442	591.03
414.819	571.14
415.197	601.88
415.574	610.69
415.951	592.16
416.328	608.2
416.705	632.38
417.082	641.88
417.46	632.61
417.837	637.36
418.214	657.02
418.591	662.89
418.967	647.75
419.344	660.41
419.721	687.52
420.098	682.1
420.475	678.71
420.852	698.15
421.228	724.59
421.605	698.15
421.982	720.97
422.358	747.86
422.735	717.13
423.111	706.51
423.488	773.4
423.864	752.16
424.241	783.79
424.617	798.48
424.994	824.24
425.37	814.3
425.746	824.7
426.123	841.42
426.499	839.38
426.875	850.91
427.251	881.64
427.627	876.9
428.003	899.95
428.379	891.13
428.756	912.15
429.132	921.64
429.507	930
429.883	923.22
430.259	937.46
430.635	969.55
431.011	973.39
431.387	1010.45
431.763	1007.97
432.138	1023.33
432.514	1043.9
432.89	1039.61
433.265	1090.68
433.641	1099.26
434.016	1082.77
434.392	1106.27
434.767	1139.49
435.143	1148.3
435.518	1165.93
435.894	1151.01
436.269	1197.34
436.644	1204.35
437.02	1235.98
437.395	1215.65
437.77	1269.43
438.145	1302.65
438.52	1299.26
438.895	1341.52
439.271	1327.28
439.646	1388.52
440.021	1377.45
440.395	1388.97
440.77	1369.77
441.145	1406.83
441.52	1425.81
441.895	1426.94
442.27	1484.79
442.645	1491.12
443.019	1470.55
443.394	1492.25
443.769	1524.79
444.143	1500.61
444.518	1525.47
444.892	1531.12
445.267	1532.93
445.641	1592.36
446.016	1553.26
446.39	1599.14
446.764	1591.23
447.139	1615.41
447.513	1617.22
447.887	1626.71
448.262	1634.39
448.636	1642.08
449.01	1699.48
449.384	1665.8
449.758	1666.48
450.132	1673.26
450.506	1706.71
450.88	1728.4
451.254	1728.85
451.628	1740.15
452.002	1781.73
452.376	1769.08
452.75	1808.85
453.123	1810.43
453.497	1798.91
453.871	1863.76
454.244	1858.79
454.618	1873.03
454.992	1912.35
455.365	1914.61
455.739	1968.17
456.112	1968.39
456.486	1999.81
456.859	2020.6
457.232	2045.45
457.606	2061.05
457.979	2050.43
458.352	2117.77
458.725	2144.66
459.099	2149.86
459.472	2190.08
459.845	2192.8
460.218	2199.57
460.591	2223.98
460.964	2251.1
461.337	2253.58
461.71	2322.51
462.083	2333.13
462.456	2327.48
462.829	2327.93
463.201	2421.26
463.574	2390.98
463.947	2447.03
464.32	2515.05
464.692	2520.24
465.065	2534.48
465.438	2573.58
465.81	2621.03
466.183	2614.48
466.555	2642.95
466.928	2628.04
467.3	2662.39
467.672	2682.73
468.045	2764.31
468.417	2744.65
468.789	2796.62
469.161	2852.67
469.534	2846.56
469.906	2897.86
470.278	2934.7
470.65	2929.27
471.022	3010.4
471.394	3084.52
471.766	3070.29
472.138	3090.17
472.51	3150.74
472.882	3193
473.253	3241.13
473.625	3303.05
473.997	3367.45
474.369	3371.97
474.74	3405.19
475.112	3444.51
475.484	3521.12
475.855	3536.04
476.227	3557.96
476.598	3642.7
476.97	3679.31
477.341	3752.3
477.713	3796.14
478.084	3801.34
478.455	3915.91
478.827	3958.17
479.198	4044.05
479.569	4028.45
479.94	4142.12
480.311	4141.9
480.682	4243.14
481.053	4346.19
481.424	4380.31
481.795	4395.22
482.166	4444.04
482.537	4496.69
482.908	4590.92
483.279	4617.82
483.65	4731.49
484.021	4815.33
484.391	4820.97
484.762	4877.92
485.133	4902.33
485.503	4976
485.874	5094.19
486.244	5073.62
486.615	5234.07
486.985	5226.61
487.356	5314.07
487.726	5359.27
488.097	5385.48
488.467	5441.3
488.837	5556.32
489.207	5597.23
489.578	5651.01
489.948	5697.56
490.318	5770.78
490.688	5830.44
491.058	5855.07
491.428	5895.52
491.798	5956.54
492.168	6099.36
492.538	6139.58
492.908	6096.87
493.278	6232.69
493.648	6185.91
494.017	6300.94
494.387	6316.08
494.757	6333.7
495.126	6421.84
495.496	6407.83
495.866	6417.77
496.235	6549.52
496.605	6587.48
496.974	6596.75
497.344	6646.24
497.713	6703.41
498.082	6740.25
498.452	6782.05
498.821	6794.26
499.19	6823.86
499.559	6873.35
499.928	6897.3
500.298	6889.85
500.667	7003.97
501.036	7010.07
501.405	7011.2
501.774	7006.91
502.143	7057.98
502.512	7098.2
502.88	7144.53
503.249	7152.89
503.618	7152.67
503.987	7192.44
504.356	7200.35
504.724	7223.85
505.093	7246.22
505.462	7357.41
505.83	7299.78
506.199	7341.36
506.567	7409.61
506.936	7408.03
507.304	7447.8
507.672	7447.8
508.041	7462.71
508.409	7541.36
508.777	7564.41
509.145	7641.92
509.514	7575.03
509.882	7622.48
510.25	7612.77
510.618	7587.23
510.986	7640.56
511.354	7764.63
511.722	7757.17
512.09	7803.04
512.458	7802.14
512.826	7833.1
513.193	7853.66
513.561	7890.95
513.929	7877.62
514.297	7854.34
514.664	7903.61
515.032	7935.24
515.4	7991.29
515.767	7932.98
516.135	8020.44
516.502	7975.69
516.869	8059.31
517.237	8084.39
517.604	7990.38
517.972	8056.82
518.339	8125.07
518.706	8123.04
519.073	8162.36
519.44	8168.68
519.808	8198.06
520.175	8124.16
520.542	8239.64
520.909	8250.04
521.276	8231.96
521.643	8278.29
522.009	8304.5
522.376	8324.39
522.743	8261.34
523.11	8392.18
523.477	8400.99
523.843	8419.98
524.21	8469.47
524.577	8496.13
524.943	8486.19
525.31	8500.2
525.676	8580.65
526.043	8531.84
526.409	8560.09
526.776	8642.12
527.142	8558.05
527.508	8631.27
527.874	8644.6
528.241	8680.53
528.607	8680.31
528.973	8700.19
529.339	8631.72
529.705	8680.53
530.071	8790.36
530.437	8777.26
530.803	8763.24
531.169	8825.84
531.535	8759.18
531.901	8724.15
532.267	8763.47
532.632	8746.07
532.998	8720.76
533.364	8796.46
533.73	8766.63
534.095	8790.59
534.461	8819.29
534.826	8820.87
535.192	8780.19
535.557	8860.87
535.923	8808.44
536.288	8753.98
536.653	8812.96
537.019	8752.17
537.384	8825.84
537.749	8807.08
538.114	8778.61
538.479	8735.9
538.845	8782.45
539.21	8781.32
539.575	8744.49
539.94	8715.79
540.305	8722.79
540.67	8691.61
541.034	8752.85
541.399	8746.75
541.764	8703.13
542.129	8695.45
542.494	8709.01
542.858	8667.65
543.223	8695.68
543.587	8658.16
543.952	8659.29
544.316	8664.49
544.681	8713.75
545.045	8694.55
545.41	8661.33
545.774	8664.04
546.138	8625.85
546.503	8603.47
546.867	8591.95
547.231	8680.31
547.595	8694.77
547.959	8620.88
548.324	8616.36
548.688	8631.5
549.052	8653.19
549.416	8597.6
549.779	8587.43
550.143	8575.45
550.507	8617.26
550.871	8604.15
551.235	8544.94
551.599	8594.66
551.962	8597.37
552.326	8628.33
552.689	8645.96
553.053	8525.74
553.417	8547.88
553.78	8611.16
554.143	8545.17
554.507	8517.15
554.87	8542.23
555.234	8608.67
555.597	8549.24
555.96	8549.24
556.323	8560.31
556.686	8537.04
557.05	8577.94
557.413	8581.1
557.776	8586.53
558.139	8626.07
558.502	8544.04
558.865	8592.63
559.228	8675.56
559.59	8649.57
559.953	8650.93
560.316	8672.85
560.679	8661.55
561.041	8696.35
561.404	8701.55
561.767	8743.13
562.129	8744.94
562.492	8758.5
562.854	8744.71
563.217	8762.79
563.579	8759.85
563.941	8843.69
564.304	8820.42
564.666	8849.8
565.028	8862.22
565.39	8874.2
565.753	8825.62
566.115	8871.26
566.477	8885.5
566.839	8978.38
567.201	9000.53
567.563	8951.26
567.925	9031.94
568.287	9029.23
568.648	9034.42
569.01	9055.21
569.372	9131.6
569.734	9085.5
570.095	9123.91
570.457	9155.32
570.819	9155.55
571.18	9073.29
571.542	9140.86
571.903	9210.01
572.265	9187.64
572.626	9287.75
572.987	9276
573.349	9245.27
573.71	9312.83
574.071	9283.68
574.432	9256.11
574.794	9370.91
575.155	9334.75
575.516	9356.67
575.877	9414.53
576.238	9417.69
576.599	9504.69
576.96	9419.95
577.32	9472.83
577.681	9507.86
578.042	9539.95
578.403	9578.14
578.763	9557.57
579.124	9614.07
579.485	9620.85
579.845	9602.09
580.206	9578.36
580.566	9658.81
580.927	9637.12
581.287	9730.45
581.648	9681.64
582.008	9733.84
582.368	9708.98
582.728	9741.3
583.089	9701.3
583.449	9771.13
583.809	9712.82
584.169	9846.15
584.529	9810.45
584.889	9859.03
585.249	9802.99
585.609	9818.81
585.969	9867.85
586.329	9882.08
586.688	9837.79
587.048	9845.93
587.408	9834.4
587.768	9885.02
588.127	9946.26
588.487	9933.61
588.846	9948.3
589.206	9925.25
589.565	9875.98
589.925	9990.1
590.284	9973.16
590.643	9914.63
591.003	9962.08
591.362	10036.43
591.721	10040.27
592.08	10037.33
592.44	10054.74
592.799	9993.95
593.158	10006.15
593.517	10017
593.876	10043.21
594.235	10062.42
594.593	10031.23
594.952	10128.63
595.311	10087.96
595.67	10059.48
596.029	10141.06
596.387	10153.94
596.746	10080.05
597.104	10164.34
597.463	10102.42
597.822	10081.63
598.18	10112.59
598.538	10124.11
598.897	10104.45
599.255	10064.68
599.613	10232.36
599.972	10108.75
600.33	10207.73
600.688	10196.43
601.046	10238.69
601.404	10239.82
601.762	10197.1
602.12	10238.46
602.478	10221.74
602.836	10211.12
603.194	10209.53
603.552	10127.73
603.91	10205.92
604.268	10271.23
604.625	10176.54
604.983	10270.1
605.341	10202.08
605.698	10290.44
606.056	10258.35
606.413	10268.52
606.771	10312.13
607.128	10270.78
607.485	10271.45
607.843	10295.41
608.2	10314.84
608.557	10431.45
608.914	10353.71
609.272	10337.21
609.629	10417.89
609.986	10440.94
610.343	10343.99
610.7	10378.34
611.057	10434.39
611.414	10428.96
611.771	10373.15
612.127	10464.44
612.484	10400.94
612.841	10455.63
613.198	10494.5
613.554	10490.88
613.911	10540.6
614.267	10508.51
614.624	10435.74
614.98	10550.32
615.337	10581.05
615.693	10508.06
616.05	10454.05
616.406	10583.08
616.762	10541.05
617.118	10539.47
617.475	10527.49
617.831	10559.13
618.187	10544.67
618.543	10593.7
618.899	10612.24
619.255	10602.07
619.611	10612.69
619.967	10632.57
620.323	10567.26
620.678	10638.9
621.034	10583.76
621.39	10581.73
621.746	10579.02
622.101	10732.68
622.457	10590.77
622.812	10576.53
623.168	10689.07
623.523	10658.11
623.879	10636.87
624.234	10556.19
624.589	10652.69
624.945	10720.48
625.3	10660.82
625.655	10629.18
626.01	10615.85
626.365	10605
626.72	10603.65
627.075	10667.6
627.43	10544.67
627.785	10512.12
628.14	10629.64
628.495	10603.87
628.85	10626.47
629.205	10510.32
629.559	10607.72
629.914	10533.59
630.269	10578.56
630.623	10501.96
630.978	10484.78
631.332	10565.46
631.687	10485.23
632.041	10471.45
632.396	10489.53
632.75	10463.76
633.104	10481.62
633.459	10382.41
633.813	10402.07
634.167	10445.46
634.521	10439.13
634.875	10418.34
635.229	10355.97
635.583	10372.24
635.937	10357.1
636.291	10337.21
636.645	10341.28
636.999	10320.49
637.352	10337.44
637.706	10288.63
638.06	10302.41
638.413	10316.88
638.767	10311.9
639.121	10301.96
639.474	10221.96
639.828	10234.39
640.181	10227.84
640.534	10173.38
640.888	10169.76
641.241	10136.54
641.594	10122.3
641.947	10178.12
642.301	10139.48
642.654	10092.7
643.007	10199.36
643.36	10113.04
643.713	10056.77
644.066	10210.44
644.419	10098.35
644.771	10008.64
645.124	10012.48
645.477	9995.3
645.83	9926.38
646.182	9861.52
646.535	9859.71
646.888	9790.79
647.24	9773.61
647.593	9812.26
647.945	9761.41
648.298	9671.24
648.65	9688.19
649.002	9752.82
649.355	9682.77
649.707	9738.59
650.059	9803.22
650.411	9874.18
650.763	9894.74
651.115	9977.68
651.467	9979.94
651.819	9953.27
652.171	9947.85
652.523	9984.91
652.875	9920.05
653.227	9883.89
653.578	9954.4
653.93	9944
654.282	9898.36
654.633	9939.94
654.985	9920.73
655.337	9906.94
655.688	9901.52
656.039	9945.13
656.391	9947.85
656.742	9999.14
657.094	9908.98
657.445	9912.59
657.796	9951.01
658.147	9907.17
658.498	9924.34
658.849	9934.51
659.2	9939.03
659.551	9889.54
659.902	9945.81
660.253	9930.45
660.604	9883.67
660.955	9871.46
661.306	9836.66
661.656	9848.19
662.007	9951.24
662.358	9922.31
662.708	9886.38
663.059	9929.99
663.409	9913.72
663.76	9957.56
664.11	9936.55
664.461	9921.41
664.811	9939.94
665.161	9948.98
665.511	9879.15
665.862	9911.46
666.212	9933.16
666.562	9949.65
666.912	9960.5
667.262	9862.65
667.612	9949.88
667.962	9915.53
668.312	9842.76
668.662	9944.23
669.011	9992.14
669.361	9903.55
669.711	9871.92
670.06	9862.88
670.41	9897.23
670.76	9925.02
671.109	10005.47
671.459	9795.08
671.808	9891.8
672.157	9894.29
672.507	9779.94
672.856	9800.51
673.205	9825.36
673.554	9878.02
673.904	9809.32
674.253	9868.53
674.602	9814.06
674.951	9643.9
675.3	9623.33
675.649	9776.1
675.998	9763.67
676.346	9818.58
676.695	9797.34
677.044	9730.9
677.393	9770.9
677.741	9737
678.09	9711.69
678.438	9703.78
678.787	9725.93
679.135	9670.56
679.484	9584.47
679.832	9658.36
680.181	9609.32
680.529	9597.35
680.877	9604.35
681.225	9574.3
681.573	9650
681.922	9583.11
682.27	9458.82
682.618	9532.72
682.966	9486.84
683.314	9509.67
683.661	9423.79
684.009	9374.08
684.357	9366.39
684.705	9410.46
685.053	9393.74
685.4	9391.48
685.748	9310.57
686.095	9287.52
686.443	9253.63
686.79	9273.74
687.138	9307.18
687.485	9229.67
687.832	9145.61
688.18	9282.1
688.527	9244.14
688.874	9132.95
689.221	9166.85
689.568	9123.23
689.915	9096.34
690.262	9090.92
690.609	9017.47
690.956	9024.93
691.303	9012.5
691.65	8976.57
691.997	8911.71
692.344	8916.46
692.69	8906.07
693.037	8888.44
693.383	8811.38
693.73	8860.64
694.077	8796.01
694.423	8770.48
694.769	8675.56
695.116	8720.08
695.462	8712.17
695.808	8641.67
696.155	8682.57
696.501	8620.2
696.847	8584.94
697.193	8523.25
697.539	8520.31
697.885	8499.52
698.231	8455.68
698.577	8393.31
698.923	8415.23
699.269	8407.55
699.614	8315.35
699.96	8277.38
700.306	8323.71
700.651	8291.39
700.997	8220.43
701.342	8248.91
701.688	8212.75
702.033	8174.79
702.379	8104.28
702.724	8136.14
703.069	8093.66
703.415	7981.12
703.76	8069.7
704.105	8008.91
704.45	7980.89
704.795	7920.78
705.14	7966.65
705.485	7863.15
705.83	7919.88
706.175	7905.19
706.52	7878.3
706.865	7871.97
707.209	7791.97
707.554	7779.99
707.899	7794.23
708.243	7740.22
708.588	7729.37
708.932	7697.96
709.277	7736.6
709.621	7690.05
709.966	7640.34
710.31	7612.99
710.654	7557.4
710.998	7584.52
711.342	7591.98
711.687	7565.08
712.031	7472.43
712.375	7483.73
712.719	7476.05
713.063	7487.35
713.407	7492.09
713.75	7455.48
714.094	7479.21
714.438	7404.41
714.782	7405.99
715.125	7400.57
715.469	7405.31
715.812	7333.68
716.156	7335.71
716.499	7365.54
716.843	7323.96
717.186	7229.5
717.53	7293.9
717.873	7335.49
718.216	7237.41
718.559	7266.33
718.902	7249.61
719.246	7234.47
719.589	7229.05
719.932	7146.56
720.275	7186.56
720.617	7128.71
720.96	7172.33
721.303	7180.46
721.646	7175.72
721.989	7131.42
722.331	7160.57
722.674	7133.23
723.016	7149.05
723.359	7154.47
723.701	7128.48
724.044	7033.8
724.386	7076.51
724.729	7132.33
725.071	7059.79
725.413	7090.97
725.755	7081.03
726.097	7040.13
726.439	6991.77
726.782	6987.47
727.124	7067.92
727.465	7008.94
727.807	6994.03
728.149	6989.05
728.491	6978.66
728.833	6934.59
729.175	6992.67
729.516	6954.03
729.858	6984.99
730.199	6974.14
730.541	6961.48
730.882	6953.57
731.224	6921.94
731.565	6958.77
731.906	7004.19
732.248	6993.35
732.589	6942.73
732.93	6909.06
733.271	6923.29
733.612	6941.82
733.953	6902.5
734.294	6923.52
734.635	6928.72
734.976	6896.85
735.317	6912.9
735.658	6914.25
735.999	6889.17
736.339	6946.34
736.68	6983.63
737.021	6930.98
737.361	6886.23
737.702	6965.1
738.042	6942.73
738.383	6918.77
738.723	6957.64
739.063	7001.71
739.404	6981.37
739.744	6961.94
740.084	6949.96
740.424	7009.62
740.764	6921.26
741.104	7028.37
741.444	6958.55
741.784	6933.69
742.124	6988.6
742.464	7065.21
742.804	7039.45
743.143	6993.57
743.483	7039.22
743.823	7005.78
744.162	7050.75
744.502	7120.35
744.841	7088.49
745.181	7191.53
745.52	7160.35
745.86	7217.3
746.199	7222.04
746.538	7261.36
746.877	7210.29
747.216	7283.06
747.556	7342.26
747.895	7351.3
748.234	7332.55
748.573	7351.3
748.911	7433.34
749.25	7533.45
749.589	7502.49
749.928	7593.78
750.267	7694.12
750.605	7650.28
750.944	7707.9
751.283	7744.51
751.621	7803.72
751.96	7897.28
752.298	7947.67
752.636	8106.99
752.975	8093.43
753.313	8142.02
753.651	8236.25
753.989	8290.04
754.327	8328
754.666	8403.25
755.004	8569.58
755.342	8592.63
755.679	8683.7
756.017	8772.51
756.355	8846.41
756.693	8912.39
757.031	9055.21
757.368	9118.26
757.706	9234.64
758.044	9309.44
758.381	9565.48
758.719	9588.08
759.056	9665.82
759.394	9821.07
759.731	9889.54
760.068	10077.33
760.405	10074.17
760.743	10185.35
761.08	10419.47
761.417	10493.59
761.754	10557.1
762.091	10798.9
762.428	10856.3
762.765	10911.89
763.102	11077.31
763.438	11152.11
763.775	11256.29
764.112	11443.17
764.449	11553.68
764.785	11658.08
765.122	11709.38
765.458	11856.95
765.795	11936.04
766.131	12109.82
