Data from hue_60_FLMS001491_7.txt Node
Date: Mon Feb 06 15:11:51 GMT 2017
User: dcchb
Spectrometer: FLMS00149
Trigger mode: 0
Integration Time (sec): 2.000000E-2
Scans to average: 10
Electric dark correction enabled: true
Nonlinearity correction enabled: false
Boxcar width: 0
XAxis mode: Wavelengths
Number of Pixels in Spectrum: 2048
>>>>>Begin Spectral Data<<<<<
341.393	-26.81
341.776	-26.81
342.16	-26.81
342.543	-59.35
342.927	-83.53
343.31	-75.85
343.693	-63.87
344.077	-62.51
344.46	-54.6
344.843	-61.16
345.226	-48.95
345.61	-17.54
345.993	-15.28
346.376	-0.37
346.759	-2.4
347.142	23.59
347.525	35.79
347.908	57.03
348.291	74.43
348.674	98.61
349.057	113.08
349.44	149.91
349.823	127.54
350.206	159.63
350.588	206.41
350.971	219.97
351.354	231.04
351.737	233.3
352.119	242.11
352.502	266.74
352.884	268.33
353.267	274.65
353.65	304.94
354.032	314.88
354.414	311.94
354.797	320.53
355.179	323.24
355.562	324.37
355.944	325.27
356.326	332.73
356.709	367.08
357.091	339.74
357.473	342.45
357.855	342
358.238	343.35
358.62	355.1
359.002	346.06
359.384	335.9
359.766	357.82
360.148	341.32
360.53	348.32
360.912	339.74
361.294	329.12
361.676	343.35
362.057	329.12
362.439	337.48
362.821	338.61
363.203	326.4
363.584	326.86
363.966	311.49
364.348	332.73
364.729	338.83
365.111	333.64
365.493	332.96
365.874	321.43
366.256	326.4
366.637	310.36
367.019	324.82
367.4	337.93
367.781	331.83
368.163	323.01
368.544	328.21
368.925	318.27
369.306	318.95
369.688	326.63
370.069	333.86
370.45	326.4
370.831	304.26
371.212	315.1
371.593	319.4
371.974	314.2
372.355	322.11
372.736	322.11
373.117	303.81
373.498	333.41
373.879	342.22
374.26	333.64
374.641	337.48
375.021	322.56
375.402	323.69
375.783	320.08
376.163	342.22
376.544	316.23
376.925	329.57
377.305	320.75
377.686	326.63
378.066	334.99
378.447	348.1
378.827	326.86
379.208	334.54
379.588	329.12
379.968	348.55
380.349	344.71
380.729	327.76
381.109	335.67
381.489	360.53
381.87	355.1
382.25	339.96
382.63	356.46
383.01	337.93
383.39	356.69
383.77	346.52
384.15	319.17
384.53	358.49
384.91	340.87
385.29	374.54
385.67	348.55
386.049	357.36
386.429	363.69
386.809	358.95
387.189	342.67
387.568	359.62
387.948	366.4
388.328	373.63
388.707	371.15
389.087	371.37
389.466	356.69
389.846	364.59
390.225	361.66
390.605	360.75
390.984	366.85
391.363	364.14
391.743	354.65
392.122	370.92
392.501	353.52
392.881	384.03
393.26	368.44
393.639	360.75
394.018	365.05
394.397	368.89
394.776	373.18
395.155	379.51
395.534	385.61
395.913	378.15
396.292	390.13
396.671	394.65
397.05	376.57
397.429	393.52
397.808	382.9
398.186	395.55
398.565	368.89
398.944	404.82
399.323	374.99
399.701	381.54
400.08	396.01
400.458	376.8
400.837	399.17
401.215	404.37
401.594	422.22
401.972	421.54
402.351	411.15
402.729	413.41
403.107	420.41
403.486	435.55
403.864	407.08
404.242	405.72
404.62	424.48
404.999	403.92
405.377	403.24
405.755	427.19
406.133	436.46
406.511	432.39
406.889	414.54
407.267	442.11
407.645	413.63
408.023	433.29
408.401	423.58
408.779	429.23
409.156	445.95
409.534	453.86
409.912	444.82
410.29	446.17
410.667	461.77
411.045	455.67
411.422	423.12
411.8	457.25
412.178	452.73
412.555	466.97
412.933	480.98
413.31	461.77
413.687	438.04
414.065	467.19
414.442	467.64
414.819	485.95
415.197	458.6
415.574	494.08
415.951	507.19
416.328	512.61
416.705	524.59
417.082	482.78
417.46	494.76
417.837	489.34
418.214	525.27
418.591	489.56
418.967	504.48
419.344	514.65
419.721	528.66
420.098	511.03
420.475	503.57
420.852	506.06
421.228	521.65
421.605	545.38
421.982	522.33
422.358	535.66
422.735	548.09
423.111	522.33
423.488	543.12
423.864	539.73
424.241	563.01
424.617	563.69
424.994	564.59
425.37	562.56
425.746	551.48
426.123	573.4
426.499	563.01
426.875	554.65
427.251	588.54
427.627	593.06
428.003	575.89
428.379	596.68
428.756	604.81
429.132	620.86
429.507	588.09
429.883	617.02
430.259	608.66
430.635	631.25
431.011	642.1
431.387	620.41
431.763	643.23
432.138	626.51
432.514	644.36
432.89	632.84
433.265	639.39
433.641	665.15
434.016	647.98
434.392	672.16
434.767	687.75
435.143	672.38
435.518	681.2
435.894	670.35
436.269	685.49
436.644	696.34
437.02	683.23
437.395	704.7
437.77	706.28
438.145	731.14
438.52	716.68
438.895	710.57
439.271	715.55
439.646	738.37
440.021	758.48
440.395	752.61
440.77	736.56
441.145	740.18
441.52	734.98
441.895	768.65
442.27	778.37
442.645	761.19
443.019	779.05
443.394	757.8
443.769	776.34
444.143	758.93
444.518	778.6
444.892	772.04
445.267	812.72
445.641	784.7
446.016	784.47
446.39	789.89
446.764	813.62
447.139	776.11
447.513	819.05
447.887	822.44
448.262	818.82
448.636	822.89
449.01	840.06
449.384	847.52
449.758	825.15
450.132	848.2
450.506	850.23
450.88	870.8
451.254	863.11
451.628	865.15
452.002	873.28
452.376	892.72
452.75	899.27
453.123	896.33
453.497	927.29
453.871	921.19
454.244	923
454.618	941.08
454.992	943.56
455.365	926.16
455.739	950.12
456.112	967.74
456.486	988.99
456.859	996.67
457.232	1001.41
457.606	998.02
457.979	1019.49
458.352	1043.9
458.725	1049.32
459.099	1057.91
459.472	1063.79
459.845	1085.93
460.218	1086.61
460.591	1076.67
460.964	1119.15
461.337	1150.56
461.71	1141.75
462.083	1158.47
462.456	1146.95
462.829	1159.38
463.201	1191.01
463.574	1197.57
463.947	1185.36
464.32	1243.44
464.692	1251.35
465.065	1278.92
465.438	1266.49
465.81	1275.76
466.183	1344.68
466.555	1340.39
466.928	1331.58
467.3	1362.53
467.672	1385.13
468.045	1431.23
468.417	1415.64
468.789	1447.28
469.161	1450.89
469.534	1500.61
469.906	1542.42
470.278	1570.89
470.65	1554.17
471.022	1615.64
471.394	1666.71
471.766	1704.22
472.138	1708.06
472.51	1743.99
472.882	1805.46
473.253	1809.53
473.625	1838.45
473.997	1908.51
474.369	1943.08
474.74	2000.48
475.112	2047.04
475.484	2054.27
475.855	2135.85
476.227	2136.98
476.598	2264.43
476.97	2258.56
477.341	2342.62
477.713	2429.17
478.084	2458.78
478.455	2534.71
478.827	2567.7
479.198	2697.19
479.569	2743.29
479.94	2836.39
480.311	2911.65
480.682	2987.35
481.053	3119.32
481.424	3187.8
481.795	3301.47
482.166	3332.65
482.537	3470.28
482.908	3557.96
483.279	3667.78
483.65	3776.03
484.021	3933.09
484.391	4030.94
484.762	4109.13
485.133	4213.76
485.503	4318.84
485.874	4446.97
486.244	4564.71
486.615	4714.76
486.985	4909.79
487.356	4973.97
487.726	5124.92
488.097	5346.84
488.467	5401.98
488.837	5566.27
489.207	5760.16
489.578	5864.11
489.948	6027.72
490.318	6186.81
490.688	6316.08
491.058	6512.46
491.428	6681.04
491.798	6855.95
492.168	7118.77
492.538	7198.09
492.908	7301.81
493.278	7590.17
493.648	7632.65
494.017	7871.52
494.387	8100.21
494.757	8217.95
495.126	8408.23
495.496	8517.37
495.866	8649.8
496.235	8783.36
496.605	9094.31
496.974	9154.19
497.344	9398.71
497.713	9574.52
498.082	9690
498.452	9924.12
498.821	10045.7
499.19	10189.65
499.559	10349.19
499.928	10481.62
500.298	10694.49
500.667	10907.14
501.036	10982.39
501.405	11138.55
501.774	11291.54
502.143	11459.22
502.512	11627.35
502.88	11797.51
503.249	11919.32
503.618	12099.43
503.987	12228.92
504.356	12362.92
504.724	12657.83
505.093	12764.27
505.462	12775.79
505.83	13038.39
506.199	13176.24
506.567	13382.33
506.936	13444.7
507.304	13780.51
507.672	13827.97
508.041	13982.09
508.409	14168.07
508.777	14274.51
509.145	14453.72
509.514	14647.84
509.882	14748.62
510.25	14822.97
510.618	15041.95
510.986	15159.01
511.354	15429.96
511.722	15552.22
512.09	15774.13
512.458	15817.07
512.826	16017.74
513.193	16121.24
513.561	16186.78
513.929	16382.25
514.297	16682.58
514.664	16715.8
515.032	16917.83
515.4	17142.46
515.767	17188.56
516.135	17306.52
516.502	17245.73
516.869	17730.92
517.237	17713.97
517.604	17811.14
517.972	18039.61
518.339	18136.78
518.706	18330.22
519.073	18382.65
519.44	18628.97
519.808	18797.1
520.175	18906.03
520.542	19112.8
520.909	19274.83
521.276	19255.85
521.643	19584.88
522.009	19731.09
522.376	19908.49
522.743	19977.41
523.11	20284.07
523.477	20514.35
523.843	20637.96
524.21	20772.65
524.577	20954.11
524.943	21095.35
525.31	21117.72
525.676	21445.62
526.043	21588.9
526.409	21702.11
526.776	21873.41
527.142	21995.66
527.508	22121.31
527.874	22373.06
528.241	22444.01
528.607	22526.95
528.973	22820.95
529.339	22867.96
529.705	23126.71
530.071	23263.65
530.437	23357.89
530.803	23528.96
531.169	23681.72
531.535	23723.3
531.901	23714.26
532.267	23966.69
532.632	24102.28
532.998	24149.28
533.364	24393.12
533.73	24504.75
534.095	24656.39
534.461	24685.31
534.826	24925.98
535.192	24906.32
535.557	25208.91
535.923	25199.87
536.288	25186.54
536.653	25415.46
537.019	25319.42
537.384	25529.13
537.749	25528.68
538.114	25746.3
538.479	25686.42
538.845	25874.43
539.21	25835.56
539.575	26120.98
539.94	26072.39
540.305	26222.67
540.67	26244.82
541.034	26497.92
541.399	26500.63
541.764	26515.09
542.129	26795.54
542.494	26747.4
542.858	26832.15
543.223	26886.38
543.587	27065.59
543.952	27110.11
544.316	27213.15
544.681	27183.78
545.045	27338.57
545.41	27463.09
545.774	27545.58
546.138	27608.85
546.503	27774.5
546.867	27762.29
547.231	27979.01
547.595	28007.94
547.959	28105.79
548.324	28143.07
548.688	28193.02
549.052	28281.83
549.416	28402.28
549.779	28498.54
550.143	28501.03
550.507	28715.49
550.871	28785.32
551.235	28800.46
551.599	29140.34
551.962	29172.43
552.326	29254.68
552.689	29387.33
553.053	29363.38
553.417	29501.46
553.78	29725.86
554.143	29570.15
554.507	29828.68
554.87	29982.57
555.234	30160.87
555.597	29975.34
555.96	30212.85
556.323	30445.16
556.686	30357.25
557.05	30539.85
557.413	30693.06
557.776	30783.68
558.139	30947.29
558.502	31086.95
558.865	31106.61
559.228	31420.28
559.59	31345.02
559.953	31648.07
560.316	31861.62
560.679	31863.2
561.041	32014.16
561.404	32116.08
561.767	32417.09
562.129	32326.92
562.492	32549.51
562.854	32629.96
563.217	32693.69
563.579	32782.5
563.941	33145.43
564.304	33255.03
564.666	33426.32
565.028	33496.61
565.39	33671.97
565.753	33797.16
566.115	33860.44
566.477	34029.02
566.839	34062.92
567.201	34280.77
567.563	34282.8
567.925	34672.39
568.287	34480.08
568.648	34593.07
569.01	34859.51
569.372	35095.89
569.734	34990.35
570.095	35263.56
570.457	35443.45
570.819	35379.27
571.18	35513.28
571.542	35616.78
571.903	35774.51
572.265	35872.81
572.626	35923.21
572.987	35947.84
573.349	36035.3
573.71	36376.98
574.071	36407.49
574.432	36390.77
574.794	36774.49
575.155	36743.3
575.516	36595.28
575.877	36883.63
576.238	36902.39
576.599	37039.11
576.96	36962.05
577.32	37137.64
577.681	37196.62
578.042	37323.62
578.403	37409.5
578.763	37394.36
579.124	37431.42
579.485	37629.83
579.845	37783.5
580.206	37686.33
580.566	37657.17
580.927	37731.07
581.287	38015.36
581.648	37776.04
582.008	38022.81
582.368	37857.17
582.728	38012.64
583.089	37919.31
583.449	37977.84
583.809	38006.32
584.169	38187.33
584.529	38054.45
584.889	38333.09
585.249	38141
585.609	38056.49
585.969	38328.79
586.329	38256.25
586.688	38174.45
587.048	38313.2
587.408	38152.75
587.768	38243.82
588.127	38358.62
588.487	38253.09
588.846	38326.53
589.206	38247.89
589.565	38211.74
589.925	38311.85
590.284	38252.41
590.643	38428.45
591.003	38443.14
591.362	38526.76
591.721	38495.57
592.08	38543.93
592.44	38649.01
592.799	38556.59
593.158	38688.33
593.517	38583.48
593.876	38789.12
594.235	38679.07
594.593	38695.34
594.952	38683.36
595.311	38670.93
595.67	38816.24
596.029	39001.55
596.387	39047.42
596.746	38965.61
597.104	38933.98
597.463	38950.47
597.822	39146.63
598.18	38921.32
598.538	38950.92
598.897	39227.53
599.255	38971.49
599.613	39500.97
599.972	39188.88
600.33	39330.58
600.688	39161.31
601.046	39277.24
601.404	39524.24
601.762	39553.4
602.12	39632.49
602.478	39557.91
602.836	39507.52
603.194	39409.9
603.552	39735.54
603.91	39439.27
604.268	39628.65
604.625	39565.15
604.983	39818.25
605.341	39763.11
605.698	39801.52
606.056	40051.24
606.413	39906.61
606.771	40183.21
607.128	40121.29
607.485	39870.45
607.843	40013.5
608.2	40313.6
608.557	40402.64
608.914	40319.02
609.272	40525.57
609.629	40551.79
609.986	40675.85
610.343	40649.41
610.7	40885.79
611.057	40751.1
611.414	40772.12
611.771	40857.99
612.127	40951.1
612.484	41090.3
612.841	41202.62
613.198	40907.03
613.554	41094.82
613.911	41284.87
614.267	41297.98
614.624	41253.24
614.98	41399.45
615.337	41571.2
615.693	41561.93
616.05	41493.23
616.406	41648.26
616.762	41582.49
617.118	41634.47
617.475	41649.84
617.831	41782.04
618.187	41921.02
618.543	41927.8
618.899	42098.41
619.255	41947.91
619.611	42107
619.967	42280.55
620.323	42421.34
620.678	42125.08
621.034	42094.35
621.39	42046.21
621.746	42170.5
622.101	42525.75
622.457	42258.41
622.812	42455.01
623.168	42411.17
623.523	42492.3
623.879	42687.32
624.234	42401.68
624.589	42547.21
624.945	42732.97
625.3	42386.77
625.655	42667.89
626.01	42620.21
626.365	42695.23
626.72	42560.1
627.075	42519.64
627.43	42739.75
627.785	42620.66
628.14	42606.87
628.495	42737.72
628.85	42759.86
629.205	42608.46
629.559	42765.97
629.914	42596.03
630.269	42705.4
630.623	42509.7
630.978	42461.79
631.332	42704.95
631.687	42710.15
632.041	42395.13
632.396	42636.25
632.75	42462.02
633.104	42506.76
633.459	42398.74
633.813	42343.38
634.167	42475.35
634.521	42391.29
634.875	42503.37
635.229	42430.16
635.583	42185.87
635.937	42073.33
636.291	42301.8
636.645	42285.75
636.999	42202.36
637.352	42319.88
637.706	41988.13
638.06	42281.91
638.413	42102.25
638.767	42136.15
639.121	42088.7
639.474	41861.58
639.828	41947
640.181	41979.77
640.534	42128.92
640.888	41786.33
641.241	41829.49
641.594	41776.61
641.947	41951.98
642.301	41814.58
642.654	41743.85
643.007	41767.8
643.36	41707.46
643.713	41672.66
644.066	41750.17
644.419	41476.28
644.771	41353.57
645.124	40992.23
645.477	40981.15
645.83	40559.24
646.182	40577.55
646.535	40432.02
646.888	40437.44
647.24	40305.47
647.593	40535.52
647.945	40522.18
648.298	40186.15
648.65	40196.54
649.002	40117
649.355	40129.65
649.707	40213.72
650.059	40274.51
650.411	40798.11
650.763	40723.08
651.115	41220.47
651.467	41130.75
651.819	40946.58
652.171	40946.35
652.523	40933.47
652.875	40872
653.227	40747.04
653.578	41052.56
653.93	40925.11
654.282	40758.56
654.633	40598.34
654.985	40703.42
655.337	40788.84
655.688	40735.74
656.039	40784.32
656.391	40429.98
656.742	40678.34
657.094	40477.89
657.445	40799.69
657.796	40620.94
658.147	40550.2
658.498	40469.76
658.849	40622.97
659.2	40475.18
659.551	40317.67
659.902	40598.79
660.253	40467.27
660.604	40542.97
660.955	40345.01
661.306	40392.69
661.656	40494.39
662.007	40470.43
662.358	40469.76
662.708	40384.11
663.059	40394.28
663.409	40062.99
663.76	40437.67
664.11	40310.21
664.461	40429.08
664.811	40416.88
665.161	40242.87
665.511	40214.39
665.862	40219.82
666.212	40308.4
666.562	40459.59
666.912	40269.08
667.262	40295.07
667.612	40192.47
667.962	40174.4
668.312	40126.49
668.662	40438.8
669.011	40313.38
669.361	40246.26
669.711	40079.93
670.06	40083.55
670.41	39983.89
670.76	40047.85
671.109	40090.1
671.459	40025.7
671.808	40048.98
672.157	40126.26
672.507	39812.15
672.856	39782.32
673.205	39975.76
673.554	39983.89
673.904	39833.84
674.253	40037.9
674.602	39965.81
674.951	39404.7
675.3	39156.8
675.649	39858.92
675.998	39765.14
676.346	39811.24
676.695	39868.87
677.044	39530.12
677.393	39792.71
677.741	39764.46
678.09	39689.89
678.438	39621.87
678.787	39629.33
679.135	39651.47
679.484	39284.48
679.832	39553.17
680.181	39188.21
680.529	39452.83
680.877	39297.36
681.225	39196.12
681.573	39311.82
681.922	39234.31
682.27	39055.56
682.618	39120.41
682.966	39029.12
683.314	39060.3
683.661	38819.4
684.009	38754.55
684.357	38734.21
684.705	38589.13
685.053	38645.62
685.4	38675.45
685.748	38443.37
686.095	38475.23
686.443	38332.86
686.79	38360.43
687.138	38358.85
687.485	38280.66
687.832	38069.37
688.18	38261.23
688.527	37855.59
688.874	37937.17
689.221	37788.7
689.568	37766.78
689.915	37748.92
690.262	37603.16
690.609	37624.18
690.956	37571.98
691.303	37442.49
691.65	37297.64
691.997	37232.55
692.344	37082.95
692.69	37083.63
693.037	37038.88
693.383	36762.06
693.73	36919.57
694.077	36585.56
694.423	36609.74
694.769	36577.65
695.116	36577.65
695.462	36363.65
695.808	36313.93
696.155	36339.92
696.501	36062.87
696.847	36094.05
697.193	35819.71
697.539	35979.7
697.885	35715.76
698.231	35723.89
698.577	35590.11
698.923	35612.71
699.269	35453.16
699.614	35251.36
699.96	35139.95
700.306	35195.54
700.651	35147.18
700.997	34966.62
701.342	34888.43
701.688	34758.72
702.033	34855.89
702.379	34690.7
702.724	34597.59
703.069	34828.1
703.415	34306.98
703.76	34307.66
704.105	34433.98
704.45	34150.15
704.795	34078.96
705.14	34014.33
705.485	33924.39
705.83	33862.47
706.175	33976.82
706.52	33830.83
706.865	33736.37
707.209	33664.74
707.554	33548.81
707.899	33534.34
708.243	33393.11
708.588	33285.54
708.932	33161.7
709.277	33064.98
709.621	33030.4
709.966	32924.42
710.31	32989.5
710.654	32528.95
710.998	32847.81
711.342	32653.69
711.687	32616.4
712.031	32442.4
712.375	32282.4
712.719	32392
713.063	32289.86
713.407	32336.64
713.75	32146.36
714.094	32053.25
714.438	32111.56
714.782	32101.84
715.125	31938
715.469	31878.79
715.812	31792.92
716.156	31641.29
716.499	31742.98
716.843	31627.5
717.186	31529.65
717.53	31496.88
717.873	31637.44
718.216	31397.68
718.559	31403.55
718.902	31089.21
719.246	31188.42
719.589	31043.56
719.932	31143.22
720.275	30972.83
720.617	30991.36
720.96	30861.87
721.303	30981.87
721.646	30807.86
721.989	30672.05
722.331	30751.82
722.674	30605.61
723.016	30553.18
723.359	30644.25
723.701	30670.01
724.044	30465.72
724.386	30323.13
724.729	30476.8
725.071	30292.17
725.413	30470.02
725.755	30332.62
726.097	30223.92
726.439	30095.79
726.782	30087.66
727.124	30142.12
727.465	30100.08
727.807	29999.52
728.149	29948.22
728.491	29867.77
728.833	29883.82
729.175	29775.35
729.516	29689.02
729.858	29613.09
730.199	29745.74
730.541	29554.79
730.882	29555.69
731.224	29587.56
731.565	29393.21
731.906	29327.22
732.248	29404.96
732.589	29270.05
732.93	29169.26
733.271	29096.95
733.612	29148.47
733.953	29139.43
734.294	28991.64
734.635	29042.26
734.976	29068.25
735.317	28794.13
735.658	28876.39
735.999	28881.36
736.339	28779.22
736.68	28880.23
737.021	28749.61
737.361	28652.21
737.702	28705.32
738.042	28692.44
738.383	28678.43
738.723	28632.78
739.063	28570.63
739.404	28543.52
739.744	28407.7
740.084	28307.14
740.424	28404.31
740.764	28271.43
741.104	28282.5
741.444	28188.5
741.784	28070.08
742.124	28133.36
742.464	28280.47
742.804	28063.3
743.143	27994.15
743.483	28035.05
743.823	27832.35
744.162	27873.25
744.502	27900.82
744.841	27696.31
745.181	27877.54
745.52	27665.35
745.86	27772.24
746.199	27635.52
746.538	27582.64
746.877	27662.18
747.216	27541.28
747.556	27524.56
747.895	27495.63
748.234	27372.92
748.573	27282.98
748.911	27262.19
749.25	27221.06
749.589	26949.21
749.928	27068.3
750.267	27199.6
750.605	26925.25
750.944	26894.97
751.283	27023.33
751.621	27098.58
751.96	26730.91
752.298	26726.84
752.636	26823.33
752.975	26773.39
753.313	26514.87
753.651	26724.35
753.989	26572.27
754.327	26534.98
754.666	26451.37
755.004	26405.27
755.342	26370.01
755.679	26203.24
756.017	26253.86
756.355	26249.79
