Data from hue_70_FLMS001491_40.txt Node
Date: Mon Feb 06 15:20:47 GMT 2017
User: dcchb
Spectrometer: FLMS00149
Trigger mode: 0
Integration Time (sec): 2.000000E-2
Scans to average: 10
Electric dark correction enabled: true
Nonlinearity correction enabled: false
Boxcar width: 0
XAxis mode: Wavelengths
Number of Pixels in Spectrum: 2048
>>>>>Begin Spectral Data<<<<<
341.393	-22.46
341.776	-22.46
342.16	-22.46
342.543	-58.16
342.927	-70.14
343.31	-69.24
343.693	-83.25
344.077	-56.35
344.46	-58.39
344.843	-38.95
345.226	-52.51
345.61	-50.7
345.993	-10.71
346.376	-5.06
346.759	-6.41
347.142	40.14
347.525	61.61
347.908	56.86
348.291	78.11
348.674	91.21
349.057	103.64
349.44	123.08
349.823	135.05
350.206	154.04
350.588	186.35
350.971	228.16
351.354	234.03
351.737	231.55
352.119	233.36
352.502	238.78
352.884	257.54
353.267	268.38
353.65	283.07
354.032	277.42
354.414	305.22
354.797	294.14
355.179	324.88
355.562	338.21
355.944	312.45
356.326	331.21
356.709	319.45
357.091	330.08
357.473	333.24
357.855	326.91
358.238	331.66
358.62	323.3
359.002	340.25
359.384	359.23
359.766	335.73
360.148	348.83
360.53	329.62
360.912	347.7
361.294	344.09
361.676	344.99
362.057	319
362.439	327.14
362.821	313.81
363.203	334.6
363.584	305.44
363.966	306.35
364.348	315.16
364.729	319.91
365.111	331.88
365.493	311.77
365.874	315.61
366.256	334.14
366.637	321.49
367.019	281.94
367.4	320.58
367.781	313.58
368.163	312
368.544	308.16
368.925	312.45
369.306	329.17
369.688	293.01
370.069	324.43
370.45	307.93
370.831	321.94
371.212	317.2
371.593	296.63
371.974	282.85
372.355	306.12
372.736	295.05
373.117	310.42
373.498	320.13
373.879	308.83
374.26	324.65
374.641	310.42
375.021	306.57
375.402	317.87
375.783	322.17
376.163	301.6
376.544	310.19
376.925	323.75
377.305	325.1
377.686	310.87
378.066	308.38
378.447	330.98
378.827	310.87
379.208	326.69
379.588	327.59
379.968	322.17
380.349	325.1
380.729	333.24
381.109	328.72
381.489	332.11
381.87	326.69
382.25	320.13
382.63	326.91
383.01	324.2
383.39	329.4
383.77	343.86
384.15	316.74
384.53	346.12
384.91	348.38
385.29	333.69
385.67	338.44
386.049	368.95
386.429	328.95
386.809	322.17
387.189	354.71
387.568	348.15
387.948	333.69
388.328	336.18
388.707	343.18
389.087	343.64
389.466	343.18
389.846	342.73
390.225	364.88
390.605	359.23
390.984	351.77
391.363	350.87
391.743	345.89
392.122	351.32
392.501	341.83
392.881	358.78
393.26	359.68
393.639	373.01
394.018	353.35
394.397	351.77
394.776	362.62
395.155	397.64
395.534	368.49
395.913	388.83
396.292	374.37
396.671	362.84
397.05	366.01
397.429	373.24
397.808	368.95
398.186	383.63
398.565	380.02
398.944	372.56
399.323	370.98
399.701	378.21
400.08	363.52
400.458	359.68
400.837	397.64
401.215	387.93
401.594	385.67
401.972	375.95
402.351	372.33
402.729	366.69
403.107	368.27
403.486	384.09
403.864	413.46
404.242	392.67
404.62	415.05
404.999	396.51
405.377	396.97
405.755	376.63
406.133	389.74
406.511	389.51
406.889	404.88
407.267	397.64
407.645	419.34
408.023	414.37
408.401	427.47
408.779	401.26
409.156	412.11
409.534	439.68
409.912	431.32
410.29	441.49
410.667	424.08
411.045	440.13
411.422	434.71
411.8	422.05
412.178	432.67
412.555	444.65
412.933	444.42
413.31	424.54
413.687	453.46
414.065	426.57
414.442	471.77
414.819	448.04
415.197	447.14
415.574	448.49
415.951	470.41
416.328	467.25
416.705	451.88
417.082	456.4
417.46	460.92
417.837	482.16
418.214	480.13
418.591	492.56
418.967	472.45
419.344	470.64
419.721	488.94
420.098	477.87
420.475	502.73
420.852	485.33
421.228	482.39
421.605	481.26
421.982	480.58
422.358	498.66
422.735	500.47
423.111	517.42
423.488	509.51
423.864	528.94
424.241	532.56
424.617	522.61
424.994	537.53
425.37	521.03
425.746	512.9
426.123	514.25
426.499	535.72
426.875	538.66
427.251	567.36
427.627	532.78
428.003	555.38
428.379	546.79
428.756	563.06
429.132	568.49
429.507	556.74
429.883	571.88
430.259	612.1
430.635	564.42
431.011	567.81
431.387	589.05
431.763	593.35
432.138	601.03
432.514	585.89
432.89	589.73
433.265	584.31
433.641	604.42
434.016	641.48
434.392	605.32
434.767	613.01
435.143	613.23
435.518	623.4
435.894	628.37
436.269	629.05
436.644	638.32
437.02	630.41
437.395	646.23
437.77	663.4
438.145	664.98
438.52	680.8
438.895	681.93
439.271	681.93
439.646	686
440.021	707.24
440.395	687.13
440.77	674.25
441.145	690.07
441.52	713.12
441.895	708.15
442.27	710.63
442.645	719.67
443.019	732.55
443.394	725.09
443.769	726.68
444.143	721.25
444.518	737.07
444.892	718.09
445.267	717.86
445.641	721.25
446.016	743.62
446.39	744.53
446.764	724.64
447.139	771.42
447.513	749.5
447.887	758.54
448.262	759.67
448.636	780.23
449.01	802.61
449.384	775.04
449.758	796.96
450.132	784.53
450.506	789.27
450.88	806
451.254	787.69
451.628	822.04
452.002	813.68
452.376	817.52
452.75	816.84
453.123	834.7
453.497	834.02
453.871	851.87
454.244	875.15
454.618	854.13
454.992	883.73
455.365	877.41
455.739	905.2
456.112	903.39
456.486	911.98
456.859	911.08
457.232	927.57
457.606	920.12
457.979	949.04
458.352	961.25
458.725	945.65
459.099	959.44
459.472	984.3
459.845	978.19
460.218	981.58
460.591	1021.36
460.964	1018.42
461.337	1028.36
461.71	1037.4
462.083	1073.56
462.456	1063.16
462.829	1071.75
463.201	1076.72
463.574	1118.98
463.947	1095.93
464.32	1115.14
464.692	1135.48
465.065	1170.51
465.438	1182.48
465.81	1182.71
466.183	1228.81
466.555	1229.49
466.928	1229.04
467.3	1247.79
467.672	1272.2
468.045	1309.71
468.417	1316.49
468.789	1322.37
469.161	1327.79
469.534	1344.74
469.906	1395.36
470.278	1374.34
470.65	1448.46
471.022	1455.7
471.394	1489.59
471.766	1536.37
472.138	1528.24
472.51	1561
472.882	1633.54
473.253	1636.93
473.625	1677.16
473.997	1720.77
474.369	1723.71
474.74	1754.45
475.112	1823.37
475.484	1864.72
475.855	1901.56
476.227	1941.79
476.598	2010.26
476.97	2018.85
477.341	2077.15
477.713	2143.36
478.084	2156.92
478.455	2218.61
478.827	2313.3
479.198	2391.04
479.569	2417.03
479.94	2487.31
480.311	2531.6
480.682	2640.75
481.053	2756
481.424	2791.48
481.795	2864.92
482.166	2946.28
482.537	3032.6
482.908	3098.59
483.279	3220.62
483.65	3317.79
484.021	3384.01
484.391	3507.62
484.762	3543.32
485.133	3693.15
485.503	3765.01
485.874	3855.86
486.244	3961.62
486.615	4120.48
486.985	4256.53
487.356	4362.74
487.726	4440.48
488.097	4570.19
488.467	4674.14
488.837	4831.43
489.207	4986.68
489.578	5098.54
489.948	5180.8
490.318	5358.87
490.688	5425.54
491.058	5600.67
491.428	5735.36
491.798	5833.89
492.168	6069.13
492.538	6092.86
492.908	6212.63
493.278	6439.52
493.648	6472.29
494.017	6719.06
494.387	6810.13
494.757	6955.44
495.126	7080.63
495.496	7176.9
495.866	7338.93
496.235	7471.36
496.605	7611.92
496.974	7716.77
497.344	7865.25
497.713	8048.52
498.082	8181.4
498.452	8299.13
498.821	8441.95
499.19	8536.19
499.559	8658.22
499.928	8820.25
500.298	8934.6
500.667	9053.69
501.036	9160.35
501.405	9298.88
501.774	9336.39
502.143	9492.32
502.512	9664.75
502.88	9785.87
503.249	9876.27
503.618	10011.63
503.987	10141.34
504.356	10227.22
504.724	10366.42
505.093	10464.27
505.462	10551.28
505.83	10699.29
506.199	10756.24
506.567	10997.59
506.936	11022.68
507.304	11158.04
507.672	11249.11
508.041	11423.34
508.409	11497.69
508.777	11650.23
509.145	11746.73
509.514	11801.64
509.882	11984.46
510.25	11996.66
510.618	12125.02
510.986	12205.02
511.354	12304
511.722	12500.6
512.09	12588.28
512.458	12682.75
512.826	12825.79
513.193	12942.63
513.561	12963.64
513.929	13013.13
514.297	13193.24
514.664	13227.36
515.032	13405.44
515.4	13487.92
515.767	13607.02
516.135	13631.42
516.502	13567.24
516.869	13866.44
517.237	13864.64
517.604	13849.72
517.972	14075.25
518.339	14173.55
518.706	14208.58
519.073	14307.34
519.44	14342.59
519.808	14570.83
520.175	14522.92
520.542	14702.35
520.909	14886.98
521.276	14855.12
521.643	15021.67
522.009	15140.53
522.376	15173.53
522.743	15293.3
523.11	15407.87
523.477	15579.62
523.843	15582.33
524.21	15843.11
524.577	15932.83
524.943	15860.29
525.31	15988.2
525.676	16196.55
526.043	16217.79
526.409	16328.75
526.776	16457.34
527.142	16420.05
527.508	16507.5
527.874	16745.01
528.241	16785.91
528.607	16762.86
528.973	16865.23
529.339	16837.44
529.705	17059.58
530.071	17165.57
530.437	17195.62
530.803	17260.48
531.169	17296.41
531.535	17291.44
531.901	17399.91
532.267	17493.69
532.632	17516.97
532.998	17504.09
533.364	17631.09
533.73	17708.15
534.095	17762.16
534.461	17797.19
534.826	17925.77
535.192	18039.89
535.557	17988.37
535.923	17999.22
536.288	18059.78
536.653	18116.5
537.019	17932.1
537.384	18157.18
537.749	18254.12
538.114	18147.46
538.479	18253.67
538.845	18209.38
539.21	18337.74
539.575	18370.05
539.94	18335.48
540.305	18471.97
540.67	18358.75
541.034	18420.45
541.399	18443.27
541.764	18459.99
542.129	18523.72
542.494	18564.62
542.858	18624.28
543.223	18488.69
543.587	18696.82
543.952	18589.93
544.316	18633.55
544.681	18649.14
545.045	18726.43
545.41	18845.75
545.774	18784.73
546.138	18771.17
546.503	18788.8
546.867	18804.39
547.231	18969.81
547.595	18917.16
547.959	18951.73
548.324	19029.02
548.688	18909.7
549.052	18881.68
549.416	18933.43
549.779	18938.63
550.143	18953.32
550.507	19125.97
550.871	19045.97
551.235	19061.33
551.599	19198.73
551.962	19190.37
552.326	19253.42
552.689	19318.96
553.053	19230.6
553.417	19336.13
553.78	19465.17
554.143	19386.98
554.507	19384.72
554.87	19430.59
555.234	19505.62
555.597	19504.49
555.96	19475.11
556.323	19672.62
556.686	19590.13
557.05	19751.26
557.413	19721.66
557.776	19780.64
558.139	19781.77
558.502	19812.28
558.865	19779.06
559.228	19932.5
559.59	20001.65
559.953	19921.43
560.316	20123.68
560.679	20122.32
561.041	20253.85
561.404	20323.9
561.767	20433.95
562.129	20308.08
562.492	20515.76
562.854	20469.21
563.217	20488.64
563.579	20595.08
563.941	20735.42
564.304	20737.22
564.666	20842.98
565.028	20826.94
565.39	20895.86
565.753	21005.24
566.115	21023.32
566.477	21105.12
566.839	21146.25
567.201	21224.44
567.563	21198.91
567.925	21392.8
568.287	21301.95
568.648	21400.03
569.01	21358.22
569.372	21659.01
569.734	21504.21
570.095	21689.29
570.457	21639.8
570.819	21754.82
571.18	21642.06
571.542	21904.2
571.903	21809.06
572.265	22011.09
572.626	21976.96
572.987	22048.83
573.349	22124.53
573.71	22126.79
574.071	22188.48
574.432	22177.86
574.794	22402.04
575.155	22254.7
575.516	22309.16
575.877	22358.42
576.238	22422.6
576.599	22512.77
576.96	22413.56
577.32	22491.08
577.681	22646.33
578.042	22576.72
578.403	22630.51
578.763	22638.64
579.124	22683.84
579.485	22705.31
579.845	22707.57
580.206	22764.74
580.566	22745.53
580.927	22773.78
581.287	22792.99
581.648	22650.85
582.008	22850.84
582.368	22742.37
582.728	22842.25
583.089	22887.22
583.449	22768.36
583.809	22708.24
584.169	22881.35
584.529	22770.62
584.889	23047.44
585.249	22720
585.609	22821.24
585.969	22998.63
586.329	22828.02
586.688	22777.62
587.048	22839.99
587.408	22902.59
587.768	22839.31
588.127	22869.82
588.487	22833.67
588.846	23085.18
589.206	22846.09
589.565	22828.47
589.925	22849.71
590.284	22881.57
590.643	22865.53
591.003	22883.16
591.362	23049.03
591.721	22843.83
592.08	22984.62
592.44	22890.16
592.799	23028.24
593.158	22992.31
593.517	22850.84
593.876	22787.56
594.235	22853.55
594.593	22864.62
594.952	22954.79
595.311	22879.31
595.67	22908.47
596.029	23069.14
596.387	23055.81
596.746	23004.51
597.104	22880.44
597.463	22897.17
597.822	23018.52
598.18	22836.15
598.538	22821.46
598.897	23010.84
599.255	22841.12
599.613	23192.07
599.972	22975.36
600.33	23028.69
600.688	22939.43
601.046	23069.14
601.404	23187.1
601.762	23116.82
602.12	23198.4
602.478	23122.7
602.836	23164.96
603.194	23105.3
603.552	23150.04
603.91	23227.33
604.268	23193.2
604.625	23129.02
604.983	23257.38
605.341	23193.88
605.698	23222.81
606.056	23357.04
606.413	23437.27
606.771	23310.49
607.128	23482.69
607.485	23286.53
607.843	23364.5
608.2	23486.76
608.557	23537.38
608.914	23533.53
609.272	23507.32
609.629	23648.33
609.986	23636.81
610.343	23666.86
610.7	23765.84
611.057	23804.04
611.414	23757.26
611.771	23681.55
612.127	23886.52
612.484	23830.02
612.841	23798.84
613.198	23883.81
613.554	23896.01
613.911	23934.43
614.267	23970.13
614.624	23831.15
614.98	23927.87
615.337	24060.53
615.693	23952.05
616.05	23962.22
616.406	24071.15
616.762	24035.89
617.118	24094.42
617.475	24094.42
617.831	24236.34
618.187	24138.49
618.543	24214.42
618.899	24385.71
619.255	24328.77
619.611	24338.03
619.967	24371.93
620.323	24492.38
620.678	24231.37
621.034	24345.49
621.39	24281.76
621.746	24326.96
622.101	24519.95
622.457	24484.92
622.812	24402.66
623.168	24476.56
623.523	24559.95
623.879	24688.98
624.234	24385.94
624.589	24580.29
624.945	24556.78
625.3	24498.03
625.655	24550
626.01	24494.86
626.365	24694.18
626.72	24460.52
627.075	24610.79
627.43	24507.52
627.785	24479.95
628.14	24609.89
628.495	24571.47
628.85	24588.87
629.205	24509.1
629.559	24625.93
629.914	24491.47
630.269	24567.18
630.623	24426.62
630.978	24338.26
631.332	24618.03
631.687	24531.93
632.041	24411.25
632.396	24469.33
632.75	24355.66
633.104	24363.57
633.459	24399.73
633.813	24241.99
634.167	24342.33
634.521	24316.56
634.875	24474.53
635.229	24332.83
635.583	24339.61
635.937	24206.28
636.291	24237.7
636.645	24227.53
636.999	24184.14
637.352	24170.35
637.706	24071.82
638.06	24154.08
638.413	24113.18
638.767	24062.56
639.121	24105.72
639.474	23957.25
639.828	23935.78
640.181	24039.96
640.534	24036.35
640.888	23994.54
641.241	23869.57
641.594	23884.71
641.947	24073.86
642.301	23841.1
642.654	23941.21
643.007	23956.35
643.36	23929.68
643.713	23790.25
644.066	23953.41
644.419	23794.09
644.771	23658.95
645.124	23431.16
645.477	23197.72
645.83	23302.13
646.182	23234.33
646.535	23029.14
646.888	23037.95
647.24	23036.15
647.593	23146.65
647.945	23099.19
648.298	22999.08
648.65	23094.9
649.002	22857.17
649.355	23075.24
649.707	23020.55
650.059	22951.18
650.411	23247.21
650.763	23251.28
651.115	23541.9
651.467	23427.55
651.819	23423.25
652.171	23326.76
652.523	23356.82
652.875	23398.4
653.227	23353.65
653.578	23416.47
653.93	23434.1
654.282	23339.41
654.633	23321.56
654.985	23416.93
655.337	23381
655.688	23341.9
656.039	23492.63
656.391	23427.77
656.742	23353.2
657.094	23379.41
657.445	23348.68
657.796	23323.6
658.147	23267.78
658.498	23331.05
658.849	23327.21
659.2	23357.04
659.551	23229.81
659.902	23346.19
660.253	23336.93
660.604	23310.94
660.955	23247.89
661.306	23286.53
661.656	23396.36
662.007	23174.67
662.358	23258.06
662.708	23399.53
663.059	23327.21
663.409	23202.92
663.76	23267.78
664.11	23322.92
664.461	23350.71
664.811	23449.47
665.161	23273.88
665.511	23184.16
665.862	23279.3
666.212	23418.51
666.562	23328.57
666.912	23244.73
667.262	23366.98
667.612	23331.73
667.962	23342.8
668.312	23185.07
668.662	23332.41
669.011	23328.79
669.361	23281.11
669.711	23245.41
670.06	23130.15
670.41	23249.47
670.76	23083.83
671.109	23216.93
671.459	23196.37
671.808	23182.81
672.157	23201.57
672.507	23067.33
672.856	23045.41
673.205	23048.57
673.554	23152.53
673.904	23124.28
674.253	23149.82
674.602	23078.4
674.951	22700.79
675.3	22631.18
675.649	22955.7
675.998	22918.86
676.346	23008.35
676.695	22999.08
677.044	22794.57
677.393	23007.9
677.741	22879.99
678.09	22864.85
678.438	22753.44
678.787	22869.37
679.135	22904.85
679.484	22746.89
679.832	22844.96
680.181	22867.34
680.529	22748.24
680.877	22676.16
681.225	22703.73
681.573	22734.46
681.922	22628.02
682.27	22524.97
682.618	22556.61
682.966	22392.32
683.314	22533.33
683.661	22458.76
684.009	22294.7
684.357	22364.98
684.705	22249.73
685.053	22239.78
685.4	22301.93
685.748	22107.13
686.095	22069.84
686.443	21978.32
686.79	21931.77
687.138	21981.03
687.485	21962.73
687.832	21829.85
688.18	21947.36
688.527	21744.2
688.874	21809.96
689.221	21696.75
689.568	21671.44
689.915	21518.22
690.262	21502.4
690.609	21484.32
690.956	21406.13
691.303	21355.96
691.65	21286.59
691.997	21347.38
692.344	21115.07
692.69	21134.95
693.037	21128.17
693.383	20895.41
693.73	21066.48
694.077	20933.6
694.423	20945.35
694.769	20881.85
695.116	20814.96
695.462	20835.3
695.808	20740.39
696.155	20653.16
696.501	20451.81
696.847	20436.21
697.193	20393.96
697.539	20390.57
697.885	20265.15
698.231	20317.12
698.577	20116.9
698.923	20109.22
699.269	19987.86
699.614	19916.68
699.96	19961.42
700.306	19828.77
700.651	19718.27
700.997	19786.51
701.342	19650.7
701.688	19660.19
702.033	19582.9
702.379	19510.59
702.724	19398.05
703.069	19496.58
703.415	19375.23
703.76	19310.14
704.105	19224.49
704.45	19161.45
704.795	19139.07
705.14	19055.46
705.485	19087.55
705.83	18939.08
706.175	18996.7
706.52	19028.57
706.865	18801
707.209	18814.34
707.554	18787.22
707.899	18784.96
708.243	18675.58
708.588	18604.62
708.932	18433.78
709.277	18486.89
709.621	18501.35
709.966	18324.41
710.31	18359.21
710.654	18265.65
710.998	18333.67
711.342	18257.74
711.687	18247.57
712.031	18089.38
712.375	18054.81
712.719	18086.22
713.063	18158.76
713.407	18016.39
713.75	18028.37
714.094	18018.65
714.438	17822.5
714.782	17868.6
715.125	17732.33
715.469	17891.65
715.812	17660.92
716.156	17633.35
716.499	17635.61
716.843	17682.39
717.186	17556.74
717.53	17623.41
717.873	17622.73
718.216	17553.13
718.559	17471.77
718.902	17326.24
719.246	17391.55
719.589	17380.93
719.932	17246.47
720.275	17235.17
720.617	17249.86
720.96	17266.81
721.303	17297.99
721.646	17156.98
721.989	17094.16
722.331	17133.7
722.674	17052.8
723.016	17143.87
723.359	17121.5
723.701	17128.96
724.044	16979.13
724.386	16916.31
724.729	16938
725.071	16943.65
725.413	16947.27
725.755	16929.64
726.097	16843.54
726.439	16714.05
726.782	16823.2
727.124	16897.1
727.465	16840.38
727.807	16767.38
728.149	16789.53
728.491	16755.18
728.833	16722.64
729.175	16704.79
729.516	16714.96
729.858	16695.3
730.199	16694.39
730.541	16623.66
730.882	16595.64
731.224	16666.37
731.565	16532.59
731.906	16661.62
732.248	16554.28
732.589	16494.62
732.93	16492.81
733.271	16540.72
733.612	16578.24
733.953	16432.93
734.294	16489.65
734.635	16431.8
734.976	16398.35
735.317	16500.05
735.658	16354.29
735.999	16373.95
736.339	16348.86
736.68	16458.01
737.021	16402.65
737.361	16358.58
737.702	16470.44
738.042	16364.23
738.383	16381.18
738.723	16312.25
739.063	16320.62
739.404	16310.9
739.744	16308.19
740.084	16326.27
740.424	16284.91
740.764	16371.91
741.104	16390.9
741.444	16279.04
741.784	16230.45
742.124	16241.75
742.464	16285.81
742.804	16343.89
743.143	16293.5
743.483	16349.77
743.823	16276.78
744.162	16231.13
744.502	16350.9
744.841	16312.03
745.181	16383.89
745.52	16306.38
745.86	16324.91
746.199	16339.37
746.538	16406.49
746.877	16388.41
747.216	16449.65
747.556	16566.94
747.895	16467.5
748.234	16474.06
748.573	16557.22
748.911	16535.53
749.25	16609.2
749.589	16592.02
749.928	16682.41
750.267	16758.8
750.605	16727.39
750.944	16731
751.283	16761.73
751.621	16904.33
751.96	16805.12
752.298	16893.03
752.636	17088.28
752.975	16989.53
753.313	16986.81
753.651	17165.34
753.989	17220.03
754.327	17326.24
754.666	17210.76
755.004	17226.58
755.342	17381.15
755.679	17472.9
756.017	17503.86
756.355	17523.3
756.693	17567.36
