Data from hue_30_FLMS001491_37.txt Node
Date: Mon Feb 06 15:05:12 GMT 2017
User: dcchb
Spectrometer: FLMS00149
Trigger mode: 0
Integration Time (sec): 2.000000E-2
Scans to average: 10
Electric dark correction enabled: true
Nonlinearity correction enabled: false
Boxcar width: 0
XAxis mode: Wavelengths
Number of Pixels in Spectrum: 2048
>>>>>Begin Spectral Data<<<<<
341.393	-22.63
341.776	-22.63
342.16	-22.63
342.543	-65.79
342.927	-57.43
343.31	-68.5
343.693	-53.81
344.077	-64.43
344.46	-65.56
344.843	-65.56
345.226	-56.3
345.61	-34.83
345.993	-14.94
346.376	-3.87
346.759	25.51
347.142	26.86
347.525	46.75
347.908	56.47
348.291	68.22
348.674	78.39
349.057	125.62
349.44	127.43
349.823	126.52
350.206	165.17
350.588	187.99
350.971	209.91
351.354	212.17
351.737	261.43
352.119	229.34
352.502	257.82
352.884	265.5
353.267	277.03
353.65	297.82
354.032	296.46
354.414	298.27
354.797	335.33
355.179	339.62
355.562	318.83
355.944	328.1
356.326	322.9
356.709	336.01
357.091	354.31
357.473	320.42
357.855	337.59
358.238	336.01
358.62	358.61
359.002	367.42
359.384	342.79
359.766	343.01
360.148	320.64
360.53	323.58
360.912	341.66
361.294	298.72
361.676	334.65
362.057	329.23
362.439	328.32
362.821	346.18
363.203	317.25
363.584	342.34
363.966	314.31
364.348	331.71
364.729	305.05
365.111	316.35
365.493	308.66
365.874	288.55
366.256	321.09
366.637	302.56
367.019	323.35
367.4	311.83
367.781	303.24
368.163	317.93
368.544	332.84
368.925	320.19
369.306	313.18
369.688	312.51
370.069	303.92
370.45	318.38
370.831	307.53
371.212	296.24
371.593	293.98
371.974	322.68
372.355	323.35
372.736	312.73
373.117	318.83
373.498	311.6
373.879	329.45
374.26	311.6
374.641	316.57
375.021	305.73
375.402	341.66
375.783	305.73
376.163	326.52
376.544	335.33
376.925	341.88
377.305	322.45
377.686	318.83
378.066	341.66
378.447	359.74
378.827	330.13
379.208	322.68
379.588	337.14
379.968	341.66
380.349	336.91
380.729	318.16
381.109	320.19
381.489	322.9
381.87	332.62
382.25	319.96
382.63	340.3
383.01	352.5
383.39	341.43
383.77	340.08
384.15	350.7
384.53	321.77
384.91	332.17
385.29	335.33
385.67	330.81
386.049	366.29
386.429	350.02
386.809	340.98
387.189	354.31
387.568	362.9
387.948	352.96
388.328	340.53
388.707	367.19
389.087	339.85
389.466	332.84
389.846	366.52
390.225	377.36
390.605	354.54
390.984	356.8
391.363	357.93
391.743	356.8
392.122	377.59
392.501	354.31
392.881	371.71
393.26	383.46
393.639	367.87
394.018	344.82
394.397	374.43
394.776	361.32
395.155	378.49
395.534	367.65
395.913	371.26
396.292	379.85
396.671	373.07
397.05	370.36
397.429	387.76
397.808	369.68
398.186	356.35
398.565	375.56
398.944	371.49
399.323	391.15
399.701	381.43
400.08	393.63
400.458	396.35
400.837	411.71
401.215	390.02
401.594	405.38
401.972	406.29
402.351	414.2
402.729	395.44
403.107	402.45
403.486	397.48
403.864	398.61
404.242	405.84
404.62	401.32
404.999	397.25
405.377	393.63
405.755	409.68
406.133	406.97
406.511	423.92
406.889	419.4
407.267	424.37
407.645	408.55
408.023	400.41
408.401	413.52
408.779	425.5
409.156	439.28
409.534	443.8
409.912	430.24
410.29	445.61
410.667	415.55
411.045	432.95
411.422	439.96
411.8	436.12
412.178	461.88
412.555	432.28
412.933	440.41
413.31	442.9
413.687	462.33
414.065	456.68
414.442	453.07
414.819	478.15
415.197	465.27
415.574	459.85
415.951	478.6
416.328	481.32
416.705	484.03
417.082	466.63
417.46	462.78
417.837	467.76
418.214	479.28
418.591	485.83
418.967	488.32
419.344	501.65
419.721	484.7
420.098	506.4
420.475	485.38
420.852	492.16
421.228	495.55
421.605	500.75
421.982	528.09
422.358	525.16
422.735	509.11
423.111	519.73
423.488	517.02
423.864	526.06
424.241	522.9
424.617	537.58
424.994	531.26
425.37	547.98
425.746	541.43
426.123	555.89
426.499	544.59
426.875	566.28
427.251	571.93
427.627	551.14
428.003	550.24
428.379	567.19
428.756	579.39
429.132	566.51
429.507	578.49
429.883	567.19
430.259	569.22
430.635	574.65
431.011	589.11
431.387	590.01
431.763	592.95
432.138	607.19
432.514	615.1
432.89	609.9
433.265	614.87
433.641	644.7
434.016	611.71
434.392	652.38
434.767	656.9
435.143	644.47
435.518	638.37
435.894	627.07
436.269	670.01
436.644	661.42
437.02	681.76
437.395	674.76
437.77	688.77
438.145	681.08
438.52	683.34
438.895	705.72
439.271	679.95
439.646	710.46
440.021	697.58
440.395	716.34
440.77	707.52
441.145	708.88
441.52	727.18
441.895	732.38
442.27	728.99
442.645	711.82
443.019	730.8
443.394	749.1
443.769	735.77
444.143	728.54
444.518	750.46
444.892	740.74
445.267	759.27
445.641	759.95
446.016	753.17
446.39	789.33
446.764	755.66
447.139	750.46
447.513	797.01
447.887	763.34
448.262	765.6
448.636	768.54
449.01	791.59
449.384	780.06
449.758	800.4
450.132	795.43
450.506	794.3
450.88	813.06
451.254	833.62
451.628	814.19
452.002	857.35
452.376	838.82
452.75	808.09
453.123	842.89
453.497	875.43
453.871	855.54
454.244	860.29
454.618	888.76
454.992	866.16
455.365	884.47
455.739	921.98
456.112	906.61
456.486	920.85
456.859	923.79
457.232	927.63
457.606	921.08
457.979	929.44
458.352	958.82
458.725	946.61
459.099	985.26
459.472	987.74
459.845	995.65
460.218	1006.95
460.591	1013.96
460.964	1028.87
461.337	1020.51
461.71	1034.07
462.083	1030
462.456	1064.58
462.829	1054.18
463.201	1068.64
463.574	1077.68
463.947	1085.82
464.32	1109.32
464.692	1123.33
465.065	1151.58
465.438	1145.48
465.81	1168.98
466.183	1178.47
466.555	1174.18
466.928	1192.93
467.3	1201.97
467.672	1198.58
468.045	1268.86
468.417	1240.62
468.789	1237
469.161	1264.35
469.534	1326.49
469.906	1339.37
470.278	1349.77
470.65	1338.02
471.022	1366.49
471.394	1398.13
471.766	1413.27
472.138	1459.82
472.51	1442.19
472.882	1505.02
473.253	1503.44
473.625	1518.12
473.997	1543.89
474.369	1587.95
474.74	1586.6
475.112	1610.78
475.484	1645.58
475.855	1703.43
476.227	1693.49
476.598	1758.34
476.97	1781.17
477.341	1829.53
477.713	1853.03
478.084	1844.67
478.455	1891.45
478.827	1935.51
479.198	1995.85
479.569	2039.69
479.94	2058
480.311	2120.82
480.682	2146.58
481.053	2180.71
481.424	2252.34
481.795	2258.44
482.166	2321.72
482.537	2375.05
482.908	2406.91
483.279	2441.94
483.65	2510.87
484.021	2570.53
484.391	2633.12
484.762	2673.57
485.133	2630.86
485.503	2724.87
485.874	2800.12
486.244	2821.82
486.615	2874.02
486.985	2966.9
487.356	3010.74
487.726	3059.33
488.097	3130.74
488.467	3160.79
488.837	3241.24
489.207	3292.77
489.578	3377.06
489.948	3401.69
490.318	3452.99
490.688	3507
491.058	3558.52
491.428	3653.21
491.798	3676.49
492.168	3754.9
492.538	3785.63
492.908	3848.01
493.278	3895.24
493.648	3910.83
494.017	4004.39
494.387	4046.65
494.757	4105.63
495.126	4145.85
495.496	4182.46
495.866	4200.99
496.235	4281.67
496.605	4327.09
496.974	4354.43
497.344	4424.04
497.713	4443.92
498.082	4520.08
498.452	4589
498.821	4546.97
499.19	4621.77
499.559	4705.38
499.928	4683.24
500.298	4758.04
500.667	4829.22
501.036	4840.75
501.405	4874.65
501.774	4927.75
502.143	4931.37
502.512	4969.78
502.88	5014.98
503.249	5046.62
503.618	5134.98
503.987	5116.67
504.356	5170.68
504.724	5169.55
505.093	5203.68
505.462	5245.03
505.83	5255.2
506.199	5294.07
506.567	5398.25
506.936	5403.67
507.304	5414.52
507.672	5501.97
508.041	5564.35
508.409	5551.24
508.777	5567.28
509.145	5658.35
509.514	5604.8
509.882	5667.62
510.25	5694.51
510.618	5744.23
510.986	5793.72
511.354	5787.39
511.722	5810.67
512.09	5904
512.458	5917.33
512.826	5922.3
513.193	6011.79
513.561	5984.22
513.929	5995.52
514.297	6052.69
514.664	6119.58
515.032	6088.63
515.4	6145.57
515.767	6171.79
516.135	6228.73
516.502	6166.82
516.869	6310.99
517.237	6332.01
517.604	6278
517.972	6332.46
518.339	6422.85
518.706	6380.59
519.073	6410.2
519.44	6460.59
519.808	6565.67
520.175	6516.86
520.542	6624.66
520.909	6636.63
521.276	6625.11
521.643	6666.46
522.009	6672.34
522.376	6766.12
522.743	6698.33
523.11	6763.64
523.477	6778.78
523.843	6905.33
524.21	6917.3
524.577	6952.56
524.943	7037.98
525.31	6978.09
525.676	7128.37
526.043	7143.06
526.409	7152.78
526.776	7232.78
527.142	7244.98
527.508	7318.42
527.874	7266.9
528.241	7389.61
528.607	7383.28
528.973	7463.28
529.339	7434.13
529.705	7553.9
530.071	7558.64
530.437	7556.38
530.803	7668.7
531.169	7711.86
531.535	7636.83
531.901	7682.48
532.267	7747.11
532.632	7765.42
532.998	7799.77
533.364	7848.13
533.73	7913.89
534.095	7945.75
534.461	7973.32
534.826	8042.7
535.192	8118.85
535.557	8107.56
535.923	8046.09
536.288	8113.66
536.653	8161.34
537.019	8193.88
537.384	8207.89
537.749	8176.71
538.114	8298.96
538.479	8226.87
538.845	8349.13
539.21	8314.78
539.575	8402.01
539.94	8396.81
540.305	8439.07
540.67	8448.79
541.034	8467.32
541.399	8552.74
541.764	8620.54
542.129	8637.48
542.494	8685.39
542.858	8717.93
543.223	8747.76
543.587	8745.05
543.952	8875.44
544.316	8824.37
544.681	8774.88
545.045	8878.83
545.41	8919.29
545.774	8923.58
546.138	8946.4
546.503	8994.54
546.867	9044.48
547.231	9072.28
547.595	9145.72
547.959	9156.12
548.324	9185.72
548.688	9228.43
549.052	9258.03
549.416	9330.12
549.779	9345.71
550.143	9360.86
550.507	9422.32
550.871	9417.8
551.235	9469.55
551.599	9450.57
551.962	9548.42
552.326	9602.66
552.689	9560.85
553.053	9573.28
553.417	9637.23
553.78	9661.19
554.143	9684.46
554.507	9730.56
554.87	9737.79
555.234	9826.83
555.597	9754.07
555.96	9862.31
556.323	9869.09
556.686	9886.72
557.05	9881.52
557.413	9933.95
557.776	9989.99
558.139	10059.59
558.502	10082.87
558.865	10067.73
559.228	10170.33
559.59	10176.2
559.953	10179.14
560.316	10249.42
560.679	10224.34
561.041	10366.7
561.404	10384.11
561.767	10391.56
562.129	10354.05
562.492	10535.06
562.854	10449.19
563.217	10543.42
563.579	10542.97
563.941	10654.38
564.304	10619.13
564.666	10672.91
565.028	10759.24
565.39	10750.65
565.753	10860.93
566.115	10882.4
566.477	10886.69
566.839	10890.98
567.201	10975.05
567.563	10991.1
567.925	11084.65
568.287	11045.56
568.648	11110.87
569.01	11074.93
569.372	11183.41
569.734	11180.69
570.095	11218.66
570.457	11349.73
570.819	11361.25
571.18	11443.74
571.542	11457.98
571.903	11547.69
572.265	11577.75
572.626	11593.11
572.987	11595.15
573.349	11736.16
573.71	11800.34
574.071	11821.36
574.432	11862.71
574.794	12019.77
575.155	11980.67
575.516	12050.28
575.877	12172.53
576.238	12271.74
576.599	12358.52
576.96	12445.97
577.32	12532.98
577.681	12578.4
578.042	12694.33
578.403	12675.34
578.763	12844.15
579.124	12958.28
579.485	13082.79
579.845	13198.04
580.206	13325.95
580.566	13399.85
580.927	13536.79
581.287	13739.05
581.648	13725.94
582.008	13980.4
582.368	14066.49
582.728	14214.06
583.089	14363.21
583.449	14508.52
583.809	14649.53
584.169	14875.96
584.529	14992.12
584.889	15313.92
585.249	15339.23
585.609	15602.5
585.969	15797.75
586.329	15880.23
586.688	16182.6
587.048	16408.13
587.408	16429.6
587.768	16745.75
588.127	16889.7
588.487	17160.42
588.846	17451.04
589.206	17585.5
589.565	17861.87
589.925	18100.51
590.284	18237.91
590.643	18529.65
591.003	18836.09
591.362	19188.17
591.721	19271.56
592.08	19548.61
592.44	19766.23
592.799	20099.33
593.158	20212.77
593.517	20487.79
593.876	20783.83
594.235	20977.5
594.593	21269.24
594.952	21596.47
595.311	21722.11
595.67	21993.97
596.029	22468.76
596.387	22620.39
596.746	22871.01
597.104	23050.44
597.463	23302.86
597.822	23560.48
598.18	23795.73
598.538	24066.46
598.897	24275.27
599.255	24322.72
599.613	24912.99
599.972	24997.05
600.33	25198.41
600.688	25519.07
601.046	25803.36
601.404	26052.39
601.762	26277.92
602.12	26514.08
602.478	26712.04
602.836	27016.21
603.194	27115.87
603.552	27381.17
603.91	27441.96
604.268	27744.1
604.625	27970.99
604.983	28274.03
605.341	28289.4
605.698	28633.12
606.056	28944.3
606.413	28984.29
606.771	29319.65
607.128	29628.12
607.485	29363.27
607.843	29681.45
608.2	29913.99
608.557	30215.67
608.914	30270.81
609.272	30605.49
609.629	30833.51
609.986	31030.34
610.343	31108.98
610.7	31513.95
611.057	31513.49
611.414	31615.19
611.771	31887.95
612.127	32000.03
612.484	32209.75
612.841	32513.92
613.198	32343.75
613.554	32673.91
613.911	32784.65
614.267	32875.27
614.624	33024.64
614.98	33182.83
615.337	33461.46
615.693	33483.61
616.05	33417.62
616.406	33875.24
616.762	33739.2
617.118	33868.46
617.475	34008.57
617.831	34168.34
618.187	34387.32
618.543	34334.21
618.899	34552.28
619.255	34750.7
619.611	34730.58
619.967	34895.1
620.323	35059.61
620.678	34997.92
621.034	35006.28
621.39	35100.07
621.746	35192.27
622.101	35620.28
622.457	35249.21
622.812	35478.36
623.168	35785.7
623.523	35722.2
623.879	36078.35
624.234	35741.18
624.589	35869.54
624.945	35974.85
625.3	36175.29
625.655	36058.01
626.01	35991.34
626.365	36239.24
626.72	36320.15
627.075	36271.56
627.43	36258.45
627.785	36208.06
628.14	36476.07
628.495	36541.16
628.85	36474.04
629.205	36362.63
629.559	36781.38
629.914	36686.69
630.269	36547.26
630.623	36504.32
630.978	36589.74
631.332	36776.63
631.687	36837.65
632.041	36644.21
632.396	36804.88
632.75	36660.7
633.104	36602.17
633.459	36629.52
633.813	36589.52
634.167	36608.5
634.521	36653.47
634.875	36726.24
635.229	36721.94
635.583	36500.71
635.937	36692.11
636.291	36599.91
636.645	36668.61
636.999	36620.03
637.352	36704.77
637.706	36568.73
638.06	36675.39
638.413	36574.83
638.767	36509.52
639.121	36676.3
639.474	36458.45
639.828	36465.23
640.181	36513.14
640.534	36552.91
640.888	36382.74
641.241	36378.68
641.594	36625.22
641.947	36512.46
642.301	36460.48
642.654	36475.17
643.007	36434.27
643.36	36415.74
643.713	36532.57
644.066	36509.75
644.419	36244.22
644.771	36097.78
645.124	35721.97
645.477	35759.03
645.83	35529.66
646.182	35380.06
646.535	35190.46
646.888	35352.71
647.24	35051.93
647.593	35361.3
647.945	35285.37
648.298	35118.6
648.65	35103.46
649.002	34962.44
649.355	35216.67
649.707	35054.87
650.059	35246.95
650.411	35648.75
650.763	35653.72
651.115	36191.11
651.467	35932.13
651.819	35971
652.171	35954.05
652.523	35806.04
652.875	35770.33
653.227	35706.38
653.578	36020.72
653.93	35943.21
654.282	35828.18
654.633	35676.55
654.985	35883.32
655.337	35727.85
655.688	35669.54
656.039	35790.44
656.391	35497.57
656.742	35502.99
657.094	35562.43
657.445	35652.59
657.796	35524.69
658.147	35557.45
658.498	35593.61
658.849	35636.1
659.2	35614.4
659.551	35560.17
659.902	35609.2
660.253	35526.72
660.604	35537.12
660.955	35460.28
661.306	35610.79
661.656	35454.18
662.007	35440.17
662.358	35594.74
662.708	35526.95
663.059	35555.65
663.409	35302.77
663.76	35529.21
664.11	35536.89
664.461	35514.29
664.811	35567.17
665.161	35596.78
665.511	35322.43
665.862	35493.28
666.212	35567.17
666.562	35568.53
666.912	35499.6
667.262	35486.5
667.612	35387.74
667.962	35304.35
668.312	35297.12
668.662	35497.12
669.011	35438.59
669.361	35302.77
669.711	35366.05
670.06	35300.06
670.41	35207.18
670.76	35267.97
671.109	35420.96
671.459	35343.68
671.808	35277.01
672.157	35374.41
672.507	35088.77
672.856	35065.49
673.205	35220.51
673.554	35256.22
673.904	35152.72
674.253	35359.72
674.602	35182.78
674.951	34631.15
675.3	34468.67
675.649	35121.31
675.998	35094.19
676.346	34998.83
676.695	35067.98
677.044	34854.87
677.393	35082.44
677.741	35014.42
678.09	34890.13
678.438	34847.42
678.787	34963.8
679.135	34856
679.484	34685.61
679.832	34900.3
680.181	34546.41
680.529	34793.63
680.877	34636.58
681.225	34492.85
681.573	34857.36
681.922	34518.84
682.27	34413.3
682.618	34430.25
682.966	34323.82
683.314	34380.08
683.661	34169.24
684.009	34151.39
684.357	34004.5
684.705	33961.79
685.053	34111.17
685.4	34053.54
685.748	33787.56
686.095	33858.97
686.443	33635.7
686.79	33825.3
687.138	33882.02
687.485	33717.28
687.832	33665.08
688.18	33697.16
688.527	33409.94
688.874	33423.05
689.221	33443.61
689.568	33279.77
689.915	33222.15
690.262	33129.95
690.609	33176.73
690.956	33097.63
691.303	33008.14
691.65	32777.64
691.997	32890.41
692.344	32800.92
692.69	32671.2
693.037	32744.2
693.383	32426.46
693.73	32503.52
694.077	32372.23
694.423	32309.4
694.769	32320.48
695.116	32103.76
695.462	32089.75
695.808	32032.58
696.155	32028.96
696.501	31769.31
696.847	31803.43
697.193	31596.43
697.539	31641.4
697.885	31407.96
698.231	31375.42
698.577	31368.86
698.923	31293.84
699.269	31163.45
699.614	31013.17
699.96	30883
700.306	30994.64
700.651	30743.8
700.997	30844.58
701.342	30750.35
701.688	30752.16
702.033	30618.38
702.379	30616.57
702.724	30466.06
703.069	30405.5
703.415	30019.07
703.76	30131.38
704.105	30126.19
704.45	30158.27
704.795	29958.96
705.14	29869.47
705.485	29714.9
705.83	29667.89
706.175	29755.57
706.52	29634.67
706.865	29530.04
707.209	29509.7
707.554	29450.04
707.899	29482.81
708.243	29252.54
708.588	29225.42
708.932	29074.24
709.277	29098.19
709.621	29081.02
709.966	28976.84
710.31	28926.67
710.654	28785.2
710.998	28688.48
711.342	28733
711.687	28793.79
712.031	28565.1
712.375	28370.98
712.719	28528.49
713.063	28400.13
713.407	28512.67
713.75	28279.45
714.094	28292.34
714.438	28068.39
714.782	28191.77
715.125	27991.78
715.469	28060.48
715.812	27919.24
716.156	27775.51
716.499	27910.2
716.843	27762.18
717.186	27693.03
717.53	27858.45
717.873	27766.7
718.216	27714.72
718.559	27581.62
718.902	27386.6
719.246	27412.13
719.589	27427.95
719.932	27240.39
720.275	27361.51
720.617	27224.11
720.96	27241.06
721.303	27160.84
721.646	27200.39
721.989	27030.67
722.331	27084.91
722.674	26942.99
723.016	27023.67
723.359	27009.43
723.701	26948.19
724.044	26771.92
724.386	26706.39
724.729	26800.4
725.071	26656.22
725.413	26699.38
725.755	26688.54
726.097	26578.03
726.439	26320.18
726.782	26496.22
727.124	26538.03
727.465	26383.23
727.807	26468.88
728.149	26283.57
728.491	26237.7
728.833	26373.52
729.175	26251.71
729.516	26241.32
729.858	26176.46
730.199	26127.87
730.541	26035.22
730.882	26008.33
731.224	26039.29
731.565	25871.83
731.906	25920.42
732.248	25795.45
732.589	25768.33
732.93	25681.33
733.271	25753.64
733.612	25816.69
733.953	25849.69
734.294	25613.99
734.635	25519.53
734.976	25701.22
735.317	25523.14
735.658	25492.63
735.999	25472.3
736.339	25496.7
736.68	25556.59
737.021	25420.32
737.361	25257.61
737.702	25401.79
738.042	25359.3
738.383	25254.45
738.723	25266.65
739.063	25077.5
739.404	25218.97
739.744	25134.9
740.084	24989.15
740.424	25019.43
740.764	24988.47
741.104	25122.02
741.444	24817.17
741.784	24890.16
742.124	24930.16
742.464	24691.07
742.804	24799.32
743.143	24739.43
743.483	24802.71
743.823	24636.84
744.162	24694.69
744.502	24649.72
744.841	24586.9
745.181	24734.46
745.52	24597.29
745.86	24581.92
746.199	24426.45
746.538	24444.3
746.877	24494.47
747.216	24520.23
747.556	24343.51
747.895	24352.55
748.234	24312.1
748.573	24214.48
748.911	24220.58
749.25	24292.89
749.589	24199.34
749.928	24060.81
750.267	24216.74
750.605	24084.31
750.944	24016.52
751.283	23970.19
751.621	24025.1
751.96	23871.66
752.298	23934.94
752.636	23862.85
752.975	23704.21
753.313	23626.92
753.651	23717.09
753.989	23677.32
754.327	23598.67
754.666	23507.83
755.004	23604.77
755.342	23615.62
755.679	23632.57
756.017	23349.19
756.355	23593.02
756.693	23333.82
757.031	23371.79
757.368	23250.66
757.706	23190.55
758.044	23109.19
758.381	23065.13
758.719	23000.72
759.056	22989.2
759.394	22979.48
759.731	22914.62
