Data from hue_50_FLMS001491_59.txt Node
Date: Mon Feb 06 15:10:33 GMT 2017
User: dcchb
Spectrometer: FLMS00149
Trigger mode: 0
Integration Time (sec): 2.000000E-2
Scans to average: 10
Electric dark correction enabled: true
Nonlinearity correction enabled: false
Boxcar width: 0
XAxis mode: Wavelengths
Number of Pixels in Spectrum: 2048
>>>>>Begin Spectral Data<<<<<
341.393	-9.83
341.776	-9.83
342.16	-9.83
342.543	-60
342.927	-67.23
343.31	-77.17
343.693	-52.32
344.077	-56.16
344.46	-64.52
344.843	-55.25
345.226	-33.56
345.61	-42.6
345.993	-12.99
346.376	-18.19
346.759	12.77
347.142	22.49
347.525	51.41
347.908	56.83
348.291	73.11
348.674	106.78
349.057	89.38
349.44	136.83
349.823	156.72
350.206	159.43
350.588	198.3
350.971	199.43
351.354	229.71
351.737	232.65
352.119	244.17
352.502	245.76
352.884	272.65
353.267	279.2
353.65	267.68
354.032	292.31
354.414	295.02
354.797	307
355.179	316.71
355.562	341.57
355.944	314.23
356.326	329.37
356.709	347.22
357.091	347.45
357.473	342.25
357.855	347.22
358.238	347.45
358.62	344.96
359.002	358.97
359.384	347.9
359.766	323.95
360.148	349.48
360.53	332.31
360.912	335.25
361.294	356.94
361.676	341.57
362.057	327.11
362.439	317.62
362.821	332.76
363.203	347.67
363.584	326.43
363.966	325.53
364.348	340.89
364.729	333.66
365.111	304.96
365.493	318.97
365.874	317.62
366.256	291.18
366.637	324.62
367.019	323.72
367.4	304.74
367.781	326.88
368.163	311.74
368.544	326.88
368.925	318.52
369.306	334.57
369.688	316.71
370.069	298.18
370.45	292.99
370.831	305.19
371.212	328.92
371.593	290.05
371.974	321.23
372.355	317.39
372.736	316.04
373.117	324.62
373.498	312.2
373.879	333.89
374.26	328.01
374.641	336.15
375.021	288.24
375.402	317.62
375.783	304.29
376.163	323.27
376.544	317.17
376.925	302.48
377.305	315.81
377.686	319.43
378.066	333.44
378.447	319.65
378.827	341.35
379.208	317.62
379.588	338.64
379.968	329.37
380.349	331.63
380.729	305.87
381.109	332.53
381.489	341.57
381.87	318.52
382.25	339.77
382.63	330.27
383.01	330.5
383.39	339.09
383.77	335.92
384.15	349.71
384.53	339.31
384.91	341.35
385.29	351.74
385.67	340.67
386.049	325.08
386.429	340.22
386.809	338.86
387.189	337.51
387.568	335.47
387.948	340.89
388.328	351.97
388.707	337.73
389.087	333.89
389.466	334.12
389.846	363.49
390.225	354
390.605	361.23
390.984	356.71
391.363	356.04
391.743	360.1
392.122	348.8
392.501	357.84
392.881	362.36
393.26	378.41
393.639	368.24
394.018	391.52
394.397	357.62
394.776	361.46
395.155	352.65
395.534	365.08
395.913	370.5
396.292	392.65
396.671	363.49
397.05	372.53
397.429	349.71
397.808	371.4
398.186	380.22
398.565	368.69
398.944	389.26
399.323	393.32
399.701	364.17
400.08	362.82
400.458	375.92
400.837	389.26
401.215	390.16
401.594	380.89
401.972	391.52
402.351	373.66
402.729	394.68
403.107	400.55
403.486	394.23
403.864	398.07
404.242	392.42
404.62	412.98
404.999	399.88
405.377	399.42
405.755	407.79
406.133	422.93
406.511	402.36
406.889	394.23
407.267	410.72
407.645	397.39
408.023	434.45
408.401	407.56
408.779	418.41
409.156	419.76
409.534	403.04
409.912	425.86
410.29	418.63
410.667	421.57
411.045	416.15
411.422	415.02
411.8	437.39
412.178	435.58
412.555	443.94
412.933	449.14
413.31	456.15
413.687	461.8
414.065	456.37
414.442	464.73
414.819	464.51
415.197	461.12
415.574	466.54
415.951	454.34
416.328	468.8
416.705	443.94
417.082	454.56
417.46	480.33
417.837	472.42
418.214	452.76
418.591	465.41
418.967	476.48
419.344	466.77
419.721	481.91
420.098	500.44
420.475	497.73
420.852	485.07
421.228	510.38
421.605	506.99
421.982	507.44
422.358	481
422.735	504.96
423.111	501.34
423.488	492.08
423.864	486.88
424.241	535.92
424.617	505.41
424.994	511.29
425.37	505.18
425.746	522.81
426.123	551.51
426.499	534.34
426.875	530.27
427.251	521.23
427.627	529.82
428.003	523.72
428.379	535.24
428.756	532.3
429.132	549.25
429.507	563.71
429.883	544.96
430.259	548.57
430.635	566.88
431.011	570.72
431.387	557.16
431.763	562.13
432.138	565.97
432.514	566.2
432.89	584.28
433.265	588.12
433.641	593.09
434.016	620.89
434.392	608.01
434.767	593.77
435.143	599.19
435.518	609.36
435.894	602.58
436.269	603.26
436.644	655.01
437.02	627.67
437.395	628.12
437.77	637.38
438.145	656.37
438.52	643.94
438.895	656.82
439.271	666.76
439.646	667.21
440.021	664.73
440.395	655.69
440.77	669.93
441.145	661.79
441.52	675.8
441.895	678.74
442.27	675.35
442.645	708.79
443.019	700.43
443.394	694.33
443.769	706.54
444.143	698.63
444.518	695.69
444.892	701.56
445.267	707.67
445.641	715.12
446.016	709.25
446.39	719.42
446.764	704.73
447.139	713.77
447.513	731.85
447.887	725.74
448.262	728.91
448.636	706.76
449.01	738.62
449.384	740.66
449.758	744.73
450.132	743.82
450.506	783.37
450.88	772.97
451.254	765.29
451.628	782.01
452.002	773.43
452.376	798.28
452.75	765.29
453.123	798.74
453.497	797.83
453.871	803.71
454.244	817.27
454.618	846.19
454.992	838.06
455.365	847.1
455.739	854.1
456.112	844.16
456.486	862.69
456.859	855.46
457.232	906.08
457.606	881.9
457.979	907.66
458.352	896.59
458.725	915.57
459.099	915.57
459.472	957.6
459.845	959.18
460.218	941.56
460.591	939.3
460.964	955.57
461.337	977.71
461.71	974.1
462.083	1007.54
462.456	1004.83
462.829	1009.35
463.201	1031.05
463.574	1065.4
463.947	1038.05
464.32	1057.49
464.692	1094.1
465.065	1085.73
465.438	1098.84
465.81	1099.07
466.183	1127.09
466.555	1176.13
466.928	1156.47
467.3	1156.92
467.672	1193.3
468.045	1208.44
468.417	1220.19
468.789	1224.26
469.161	1242.11
469.534	1256.58
469.906	1299.97
470.278	1318.5
470.65	1330.7
471.022	1371.38
471.394	1435.56
471.766	1417.48
472.138	1453.86
472.51	1458.38
472.882	1504.93
473.253	1527.53
473.625	1554.65
473.997	1607.3
474.369	1615.66
474.74	1664.7
475.112	1671.48
475.484	1722.55
475.855	1758.71
476.227	1807.52
476.598	1847.75
476.97	1913.51
477.341	1977.69
477.713	2005.71
478.084	2017.91
478.455	2078.25
478.827	2113.96
479.198	2193.5
479.569	2263.56
479.94	2329.09
480.311	2394.85
480.682	2450.9
481.053	2532.7
481.424	2623.77
481.795	2655.41
482.166	2718.01
482.537	2840.72
482.908	2911.45
483.279	2998
483.65	3085.46
484.021	3168.39
484.391	3263.76
484.762	3317.99
485.133	3409.06
485.503	3496.74
485.874	3601.6
486.244	3722.95
486.615	3825.78
486.985	3944.64
487.356	4011.53
487.726	4129.72
488.097	4260.34
488.467	4330.17
488.837	4463.95
489.207	4574.23
489.578	4700.33
489.948	4794.79
490.318	4924.28
490.688	4986.2
491.058	5142.35
491.428	5263.03
491.798	5414.89
492.168	5559.97
492.538	5655.11
492.908	5797.25
493.278	5931.48
493.648	6034.08
494.017	6167.86
494.387	6261.87
494.757	6431.58
495.126	6540.51
495.496	6658.24
495.866	6734.17
496.235	6839.48
496.605	6975.75
496.974	7115.63
497.344	7212.8
497.713	7363.54
498.082	7460.71
498.452	7602.85
498.821	7725.79
499.19	7770.76
499.559	7929.62
499.928	8030.86
500.298	8158.54
500.667	8284.87
501.036	8373.68
501.405	8516.05
501.774	8536.16
502.143	8650.28
502.512	8763.27
502.88	8877.39
503.249	8951.06
503.618	9098.18
503.987	9232.64
504.356	9335.69
504.724	9462.69
505.093	9472.86
505.462	9569.13
505.83	9711.04
506.199	9773.19
506.567	9975.9
506.936	9944.03
507.304	10153.52
507.672	10255.66
508.041	10350.12
508.409	10458.14
508.777	10552.6
509.145	10672.15
509.514	10792.15
509.882	10879.37
510.25	11007.28
510.618	11066.94
510.986	11135.64
511.354	11243.89
511.722	11376.09
512.09	11553.26
512.458	11507.16
512.826	11674.61
513.193	11784.44
513.561	11866.69
513.929	11922.74
514.297	12055.62
514.664	12155.73
515.032	12174.48
515.4	12308.26
515.767	12412.44
516.135	12539.67
516.502	12487.47
516.869	12747.35
517.237	12788.25
517.604	12739.67
517.972	12941.24
518.339	13087.9
518.706	13112.99
519.073	13211.97
519.44	13273.66
519.808	13388.24
520.175	13502.13
520.542	13621.22
520.909	13763.59
521.276	13763.14
521.643	13940.76
522.009	13982.57
522.376	14105.5
522.743	14198.84
523.11	14381.2
523.477	14506.85
523.843	14596.79
524.21	14748.2
524.577	14837.01
524.943	14854.41
525.31	14978.7
525.676	15153.61
526.043	15285.59
526.409	15288.75
526.776	15445.13
527.142	15517.9
527.508	15641.28
527.874	15757.44
528.241	15908.4
528.607	15851.45
528.973	16130.54
529.339	16040.14
529.705	16217.99
530.071	16403.98
530.437	16513.8
530.803	16541.15
531.169	16613.91
531.535	16532.11
531.901	16701.37
532.267	16801.03
532.632	16875.83
532.998	16964.19
533.364	17116.05
533.73	17132.09
534.095	17303.61
534.461	17317.17
534.826	17420.67
535.192	17564.4
535.557	17565.3
535.923	17554.45
536.288	17750.15
536.653	17819.31
537.019	17801
537.384	17808.68
537.749	17998.28
538.114	18050.26
538.479	18071.5
538.845	18144.27
539.21	18144.04
539.575	18285.96
539.94	18290.48
540.305	18458.84
540.67	18446.86
541.034	18511.94
541.399	18575.44
541.764	18613.41
542.129	18648.21
542.494	18700.64
542.858	18867.64
543.223	18855.21
543.587	18970.46
543.952	18900.41
544.316	19183.79
544.681	19089.78
545.045	19224.24
545.41	19250.91
545.774	19385.82
546.138	19428.53
546.503	19522.09
546.867	19510.56
547.231	19689.31
547.595	19735.41
547.959	19736.32
548.324	19739.48
548.688	19933.6
549.052	19987.38
549.416	19950.77
549.779	20141.73
550.143	20065.8
550.507	20330.43
550.871	20396.19
551.235	20318.67
551.599	20433.02
551.962	20491.55
552.326	20541.04
552.689	20630.08
553.053	20705.78
553.417	20717.99
553.78	20905.33
554.143	20941.94
554.507	20878.21
554.87	20955.04
555.234	21191.87
555.597	21104.19
555.96	21231.42
556.323	21356.39
556.686	21371.53
557.05	21540.56
557.413	21522.03
557.776	21602.93
558.139	21675.25
558.502	21837.28
558.865	21811.06
559.228	21939.65
559.59	22131.51
559.953	22065.97
560.316	22380.99
560.679	22263.48
561.041	22531.05
561.404	22642.91
561.767	22729.46
562.129	22708.89
562.492	22924.03
562.854	22919.74
563.217	22942.33
563.579	22985.72
563.941	23094.87
564.304	23309.33
564.666	23465.94
565.028	23473.85
565.39	23460.51
565.753	23622.09
566.115	23761.3
566.477	23874.06
566.839	23928.3
567.201	24065.92
567.563	24026.6
567.925	24282.41
568.287	24274.95
568.648	24367.38
569.01	24515.17
569.372	24648.73
569.734	24596.98
570.095	24740.03
570.457	24972.56
570.819	25001.49
571.18	25011.21
571.542	25088.04
571.903	25162.16
572.265	25373.01
572.626	25406.68
572.987	25458.2
573.349	25495.26
573.71	25605.54
574.071	25799.21
574.432	25864.74
574.794	26065.64
575.155	25961.01
575.516	25930.96
575.877	26109.93
576.238	26257.73
576.599	26325.3
576.96	26389.48
577.32	26400.77
577.681	26627.66
578.042	26697.94
578.403	26758.96
578.763	26765.06
579.124	27023.13
579.485	26992.62
579.845	27317.59
580.206	27290.02
580.566	27217.93
580.927	27368.43
581.287	27645.26
581.648	27554.64
582.008	27679.61
582.368	27770.46
582.728	27857.01
583.089	27951.02
583.449	28078.7
583.809	28053.16
584.169	28265.36
584.529	28224.68
584.889	28668.06
585.249	28387.39
585.609	28567.95
585.969	28595.29
586.329	28793.25
586.688	28908.73
587.048	29002.51
587.408	28912.35
587.768	29275.5
588.127	29162.96
588.487	29304.88
588.846	29573.35
589.206	29459.68
589.565	29552.33
589.925	29741.48
590.284	29723.17
590.643	29851.08
591.003	30100.34
591.362	30257.85
591.721	30224.85
592.08	30342.59
592.44	30454.91
592.799	30551.85
593.158	30448.13
593.517	30680.21
593.876	30839.98
594.235	30897.38
594.593	30962.91
594.952	31071.39
595.311	31083.36
595.67	31286.3
596.029	31530.13
596.387	31507.31
596.746	31644.93
597.104	31535.78
597.463	31593.18
597.822	31981.64
598.18	31864.59
598.538	31895.77
598.897	31993.85
599.255	31881.31
599.613	32373.05
599.972	32227.51
600.33	32445.81
600.688	32428.41
601.046	32522.87
601.404	32802.19
601.762	32719.48
602.12	32928.51
602.478	32987.95
602.836	33051.45
603.194	32990.66
603.552	32968.06
603.91	33088.06
604.268	33322.63
604.625	33209.41
604.983	33335.96
605.341	33257.09
605.698	33569.4
606.056	33500.02
606.413	33531.66
606.771	33613.24
607.128	33805.78
607.485	33709.06
607.843	33834.7
608.2	34061.59
608.557	34087.58
608.914	34063.62
609.272	34315.37
609.629	34344.52
609.986	34382.71
610.343	34401.02
610.7	34674.68
611.057	34635.81
611.414	34586.77
611.771	34666.32
612.127	34901.57
612.484	34905.86
612.841	35049.81
613.198	34848.46
613.554	35090.94
613.911	35285.06
614.267	35195.8
614.624	35285.51
614.98	35417.26
615.337	35579.97
615.693	35548.56
616.05	35526.41
616.406	35706.52
616.762	35650.48
617.118	35727.76
617.475	35796.01
617.831	35869
618.187	36016.12
618.543	35979.51
618.899	36146.06
619.255	36125.72
619.611	36146.73
619.967	36350.34
620.323	36297.92
620.678	36177.92
621.034	36174.3
621.39	36386.27
621.746	36283.68
622.101	36728.86
622.457	36408.87
622.812	36413.39
623.168	36566.38
623.523	36504.46
623.879	36734.74
624.234	36354.41
624.589	36618.59
624.945	36768.19
625.3	36619.72
625.655	36650.67
626.01	36808.64
626.365	36904
626.72	36720.5
627.075	36914.17
627.43	36785.13
627.785	36724.12
628.14	36848.41
628.495	36909.42
628.85	36824.68
629.205	36888.41
629.559	37017.9
629.914	36819.48
630.269	36867.39
630.623	36842.08
630.978	36837.34
631.332	36862.65
631.687	37066.26
632.041	36806.38
632.396	36875.3
632.75	36840.73
633.104	36856.09
633.459	36790.56
633.813	36708.53
634.167	36677.57
634.521	36660.17
634.875	36806.6
635.229	36640.05
635.583	36530.23
635.937	36673.27
636.291	36571.35
636.645	36665.14
636.999	36538.14
637.352	36618.81
637.706	36523.22
638.06	36635.31
638.413	36565.03
638.767	36485.71
639.121	36401.64
639.474	36293.85
639.828	36320.74
640.181	36488.19
640.534	36391.47
640.888	36341.3
641.241	36185.6
641.594	36225.83
641.947	36330.46
642.301	36167.07
642.654	36240.52
643.007	36187.64
643.36	36131.37
643.713	36261.31
644.066	36208.88
644.419	36178.82
644.771	35835.55
645.124	35525.05
645.477	35634.88
645.83	35196.48
646.182	35185.18
646.535	35134.1
646.888	35113.31
647.24	34894.11
647.593	35057.27
647.945	34968.46
648.298	34966.43
648.65	34837.39
649.002	34760.1
649.355	34925.07
649.707	34845.75
650.059	35010.27
650.411	35365.28
650.763	35313.53
651.115	35823.35
651.467	35693.64
651.819	35687.76
652.171	35477.6
652.523	35486.19
652.875	35439.18
653.227	35355.79
653.578	35771.38
653.93	35493.42
654.282	35323.48
654.633	35212.29
654.985	35240.32
655.337	35251.62
655.688	35381.56
656.039	35392.18
656.391	35005.52
656.742	35266.53
657.094	35267.21
657.445	35489.58
657.796	35268.11
658.147	35152.64
658.498	35149.02
658.849	35298.17
659.2	35230.6
659.551	35208.23
659.902	35240.77
660.253	35176.14
660.604	35196.93
660.955	35067.44
661.306	35269.69
661.656	35042.81
662.007	34972.98
662.358	35035.58
662.708	35082.13
663.059	35142.24
663.409	34988.35
663.76	35078.06
664.11	35089.59
664.461	35222.01
664.811	35175.01
665.161	35045.52
665.511	34967.56
665.862	34954.9
666.212	35193.99
666.562	35146.08
666.912	34946.31
667.262	35015.24
667.612	34933.43
667.962	35019.53
668.312	34979.53
668.662	35117.16
669.011	34848.91
669.361	35005.29
669.711	34953.32
670.06	34855.24
670.41	34819.99
670.76	34798.07
671.109	35000.55
671.459	34800.1
671.808	34674.23
672.157	34895.47
672.507	34659.77
672.856	34740.22
673.205	34793.77
673.554	34841.68
673.904	34664.29
674.253	34973.66
674.602	34731.86
674.951	34362.37
675.3	34061.82
675.649	34567.79
675.998	34490.05
676.346	34475.36
676.695	34754.23
677.044	34474.69
677.393	34596.49
677.741	34539.77
678.09	34512.2
678.438	34433.33
678.787	34431.07
679.135	34434.91
679.484	34175.03
679.832	34406.21
680.181	34126
680.529	34329.61
680.877	34103.17
681.225	34208.25
681.573	34438.08
681.922	34161.47
682.27	34037.18
682.618	34034.92
682.966	33915.38
683.314	34019.11
683.661	33820.01
684.009	33667.93
684.357	33598.55
684.705	33586.57
685.053	33681.04
685.4	33590.42
685.748	33428.84
686.095	33563.98
686.443	33419.57
686.79	33395.39
687.138	33486.46
687.485	33478.55
687.832	33258.22
688.18	33257.54
688.527	33044.89
688.874	33044.67
689.221	32914.05
689.568	32919.02
689.915	32765.58
690.262	32798.35
690.609	32675.64
690.956	32608.07
691.303	32658.46
691.65	32494.4
691.997	32496.66
692.344	32209.21
692.69	32301.18
693.037	32282.2
693.383	32042.66
693.73	32136.22
694.077	31984.81
694.423	32020.51
694.769	31832.72
695.116	31721.54
695.462	31691.26
695.808	31649.68
696.155	31611.26
696.501	31515.89
696.847	31572.62
697.193	31304.37
697.539	31332.4
697.885	31136.02
698.231	31039.97
698.577	31146.64
698.923	31021.9
699.269	30908.68
699.614	30662.58
699.96	30662.81
700.306	30696.93
700.651	30536.94
700.997	30455.58
701.342	30413.32
701.688	30442.7
702.033	30284.06
702.379	30192.54
702.724	30065.99
703.069	30152.31
703.415	29678.88
703.76	29888.59
704.105	29832.55
704.45	29806.11
704.795	29582.16
705.14	29526.57
705.485	29649.05
705.83	29441.6
706.175	29362.05
706.52	29417.42
706.865	29284.09
707.209	29246.8
707.554	29136.3
707.899	29154.37
708.243	29041.16
708.588	28946.02
708.932	28789.64
709.277	28819.92
709.621	28772.01
709.966	28607.04
710.31	28776.08
710.654	28478.23
710.998	28408.63
711.342	28572.7
711.687	28349.42
712.031	28202.99
712.375	28164.34
712.719	28281.4
713.063	28221.07
713.407	28250.67
713.75	28148.07
714.094	28096.32
714.438	27939.49
714.782	27913.96
715.125	27830.79
715.469	27798.25
715.812	27654.53
716.156	27585.83
716.499	27618.37
716.843	27677.35
717.186	27424.02
717.53	27603.91
717.873	27523.91
718.216	27397.81
718.559	27451.59
718.902	27149.68
719.246	27237.81
719.589	27053.86
719.932	27164.82
720.275	27083.47
720.617	27049.8
720.96	27131.15
721.303	26958.95
721.646	26984.26
721.989	26746.75
722.331	26878.5
722.674	26749.92
723.016	26747.66
723.359	26753.76
723.701	26770.48
724.044	26513.31
724.386	26523.03
724.729	26622.69
725.071	26476.7
725.413	26370.27
725.755	26477.16
726.097	26339.76
726.439	26116.49
726.782	26190.61
727.124	26208.69
727.465	26173.66
727.807	26130.73
728.149	26074.46
728.491	25968.02
728.833	26115.36
729.175	25933.44
729.516	25926.44
729.858	25975.02
730.199	25886.66
730.541	25805.54
730.882	25893.22
731.224	25812.99
731.565	25782.71
731.906	25695.03
732.248	25755.37
732.589	25495.04
732.93	25487.35
733.271	25548.37
733.612	25521.7
733.953	25512.44
734.294	25317.41
734.635	25321.93
734.976	25328.03
735.317	25268.83
735.658	25335.94
735.999	25231.09
736.339	25089.17
736.68	25330.07
737.021	25068.38
737.361	24955.16
737.702	25119.68
738.042	25120.13
738.383	24986.12
738.723	25025.44
739.063	24883.3
739.404	24940.25
739.744	24845.34
740.084	24870.65
740.424	24766.69
740.764	24818.9
741.104	24827.03
741.444	24641.05
741.784	24660.71
742.124	24679.69
742.464	24536.87
742.804	24533.93
743.143	24512.01
743.483	24401.51
743.823	24390.21
744.162	24283.77
744.502	24280.15
744.841	24278.57
745.181	24387.04
745.52	24318.8
745.86	24257.78
746.199	24195.86
746.538	24122.87
746.877	24231.57
747.216	24217.1
747.556	24091.23
747.895	24123.32
748.234	24038.58
748.573	23939.6
748.911	23966.94
749.25	23849.43
749.589	23788.41
749.928	23749.77
750.267	24024.11
750.605	23753.16
750.944	23721.75
751.283	23662.77
751.621	23704.8
751.96	23518.82
752.298	23529.44
752.636	23512.49
752.975	23389.55
753.313	23322.89
753.651	23430.46
753.989	23251.71
754.327	23152.5
754.666	23163.8
755.004	23135.32
755.342	23180.75
755.679	23076.57
756.017	22945.27
756.355	22987.98
756.693	22867.99
757.031	22919.51
