Data from hue_310_FLMS001491_4.txt Node
Date: Mon Feb 06 15:48:22 GMT 2017
User: dcchb
Spectrometer: FLMS00149
Trigger mode: 0
Integration Time (sec): 2.000000E-2
Scans to average: 10
Electric dark correction enabled: true
Nonlinearity correction enabled: false
Boxcar width: 0
XAxis mode: Wavelengths
Number of Pixels in Spectrum: 2048
>>>>>Begin Spectral Data<<<<<
341.393	-9.59
341.776	-9.59
342.16	-9.59
342.543	-47.78
342.927	-44.62
343.31	-76.26
343.693	-66.99
344.077	-71.28
344.46	-55.46
344.843	-70.38
345.226	-26.31
345.61	-28.8
345.993	-35.13
346.376	16.62
346.759	-4.17
347.142	38.77
347.525	49.84
347.908	53.01
348.291	64.76
348.674	100.69
349.057	111.08
349.44	141.14
349.823	118.32
350.206	178.43
350.588	197.64
350.971	208.94
351.354	217.97
351.737	221.59
352.119	242.38
352.502	262.49
352.884	271.08
353.267	290.74
353.65	296.16
354.032	292.77
354.414	321.25
354.797	317.63
355.179	320.57
355.562	328.25
355.944	327.35
356.326	324.64
356.709	320.57
357.091	323.28
357.473	327.8
357.855	341.59
358.238	349.72
358.62	349.72
359.002	358.76
359.384	349.95
359.766	337.75
360.148	334.81
360.53	344.75
360.912	335.94
361.294	340.91
361.676	332.1
362.057	322.83
362.439	332.1
362.821	351.76
363.203	335.94
363.584	332.32
363.966	334.13
364.348	322.38
364.729	309.5
365.111	342.94
365.493	310.85
365.874	328.48
366.256	308.37
366.637	316.5
367.019	314.24
367.4	331.19
367.781	325.54
368.163	307.92
368.544	330.29
368.925	293.45
369.306	319.44
369.688	316.05
370.069	328.93
370.45	309.05
370.831	297.97
371.212	325.54
371.593	288.26
371.974	308.82
372.355	317.63
372.736	309.95
373.117	321.47
373.498	309.72
373.879	314.24
374.26	331.19
374.641	329.61
375.021	307.01
375.402	304.75
375.783	330.51
376.163	319.89
376.544	331.19
376.925	344.75
377.305	328.48
377.686	319.67
378.066	311.98
378.447	342.72
378.827	323.51
379.208	333.45
379.588	344.52
379.968	320.34
380.349	330.29
380.729	340.91
381.109	328.03
381.489	352.89
381.87	345.43
382.25	350.4
382.63	346.33
383.01	343.39
383.39	336.16
383.77	336.84
384.15	348.37
384.53	343.62
384.91	353.11
385.29	357.18
385.67	358.31
386.049	354.92
386.429	366.22
386.809	360.8
387.189	377.07
387.568	331.87
387.948	368.25
388.328	368.7
388.707	355.15
389.087	363.73
389.466	378.2
389.846	377.74
390.225	365.54
390.605	360.8
390.984	363.06
391.363	382.04
391.743	372.09
392.122	366.9
392.501	370.51
392.881	372.09
393.26	361.02
393.639	382.49
394.018	384.3
394.397	387.69
394.776	370.51
395.155	391.98
395.534	375.48
395.913	393.11
396.292	390.17
396.671	391.53
397.05	402.38
397.429	402.6
397.808	392.21
398.186	384.07
398.565	383.17
398.944	405.99
399.323	404.64
399.701	405.54
400.08	379.55
400.458	417.74
400.837	415.94
401.215	399.89
401.594	419.33
401.972	415.03
402.351	425.65
402.729	413.45
403.107	439.89
403.486	398.99
403.864	422.49
404.242	405.31
404.62	453.67
404.999	432.66
405.377	435.82
405.755	429.04
406.133	435.37
406.511	452.54
406.889	456.84
407.267	466.1
407.645	484.63
408.023	466.1
408.401	480.57
408.779	463.62
409.156	462.26
409.534	503.39
409.912	496.84
410.29	505.65
410.667	500.23
411.045	514.24
411.422	527.8
411.8	533.67
412.178	548.14
412.555	554.69
412.933	545.42
413.31	551.53
413.687	575.03
414.065	547.91
414.442	582.03
414.819	582.03
415.197	595.82
415.574	609.6
415.951	592.43
416.328	598.08
416.705	616.83
417.082	626.55
417.46	644.63
417.837	638.3
418.214	644.18
418.591	653.9
418.967	638.98
419.344	674.01
419.721	675.14
420.098	673.33
420.475	682.82
420.852	673.56
421.228	701.35
421.605	728.24
421.982	693.67
422.358	734.57
422.735	730.96
423.111	752.2
423.488	730.73
423.864	751.97
424.241	758.3
424.617	780.45
424.994	792.2
425.37	793.78
425.746	813.44
426.123	814.12
426.499	811.63
426.875	832.65
427.251	867
427.627	850.5
428.003	864.96
428.379	882.14
428.756	869.26
429.132	880.1
429.507	903.83
429.883	909.93
430.259	913.55
430.635	915.81
431.011	907.45
431.387	935.24
431.763	994.9
432.138	969.59
432.514	989.93
432.89	993.32
433.265	997.39
433.641	993.1
434.016	1026.31
434.392	1039.2
434.767	1050.95
435.143	1049.14
435.518	1065.18
435.894	1073.77
436.269	1087.56
436.644	1113.77
437.02	1120.55
437.395	1110.61
437.77	1135.24
438.145	1153.77
438.52	1183.15
438.895	1154.9
439.271	1154
439.646	1187.21
440.021	1200.77
440.395	1203.26
440.77	1184.05
441.145	1220.89
441.52	1224.95
441.895	1204.84
442.27	1253.65
442.645	1229.47
443.019	1257.72
443.394	1221.79
443.769	1244.84
444.143	1245.29
444.518	1232.41
444.892	1258.85
445.267	1266.99
445.641	1312.86
446.016	1281.45
446.39	1271.96
446.764	1290.04
447.139	1321.22
447.513	1321.67
447.887	1315.12
448.262	1304.5
448.636	1311.51
449.01	1286.19
449.384	1323.48
449.758	1347.66
450.132	1379.75
450.506	1365.97
450.88	1357.15
451.254	1353.99
451.628	1347.44
452.002	1380.2
452.376	1369.58
452.75	1391.28
453.123	1373.42
453.497	1425.85
453.871	1410.49
454.244	1425.4
454.618	1455.68
454.992	1446.87
455.365	1461.56
455.739	1468.79
456.112	1500.65
456.486	1481.44
456.859	1506.98
457.232	1524.83
457.606	1539.3
457.979	1537.04
458.352	1558.28
458.725	1548.33
459.099	1560.09
459.472	1591.72
459.845	1586.3
460.218	1594.89
460.591	1586.07
460.964	1589.92
461.337	1629.69
461.71	1649.8
462.083	1684.15
462.456	1676.69
462.829	1682.12
463.201	1700.87
463.574	1687.54
463.947	1713.75
464.32	1721.89
464.692	1736.8
465.065	1728.9
465.438	1769.57
465.81	1788.78
466.183	1773.64
466.555	1850.25
466.928	1837.14
467.3	1818.16
467.672	1841.21
468.045	1894.99
468.417	1861.1
468.789	1894.31
469.161	1895.44
469.534	1930.7
469.906	1937.93
470.278	1965.73
470.65	1976.8
471.022	2025.84
471.394	2035.55
471.766	2007.08
472.138	2044.59
472.51	2089.56
472.882	2084.37
473.253	2121.2
473.625	2137.47
473.997	2194.19
474.369	2167.98
474.74	2200.3
475.112	2223.12
475.484	2226.96
475.855	2265.15
476.227	2262.89
476.598	2319.84
476.97	2324.59
477.341	2349.22
477.713	2350.57
478.084	2375.66
478.455	2445.26
478.827	2454.07
479.198	2508.54
479.569	2514.41
479.94	2567.07
480.311	2562.77
480.682	2602.09
481.053	2642.54
481.424	2655.42
481.795	2669.21
482.166	2744.24
482.537	2726.84
482.908	2786.72
483.279	2806.16
483.65	2814.52
484.021	2880.05
484.391	2906.49
484.762	2889.99
485.133	2938.35
485.503	2934.51
485.874	2977.45
486.244	3016.77
486.615	3054.96
486.985	3066.49
487.356	3144.23
487.726	3118.92
488.097	3167.73
488.467	3156.88
488.837	3224.22
489.207	3258.57
489.578	3284.33
489.948	3318.91
490.318	3319.14
490.688	3334.95
491.058	3385.12
491.428	3397.78
491.798	3438.45
492.168	3517.32
492.538	3476.87
492.908	3501.73
493.278	3561.39
493.648	3548.73
494.017	3634.38
494.387	3585.57
494.757	3630.31
495.126	3640.03
495.496	3674.38
495.866	3680.48
496.235	3739.01
496.605	3799.12
496.974	3759.35
497.344	3797.32
497.713	3790.99
498.082	3835.05
498.452	3816.75
498.821	3833.47
499.19	3860.82
499.559	3875.96
499.928	3895.84
500.298	3892.45
500.667	3958.22
501.036	3946.92
501.405	3973.81
501.774	3977.65
502.143	3997.31
502.512	3993.69
502.88	3995.5
503.249	4017.2
503.618	4061.04
503.987	4063.98
504.356	4055.39
504.724	4124.54
505.093	4095.39
505.462	4128.15
505.83	4146.23
506.199	4169.51
506.567	4184.2
506.936	4159.79
507.304	4204.08
507.672	4248.38
508.041	4240.69
508.409	4219.45
508.777	4316.62
509.145	4284.99
509.514	4239.79
509.882	4313.46
510.25	4315.49
510.618	4356.85
510.986	4331.76
511.354	4381.25
511.722	4395.27
512.09	4402.72
512.458	4397.3
512.826	4414.47
513.193	4402.27
513.561	4414.25
513.929	4471.2
514.297	4516.84
514.664	4517.3
515.032	4491.99
515.4	4535.15
515.767	4544.87
516.135	4524.98
516.502	4533.57
516.869	4595.94
517.237	4576.05
517.604	4591.87
517.972	4610.4
518.339	4635.03
518.706	4651.98
519.073	4608.82
519.44	4677.52
519.808	4659.67
520.175	4656.05
520.542	4692.43
520.909	4689.27
521.276	4657.41
521.643	4763.39
522.009	4778.31
522.376	4816.27
522.743	4814.24
523.11	4778.98
523.477	4802.71
523.843	4883.84
524.21	4905.08
524.577	4945.08
524.943	4983.27
525.31	4971.97
525.676	4994.57
526.043	5017.62
526.409	5011.07
526.776	5083.16
527.142	5067.11
527.508	5141.01
527.874	5205.19
528.241	5200.44
528.607	5181.69
528.973	5178.75
529.339	5180.78
529.705	5278.86
530.071	5287.9
530.437	5308.46
530.803	5308.46
531.169	5384.84
531.535	5344.85
531.901	5348.01
532.267	5369.7
532.632	5397.27
532.998	5418.97
533.364	5443.37
533.73	5488.8
534.095	5492.64
534.461	5569.7
534.826	5536.93
535.192	5616.25
535.557	5629.36
535.923	5626.87
536.288	5628.23
536.653	5685.18
537.019	5643.37
537.384	5700.32
537.749	5681.56
538.114	5765.85
538.479	5752.29
538.845	5789.35
539.21	5800.65
539.575	5806.98
539.94	5817.83
540.305	5929.01
540.67	5810.82
541.034	5927.88
541.399	5956.81
541.764	5921.33
542.129	6003.36
542.494	6017.6
542.858	6029.35
543.223	6004.04
543.587	6096.01
543.952	6105.5
544.316	6143.69
544.681	6118.38
545.045	6176.24
545.41	6196.57
545.774	6211.26
546.138	6260.98
546.503	6242.45
546.867	6307.76
547.231	6359.06
547.595	6359.51
547.959	6380.75
548.324	6385.72
548.688	6403.12
549.052	6508.88
549.416	6418.94
549.779	6459.62
550.143	6430.92
550.507	6517.47
550.871	6536.23
551.235	6513.4
551.599	6583.46
551.962	6595.66
552.326	6588.65
552.689	6620.97
553.053	6658.94
553.417	6633.85
553.78	6640.86
554.143	6676.11
554.507	6735.32
554.87	6739.84
555.234	6787.97
555.597	6745.49
555.96	6771.02
556.323	6803.79
556.686	6850.12
557.05	6858.7
557.413	6855.99
557.776	6902.32
558.139	6917.91
558.502	6950.23
558.865	6945.48
559.228	7026.84
559.59	6999.94
559.953	7035.87
560.316	7094.63
560.679	7136.44
561.041	7134.63
561.404	7163.55
561.767	7216.43
562.129	7144.57
562.492	7216.21
562.854	7201.52
563.217	7246.04
563.579	7237.45
563.941	7319.48
564.304	7332.59
564.666	7372.14
565.028	7362.42
565.39	7374.85
565.753	7387.96
566.115	7440.61
566.477	7466.15
566.839	7420.95
567.201	7540.95
567.563	7556.31
567.925	7584.79
568.287	7609.64
568.648	7602.41
569.01	7644.22
569.372	7715.18
569.734	7676.99
570.095	7759.7
570.457	7760.83
570.819	7876.3
571.18	7770.32
571.542	7865.46
571.903	7893.48
572.265	7944.78
572.626	7997.88
572.987	8039.92
573.349	8081.72
573.71	8175.05
574.071	8211.66
574.432	8202.62
574.794	8373.47
575.155	8391.09
575.516	8337.08
575.877	8450.98
576.238	8528.49
576.599	8630.63
576.96	8621.82
577.32	8737.52
577.681	8751.31
578.042	8879.89
578.403	8884.19
578.763	8996.27
579.124	9146.55
579.485	9222.94
579.845	9356.94
580.206	9405.76
580.566	9580.21
580.927	9667.44
581.287	9902.92
581.648	9905.18
582.008	10114.89
582.368	10167.54
582.728	10372.06
583.089	10499.96
583.449	10715.78
583.809	10787.64
584.169	11012.94
584.529	11200.28
584.889	11474.4
585.249	11638.69
585.609	11736.99
585.969	11971.11
586.329	12228.51
586.688	12397.32
587.048	12649.06
587.408	12849.05
587.768	13102.38
588.127	13345.31
588.487	13545.08
588.846	13938.52
589.206	14019.87
589.565	14336.7
589.925	14649.01
590.284	14903.69
590.643	15215.32
591.003	15511.36
591.362	15807.4
591.721	16124.45
592.08	16455.97
592.44	16668.84
592.799	16970.08
593.158	17247.58
593.517	17596.5
593.876	17928.92
594.235	18174.34
594.593	18521.9
594.952	18911.95
595.311	19086.86
595.67	19460.63
596.029	19908.3
596.387	20198.24
596.746	20486.14
597.104	20661.73
597.463	21032.79
597.822	21473.23
598.18	21628.03
598.538	21932.88
598.897	22442.7
599.255	22475.47
599.613	23204.04
599.972	23246.75
600.33	23609.68
600.688	23887.18
601.046	24153.16
601.404	24611.91
601.762	24802.19
602.12	25100.94
602.478	25473.36
602.836	25721.71
603.194	26025.88
603.552	26357.17
603.91	26416.16
604.268	26936.59
604.625	27153.09
604.983	27428.78
605.341	27548.78
605.698	27907.87
606.056	28316.44
606.413	28517.8
606.771	28852.93
607.128	29145.35
607.485	29138.8
607.843	29457.66
608.2	29832.11
608.557	30136.28
608.914	30200.46
609.272	30554.8
609.629	30849.49
609.986	31169.7
610.343	31197.27
610.7	31620.99
611.057	31744.38
611.414	31934.65
611.771	32152.5
612.127	32485.37
612.484	32560.85
612.841	32768.98
613.198	33029.77
613.554	33168.75
613.911	33487.38
614.267	33506.82
614.624	33765.34
614.98	33974.15
615.337	34350.64
615.693	34334.82
616.05	34530.29
616.406	34841.47
616.762	34819.55
617.118	34911.53
617.475	35174.57
617.831	35469.48
618.187	35577.5
618.543	35544.28
618.899	36107.65
619.255	36011.38
619.611	36136.35
619.967	36419.96
620.323	36547.41
620.678	36501.09
621.034	36646.85
621.39	36681.42
621.746	36793.28
622.101	37322.54
622.457	37096.33
622.812	37194.4
623.168	37401.4
623.523	37490.89
623.879	37670.1
624.234	37539.25
624.589	37873.93
624.945	37915.51
625.3	37974.04
625.655	37929.75
626.01	38278.44
626.365	38359.12
626.72	38394.37
627.075	38405.22
627.43	38529.51
627.785	38507.82
628.14	38598.21
628.495	38697.64
628.85	38638.89
629.205	38678.43
629.559	38901.25
629.914	38849.05
630.269	38912.32
630.623	38920.69
630.978	38861.93
631.332	38991.42
631.687	39082.94
632.041	39015.82
632.396	39166.55
632.75	39172.2
633.104	39067.35
633.459	38983.51
633.813	39047.91
634.167	38890.18
634.521	39090.85
634.875	39259.66
635.229	39171.3
635.583	38968.82
635.937	39172.66
636.291	38966.11
636.645	39096.27
636.999	39199.1
637.352	39256.5
637.706	39056.5
638.06	39255.59
638.413	39094.92
638.767	39023.73
639.121	39231.41
639.474	39033.9
639.828	39038.2
640.181	39145.76
640.534	39320.68
640.888	39051.08
641.241	38931.76
641.594	39089.04
641.947	39103.51
642.301	39106.9
642.654	39156.16
643.007	39056.5
643.36	39070.06
643.713	39099.66
644.066	39158.65
644.419	38993.23
644.771	38795.49
645.124	38283.87
645.477	38344.66
645.83	38096.07
646.182	38066.92
646.535	37919.13
646.888	38059.69
647.24	37823.54
647.593	38080.26
647.945	37944.89
648.298	37786.7
648.65	37854.95
649.002	37633.04
649.355	37735.63
649.707	37855.18
650.059	37979.24
650.411	38489.51
650.763	38449.96
651.115	38866.45
651.467	38749.62
651.819	38807.02
652.171	38648.83
652.523	38624.87
652.875	38635.95
653.227	38620.81
653.578	38622.39
653.93	38684.53
654.282	38448.83
654.633	38471.43
654.985	38436.18
655.337	38448.38
655.688	38450.42
656.039	38602.5
656.391	38180.82
656.742	38375.84
657.094	38407.93
657.445	38437.53
657.796	38449.51
658.147	38271.89
658.498	38476.18
658.849	38462.17
659.2	38390.98
659.551	38296.3
659.902	38320.93
660.253	38329.29
660.604	38388.72
660.955	38180.14
661.306	38450.64
661.656	38198.9
662.007	38350.76
662.358	38374.03
662.708	38268.5
663.059	38200.03
663.409	38074.61
663.76	38407.93
664.11	38308.05
664.461	38294.94
664.811	38183.08
665.161	38308.5
665.511	38127.26
665.862	38183.76
666.212	38278.89
666.562	38382.62
666.912	38224.66
667.262	38169.74
667.612	38127.94
667.962	38221.95
668.312	38237.77
668.662	38313.7
669.011	38143.3
669.361	38086.13
669.711	38125.23
670.06	38145.11
670.41	38070.76
670.76	37969.3
671.109	38277.09
671.459	38035.29
671.808	38063.99
672.157	38178.56
672.507	37887.49
672.856	37917.1
673.205	38104.66
673.554	38055.62
673.904	37906.93
674.253	38187.82
674.602	37968.85
674.951	37605.92
675.3	37233.95
675.649	37936.08
675.998	37782.18
676.346	37820.38
676.695	37899.47
677.044	37615.86
677.393	37655.86
677.741	37783.77
678.09	37779.25
678.438	37700.6
678.787	37664.45
679.135	37681.4
679.484	37524.56
679.832	37640.49
680.181	37377.45
680.529	37606.6
680.877	37360.5
681.225	37307.39
681.573	37700.38
681.922	37266.72
682.27	37264.91
682.618	37178.13
682.966	37139.94
683.314	37197.79
683.661	37231.92
684.009	36909.44
684.357	36925.94
684.705	36857.69
685.053	36852.72
685.4	36771.82
685.748	36576.34
686.095	36610.01
686.443	36563.01
686.79	36518.49
687.138	36645.04
687.485	36530.01
687.832	36347.65
688.18	36496.79
688.527	36149.69
688.874	36211.38
689.221	35994.66
689.568	36022.23
689.915	36115.56
690.262	35895.68
690.609	35866.3
690.956	35744.72
691.303	35676.7
691.65	35726.87
691.997	35672.41
692.344	35403.72
692.69	35355.58
693.037	35442.13
693.383	34932.09
693.73	35268.13
694.077	34983.39
694.423	35117.17
694.769	34902.71
695.116	34844.63
695.462	34676.5
695.808	34742.49
696.155	34762.6
696.501	34485.1
696.847	34499.78
697.193	34169.85
697.539	34259.34
697.885	34151.32
698.231	33980.48
698.577	34010.98
698.923	34012.79
699.269	33734.83
699.614	33704.33
699.96	33605.35
700.306	33595.63
700.651	33430.21
700.997	33433.37
701.342	33266.15
701.688	33312.02
702.033	33077.68
702.379	33230.44
702.724	33114.96
703.069	33009.2
703.415	32810.56
703.76	32773.05
704.105	32808.76
704.45	32739.83
704.795	32565.6
705.14	32368.99
705.485	32484.92
705.83	32333.51
706.175	32390.69
706.52	32346.4
706.865	32147.98
707.209	32130.36
707.554	31945.95
707.899	32027.08
708.243	31815.34
708.588	31908.44
708.932	31527.66
709.277	31621.89
709.621	31738.73
709.966	31467.1
710.31	31491.95
710.654	31131.06
710.998	31320.66
711.342	31235.01
711.687	31188.91
712.031	30921.8
712.375	30994.79
712.719	31039.99
713.063	30977.62
713.407	30996.83
713.75	30767
714.094	30808.81
714.438	30625.76
714.782	30613.79
715.125	30416.28
715.469	30572.88
715.812	30389.61
716.156	30208.37
716.499	30329.05
716.843	30399.1
717.186	30159.33
717.53	30274.36
717.873	30252.44
718.216	30081.6
718.559	30029.39
718.902	29805.9
719.246	30007.7
719.589	29948.72
719.932	29739.01
720.275	29703.75
720.617	29637.31
720.96	29608.39
721.303	29666.92
721.646	29611.1
721.989	29404.33
722.331	29496.07
722.674	29455.62
723.016	29442.74
723.359	29266.93
723.701	29417.88
724.044	29216.53
724.386	29004.34
724.729	29246.82
725.071	29027.39
725.413	29039.36
725.755	29107.84
726.097	28841.18
726.439	28683.89
726.782	28698.13
727.124	28911.01
727.465	28704.68
727.807	28614.97
728.149	28638.24
728.491	28564.12
728.833	28541.75
729.175	28424.01
729.516	28337.91
729.858	28329.1
730.199	28366.61
730.541	28357.57
730.882	28264.92
731.224	28385.37
731.565	28161.19
731.906	28261.3
732.248	28159.84
732.589	27941.09
732.93	27945.61
733.271	27967.75
733.612	27995.1
733.953	28090.69
734.294	27977.24
734.635	27800.98
734.976	27903.8
735.317	27708.55
735.658	27781.54
735.999	27678.72
736.339	27608.67
736.68	27698.61
737.021	27626.52
737.361	27459.29
737.702	27656.58
738.042	27509.91
738.383	27432.4
738.723	27564.15
739.063	27377.49
739.404	27483.92
739.744	27195.57
740.084	27207.32
740.424	27133.88
740.764	27085.29
741.104	27106.31
741.444	26964.16
741.784	26937.95
742.124	26973.88
742.464	26949.48
742.804	27063.82
743.143	26892.75
743.483	26807.33
743.823	26755.36
744.162	26703.15
744.502	26751.97
744.841	26619.54
745.181	26702.93
745.52	26531.63
745.86	26739.31
746.199	26541.8
746.538	26534.34
746.877	26423.16
747.216	26448.25
747.556	26487.11
747.895	26430.62
748.234	26344.97
748.573	26308.59
748.911	26205.99
749.25	26182.72
749.589	26066.56
749.928	26185.2
750.267	26116.05
750.605	26056.39
750.944	25920.8
751.283	25901.82
751.621	26004.42
751.96	25779.79
752.298	25750.86
752.636	25754.93
752.975	25554.71
753.313	25472.23
753.651	25526.24
753.989	25513.35
754.327	25440.81
754.666	25238.56
755.004	25457.54
755.342	25340.93
755.679	25332.34
756.017	25169.86
756.355	25104.33
756.693	25079.02
757.031	25155.62
757.368	24998.11
757.706	24889.87
758.044	24882.18
758.381	24846.25
758.719	24688.07
759.056	24796.99
759.394	24562.42
