Data from hue_38_FLMS001491_00074.txt Node
Date: Tue Feb 07 17:31:57 GMT 2017
User: dcchb
Spectrometer: FLMS00149
Trigger mode: 0
Integration Time (sec): 2.000000E-2
Scans to average: 10
Electric dark correction enabled: true
Nonlinearity correction enabled: false
Boxcar width: 0
XAxis mode: Wavelengths
Number of Pixels in Spectrum: 2048
>>>>>Begin Spectral Data<<<<<
341.393	-9.51
341.776	-9.51
342.16	-9.51
342.543	-59.9
342.927	-52.44
343.31	-64.65
343.693	-78.88
344.077	-72.33
344.46	-76.62
344.843	-47.24
345.226	-30.52
345.61	-21.71
345.993	-23.74
346.376	-7.25
346.759	5.86
347.142	26.2
347.525	31.4
347.908	71.4
348.291	84.73
348.674	105.97
349.057	97.38
349.44	120.66
349.823	136.93
350.206	155.91
350.588	200.43
350.971	211.05
351.354	206.31
351.737	238.85
352.119	278.62
352.502	264.61
352.884	281.56
353.267	310.26
353.65	283.82
354.032	277.94
354.414	294.89
354.797	299.19
355.179	326.53
355.562	324.05
355.944	319.53
356.326	334.67
356.709	340.32
357.091	324.72
357.473	359.75
357.855	351.16
358.238	346.64
358.62	338.06
359.002	358.39
359.384	349.58
359.766	352.97
360.148	346.87
360.53	368.34
360.912	319.3
361.294	325.85
361.676	328.79
362.057	351.62
362.439	340.54
362.821	334.67
363.203	342.35
363.584	332.18
363.966	323.59
364.348	335.57
364.729	319.3
365.111	320.2
365.493	328.56
365.874	314.55
366.256	325.63
366.637	324.05
367.019	318.4
367.4	322.01
367.781	329.47
368.163	305.74
368.544	300.99
368.925	319.53
369.306	320.43
369.688	327.21
370.069	301.9
370.45	332.18
370.831	294.67
371.212	320.66
371.593	316.36
371.974	346.19
372.355	328.11
372.736	299.41
373.117	310.49
373.498	311.84
373.879	326.3
374.26	318.17
374.641	328.79
375.021	320.2
375.402	339.41
375.783	319.75
376.163	331.95
376.544	324.27
376.925	325.4
377.305	334.21
377.686	343.48
378.066	324.72
378.447	333.76
378.827	331.95
379.208	351.84
379.588	335.8
379.968	318.85
380.349	341.9
380.729	346.64
381.109	312.29
381.489	345.51
381.87	325.18
382.25	328.11
382.63	338.73
383.01	342.12
383.39	346.64
383.77	364.95
384.15	339.19
384.53	342.8
384.91	348
385.29	350.26
385.67	328.34
386.049	349.81
386.429	361.56
386.809	354.1
387.189	369.24
387.568	355
387.948	347.55
388.328	373.54
388.707	344.16
389.087	370.82
389.466	374.67
389.846	357.72
390.225	371.5
390.605	368.11
390.984	355
391.363	374.21
391.743	377.6
392.122	376.7
392.501	374.21
392.881	354.33
393.26	401.33
393.639	364.72
394.018	345.97
394.397	360.43
394.776	382.57
395.155	363.14
395.534	378.51
395.913	396.81
396.292	390.48
396.671	399.52
397.05	391.16
397.429	399.98
397.808	385.51
398.186	392.52
398.565	391.39
398.944	386.42
399.323	383.03
399.701	391.16
400.08	396.59
400.458	411.5
400.837	414.21
401.215	409.01
401.594	428.9
401.972	413.31
402.351	407.21
402.729	399.07
403.107	404.95
403.486	406.98
403.864	424.61
404.242	422.57
404.62	431.61
404.999	436.13
405.377	421.22
405.755	452.18
406.133	415.12
406.511	430.48
406.889	420.54
407.267	431.84
407.645	417.38
408.023	415.79
408.401	428.9
408.779	424.16
409.156	473.42
409.534	473.65
409.912	475.45
410.29	462.12
410.667	468
411.045	453.08
411.422	443.82
411.8	475
412.178	505.28
412.555	474.32
412.933	478.17
413.31	487.66
413.687	469.35
414.065	470.93
414.442	471.84
414.819	500.76
415.197	517.71
415.574	494.21
415.951	492.85
416.328	488.11
416.705	499.86
417.082	500.09
417.46	513.42
417.837	510.48
418.214	526.98
418.591	535.34
418.967	489.46
419.344	507.54
419.721	523.36
420.098	507.09
420.475	520.65
420.852	523.81
421.228	521.33
421.605	523.59
421.982	544.38
422.358	522.68
422.735	555.68
423.111	549.58
423.488	559.07
423.864	574.43
424.241	575.79
424.617	571.72
424.994	583.47
425.37	599.52
425.746	578.28
426.123	576.69
426.499	591.16
426.875	583.47
427.251	599.74
427.627	599.07
428.003	606.52
428.379	613.53
428.756	605.39
429.132	627.54
429.507	606.98
429.883	618.27
430.259	635.9
430.635	653.3
431.011	616.69
431.387	663.02
431.763	641.78
432.138	667.99
432.514	639.29
432.89	675.9
433.265	686.75
433.641	678.39
434.016	682
434.392	686.3
434.767	715
435.143	691.04
435.518	677.71
435.894	700.53
436.269	717.03
436.644	733.07
437.02	738.27
437.395	733.07
437.77	729.91
438.145	720.87
438.52	747.99
438.895	772.85
439.271	774.65
439.646	773.52
440.021	761.55
440.395	775.56
440.77	760.64
441.145	766.07
441.52	795.45
441.895	791.83
442.27	802.22
442.645	799.29
443.019	801.09
443.394	806.97
443.769	816.91
444.143	820.08
444.518	806.29
444.892	799.51
445.267	815.33
445.641	839.29
446.016	832.28
446.39	817.59
446.764	836.35
447.139	821.43
447.513	853.52
447.887	865.95
448.262	840.87
448.636	879.74
449.01	900.75
449.384	856.23
449.758	873.86
450.132	874.77
450.506	906.85
450.88	906.63
451.254	917.93
451.628	898.49
452.002	919.96
452.376	947.98
452.75	939.17
453.123	963.58
453.497	944.14
453.871	948.44
454.244	983.01
454.618	963.8
454.992	973.97
455.365	983.24
455.739	1028.21
456.112	1019.17
456.486	1023.46
456.859	1041.54
457.232	1035.21
457.606	1036.12
457.979	1078.6
458.352	1080.64
458.725	1102.1
459.099	1093.74
459.472	1103.69
459.845	1121.31
460.218	1153.85
460.591	1152.05
460.964	1125.15
461.337	1151.59
461.71	1164.7
462.083	1170.12
462.456	1211.03
462.829	1234.76
463.201	1239.28
463.574	1254.64
463.947	1252.38
464.32	1291.03
464.692	1309.56
465.065	1303.45
465.438	1318.37
465.81	1340.29
466.183	1364.24
466.555	1360.85
466.928	1393.62
467.3	1406.05
467.672	1439.27
468.045	1467.97
468.417	1451.02
468.789	1476.33
469.161	1510
469.534	1499.38
469.906	1542.77
470.278	1562.88
470.65	1576.44
471.022	1636.78
471.394	1671.13
471.766	1671.35
472.138	1718.58
472.51	1778.92
472.882	1768.53
473.253	1772.82
473.625	1841.29
473.997	1875.42
474.369	1901.4
474.74	1909.31
475.112	1964.45
475.484	2037.45
475.855	2079.48
476.227	2082.64
476.598	2160.83
476.97	2163.77
477.341	2246.48
477.713	2280.38
478.084	2341.39
478.455	2413.71
478.827	2443.31
479.198	2498.23
479.569	2565.34
479.94	2650.99
480.311	2698.45
480.682	2765.56
481.053	2852.57
481.424	2931.21
481.795	2975.05
482.166	3058.44
482.537	3125.33
482.908	3201.71
483.279	3283.29
483.65	3356.51
484.021	3457.52
484.391	3529.84
484.762	3606.44
485.133	3662.71
485.503	3725.09
485.874	3837.17
486.244	3956.27
486.615	4081.46
486.985	4115.58
487.356	4269.93
487.726	4332.53
488.097	4473.54
488.467	4509.47
488.837	4646.42
489.207	4747.21
489.578	4835.79
489.948	4959.86
490.318	5104.48
490.688	5114.43
491.058	5233.75
491.428	5366.17
491.798	5505.38
492.168	5592.38
492.538	5680.29
492.908	5856.78
493.278	5947.17
493.648	5965.25
494.017	6144.91
494.387	6283.66
494.757	6322.08
495.126	6414.05
495.496	6493.6
495.866	6595.97
496.235	6670.32
496.605	6818.11
496.974	6947.15
497.344	7005
497.713	7069.86
498.082	7228.27
498.452	7307.82
498.821	7360.24
499.19	7473.91
499.559	7571.54
499.928	7633.01
500.298	7701.03
500.667	7891.53
501.036	7884.98
501.405	8004.97
501.774	7996.61
502.143	8155.25
502.512	8204.52
502.88	8339.65
503.249	8418.3
503.618	8472.53
503.987	8559.53
504.356	8663.94
504.724	8716.82
505.093	8751.17
505.462	8797.95
505.83	9010.14
506.199	8992.07
506.567	9130.37
506.936	9138.73
507.304	9277.03
507.672	9427.99
508.041	9399.96
508.409	9593.41
508.777	9632.5
509.145	9733.52
509.514	9718.15
509.882	9835.66
510.25	9904.13
510.618	9939.61
510.986	9974.19
511.354	10124.24
511.722	10178.93
512.09	10258.7
512.458	10319.71
512.826	10432.71
513.193	10533.27
513.561	10490.56
513.929	10612.81
514.297	10710.89
514.664	10804.67
515.032	10840.38
515.4	10933.48
515.767	11006.25
516.135	11072.01
516.502	11025.01
516.869	11218.22
517.237	11279.01
517.604	11187.71
517.972	11442.4
518.339	11507.03
518.706	11459.8
519.073	11526.91
519.44	11618.89
519.808	11782.73
520.175	11736.63
520.542	11841.93
520.909	11943.17
521.276	12003.29
521.643	12049.16
522.009	12128.48
522.376	12210.06
522.743	12289.15
523.11	12432.65
523.477	12583.61
523.843	12562.59
524.21	12616.6
524.577	12832.64
524.943	12843.26
525.31	12954.45
525.676	12994.22
526.043	13140.66
526.409	13108.79
526.776	13344.49
527.142	13323.25
527.508	13419.29
527.874	13534.09
528.241	13586.75
528.607	13649.34
528.973	13696.12
529.339	13739.96
529.705	13936.34
530.071	14027.41
530.437	14062.44
530.803	14129.56
531.169	14234.87
531.535	14238.71
531.901	14335.65
532.267	14366.39
532.632	14486.16
532.998	14565.7
533.364	14625.14
533.73	14602.54
534.095	14812.93
534.461	14818.58
534.826	14840.95
535.192	14962.08
535.557	15133.83
535.923	15078.01
536.288	15144.22
536.653	15131.57
537.019	15174.28
537.384	15239.59
537.749	15321.84
538.114	15466.92
538.479	15482.97
538.845	15470.31
539.21	15421.28
539.575	15525.68
539.94	15677.54
540.305	15757.09
540.67	15745.56
541.034	15840.25
541.399	15823.75
541.764	15917.31
542.129	16035.04
542.494	16096.06
542.858	16062.84
543.223	16164.31
543.587	16297.41
543.952	16249.05
544.316	16399.78
544.681	16376.73
545.045	16469.84
545.41	16547.12
545.774	16632.54
546.138	16677.97
546.503	16635.93
546.867	16643.62
547.231	16925.87
547.595	16937.85
547.959	16975.81
548.324	16975.13
548.688	17015.58
549.052	17084.96
549.416	17150.72
549.779	17262.13
550.143	17225.52
550.507	17322.47
550.871	17442.92
551.235	17494.89
551.599	17553.87
551.962	17538.73
552.326	17581.22
552.689	17764.04
553.053	17618.51
553.417	17710.93
553.78	17930.14
554.143	17783.93
554.507	18010.81
554.87	18038.83
555.234	18299.17
555.597	18138.49
555.96	18232.95
556.323	18339.62
556.686	18462.1
557.05	18413.96
557.413	18497.13
557.776	18491.25
558.139	18714.3
558.502	18617.58
558.865	18862.54
559.228	18841.3
559.59	18865.7
559.953	18879.26
560.316	19098.47
560.679	19056.89
561.041	19267.28
561.404	19292.36
561.767	19368.52
562.129	19383.66
562.492	19532.13
562.854	19577.32
563.217	19494.39
563.579	19584.1
563.941	19744.55
564.304	19748.17
564.666	19897.99
565.028	19867.94
565.39	20112.9
565.753	20058.22
566.115	20181.6
566.477	20275.61
566.839	20284.2
567.201	20461.14
567.563	20527.58
567.925	20607.13
568.287	20654.58
568.648	20740.01
569.01	20949.49
569.372	20962.37
569.734	20905.2
570.095	21025.87
570.457	21113.1
570.819	21179.77
571.18	21271.52
571.542	21375.47
571.903	21469.03
572.265	21571.4
572.626	21630.6
572.987	21707.21
573.349	21797.15
573.71	21907.66
574.071	21957.6
574.432	22086.86
574.794	22137.93
575.155	22450.92
575.516	22354.65
575.877	22416.12
576.238	22546.96
576.599	22752.61
576.96	22841.42
577.32	22919.84
577.681	23118.02
578.042	23111.02
578.403	23376.55
578.763	23357.11
579.124	23546.49
579.485	23734.05
579.845	23905.12
580.206	23985.8
580.566	24125.45
580.927	24240.48
581.287	24557.53
581.648	24501.71
582.008	24756.17
582.368	24912.55
582.728	25128.36
583.089	25187.57
583.449	25340.79
583.809	25574.45
584.169	25710.5
584.529	25951.85
584.889	26248.56
585.249	26298.28
585.609	26390.7
585.969	26655.1
586.329	26865.27
586.688	27128.09
587.048	27217.35
587.408	27420.96
587.768	27679.26
588.127	27842.64
588.487	27958.35
588.846	28290.09
589.206	28328.05
589.565	28666.8
589.925	29019.56
590.284	29129.62
590.643	29295.49
591.003	29472.21
591.362	29817.51
591.721	29961.01
592.08	30105.63
592.44	30321.67
592.799	30538.84
593.158	30847.54
593.517	30941.32
593.876	31226.74
594.235	31277.81
594.593	31550.79
594.952	31818.58
595.311	31906.49
595.67	32131.57
596.029	32528.4
596.387	32705.34
596.746	32853.81
597.104	32935.39
597.463	33160.24
597.822	33593
598.18	33562.95
598.538	33704.64
598.897	34115.7
599.255	33945.53
599.613	34592.52
599.972	34501.23
600.33	34760.2
600.688	34830.71
601.046	35180.53
601.404	35333.07
601.762	35417.59
602.12	35692.83
602.478	35989.1
602.836	36014.41
603.194	36016.89
603.552	36320.16
603.91	36334.85
604.268	36474.96
604.625	36575.97
604.983	36890.77
605.341	36828.85
605.698	37092.34
606.056	37255.96
606.413	37400.58
606.771	37546.57
607.128	37745.89
607.485	37618.43
607.843	37792.66
608.2	38211.41
608.557	38367.56
608.914	38241.47
609.272	38539.54
609.629	38639.42
609.986	38727.1
610.343	38839.19
610.7	39249.12
611.057	39161.67
611.414	39312.4
611.771	39379.97
612.127	39722.78
612.484	39611.37
612.841	39869.9
613.198	40028.09
613.554	39970.01
613.911	40278.93
614.267	40263.11
614.624	40457.91
614.98	40440.28
615.337	40834.39
615.693	40540.84
616.05	40877.33
616.406	41143.31
616.762	40979.47
617.118	41068.06
617.475	41034.84
617.831	41369.75
618.187	41405.22
618.543	41511.44
618.899	41636.86
619.255	41654.26
619.611	41701.94
619.967	41879.56
620.323	41929.28
620.678	41818.32
621.034	41956.85
621.39	41940.58
621.746	41939.9
622.101	42355.71
622.457	42049.05
622.812	42210.63
623.168	42253.11
623.523	42426.44
623.879	42532.43
624.234	42215.83
624.589	42420.57
624.945	42709.15
625.3	42668.02
625.655	42694.46
626.01	42742.59
626.365	42829.59
626.72	42725.87
627.075	42807.22
627.43	42783.04
627.785	42666.66
628.14	42898.29
628.495	42874.34
628.85	42931.51
629.205	42724.96
629.559	42988.01
629.914	42937.61
630.269	42952.3
630.623	42838.41
630.978	42856.03
631.332	43076.59
631.687	43139.87
632.041	42889.71
632.396	43002.47
632.75	42815.81
633.104	43025.75
633.459	42840.22
633.813	42878.18
634.167	42826.43
634.521	42837.28
634.875	42986.2
635.229	42816.26
635.583	42741.69
635.937	42717.96
636.291	42744.85
636.645	42749.82
636.999	42665.98
637.352	42803.83
637.706	42686.77
638.06	42814.45
638.413	42682.48
638.767	42630.28
639.121	42607
639.474	42353
639.828	42458.98
640.181	42598.41
640.534	42543.73
640.888	42372.88
641.241	42384.18
641.594	42373.79
641.947	42564.06
642.301	42414.69
642.654	42384.18
643.007	42571.52
643.36	42413.79
643.713	42222.15
644.066	42531.52
644.419	42247.24
644.771	42050.18
645.124	41653.13
645.477	41536.07
645.83	41543.3
646.182	41275.74
646.535	40974.95
646.888	41252.91
647.24	41102.86
647.593	41187.83
647.945	41031
648.298	40841.17
648.65	40831
649.002	40730.44
649.355	40985.8
649.707	40946.93
650.059	41096.76
650.411	41510.98
650.763	41615.61
651.115	41956.17
651.467	41784.2
651.819	41848.83
652.171	41729.96
652.523	41597.54
652.875	41724.99
653.227	41512.57
653.578	41837.08
653.93	41622.17
654.282	41576.29
654.633	41470.08
654.985	41559.57
655.337	41551.66
655.688	41662.85
656.039	41694.03
656.391	41316.41
656.742	41392.57
657.094	41424.66
657.445	41628.72
657.796	41392.8
658.147	41447.71
658.498	41324.1
658.849	41537.88
659.2	41404.55
659.551	41338.79
659.902	41441.16
660.253	41377.2
660.604	41426.47
660.955	41141.73
661.306	41349.18
661.656	41224.21
662.007	41269.64
662.358	41238.45
662.708	41159.58
663.059	41398.67
663.409	40991
663.76	41341.72
664.11	41293.82
664.461	41369.52
664.811	41348.28
665.161	41187.83
665.511	41158.68
665.862	41210.43
666.212	41319.8
666.562	41349.18
666.912	41179.02
667.262	41116.64
667.612	41159.36
667.962	41239.58
668.312	41147.15
668.662	41470.08
669.011	41154.38
669.361	41197.55
669.711	41137.66
670.06	41030.09
670.41	40963.65
670.76	41011.34
671.109	41124.33
671.459	40961.85
671.808	40866.48
672.157	41090.43
672.507	40805.24
672.856	40834.17
673.205	40835.07
673.554	41037.32
673.904	40814.51
674.253	40949.42
674.602	40885.24
674.951	40510.11
675.3	40144.69
675.649	40814.05
675.998	40798.46
676.346	40827.84
676.695	40909.19
677.044	40586.04
677.393	40758.69
677.741	40740.38
678.09	40557.11
678.438	40524.57
678.787	40630.33
679.135	40579.94
679.484	40492.93
679.832	40546.04
680.181	40296.33
680.529	40396.66
680.877	40183.11
681.225	40248.42
681.573	40506.94
681.922	40222.88
682.27	40055.88
682.618	40015.66
682.966	40010.69
683.314	40045.03
683.661	40030.35
684.009	39720.52
684.357	39778.37
684.705	39640.75
685.053	39704.48
685.4	39608.44
685.748	39558.95
686.095	39516.91
686.443	39261.33
686.79	39255.45
687.138	39291.83
687.485	39304.26
687.832	39184.04
688.18	39102.01
688.527	39002.58
688.874	39047.32
689.221	38916.25
689.568	38909.47
689.915	38822.24
690.262	38765.75
690.609	38591.06
690.956	38585.41
691.303	38657.95
691.65	38369.82
691.997	38320.11
692.344	38138.87
692.69	38128.7
693.037	37974.35
693.383	37685.55
693.73	37890.29
694.077	37731.2
694.423	37759.45
694.769	37732.1
695.116	37511.54
695.462	37492.11
695.808	37291.89
696.155	37371.66
696.501	37185.45
696.847	37071.33
697.193	36780.71
697.539	37091.67
697.885	36724.22
698.231	36694.16
698.577	36676.31
698.923	36594.28
699.269	36373.27
699.614	36123.56
699.96	36286.94
700.306	36175.76
700.651	35998.81
700.997	36051.69
701.342	35992.71
701.688	35878.14
702.033	35702.55
702.379	35658.03
702.724	35610.57
703.069	35692.61
703.415	35285.16
703.76	35238.83
704.105	35286.74
704.45	35162.68
704.795	34905.28
705.14	34926.53
705.485	35019.4
705.83	34774.66
706.175	34914.1
706.52	34616.48
706.865	34655.12
707.209	34531.73
707.554	34350.5
707.899	34465.75
708.243	34203.15
708.588	34170.39
708.932	33956.38
709.277	34028.24
709.621	34061.46
709.966	33694.02
710.31	33898.98
710.654	33719.55
710.998	33682.94
711.342	33661.93
711.687	33551.42
712.031	33436.17
712.375	33353.01
712.719	33278.88
713.063	33292.44
713.407	33396.85
713.75	33193.69
714.094	33212.67
714.438	32969.51
714.782	33019.91
715.125	32860.14
715.469	32853.59
715.812	32697.66
716.156	32530.2
716.499	32646.59
716.843	32726.13
717.186	32422.41
717.53	32452.92
717.873	32453.6
718.216	32371.56
718.559	32387.83
718.902	32112.59
719.246	32219.03
719.589	32039.6
719.932	32007.28
720.275	32002.08
720.617	31791.47
720.96	31886.38
721.303	31760.05
721.646	31793.5
721.989	31765.93
722.331	31793.05
722.674	31704.69
723.016	31671.47
723.359	31679.38
723.701	31635.99
724.044	31355.77
724.386	31263.57
724.729	31450.46
725.071	31285.04
725.413	31290.69
725.755	31349.22
726.097	31067.87
726.439	31051.37
726.782	31128.21
727.124	30984.93
727.465	30947.19
727.807	30815.22
728.149	30867.65
728.491	30805.05
728.833	30737.26
729.175	30752.62
729.516	30645.51
729.858	30654.77
730.199	30739.52
730.541	30483.48
730.882	30420.88
731.224	30573.42
731.565	30400.99
731.906	30304.5
732.248	30311.05
732.589	30230.6
732.93	30156.71
733.271	30198.74
733.612	30163.26
733.953	30236.48
734.294	30097.05
734.635	29976.15
734.976	30081
735.317	29892.08
735.658	29854.12
735.999	29862.7
736.339	29798.52
736.68	29791.74
737.021	29725.98
737.361	29610.05
737.702	29841.69
738.042	29652.09
738.383	29589.72
738.723	29695.93
739.063	29581.13
739.404	29624.97
739.744	29459.1
740.084	29434.01
740.424	29410.06
740.764	29423.84
741.104	29465.65
741.444	29210.97
741.784	29150.18
742.124	29311.98
742.464	29225.21
742.804	29114.7
743.143	29043.52
743.483	29081.48
743.823	28834.71
744.162	28918.77
744.502	28783.41
744.841	28692.34
745.181	28968.72
745.52	28681.72
745.86	28670.64
746.199	28768.04
746.538	28695.05
746.877	28623.64
747.216	28669.74
747.556	28573.25
747.895	28506.81
748.234	28423.87
748.573	28340.26
748.911	28199.47
749.25	28333.25
749.589	28154.05
749.928	28191.34
750.267	28241.96
750.605	28183.88
750.944	28002.64
751.283	27968.06
751.621	28021.62
751.96	27974.84
752.298	27827.28
752.636	27803.55
752.975	27726.49
753.313	27585.93
753.651	27614.85
753.989	27640.39
754.327	27545.25
754.666	27385.03
755.004	27467.29
755.342	27457.79
755.679	27492.82
756.017	27294.64
756.355	27397.01
756.693	27025.26
757.031	27142.55
