Data from hue_130_FLMS001491_00025.txt Node
Date: Tue Feb 07 16:57:23 GMT 2017
User: dcchb
Spectrometer: FLMS00149
Trigger mode: 0
Integration Time (sec): 2.000000E-2
Scans to average: 10
Electric dark correction enabled: true
Nonlinearity correction enabled: false
Boxcar width: 0
XAxis mode: Wavelengths
Number of Pixels in Spectrum: 2048
>>>>>Begin Spectral Data<<<<<
341.393	11.74
341.776	11.74
342.16	11.74
342.543	-68.94
342.927	-67.13
343.31	-84.76
343.693	-59
344.077	-66.91
344.46	-60.35
344.843	-65.55
345.226	-31.2
345.61	-25.32
345.993	-20.58
346.376	-2.73
346.759	21.23
347.142	18.74
347.525	17.84
347.908	60.78
348.291	93.09
348.674	95.58
349.057	109.14
349.44	126.08
349.823	130.83
350.206	161.11
350.588	197.72
350.971	199.08
351.354	218.06
351.737	228.91
352.119	252.63
352.502	260.09
352.884	262.58
353.267	268.68
353.65	282.92
354.032	297.61
354.414	305.29
354.797	296.93
355.179	323.14
355.562	327.21
355.944	331.05
356.326	323.82
356.709	330.15
357.091	335.34
357.473	346.19
357.855	332.18
358.238	340.32
358.62	326.76
359.002	329.69
359.384	327.66
359.766	314.55
360.148	347.1
360.53	360.43
360.912	327.21
361.294	327.43
361.676	321.56
362.057	328.79
362.439	299.86
362.821	345.74
363.203	356.13
363.584	331.5
363.966	318.4
364.348	308.45
364.729	306.64
365.111	310.71
365.493	318.4
365.874	313.88
366.256	335.57
366.637	338.51
367.019	304.16
367.4	317.94
367.781	297.83
368.163	325.4
368.544	322.01
368.925	315.23
369.306	366.53
369.688	320.2
370.069	310.49
370.45	313.88
370.831	317.27
371.212	328.79
371.593	306.64
371.974	333.08
372.355	310.26
372.736	307.1
373.117	298.74
373.498	327.66
373.879	299.64
374.26	309.13
374.641	309.58
375.021	303.93
375.402	301.22
375.783	310.03
376.163	329.02
376.544	315.01
376.925	323.59
377.305	307.55
377.686	336.25
378.066	298.28
378.447	315.68
378.827	335.57
379.208	328.79
379.588	334.21
379.968	325.85
380.349	347.55
380.729	331.28
381.109	335.8
381.489	344.38
381.87	327.89
382.25	347.77
382.63	338.06
383.01	342.12
383.39	336.47
383.77	352.29
384.15	340.32
384.53	340.09
384.91	346.87
385.29	350.26
385.67	361.78
386.049	338.06
386.429	349.36
386.809	349.81
387.189	346.87
387.568	359.52
387.948	375.12
388.328	354.55
388.707	348.68
389.087	366.76
389.466	366.98
389.846	384.16
390.225	361.78
390.605	367.66
390.984	372.41
391.363	361.78
391.743	373.76
392.122	359.98
392.501	360.2
392.881	385.06
393.26	379.64
393.639	383.25
394.018	392.74
394.397	379.86
394.776	389.13
395.155	399.75
395.534	387.55
395.913	375.8
396.292	381.9
396.671	395
397.05	387.77
397.429	396.13
397.808	416.47
398.186	395.23
398.565	408.56
398.944	411.05
399.323	381.9
399.701	426.19
400.08	410.14
400.458	406.98
400.837	437.26
401.215	397.26
401.594	400.65
401.972	400.43
402.351	398.62
402.729	417.83
403.107	409.92
403.486	408.34
403.864	409.92
404.242	426.87
404.62	425.96
404.999	410.6
405.377	422.8
405.755	444.95
406.133	439.52
406.511	435.45
406.889	431.84
407.267	431.16
407.645	448.11
408.023	444.72
408.401	457.37
408.779	468.9
409.156	455.79
409.534	447.66
409.912	459.18
410.29	477.04
410.667	469.13
411.045	461.44
411.422	471.39
411.8	493.76
412.178	481.56
412.555	483.36
412.933	485.85
413.31	491.5
413.687	496.24
414.065	488.56
414.442	504.83
414.819	491.27
415.197	533.31
415.574	494.21
415.951	518.84
416.328	519.52
416.705	507.54
417.082	530.14
417.46	507.77
417.837	520.42
418.214	542.57
418.591	527.43
418.967	549.8
419.344	540.54
419.721	554.77
420.098	550.25
420.475	560.2
420.852	549.35
421.228	557.49
421.605	573.98
421.982	532.18
422.358	566.3
422.735	589.12
423.111	554.55
423.488	599.29
423.864	596.81
424.241	607.88
424.617	610.82
424.994	611.72
425.37	592.06
425.746	607.88
426.123	595.9
426.499	601.78
426.875	627.54
427.251	631.83
427.627	636.13
428.003	638.39
428.379	625.96
428.756	629.35
429.132	663.02
429.507	642.68
429.883	663.7
430.259	675.22
430.635	684.94
431.011	679.06
431.387	689.91
431.763	681.55
432.138	701.89
432.514	705.96
432.89	709.8
433.265	747.08
433.641	718.16
434.016	708.44
434.392	718.16
434.767	757.25
435.143	750.93
435.518	765.39
435.894	786.86
436.269	765.16
436.644	788.67
437.02	802.22
437.395	792.06
437.77	806.74
438.145	778.72
438.52	819.4
438.895	821.43
439.271	815.33
439.646	817.37
440.021	831.38
440.395	844.48
440.77	858.95
441.145	865.27
441.52	834.31
441.895	888.55
442.27	884.03
442.645	885.84
443.019	876.12
443.394	864.6
443.769	906.4
444.143	877.93
444.518	931.26
444.892	913.63
445.267	908.44
445.641	916.35
446.016	910.24
446.39	923.35
446.764	910.02
447.139	935.78
447.513	925.16
447.887	960.64
448.262	954.99
448.636	965.16
449.01	979.4
449.384	1010.13
449.758	988.66
450.132	975.55
450.506	999.06
450.88	1009.68
451.254	1028.43
451.628	1039.51
452.002	1052.39
452.376	1038.6
452.75	1043.35
453.123	1056.23
453.497	1063.69
453.871	1064.36
454.244	1094.87
454.618	1081.54
454.992	1114.53
455.365	1126.06
455.739	1137.58
456.112	1150.24
456.486	1149.11
456.859	1172.16
457.232	1190.24
457.606	1204.93
457.979	1232.95
458.352	1241.76
458.725	1224.59
459.099	1254.87
459.472	1251.93
459.845	1279.27
460.218	1286.96
460.591	1323.11
460.964	1313.17
461.337	1347.52
461.71	1383.68
462.083	1364.7
462.456	1399.5
462.829	1436.56
463.201	1436.78
463.574	1430
463.947	1450.8
464.32	1491.47
464.692	1491.92
465.065	1528.76
465.438	1559.94
465.81	1573.96
466.183	1580.74
466.555	1635.65
466.928	1657.12
467.3	1642.65
467.672	1661.19
468.045	1733.27
468.417	1700.73
468.789	1745.25
469.161	1801.07
469.534	1816.44
469.906	1891.01
470.278	1879.26
470.65	1886.49
471.022	1929.43
471.394	1988.41
471.766	2005.13
472.138	2076.09
472.51	2119.7
472.882	2144.56
473.253	2216.65
473.625	2203.09
473.997	2270.89
474.369	2322.64
474.74	2374.84
475.112	2451.45
475.484	2475.4
475.855	2531.22
476.227	2558.34
476.598	2686.69
476.97	2763.76
477.341	2799.01
477.713	2875.84
478.084	2886.92
478.455	3074.71
478.827	3057.53
479.198	3138.89
479.569	3229.51
479.94	3367.81
480.311	3384.98
480.682	3468.6
481.053	3621.36
481.424	3738.19
481.795	3797.63
482.166	3878.53
482.537	3995.59
482.908	4087.11
483.279	4193.55
483.65	4308.12
484.021	4476.7
484.391	4514.9
484.762	4670.37
485.133	4700.65
485.503	4895.45
485.874	5016.58
486.244	5144.03
486.615	5273.07
486.985	5416.79
487.356	5541.76
487.726	5643
488.097	5863.56
488.467	5908.31
488.837	6093.84
489.207	6224.91
489.578	6333.6
489.948	6534.05
490.318	6682.75
490.688	6713.26
491.058	6960.03
491.428	7117.54
491.798	7289.96
492.168	7512.1
492.538	7524.76
492.908	7706.22
493.278	7851.76
493.648	7942.38
494.017	8105.54
494.387	8196.38
494.757	8392.31
495.126	8508.46
495.496	8643.37
495.866	8728.57
496.235	8812.18
496.605	9028
496.974	9188.22
497.344	9259.18
497.713	9400.87
498.082	9535.55
498.452	9692.84
498.821	9843.34
499.19	9865.26
499.559	9990.68
499.928	10111.81
500.298	10254.41
500.667	10320.62
501.036	10397.9
501.405	10513.38
501.774	10567.84
502.143	10747.95
502.512	10784.56
502.88	10991.11
503.249	11020.49
503.618	11151.33
503.987	11209.63
504.356	11289.63
504.724	11440.14
505.093	11375.51
505.462	11524.2
505.83	11704.54
506.199	11818.21
506.567	11961.48
506.936	11894.36
507.304	12063.62
507.672	12176.39
508.041	12200.34
508.409	12275.82
508.777	12416.83
509.145	12476.49
509.514	12488.7
509.882	12607.11
510.25	12609.6
510.618	12776.6
510.986	12773.21
511.354	12901.79
511.722	12986.99
512.09	13063.37
512.458	13083.71
512.826	13153.99
513.193	13222.24
513.561	13185.63
513.929	13322.57
514.297	13451.16
514.664	13510.82
515.032	13511.95
515.4	13617.71
515.767	13602.11
516.135	13717.14
516.502	13570.93
516.869	13816.12
517.237	13851.37
517.604	13762.79
517.972	13862.67
518.339	13924.37
518.706	13994.19
519.073	14016.11
519.44	14088.88
519.808	14225.83
520.175	14122.1
520.542	14223.11
520.909	14301.3
521.276	14271.48
521.643	14357.35
522.009	14475.54
522.376	14445.93
522.743	14511.47
523.11	14553.73
523.477	14656.55
523.843	14731.35
524.21	14767.06
524.577	14885.24
524.943	14899.26
525.31	14876.43
525.676	14954.85
526.043	14977.22
526.409	14963.43
526.776	15169.3
527.142	15123.88
527.508	15105.58
527.874	15202.52
528.241	15304.67
528.607	15212.24
528.973	15241.62
529.339	15207.95
529.705	15304.44
530.071	15368.4
530.437	15423.76
530.803	15390.32
531.169	15406.59
531.535	15366.81
531.901	15320.94
532.267	15389.41
532.632	15431.9
532.998	15377.43
533.364	15423.31
533.73	15363.65
534.095	15562.29
534.461	15394.61
534.826	15467.83
535.192	15429.41
535.557	15506.7
535.923	15292.92
536.288	15428.73
536.653	15453.14
537.019	15381.95
537.384	15322.97
537.749	15409.3
538.114	15369.75
538.479	15259.47
538.845	15271.9
539.21	15224.22
539.575	15198.68
539.94	15142.86
540.305	15236.65
540.67	15176.99
541.034	15157.55
541.399	15100.61
541.764	15061.74
542.129	15092.92
542.494	15049.76
542.858	15019.03
543.223	14944.23
543.587	15112.81
543.952	14960.5
544.316	14892.02
544.681	14808.86
545.045	14845.7
545.41	14982.64
545.774	14885.02
546.138	14796.88
546.503	14764.12
546.867	14766.15
547.231	14802.31
547.595	14729.32
547.959	14703.1
548.324	14668.3
548.688	14694.74
549.052	14608.64
549.416	14547.85
549.779	14581.75
550.143	14579.49
550.507	14525.03
550.871	14512.82
551.235	14456.1
551.599	14461.3
551.962	14392.15
552.326	14499.27
552.689	14510.56
553.053	14368.87
553.417	14290.01
553.78	14507.85
554.143	14334.98
554.507	14382.66
554.87	14295.66
555.234	14467.4
555.597	14296.56
555.96	14298.14
556.323	14269.22
556.686	14300.85
557.05	14300.17
557.413	14259.72
557.776	14283
558.139	14272.83
558.502	14284.13
558.865	14238.48
559.228	14247.29
559.59	14261.31
559.953	14293.85
560.316	14342.89
560.679	14263.57
561.041	14370.46
561.404	14346.73
561.767	14410.45
562.129	14182.21
562.492	14423.56
562.854	14359.61
563.217	14330
563.579	14378.14
563.941	14380.4
564.304	14372.72
564.666	14433.28
565.028	14371.36
565.39	14448.42
565.753	14427.4
566.115	14418.36
566.477	14414.07
566.839	14498.81
567.201	14531.36
567.563	14553.05
567.925	14609.09
568.287	14638.92
568.648	14525.25
569.01	14682.76
569.372	14708.98
569.734	14648.19
570.095	14654.74
570.457	14747.17
570.819	14637.12
571.18	14630.11
571.542	14702.65
571.903	14720.95
572.265	14761.86
572.626	14791.01
572.987	14819.48
573.349	14811.57
573.71	14842.53
574.071	14791.46
574.432	14805.02
574.794	14943.32
575.155	14903.55
575.516	14821.52
575.877	14887.28
576.238	14895.87
576.599	14986.48
576.96	14936.09
577.32	14961.4
577.681	14977.22
578.042	15043.21
578.403	14948.52
578.763	14887.96
579.124	14945.36
579.485	15074.62
579.845	15033.49
580.206	15061.51
580.566	14985.13
580.927	14842.08
581.287	15059.93
581.648	14842.08
582.008	14939.25
582.368	14856.77
582.728	14962.3
583.089	14861.06
583.449	14937.67
583.809	14992.59
584.169	14974.06
584.529	14923.44
584.889	15018.35
585.249	14882.31
585.609	14837.34
585.969	15024.22
586.329	14862.19
586.688	14891.12
587.048	14870.78
587.408	14795.08
587.768	14819.48
588.127	14826.26
588.487	14791.46
588.846	14871.23
589.206	14750.56
589.565	14771.35
589.925	14825.36
590.284	14775.42
590.643	14885.92
591.003	14834.85
591.362	14794.63
591.721	14755.3
592.08	14812.7
592.44	14755.53
592.799	14810.44
593.158	14781.52
593.517	14675.08
593.876	14800.95
594.235	14728.41
594.593	14766.6
594.952	14700.84
595.311	14710.79
595.67	14722.08
596.029	14770.9
596.387	14682.54
596.746	14852.7
597.104	14735.19
597.463	14739.71
597.822	14712.14
598.18	14657.23
598.538	14663.33
598.897	14702.42
599.255	14583.78
599.613	14739.49
599.972	14723.21
600.33	14733.38
600.688	14630.56
601.046	14794.63
601.404	14761.18
601.762	14772.93
602.12	14736.1
602.478	14785.36
602.836	14732.48
603.194	14678.92
603.552	14680.96
603.91	14754.85
604.268	14791.24
604.625	14661.3
604.983	14653.16
605.341	14627.62
605.698	14705.59
606.056	14684.12
606.413	14665.81
606.771	14701.75
607.128	14837.79
607.485	14624.46
607.843	14657.23
608.2	14767.06
608.557	14806.38
608.914	14763.89
609.272	14780.39
609.629	14845.7
609.986	14826.94
610.343	14759.15
610.7	14818.81
611.057	14775.87
611.414	14838.47
611.771	14882.53
612.127	14881.63
612.484	14887.96
612.841	14872.82
613.198	14853.83
613.554	14877.33
613.911	14953.49
614.267	14953.94
614.624	14950.33
614.98	14961.4
615.337	15036.2
615.693	14973.38
616.05	14925.47
616.406	15101.28
616.762	14858.35
617.118	14985.13
617.475	14956.43
617.831	15077.33
618.187	15040.95
618.543	15001.85
618.899	15149.42
619.255	15021.29
619.611	15142.64
619.967	15149.42
620.323	15175.86
620.678	15085.01
621.034	15103.54
621.39	15064.67
621.746	15132.47
622.101	15233.26
622.457	15006.37
622.812	15125.69
623.168	15176.99
623.523	15072.13
623.879	15211.56
624.234	15183.77
624.589	15075.07
624.945	15150.32
625.3	15178.12
625.655	15114.84
626.01	15171.79
626.365	15140.15
626.72	15108.97
627.075	15047.95
627.43	15074.17
627.785	15064
628.14	15214.05
628.495	15201.17
628.85	15171.79
629.205	15106.93
629.559	15198.68
629.914	15153.03
630.269	15111
630.623	15062.19
630.978	15059.7
631.332	15092.24
631.687	15148.06
632.041	14938.8
632.396	15031.68
632.75	14921.85
633.104	15010.44
633.459	14951.46
633.813	14854.06
634.167	14847.05
634.521	14927.95
634.875	14906.26
635.229	14985.81
635.583	14802.99
635.937	14890.67
636.291	14775.19
636.645	14741.97
636.999	14702.88
637.352	14778.13
637.706	14696.32
638.06	14733.16
638.413	14698.36
638.767	14584.24
639.121	14627.62
639.474	14653.61
639.828	14594.63
640.181	14664.46
640.534	14718.47
640.888	14555.31
641.241	14604.12
641.594	14585.37
641.947	14645.25
642.301	14602.54
642.654	14638.02
643.007	14600.73
643.36	14560.73
643.713	14529.55
644.066	14549.21
644.419	14560.51
644.771	14429.21
645.124	14261.53
645.477	14275.32
645.83	14202.1
646.182	14073.06
646.535	14066.96
646.888	14095.21
647.24	13986.96
647.593	14066.96
647.945	14034.65
648.298	13988.54
648.65	13917.36
649.002	13906.74
649.355	13990.8
649.707	14044.81
650.059	14092.95
650.411	14218.14
650.763	14227.63
651.115	14310.34
651.467	14332.26
651.819	14241.87
652.171	14306.28
652.523	14360.29
652.875	14341.53
653.227	14229.22
653.578	14337.01
653.93	14273.51
654.282	14298.37
654.633	14293.62
654.985	14313.06
655.337	14279.84
655.688	14279.38
656.039	14346.05
656.391	14281.64
656.742	14295.2
657.094	14283.9
657.445	14331.36
657.796	14245.04
658.147	14273.51
658.498	14308.99
658.849	14330.46
659.2	14322.1
659.551	14306.28
659.902	14377.01
660.253	14337.69
660.604	14319.38
660.955	14280.97
661.306	14465.37
661.656	14346.95
662.007	14343.56
662.358	14367.97
662.708	14388.53
663.059	14456.1
663.409	14326.61
663.76	14419.04
664.11	14370.68
664.461	14376.11
664.811	14365.94
665.161	14325.48
665.511	14428.08
665.862	14332.26
666.212	14361.42
666.562	14399.16
666.912	14336.56
667.262	14365.26
667.612	14336.33
667.962	14332.94
668.312	14327.29
668.662	14379.04
669.011	14370.46
669.361	14342.21
669.711	14324.81
670.06	14221.31
670.41	14295.2
670.76	14278.03
671.109	14325.71
671.459	14286.39
671.808	14275.32
672.157	14370.91
672.507	14262.44
672.856	14209.33
673.205	14241.87
673.554	14309.89
673.904	14249.33
674.253	14220.63
674.602	14285.94
674.951	14155.32
675.3	13958.94
675.649	14188.54
675.998	14203
676.346	14233.96
676.695	14265.83
677.044	14044.81
677.393	14147.86
677.741	14133.85
678.09	14183.57
678.438	14071.25
678.787	14085.04
679.135	14097.47
679.484	13944.48
679.832	13971.14
680.181	13936.34
680.529	13898.83
680.877	13934.31
681.225	13865.84
681.573	13932.05
681.922	13872.62
682.27	13752.84
682.618	13814.31
682.966	13851.83
683.314	13788.32
683.661	13810.92
684.009	13645.05
684.357	13704.03
684.705	13624.94
685.053	13691.15
685.4	13666.52
685.748	13575.22
686.095	13582.23
686.443	13527.31
686.79	13417.71
687.138	13469.69
687.485	13483.02
687.832	13445.28
688.18	13400.31
688.527	13363.02
688.874	13186.08
689.221	13305.17
689.568	13234.21
689.915	13260.2
690.262	13224.27
690.609	13154.89
690.956	13062.02
691.303	13036.71
691.65	12929.59
691.997	13062.47
692.344	12898.86
692.69	12904.96
693.037	12883.26
693.383	12783.83
693.73	12844.39
694.077	12702.93
694.423	12747.9
694.769	12637.85
695.116	12561.01
695.462	12594.01
695.808	12555.36
696.155	12471.3
696.501	12433.33
696.847	12461.35
697.193	12297.06
697.539	12349.49
697.885	12258.19
698.231	12229.04
698.577	12234.92
698.923	12095.04
699.269	12203.28
699.614	12026.79
699.96	12046.67
700.306	12042.83
700.651	11975.04
700.997	11867.47
701.342	11857.3
701.688	11808.94
702.033	11805.1
702.379	11758.32
702.724	11681.03
703.069	11635.61
703.415	11581.83
703.76	11606.69
704.105	11607.14
704.45	11492.57
704.795	11482.85
705.14	11392
705.485	11467.93
705.83	11407.82
706.175	11418.22
706.52	11258.45
706.865	11345.68
707.209	11242.85
707.554	11249.86
707.899	11248.5
708.243	11218
708.588	11188.17
708.932	11055.74
709.277	11079.69
709.621	11046.02
709.966	11028.85
710.31	11010.77
710.654	10867.04
710.998	10938.68
711.342	10915.63
711.687	10897.78
712.031	10839.25
712.375	10824.11
712.719	10841.28
713.063	10751.12
713.407	10792.02
713.75	10733.26
714.094	10676.99
714.438	10573.04
714.782	10668.18
715.125	10660.04
715.469	10709.76
715.812	10582.76
716.156	10472.25
716.499	10560.84
716.843	10558.35
717.186	10493.95
717.53	10551.8
717.873	10542.76
718.216	10494.17
718.559	10416.21
718.902	10319.04
719.246	10341.41
719.589	10363.1
719.932	10249.43
720.275	10331.01
720.617	10319.26
720.96	10270.45
721.303	10292.14
721.646	10287.62
721.989	10205.14
722.331	10292.6
722.674	10267.96
723.016	10239.49
723.359	10251.02
723.701	10225.93
724.044	10184.35
724.386	10136.22
724.729	10172.83
725.071	10219.83
725.413	10164.92
725.755	10198.81
726.097	10142.54
726.439	10077.46
726.782	10066.16
727.124	10171.7
727.465	10086.95
727.807	10081.98
728.149	10076.56
728.491	10015.77
728.833	10026.39
729.175	10031.81
729.516	10100.74
729.858	10020.51
730.199	10101.19
730.541	10053.96
730.882	10012.38
731.224	10112.26
731.565	9979.38
731.906	10006.05
732.248	10062.77
732.589	9945.26
732.93	9960.63
733.271	9919.05
733.612	10019.16
733.953	10009.44
734.294	9938.93
734.635	9970.12
734.976	10008.31
735.317	9905.71
735.658	9961.08
735.999	10013.06
736.339	10013.73
736.68	10015.99
737.021	9999.27
737.361	9935.09
737.702	10047.41
738.042	10041.53
738.383	9990.23
738.723	10038.82
739.063	10052.6
739.404	9993.4
739.744	10012.6
740.084	9992.72
740.424	10050.57
740.764	10073.39
741.104	10126.95
741.444	10055.31
741.784	10107.74
742.124	10068.65
742.464	10130.11
742.804	10139.61
743.143	10185.03
743.483	10140.06
743.823	10117.23
744.162	10218.7
744.502	10291.01
744.841	10296.66
745.181	10302.77
745.52	10344.8
745.86	10298.47
746.199	10394.29
746.538	10426.15
746.877	10490.11
747.216	10571.01
747.556	10498.47
747.895	10601.06
748.234	10627.73
748.573	10738.69
748.911	10729.42
749.25	10797.44
749.589	10854.39
749.928	10893.03
750.267	10984.78
750.605	11057.1
750.944	11129.18
751.283	11188.17
751.621	11255.06
751.96	11328.05
752.298	11483.98
752.636	11584.77
752.975	11612.79
753.313	11714.93
753.651	11895.49
753.989	11861.37
754.327	12026.34
754.666	12148.37
755.004	12280.79
755.342	12343.84
755.679	12501.58
756.017	12555.81
756.355	12733.21
