Data from hue_140_FLMS001491_00019.txt Node
Date: Tue Feb 07 16:55:30 GMT 2017
User: dcchb
Spectrometer: FLMS00149
Trigger mode: 0
Integration Time (sec): 2.000000E-2
Scans to average: 10
Electric dark correction enabled: true
Nonlinearity correction enabled: false
Boxcar width: 0
XAxis mode: Wavelengths
Number of Pixels in Spectrum: 2048
>>>>>Begin Spectral Data<<<<<
341.393	-11.77
341.776	-11.77
342.16	-11.77
342.543	-72.1
342.927	-59.22
343.31	-58.54
343.693	-80.69
344.077	-85.66
344.46	-57.64
344.843	-58.77
345.226	-42.72
345.61	-31.65
345.993	-21.48
346.376	2.92
346.759	17.84
347.142	9.25
347.525	44.28
347.908	77.05
348.291	72.07
348.674	91.96
349.057	121.79
349.44	125.63
349.823	146.42
350.206	165.18
350.588	192.52
350.971	209.92
351.354	222.8
351.737	246.08
352.119	249.47
352.502	284.5
352.884	282.92
353.267	295.35
353.65	290.15
354.032	314.33
354.414	293.99
354.797	314.1
355.179	318.4
355.562	315.01
355.944	314.78
356.326	338.06
356.709	342.12
357.091	336.47
357.473	370.6
357.855	331.95
358.238	326.08
358.62	342.58
359.002	329.02
359.384	345.51
359.766	354.1
360.148	348.23
360.53	339.19
360.912	342.8
361.294	331.05
361.676	344.61
362.057	338.28
362.439	324.72
362.821	330.37
363.203	329.92
363.584	342.12
363.966	329.24
364.348	323.82
364.729	334.21
365.111	317.72
365.493	327.21
365.874	328.11
366.256	305.29
366.637	325.85
367.019	327.66
367.4	329.24
367.781	334.44
368.163	332.41
368.544	311.62
368.925	329.02
369.306	338.06
369.688	336.25
370.069	318.62
370.45	304.61
370.831	334.89
371.212	305.74
371.593	337.38
371.974	307.1
372.355	323.37
372.736	327.43
373.117	311.16
373.498	305.74
373.879	352.74
374.26	313.42
374.641	317.94
375.021	318.17
375.402	332.63
375.783	333.99
376.163	349.81
376.544	327.89
376.925	324.95
377.305	320.88
377.686	337.38
378.066	340.54
378.447	328.56
378.827	344.84
379.208	323.59
379.588	337.38
379.968	340.99
380.349	355.46
380.729	324.95
381.109	332.18
381.489	348.9
381.87	362.01
382.25	338.51
382.63	360.65
383.01	348.9
383.39	353.65
383.77	344.61
384.15	340.99
384.53	346.64
384.91	365.4
385.29	358.39
385.67	349.36
386.049	367.89
386.429	345.06
386.809	361.11
387.189	358.17
387.568	352.29
387.948	358.17
388.328	353.2
388.707	350.49
389.087	353.65
389.466	377.15
389.846	361.78
390.225	371.05
390.605	380.54
390.984	365.17
391.363	367.89
391.743	357.26
392.122	375.8
392.501	378.06
392.881	378.06
393.26	403.14
393.639	405.62
394.018	372.86
394.397	359.52
394.776	390.71
395.155	387.32
395.534	382.12
395.913	377.38
396.292	375.34
396.671	380.09
397.05	396.36
397.429	415.34
397.808	397.72
398.186	388.68
398.565	386.19
398.944	398.85
399.323	388.9
399.701	390.94
400.08	389.35
400.458	403.82
400.837	407.88
401.215	412.63
401.594	396.59
401.972	408.11
402.351	405.17
402.729	405.17
403.107	419.41
403.486	434.78
403.864	423.48
404.242	424.61
404.62	417.38
404.999	425.96
405.377	442.91
405.755	414.21
406.133	448.34
406.511	442.91
406.889	447.66
407.267	439.52
407.645	415.12
408.023	441.78
408.401	436.58
408.779	433.87
409.156	458.05
409.534	457.6
409.912	440.2
410.29	469.8
410.667	446.3
411.045	464.15
411.422	463.7
411.8	486.07
412.178	487.43
412.555	454.44
412.933	484.72
413.31	527.2
413.687	473.42
414.065	471.84
414.442	487.88
414.819	513.42
415.197	520.65
415.574	514.55
415.951	512.74
416.328	507.54
416.705	513.64
417.082	528.11
417.46	508.45
417.837	505.51
418.214	519.29
418.591	523.36
418.967	534.66
419.344	527.43
419.721	529.92
420.098	536.47
420.475	547.54
420.852	559.75
421.228	536.92
421.605	555
421.982	578.05
422.358	549.8
422.735	551.38
423.111	563.36
423.488	555.45
423.864	564.49
424.241	580.99
424.617	573.08
424.994	572.17
425.37	584.83
425.746	551.84
426.123	578.5
426.499	601.33
426.875	607.43
427.251	587.77
427.627	600.2
428.003	606.75
428.379	633.19
428.756	637.03
429.132	635.45
429.507	641.78
429.883	637.94
430.259	633.87
430.635	653.75
431.011	645.84
431.387	654.66
431.763	671.38
432.138	683.81
432.514	662.12
432.89	669.8
433.265	681.1
433.641	691.27
434.016	693.3
434.392	692.4
434.767	710.25
435.143	729.01
435.518	706.63
435.894	732.4
436.269	760.42
436.644	720.19
437.02	754.09
437.395	760.42
437.77	764.26
438.145	745.73
438.52	755.45
438.895	738.27
439.271	760.42
439.646	779.63
440.021	808.1
440.395	793.19
440.77	789.8
441.145	781.66
441.52	798.61
441.895	828.21
442.27	856.46
442.645	810.81
443.019	829.79
443.394	835.67
443.769	833.18
444.143	817.14
444.518	841.32
444.892	865.95
445.267	849.23
445.641	861.88
446.016	866.63
446.39	864.82
446.764	909.34
447.139	885.61
447.513	896.91
447.887	895.1
448.262	899.62
448.636	905.5
449.01	897.36
449.384	933.97
449.758	917.93
450.132	909.34
450.506	925.84
450.88	953.18
451.254	954.31
451.628	941.43
452.002	963.8
452.376	969.45
452.75	980.53
453.123	978.27
453.497	999.73
453.871	1013.52
454.244	1031.15
454.618	1040.64
454.992	1044.48
455.365	1014.2
455.739	1058.04
456.112	1051.03
456.486	1085.61
456.859	1103.69
457.232	1106.85
457.606	1108.21
457.979	1098.04
458.352	1142.78
458.725	1153.85
459.099	1165.15
459.472	1226.85
459.845	1203.34
460.218	1194.3
460.591	1226.39
460.964	1239.05
461.337	1258.71
461.71	1229.78
462.083	1294.87
462.456	1302.55
462.829	1313.62
463.201	1336.22
463.574	1342.55
463.947	1357.92
464.32	1398.14
464.692	1404.69
465.065	1411.02
465.438	1428.87
465.81	1445.82
466.183	1476.78
466.555	1490.34
466.928	1504.58
467.3	1513.84
467.672	1552.94
468.045	1586.16
468.417	1599.27
468.789	1610.34
469.161	1620.73
469.534	1678.36
469.906	1720.39
470.278	1740.28
470.65	1759.49
471.022	1798.13
471.394	1860.5
471.766	1842.88
472.138	1899.6
472.51	1931.23
472.882	1995.64
473.253	2019.59
473.625	2058.24
473.997	2112.02
474.369	2122.19
474.74	2170.78
475.112	2224.11
475.484	2304.11
475.855	2342.75
476.227	2351.79
476.598	2413.93
476.97	2498
477.341	2542.07
477.713	2627.26
478.084	2661.38
478.455	2760.82
478.827	2849.4
479.198	2903.86
479.569	2954.03
479.94	3064.54
480.311	3153.12
480.682	3204.65
481.053	3316.51
481.424	3417.98
481.795	3509.05
482.166	3596.95
482.537	3619.78
482.908	3735.48
483.279	3824.52
483.65	3976.15
484.021	4099.54
484.391	4186.77
484.762	4248.01
485.133	4361.68
485.503	4459.08
485.874	4577.04
486.244	4703.37
486.615	4836.92
486.985	4974.54
487.356	5103.35
487.726	5193.3
488.097	5349.45
488.467	5422.44
488.837	5548.54
489.207	5734.75
489.578	5860.62
489.948	5948.08
490.318	6119.37
490.688	6231.46
491.058	6331.12
491.428	6501.28
491.798	6553.26
492.168	6809.52
492.538	6836.64
492.908	6981.72
493.278	7157.31
493.648	7190.98
494.017	7449.73
494.387	7500.35
494.757	7618.32
495.126	7821.48
495.496	7908.03
495.866	7999.1
496.235	8174.46
496.605	8233.89
496.974	8334.23
497.344	8491.74
497.713	8597.5
498.082	8690.38
498.452	8787.1
498.821	8948.68
499.19	8988
499.559	9097.15
499.928	9247.65
500.298	9324.26
500.667	9434.31
501.036	9470.47
501.405	9636.57
501.774	9710.92
502.143	9858.48
502.512	9956.79
502.88	9976.9
503.249	10045.6
503.618	10170.57
503.987	10246.72
504.356	10291.24
504.724	10347.74
505.093	10419.82
505.462	10494.17
505.83	10591.12
506.199	10682.19
506.567	10850.55
506.936	10865.69
507.304	10947.72
507.672	11057.32
508.041	11076.98
508.409	11180.71
508.777	11203.76
509.145	11275.62
509.514	11399.46
509.882	11456.41
510.25	11415.96
510.618	11548.38
510.986	11527.14
511.354	11695.95
511.722	11736.17
512.09	11780.47
512.458	11808.26
512.826	11835.61
513.193	11932.33
513.561	11957.19
513.929	12012.55
514.297	12115.6
514.664	12184.3
515.032	12288.7
515.4	12301.36
515.767	12331.64
516.135	12376.38
516.502	12333.9
516.869	12479.21
517.237	12513.33
517.604	12442.6
517.972	12488.25
518.339	12620.9
518.706	12629.03
519.073	12604.17
519.44	12654.79
519.808	12715.36
520.175	12715.36
520.542	12899.31
520.909	12828.12
521.276	12868.8
521.643	12914.22
522.009	12979.76
522.376	12999.19
522.743	13064.73
523.11	13028.34
523.477	13177.94
523.843	13257.04
524.21	13278.73
524.577	13197.83
524.943	13308.34
525.31	13243.48
525.676	13386.53
526.043	13418.84
526.409	13454.55
526.776	13541.55
527.142	13424.49
527.508	13472.17
527.874	13576.58
528.241	13549.46
528.607	13459.52
528.973	13626.52
529.339	13551.04
529.705	13630.36
530.071	13637.37
530.437	13661.32
530.803	13660.64
531.169	13725.5
531.535	13531.61
531.901	13594.43
532.267	13643.92
532.632	13610.02
532.998	13678.5
533.364	13643.02
533.73	13683.02
534.095	13716.91
534.461	13587.88
534.826	13680.98
535.192	13619.74
535.557	13694.09
535.923	13585.84
536.288	13568.22
536.653	13645.73
537.019	13455.68
537.384	13431.27
537.749	13580.19
538.114	13429.24
538.479	13359.18
538.845	13455
539.21	13365.51
539.575	13370.93
539.94	13363.02
540.305	13405.51
540.67	13385.17
541.034	13307.66
541.399	13276.02
541.764	13269.02
542.129	13251.61
542.494	13154.89
542.858	13201.67
543.223	13163.03
543.587	13145.85
543.952	13033.09
544.316	13054.56
544.681	13025.63
545.045	12965.07
545.41	12989.93
545.774	12919.87
546.138	12859.99
546.503	12840.55
546.867	12793.32
547.231	12859.31
547.595	12883.71
547.959	12834.22
548.324	12795.36
548.688	12781.34
549.052	12671.52
549.416	12657.05
549.779	12640.56
550.143	12550.62
550.507	12598.52
550.871	12660.44
551.235	12547.45
551.599	12489.6
551.962	12496.83
552.326	12476.04
552.689	12507.23
553.053	12357.4
553.417	12371.64
553.78	12492.31
554.143	12376.84
554.507	12420.68
554.87	12366.21
555.234	12412.99
555.597	12281.92
555.96	12267.91
556.323	12419.32
556.686	12304.07
557.05	12307.91
557.413	12363.5
557.776	12224.07
558.139	12275.6
558.502	12288.25
558.865	12301.13
559.228	12257.29
559.59	12266.33
559.953	12317.4
560.316	12303.84
560.679	12301.13
561.041	12272.88
561.404	12325.09
561.767	12307.46
562.129	12275.82
562.492	12306.33
562.854	12364.41
563.217	12274.47
563.579	12369.38
563.941	12360.56
564.304	12375.25
564.666	12368.47
565.028	12370.06
565.39	12374.58
565.753	12405.08
566.115	12355.59
566.477	12464.52
566.839	12378.64
567.201	12479.88
567.563	12394.91
567.925	12525.76
568.287	12400.56
568.648	12431.3
569.01	12501.13
569.372	12557.85
569.734	12460.22
570.095	12451.86
570.457	12584.74
570.819	12588.58
571.18	12565.98
571.542	12591.97
571.903	12544.06
572.265	12667.22
572.626	12633.78
572.987	12613.89
573.349	12603.72
573.71	12688.47
574.071	12723.72
574.432	12662.7
574.794	12728.01
575.155	12760.33
575.516	12596.72
575.877	12678.75
576.238	12769.14
576.599	12744.28
576.96	12774.11
577.32	12702.48
577.681	12722.36
578.042	12745.41
578.403	12819.76
578.763	12784.28
579.124	12747.45
579.485	12755.36
579.845	12798.97
580.206	12758.97
580.566	12728.01
580.927	12729.37
581.287	12826.54
581.648	12690.73
582.008	12778.86
582.368	12803.04
582.728	12807.56
583.089	12735.47
583.449	12730.5
583.809	12722.82
584.169	12735.24
584.529	12725.75
584.889	12712.87
585.249	12723.04
585.609	12638.07
585.969	12728.46
586.329	12697.28
586.688	12654.57
587.048	12638.07
587.408	12603.27
587.768	12600.56
588.127	12632.2
588.487	12612.31
588.846	12678.52
589.206	12538.64
589.565	12549.94
589.925	12657.51
590.284	12657.28
590.643	12585.19
591.003	12659.99
591.362	12572.08
591.721	12590.62
592.08	12549.03
592.44	12588.36
592.799	12536.61
593.158	12541.13
593.517	12571.41
593.876	12627.22
594.235	12523.5
594.593	12588.81
594.952	12491.86
595.311	12486.89
595.67	12464.52
596.029	12573.21
596.387	12540.22
596.746	12545.87
597.104	12432.65
597.463	12482.82
597.822	12423.39
598.18	12465.42
598.538	12459.32
598.897	12546.77
599.255	12403.05
599.613	12556.49
599.972	12453.22
600.33	12506.78
600.688	12456.83
601.046	12573.89
601.404	12541.35
601.762	12587.9
602.12	12522.59
602.478	12460
602.836	12577.06
603.194	12481.92
603.552	12559.66
603.91	12522.14
604.268	12531.63
604.625	12493.67
604.983	12532.99
605.341	12372.54
605.698	12569.15
606.056	12596.94
606.413	12565.08
606.771	12498.64
607.128	12516.27
607.485	12447.12
607.843	12497.28
608.2	12490.28
608.557	12618.64
608.914	12552.42
609.272	12652.53
609.629	12582.25
609.986	12601.46
610.343	12539.77
610.7	12641.91
611.057	12626.55
611.414	12600.11
611.771	12604.17
612.127	12652.76
612.484	12681.69
612.841	12779.76
613.198	12608.02
613.554	12700.67
613.911	12698.64
614.267	12725.53
614.624	12724.62
614.98	12805.75
615.337	12796.03
615.693	12796.49
616.05	12693.21
616.406	12852.3
616.762	12777.05
617.118	12785.64
617.475	12762.81
617.831	12824.73
618.187	12861.79
618.543	12878.74
618.899	12930.49
619.255	12854.11
619.611	12805.3
619.967	12910.83
620.323	12891.17
620.678	12924.17
621.034	12851.17
621.39	12861.57
621.746	12845.52
622.101	12922.58
622.457	12820.44
622.812	12910.83
623.168	12937.05
623.523	12891.85
623.879	12961
624.234	12826.09
624.589	12936.59
624.945	12924.62
625.3	12932.08
625.655	12838.29
626.01	12899.76
626.365	12916.03
626.72	12902.7
627.075	12837.61
627.43	12952.19
627.785	12845.98
628.14	12862.47
628.495	12957.39
628.85	12917.16
629.205	12837.39
629.559	12821.8
629.914	12741.8
630.269	12920.78
630.623	12822.93
630.978	12804.17
631.332	12749.03
631.687	12834.45
632.041	12737.5
632.396	12829.03
632.75	12731.63
633.104	12737.96
633.459	12668.81
633.813	12723.27
634.167	12740.22
634.521	12631.74
634.875	12730.72
635.229	12628.35
635.583	12610.95
635.937	12539.77
636.291	12662.48
636.645	12596.94
636.999	12580.67
637.352	12592.2
637.706	12566.44
638.06	12572.99
638.413	12519.66
638.767	12543.38
639.121	12493.67
639.474	12417.06
639.828	12434.24
640.181	12381.58
640.534	12413.9
640.888	12347.68
641.241	12384.97
641.594	12380
641.947	12436.27
642.301	12348.14
642.654	12439.21
643.007	12290.51
643.36	12373.9
643.713	12274.24
644.066	12382.26
644.419	12314.69
644.771	12230.85
645.124	12158.99
645.477	12107.92
645.83	12073.34
646.182	12015.26
646.535	11921.93
646.888	11999.44
647.24	11929.62
647.593	11999.9
647.945	11859.56
648.298	11831.09
648.65	11849.39
649.002	11907.7
649.355	11972.55
649.707	11966.22
650.059	12015.26
650.411	12089.16
650.763	12028.37
651.115	12215.71
651.467	12175.94
651.819	12184.52
652.171	12206.22
652.523	12156.05
652.875	12140.68
653.227	12105.66
653.578	12246.67
653.93	12256.39
654.282	12165.32
654.633	12144.98
654.985	12179.78
655.337	12111.53
655.688	12201.02
656.039	12259.1
656.391	12106.79
656.742	12187.01
657.094	12160.57
657.445	12218.2
657.796	12189.95
658.147	12210.29
658.498	12146.33
658.849	12220.46
659.2	12194.02
659.551	12189.27
659.902	12191.3
660.253	12127.58
660.604	12203.05
660.955	12133.23
661.306	12189.27
661.656	12274.92
662.007	12175.94
662.358	12283.05
662.708	12208.25
663.059	12189.5
663.409	12162.83
663.76	12268.82
664.11	12249.38
664.461	12260.45
664.811	12221.13
665.161	12196.05
665.511	12165.77
665.862	12220.68
666.212	12229.27
666.562	12280.11
666.912	12138.88
667.262	12258.19
667.612	12239.89
667.962	12203.51
668.312	12258.87
668.662	12274.24
669.011	12251.64
669.361	12182.72
669.711	12151.76
670.06	12200.57
670.41	12198.76
670.76	12127.58
671.109	12208.03
671.459	12233.34
671.808	12210.96
672.157	12226.11
672.507	12143.62
672.856	12121.7
673.205	12149.5
673.554	12171.87
673.904	12143.62
674.253	12147.01
674.602	12071.98
674.951	11924.19
675.3	11931.88
675.649	12092.32
675.998	12123.73
676.346	12100.01
676.695	12095.71
677.044	11979.56
677.393	12019.1
677.741	12002.38
678.09	12028.82
678.438	12001.7
678.787	11956.51
679.135	11961.03
679.484	11886
679.832	11989.73
680.181	11902.27
680.529	11944.76
680.877	11925.77
681.225	11861.14
681.573	11908.15
681.922	11812.33
682.27	11772.33
682.618	11722.84
682.966	11724.88
683.314	11743.41
683.661	11693.01
684.009	11635.84
684.357	11629.28
684.705	11602.39
685.053	11571.66
685.4	11527.59
685.748	11592.9
686.095	11570.53
686.443	11469.29
686.79	11430.19
687.138	11474.03
687.485	11459.35
687.832	11408.5
688.18	11430.65
688.527	11323.3
688.874	11355.62
689.221	11405.34
689.568	11284.66
689.915	11260.48
690.262	11229.52
690.609	11227.94
690.956	11176.64
691.303	11198.79
691.65	11106.13
691.997	11037.21
692.344	10994.73
692.69	10973.71
693.037	10962.86
693.383	10876.08
693.73	10941.85
694.077	10871.11
694.423	10842.19
694.769	10817.1
695.116	10759.48
695.462	10725.58
695.808	10684
696.155	10681.74
696.501	10564.23
696.847	10605.36
697.193	10533.27
697.539	10553.61
697.885	10468.41
698.231	10464.57
698.577	10402.65
698.923	10372.14
699.269	10344.35
699.614	10226.84
699.96	10259.83
700.306	10237
700.651	10220.51
700.997	10086.27
701.342	10145.93
701.688	10119.04
702.033	10074.75
702.379	10079.72
702.724	9930.57
703.069	9964.47
703.415	9933.96
703.76	9860.97
704.105	9931.48
704.45	9840.18
704.795	9779.84
705.14	9746.4
705.485	9717.24
705.83	9660.3
706.175	9691.03
706.52	9689.22
706.865	9651.26
707.209	9644.03
707.554	9539.4
707.899	9604.03
708.243	9485.84
708.588	9564.93
708.932	9471.6
709.277	9429.12
709.621	9519.06
709.966	9430.92
710.31	9385.5
710.654	9328.1
710.998	9301.21
711.342	9338.5
711.687	9354.77
712.031	9205.85
712.375	9185.96
712.719	9197.71
713.063	9176.24
713.407	9229.35
713.75	9115
714.094	9194.32
714.438	9086.75
714.782	9155.45
715.125	9082.46
715.469	9071.16
715.812	9025.74
716.156	8976.25
716.499	8962.46
716.843	9016.02
717.186	8938.28
717.53	8947.1
717.873	8993.42
718.216	8926.98
718.559	8948.45
718.902	8842.24
719.246	8805.63
719.589	8830.49
719.932	8804.95
720.275	8803.14
720.617	8806.31
720.96	8795.69
721.303	8808.34
721.646	8790.72
721.989	8731.28
722.331	8763.37
722.674	8766.54
723.016	8770.6
723.359	8715.24
723.701	8795.23
724.044	8712.3
724.386	8638.63
724.729	8758.17
725.071	8655.58
725.413	8720.66
725.755	8656.93
726.097	8618.06
726.439	8623.26
726.782	8603.38
727.124	8656.93
727.465	8623.26
727.807	8650.38
728.149	8624.17
728.491	8566.31
728.833	8526.99
729.175	8633.21
729.516	8620.1
729.858	8661.68
730.199	8581.23
730.541	8582.36
730.882	8543.72
731.224	8523.83
731.565	8553.89
731.906	8572.64
732.248	8593.66
732.589	8509.37
732.93	8493.55
733.271	8524.51
733.612	8559.31
733.953	8522.47
734.294	8513.89
734.635	8548.01
734.976	8560.66
735.317	8516.37
735.658	8494.9
735.999	8548.01
736.339	8496.49
736.68	8594.11
737.021	8539.42
737.361	8566.99
737.702	8563.38
738.042	8516.15
738.383	8556.6
738.723	8552.53
739.063	8562.92
739.404	8578.74
739.744	8595.24
740.084	8585.3
740.424	8637.95
740.764	8631.17
741.104	8691.51
741.444	8651.96
741.784	8641.34
742.124	8693.99
742.464	8676.14
742.804	8651.74
743.143	8721.79
743.483	8750.94
743.823	8679.53
744.162	8764.28
744.502	8859.87
744.841	8857.15
745.181	8866.19
745.52	8879.98
745.86	8905.51
746.199	8985.06
746.538	8979.41
746.877	8978.28
747.216	9048.56
747.556	9110.48
747.895	9084.04
748.234	9175.56
748.573	9235.9
748.911	9279.29
749.25	9378.04
749.589	9376.69
749.928	9430.02
750.267	9504.82
750.605	9534.88
750.944	9638.83
751.283	9646.51
751.621	9780.07
751.96	9846.05
752.298	9934.19
752.636	9999.95
752.975	10053.73
753.313	10242.88
753.651	10308.42
753.989	10416.44
754.327	10515.42
754.666	10517
755.004	10679.03
755.342	10860.27
755.679	10893.26
756.017	10958.12
756.355	11186.13
756.693	11301.84
757.031	11441.72
757.368	11480.14
757.706	11683.07
758.044	11861.82
758.381	12067.01
758.719	12125.54
759.056	12328.02
759.394	12436.04
