Data from hue_290_FLMS001491_00062.txt Node
Date: Tue Feb 07 15:53:04 GMT 2017
User: dcchb
Spectrometer: FLMS00149
Trigger mode: 0
Integration Time (sec): 2.000000E-2
Scans to average: 10
Electric dark correction enabled: true
Nonlinearity correction enabled: false
Boxcar width: 0
XAxis mode: Wavelengths
Number of Pixels in Spectrum: 2048
>>>>>Begin Spectral Data<<<<<
341.393	-18.73
341.776	-18.73
342.16	-18.73
342.543	-73.64
342.927	-67.09
343.31	-62.79
343.693	-77.71
344.077	-54.89
344.46	-53.3
344.843	-74.32
345.226	-31.84
345.61	-13.3
345.993	-13.08
346.376	9.75
346.759	-2.68
347.142	12.91
347.525	37.09
347.908	42.06
348.291	92.23
348.674	87.94
349.057	101.95
349.44	139.69
349.823	137.43
350.206	155.28
350.588	201.6
350.971	202.06
351.354	209.97
351.737	217.88
352.119	231.21
352.502	262.39
352.884	260.59
353.267	251.32
353.65	268.27
354.032	298.78
354.414	303.75
354.797	290.87
355.179	304.2
355.562	301.94
355.944	325.44
356.326	321.6
356.709	326.35
357.091	343.52
357.473	330.87
357.855	317.08
358.238	319.12
358.62	339.23
359.002	310.3
359.384	330.19
359.766	320.7
360.148	348.27
360.53	334.03
360.912	315.73
361.294	312.79
361.676	335.39
362.057	319.34
362.439	326.35
362.821	326.12
363.203	325.22
363.584	334.71
363.966	325.67
364.348	316.4
364.729	307.36
365.111	333.8
365.493	324.31
365.874	330.87
366.256	319.57
366.637	313.92
367.019	320.92
367.4	303.98
367.781	310.53
368.163	304.88
368.544	329.29
368.925	312.79
369.306	321.15
369.688	324.54
370.069	312.56
370.45	295.39
370.831	320.7
371.212	297.87
371.593	320.7
371.974	321.38
372.355	315.27
372.736	298.78
373.117	310.98
373.498	296.74
373.879	312.79
374.26	317.08
374.641	315.05
375.021	316.18
375.402	319.34
375.783	327.7
376.163	328.61
376.544	333.58
376.925	336.97
377.305	339.68
377.686	320.25
378.066	329.96
378.447	313.24
378.827	329.74
379.208	317.31
379.588	348.49
379.968	343.75
380.349	353.47
380.729	337.19
381.109	345.33
381.489	341.49
381.87	346.91
382.25	340.13
382.63	363.41
383.01	346.69
383.39	332.67
383.77	330.19
384.15	358.21
384.53	332.22
384.91	366.12
385.29	350.75
385.67	349.4
386.049	381.94
386.429	347.59
386.809	353.47
387.189	346.46
387.568	373.58
387.948	371.77
388.328	362.28
388.707	364.99
389.087	364.99
389.466	373.35
389.846	367.02
390.225	399.57
390.605	381.94
390.984	372
391.363	383.75
391.743	385.1
392.122	393.69
392.501	387.81
392.881	413.35
393.26	412.67
393.639	414.93
394.018	398.44
394.397	376.74
394.776	384.88
395.155	405.22
395.534	400.92
395.913	411.32
396.292	424.42
396.671	425.55
397.05	416.97
397.429	413.8
397.808	398.21
398.186	419.9
398.565	419.45
398.944	423.29
399.323	431.88
399.701	411.09
400.08	412.45
400.458	446.34
400.837	440.02
401.215	438.89
401.594	434.59
401.972	461.71
402.351	456.29
402.729	447.93
403.107	449.73
403.486	460.36
403.864	442.95
404.242	489.51
404.62	470.07
404.999	480.92
405.377	464.65
405.755	469.17
406.133	470.07
406.511	477.76
406.889	488.6
407.267	508.49
407.645	502.16
408.023	501.26
408.401	511.88
408.779	520.01
409.156	526.79
409.534	535.16
409.912	547.13
410.29	560.24
410.667	569.5
411.045	558.21
411.422	585.78
411.8	575.15
412.178	584.19
412.555	598.2
412.933	605.66
413.31	617.64
413.687	629.39
414.065	618.09
414.442	605.44
414.819	629.39
415.197	637.07
415.574	652.89
415.951	672.33
416.328	666
416.705	677.98
417.082	665.77
417.46	724.98
417.837	706.9
418.214	700.35
418.591	705.32
418.967	756.39
419.344	743.51
419.721	751.65
420.098	757.97
420.475	772.89
420.852	760.69
421.228	809.95
421.605	796.17
421.982	812.89
422.358	804.53
422.735	835.03
423.111	793.45
423.488	849.95
423.864	839.55
424.241	871.64
424.617	882.04
424.994	884.07
425.37	887.24
425.746	918.42
426.123	904.19
426.499	910.74
426.875	920.23
427.251	931.08
427.627	963.17
428.003	963.17
428.379	970.85
428.756	995.03
429.132	1008.59
429.507	1018.08
429.883	1017.4
430.259	1028.25
430.635	1030.74
431.011	1061.47
431.387	1105.31
431.763	1087.91
432.138	1103.5
432.514	1141.92
432.89	1136.04
433.265	1163.39
433.641	1149.38
434.016	1195.03
434.392	1194.12
434.767	1221.47
435.143	1201.58
435.518	1245.19
435.894	1258.98
436.269	1261.69
436.644	1274.35
437.02	1291.29
437.395	1291.29
437.77	1317.06
438.145	1317.96
438.52	1358.18
438.895	1389.6
439.271	1361.8
439.646	1389.82
440.021	1405.64
440.395	1384.17
440.77	1385.53
441.145	1437.28
441.52	1435.02
441.895	1447.67
442.27	1496.03
442.645	1455.58
443.019	1497.39
443.394	1478.41
443.769	1493.1
444.143	1489.03
444.518	1501.68
444.892	1497.39
445.267	1542.13
445.641	1537.61
446.016	1537.61
446.39	1564.96
446.764	1571.74
447.139	1603.6
447.513	1574
447.887	1591.62
448.262	1606.77
448.636	1613.55
449.01	1607.22
449.384	1630.49
449.758	1640.21
450.132	1623.49
450.506	1641.79
450.88	1655.13
451.254	1672.53
451.628	1697.84
452.002	1694.67
452.376	1703.03
452.75	1698.51
453.123	1716.14
453.497	1725.18
453.871	1719.76
454.244	1771.06
454.618	1800.21
454.992	1782.13
455.365	1782.35
455.739	1847.44
456.112	1855.12
456.486	1856.93
456.859	1830.04
457.232	1881.56
457.606	1866.65
457.979	1899.41
458.352	1969.92
458.725	1937.83
459.099	1959.07
459.472	1977.38
459.845	2030.03
460.218	2025.74
460.591	2075
460.964	2024.38
461.337	2072.74
461.71	2118.16
462.083	2113.64
462.456	2162.68
462.829	2143.02
463.201	2166.52
463.574	2182.34
463.947	2187.54
464.32	2205.17
464.692	2275.9
465.065	2247.2
465.438	2280.19
465.81	2329.91
466.183	2319.06
466.555	2369.23
466.928	2374.66
467.3	2372.62
467.672	2428.89
468.045	2459.85
468.417	2470.92
468.789	2454.43
469.161	2456.46
469.534	2542.56
469.906	2514.31
470.278	2546.4
470.65	2572.84
471.022	2616.68
471.394	2650.58
471.766	2691.48
472.138	2699.17
472.51	2765.15
472.882	2776.68
473.253	2811.48
473.625	2833.17
473.997	2899.84
474.369	2940.74
474.74	2913.62
475.112	2968.31
475.484	2978.48
475.855	3001.76
476.227	3041.76
476.598	3123.56
476.97	3114.52
477.341	3180.51
477.713	3210.79
478.084	3250.11
478.455	3274.74
478.827	3320.39
479.198	3426.83
479.569	3374.4
479.94	3487.85
480.311	3500.05
480.682	3557
481.053	3617.11
481.424	3618.01
481.795	3698.46
482.166	3734.17
482.537	3718.57
482.908	3796.76
483.279	3842.64
483.65	3918.12
484.021	3959.92
484.391	3968.29
484.762	4051.22
485.133	4056.87
485.503	4084.21
485.874	4183.2
486.244	4194.04
486.615	4232.69
486.985	4263.87
487.356	4338.67
487.726	4360.14
488.097	4450.08
488.467	4447.59
488.837	4515.84
489.207	4585.44
489.578	4603.07
489.948	4624.77
490.318	4702.5
490.688	4710.41
491.058	4787.25
491.428	4831.31
491.798	4860.47
492.168	4950.63
492.538	4961.93
492.908	4973.91
493.278	5028.6
493.648	5030.4
494.017	5123.28
494.387	5101.36
494.757	5145.2
495.126	5231.08
495.496	5201.47
495.866	5224.52
496.235	5253
496.605	5320.79
496.974	5342.71
497.344	5396.04
497.713	5390.39
498.082	5410.28
498.452	5487.12
498.821	5500.45
499.19	5494.57
499.559	5561.69
499.928	5576.15
500.298	5588.58
500.667	5642.14
501.036	5608.24
501.405	5633.78
501.774	5650.5
502.143	5686.66
502.512	5761.91
502.88	5781.8
503.249	5752.19
503.618	5780.22
503.987	5829.03
504.356	5864.28
504.724	5914.22
505.093	5914
505.462	5937.95
505.83	5962.58
506.199	5998.06
506.567	6013.88
506.936	5974.11
507.304	6070.83
507.672	6097.27
508.041	6088
508.409	6144.27
508.777	6211.16
509.145	6183.59
509.514	6231.95
509.882	6252.07
510.25	6256.13
510.618	6264.27
510.986	6277.38
511.354	6324.61
511.722	6309.01
512.09	6391.27
512.458	6406.87
512.826	6390.82
513.193	6494.09
513.561	6450.25
513.929	6493.19
514.297	6563.7
514.664	6557.82
515.032	6560.76
515.4	6647.76
515.767	6628.55
516.135	6655.9
516.502	6622.68
516.869	6753.52
517.237	6739.74
517.604	6716.46
517.972	6783.13
518.339	6782.67
518.706	6763.24
519.073	6794.2
519.44	6864.93
519.808	6919.39
520.175	6916.23
520.542	6972.73
520.909	6995.78
521.276	6973.4
521.643	7012.05
522.009	7035.32
522.376	7078.03
522.743	7077.13
523.11	7191.25
523.477	7213.17
523.843	7236.45
524.21	7262.21
524.577	7372.04
524.943	7350.34
525.31	7316.45
525.676	7429.44
526.043	7491.81
526.409	7494.75
526.776	7534.75
527.142	7621.07
527.508	7595.53
527.874	7644.57
528.241	7702.65
528.607	7674.85
528.973	7796.66
529.339	7754.4
529.705	7798.47
530.071	7861.97
530.437	7826.26
530.803	7853.61
531.169	7910.1
531.535	7937.67
531.901	7939.71
532.267	7989.2
532.632	8037.78
532.998	8033.49
533.364	8104.9
533.73	8117.1
534.095	8223.77
534.461	8235.74
534.826	8242.75
535.192	8278.45
535.557	8359.36
535.923	8336.31
536.288	8368.17
536.653	8315.29
537.019	8315.29
537.384	8396.64
537.749	8453.59
538.114	8491.56
538.479	8470.54
538.845	8522.06
539.21	8489.3
539.575	8493.36
539.94	8552.57
540.305	8538.33
540.67	8621.27
541.034	8598.67
541.399	8608.39
541.764	8704.88
542.129	8665.79
542.494	8717.09
542.858	8747.14
543.223	8767.03
543.587	8841.38
543.952	8840.7
544.316	8868.04
544.681	8854.03
545.045	8896.07
545.41	8950.08
545.774	8950.98
546.138	8971.32
546.503	8961.15
546.867	9023.07
547.231	9077.98
547.595	9101.71
547.959	9093.57
548.324	9037.08
548.688	9134.93
549.052	9198.66
549.416	9175.61
549.779	9206.79
550.143	9225.55
550.507	9235.04
550.871	9316.85
551.235	9273.23
551.599	9351.42
551.962	9379.89
552.326	9349.84
552.689	9436.84
553.053	9373.79
553.417	9436.62
553.78	9515.26
554.143	9480.46
554.507	9560.91
554.87	9494.92
555.234	9612.66
555.597	9644.29
555.96	9596.39
556.323	9582.6
556.686	9631.41
557.05	9689.27
557.413	9693.78
557.776	9697.63
558.139	9757.96
558.502	9723.61
558.865	9750.28
559.228	9828.47
559.59	9917.96
559.953	9829.37
560.316	9951.41
560.679	9960.67
561.041	10014.68
561.404	10099.88
561.767	10054
562.129	10106.2
562.492	10129.25
562.854	10114.79
563.217	10131.29
563.579	10225.3
563.941	10255.13
564.304	10254.22
564.666	10338.29
565.028	10387.55
565.39	10341.23
565.753	10435.46
566.115	10449.7
566.477	10478.62
566.839	10510.94
567.201	10635
567.563	10598.85
567.925	10668
568.287	10658.05
568.648	10659.63
569.01	10828.44
569.372	10839.97
569.734	10762.68
570.095	10892.85
570.457	10974.88
570.819	10927.65
571.18	10910.93
571.542	11043.35
571.903	11002.22
572.265	11073.41
572.626	11124.03
572.987	11152.5
573.349	11161.77
573.71	11314.31
574.071	11281.99
574.432	11347.75
574.794	11471.14
575.155	11471.59
575.516	11397.47
575.877	11578.03
576.238	11570.12
576.599	11684.24
576.96	11701.19
577.32	11776.44
577.681	11842.2
578.042	11880.39
578.403	11983.89
578.763	11948.41
579.124	12143.21
579.485	12195.87
579.845	12317.22
580.206	12312.92
580.566	12371.68
580.927	12449.42
581.287	12563.77
581.648	12637.66
582.008	12655.06
582.368	12826.36
582.728	12998.78
583.089	12973.7
583.449	13057.99
583.809	13160.36
584.169	13292.11
584.529	13400.35
584.889	13535.49
585.249	13590.18
585.609	13631.31
585.969	13849.16
586.329	13831.3
586.688	14081.69
587.048	14128.47
587.408	14247.56
587.768	14454.11
588.127	14617.05
588.487	14629.93
588.846	14900.88
589.206	14892.97
589.565	15099.74
589.925	15242.34
590.284	15356.23
590.643	15480.07
591.003	15684.36
591.362	15835.54
591.721	15913.73
592.08	16086.84
592.44	16329.99
592.799	16482.08
593.158	16504
593.517	16657.9
593.876	16801.17
594.235	16910.77
594.593	17053.59
594.952	17259.01
595.311	17333.58
595.67	17471.43
596.029	17744.87
596.387	17786.45
596.746	17954.81
597.104	18031.64
597.463	18190.74
597.822	18348.02
598.18	18470.73
598.538	18528.35
598.897	18795.24
599.255	18798.63
599.613	19158.39
599.972	19124.5
600.33	19282.91
600.688	19360.88
601.046	19592.06
601.404	19768.1
601.762	19852.39
602.12	19994.76
602.478	20098.03
602.836	20217.12
603.194	20204.69
603.552	20384.13
603.91	20377.57
604.268	20454.86
604.625	20563.56
604.983	20752.02
605.341	20725.36
605.698	20949.31
606.056	21068.4
606.413	21147.27
606.771	21328.28
607.128	21359.47
607.485	21329.86
607.843	21525.34
608.2	21595.84
608.557	21885.33
608.914	21829.51
609.272	21947.02
609.629	22027.92
609.986	22191.31
610.343	22109.05
610.7	22354.92
611.057	22401.7
611.414	22481.02
611.771	22506.78
612.127	22629.94
612.484	22691.63
612.841	22849.6
613.198	22921.46
613.554	22842.37
613.911	22954.23
614.267	23033.55
614.624	23151.51
614.98	23251.62
615.337	23386.76
615.693	23378.17
616.05	23416.14
616.406	23528.68
616.762	23510.6
617.118	23622.23
617.475	23649.58
617.831	23609.35
618.187	23785.62
618.543	23813.64
618.899	23902.68
619.255	24046.63
619.611	23925.05
619.967	24029
620.323	24189.45
620.678	24122.78
621.034	24189.9
621.39	24128.66
621.746	24029.68
622.101	24452.94
622.457	24242.33
622.812	24249.56
623.168	24342.89
623.523	24448.65
623.879	24471.48
624.234	24301.54
624.589	24501.76
624.945	24545.15
625.3	24603.68
625.655	24602.32
626.01	24651.58
626.365	24674.41
626.72	24701.98
627.075	24680.96
627.43	24620.85
627.785	24563
628.14	24724.58
628.495	24667.85
628.85	24720.51
629.205	24661.07
629.559	24747.17
629.914	24630.57
630.269	24725.25
630.623	24663.33
630.978	24592.83
631.332	24858.58
631.687	24815.42
632.041	24643
632.396	24711.24
632.75	24687.97
633.104	24788.53
633.459	24569.33
633.813	24611.36
634.167	24624.92
634.521	24630.34
634.875	24573.62
635.229	24666.05
635.583	24477.12
635.937	24629.89
636.291	24463.34
636.645	24643.45
636.999	24487.07
637.352	24566.61
637.706	24446.17
638.06	24450.68
638.413	24476.22
638.767	24445.49
639.121	24491.81
639.474	24311.25
639.828	24244.14
640.181	24306.06
640.534	24402.78
640.888	24379.27
641.241	24255.89
641.594	24321.2
641.947	24447.97
642.301	24377.92
642.654	24333.85
643.007	24335.43
643.36	24342.21
643.713	24196.45
644.066	24448.65
644.419	24178.6
644.771	24210.24
645.124	23970.02
645.477	23863.81
645.83	23612.97
646.182	23636.24
646.535	23559.63
646.888	23567.09
647.24	23500.65
647.593	23685.28
647.945	23478.96
648.298	23445.29
648.65	23411.62
649.002	23479.86
649.355	23540.2
649.707	23532.29
650.059	23699.97
650.411	23789.46
650.763	23958.95
651.115	24067.87
651.467	24018.15
651.819	24008.89
652.171	24009.57
652.523	24001.21
652.875	23991.04
653.227	23911.26
653.578	24210.92
653.93	24111.94
654.282	23913.75
654.633	23969.12
654.985	23990.13
655.337	23944.48
655.688	24047.08
656.039	24118.26
656.391	24016.57
656.742	24014.54
657.094	24013.18
657.445	24059.28
657.796	24021.77
658.147	23998.04
658.498	24040.3
658.849	24090.92
659.2	23953.52
659.551	23922.11
659.902	24099.96
660.253	24003.01
660.604	24064.93
660.955	24008.44
661.306	24055.21
661.656	23988.1
662.007	24060.86
662.358	24097.7
662.708	24042.33
663.059	24079.62
663.409	23876.46
663.76	24087.98
664.11	24149.45
664.461	24118.49
664.811	24164.82
665.161	24127.76
665.511	23996.01
665.862	24077.59
666.212	24219.73
666.562	24173.63
666.912	23981.77
667.262	24082.56
667.612	24045.72
667.962	24043.69
668.312	24115.33
668.662	24254.31
669.011	24098.83
669.361	24008.66
669.711	24094.54
670.06	23961.21
670.41	23922.79
670.76	23937.03
671.109	24082.11
671.459	23920.53
671.808	24044.14
672.157	23938.38
672.507	23699.97
672.856	23896.12
673.205	23901.55
673.554	23921.43
673.904	23948.33
674.253	23993.3
674.602	23880.3
674.951	23646.41
675.3	23526.87
675.649	23863.13
675.998	23802.79
676.346	23828.55
676.695	23909.68
677.044	23631.27
677.393	23767.99
677.741	23674.89
678.09	23615.45
678.438	23561.89
678.787	23705.17
679.135	23738.39
679.484	23554.44
679.832	23544.49
680.181	23450.49
680.529	23457.94
680.877	23420.43
681.225	23433.76
681.573	23559.18
681.922	23380.88
682.27	23257.5
682.618	23285.07
682.966	23179.76
683.314	23301.34
683.661	23143.15
684.009	23159.19
684.357	22990.84
684.705	23052.08
685.053	22997.62
685.4	23029.48
685.748	22870.61
686.095	22986.32
686.443	22664.97
686.79	22700.22
687.138	22888.92
687.485	22699.54
687.832	22640.56
688.18	22610.96
688.527	22490.74
688.874	22471.53
689.221	22393.34
689.568	22403.06
689.915	22314.24
690.262	22273.79
690.609	22178.65
690.956	22161.48
691.303	22104.53
691.65	22117.86
691.997	22052.56
692.344	21840.81
692.69	21865.22
693.037	21814.14
693.383	21662.28
693.73	21717.2
694.077	21584.55
694.423	21609.63
694.769	21535.28
695.116	21478.33
695.462	21428.84
695.808	21279.24
696.155	21409.41
696.501	21161.73
696.847	21260.49
697.193	20971.91
697.539	21042.86
697.885	20889.42
698.231	20753.83
698.577	20885.58
698.923	20762.42
699.269	20678.35
699.614	20549.77
699.96	20495.76
700.306	20445.37
700.651	20300.51
700.997	20270
701.342	20246.73
701.688	20203.11
702.033	20177.58
702.379	20112.49
702.724	20038.15
703.069	20066.62
703.415	19835.89
703.76	19839.96
704.105	19736.68
704.45	19743.24
704.795	19633.64
705.14	19488.56
705.485	19560.42
705.83	19537.59
706.175	19503.02
706.52	19362.91
706.865	19266.64
707.209	19272.97
707.554	19175.34
707.899	19199.98
708.243	19116.36
708.588	19118.62
708.932	18915.69
709.277	19007.89
709.621	18943.71
709.966	18739.2
710.31	18853.54
710.654	18743.49
710.998	18723.83
711.342	18659.88
711.687	18567.9
712.031	18548.47
712.375	18463.27
712.719	18518.19
713.063	18515.7
713.407	18501.69
713.75	18406.55
714.094	18437.28
714.438	18279.32
714.782	18419.2
715.125	18157.06
715.469	18227.8
715.812	18098.08
716.156	18096.28
716.499	18057.18
716.843	18090.17
717.186	17897.18
717.53	17950.74
717.873	18072.77
718.216	17917.98
718.559	17699.22
718.902	17778.09
719.246	17805.21
719.589	17719.11
719.932	17728.6
720.275	17696.06
720.617	17699
720.96	17771.54
721.303	17798.2
721.646	17769.96
721.989	17543.75
722.331	17603.41
722.674	17541.49
723.016	17546.91
723.359	17607.7
723.701	17501.04
724.044	17494.26
724.386	17519.57
724.729	17487.48
725.071	17313.02
725.413	17362.74
725.755	17368.84
726.097	17319.8
726.439	17203.87
726.782	17345.56
727.124	17231.44
727.465	17109.63
727.807	17174.72
728.149	17270.08
728.491	17159.13
728.833	17309.63
729.175	17240.03
729.516	17052.46
729.858	17155.51
730.199	17167.94
730.541	17128.84
730.882	17104.66
731.224	17205.45
731.565	17002.52
731.906	17078.22
732.248	17098.56
732.589	17053.37
732.93	16979.24
733.271	17014.27
733.612	16978.34
733.953	16996.19
734.294	16928.4
734.635	16910.32
734.976	17041.39
735.317	16949.87
735.658	17007.04
735.999	16961.39
736.339	17004.33
736.68	17031.44
737.021	16959.81
737.361	16868.51
737.702	17015.63
738.042	16994.16
738.383	16955.51
738.723	17081.39
739.063	16966.81
739.404	16902.18
739.744	16978.56
740.084	16915.29
740.424	17051.11
740.764	16942.41
741.104	17056.53
741.444	16988.51
741.784	16939.02
742.124	16986.7
742.464	17031.67
742.804	17058.56
743.143	17037.09
743.483	17055.17
743.823	17107.83
744.162	17121.61
744.502	17130.88
744.841	17106.92
745.181	17207.94
745.52	17218.33
745.86	17314.38
746.199	17313.47
746.538	17283.19
746.877	17405.9
747.216	17501.04
747.556	17425.78
747.895	17447.71
748.234	17522.51
748.573	17489.74
748.911	17600.92
749.25	17755.49
749.589	17712.1
749.928	17817.41
750.267	17840.92
750.605	17915.94
750.944	17960.91
751.283	18026.45
751.621	18145.77
751.96	18179.44
752.298	18180.12
752.636	18444.52
752.975	18385.08
753.313	18469.83
753.651	18644.96
753.989	18619.65
754.327	18800.89
754.666	18807.44
755.004	19042.24
755.342	19125.4
755.679	19231.61
756.017	19286.75
756.355	19456.47
756.693	19450.36
757.031	19625.05
757.368	19674.77
757.706	19788.21
758.044	19870.01
758.381	19947.07
