Data from hue_240_FLMS001491_00083.txt Node
Date: Tue Feb 07 16:36:03 GMT 2017
User: dcchb
Spectrometer: FLMS00149
Trigger mode: 0
Integration Time (sec): 2.000000E-2
Scans to average: 10
Electric dark correction enabled: true
Nonlinearity correction enabled: false
Boxcar width: 0
XAxis mode: Wavelengths
Number of Pixels in Spectrum: 2048
>>>>>Begin Spectral Data<<<<<
341.393	-10.35
341.776	-10.35
342.16	-10.35
342.543	-43.8
342.927	-52.39
343.31	-78.6
343.693	-77.02
344.077	-62.1
344.46	-76.79
344.843	-60.52
345.226	-37.24
345.61	-44.02
345.993	-28.88
346.376	19.25
346.759	7.95
347.142	16.31
347.525	44.56
347.908	75.29
348.291	84.56
348.674	112.81
349.057	104.45
349.44	148.29
349.823	151.9
350.206	173.37
350.588	193.03
350.971	205.23
351.354	219.92
351.737	236.87
352.119	252.01
352.502	241.17
352.884	279.81
353.267	276.87
353.65	287.49
354.032	290.43
354.414	301.96
354.797	304.67
355.179	309.19
355.562	307.83
355.944	307.83
356.326	300.6
356.709	325.46
357.091	327.27
357.473	338.79
357.855	332.24
358.238	320.26
358.62	352.35
359.002	326.36
359.384	335.4
359.766	321.84
360.148	353.48
360.53	331.56
360.912	323.2
361.294	336.76
361.676	321.84
362.057	340.6
362.439	319.81
362.821	320.26
363.203	316.87
363.584	325.23
363.966	324.1
364.348	329.07
364.729	303.31
365.111	315.51
365.493	329.07
365.874	308.96
366.256	311.45
366.637	311.67
367.019	319.13
367.4	306.02
367.781	311.22
368.163	301.28
368.544	305.57
368.925	318.9
369.306	321.39
369.688	329.98
370.069	308.51
370.45	303.54
370.831	312.58
371.212	302.18
371.593	306.7
371.974	318.68
372.355	303.54
372.736	321.39
373.117	291.33
373.498	315.06
373.879	322.75
374.26	314.84
374.641	308.73
375.021	300.83
375.402	302.18
375.783	320.03
376.163	331.33
376.544	332.01
376.925	313.25
377.305	324.1
377.686	336.08
378.066	334.95
378.447	329.07
378.827	314.38
379.208	331.11
379.588	330.43
379.968	319.58
380.349	327.49
380.729	318.23
381.109	336.98
381.489	324.78
381.87	333.37
382.25	339.02
382.63	326.36
383.01	323.2
383.39	336.98
383.77	340.82
384.15	339.47
384.53	336.53
384.91	358.45
385.29	340.37
385.67	339.02
386.049	338.11
386.429	354.38
386.809	332.24
387.189	343.08
387.568	347.83
387.948	352.12
388.328	358.68
388.707	350.32
389.087	344.44
389.466	364.1
389.846	372.01
390.225	345.57
390.605	360.03
390.984	373.14
391.363	344.67
391.743	363.65
392.122	356.19
392.501	358
392.881	396.87
393.26	377.89
393.639	391.9
394.018	386.7
394.397	396.42
394.776	370.65
395.155	387.83
395.534	379.24
395.913	380.37
396.292	367.04
396.671	392.12
397.05	377.21
397.429	388.28
397.808	388.28
398.186	393.25
398.565	398.9
398.944	393.25
399.323	388.96
399.701	396.87
400.08	407.72
400.458	393.93
400.837	398.9
401.215	389.86
401.594	403.65
401.972	394.61
402.351	392.57
402.729	416.75
403.107	419.01
403.486	440.03
403.864	419.01
404.242	410.2
404.62	431.22
404.999	411.56
405.377	428.05
405.755	434.83
406.133	419.24
406.511	434.16
406.889	438.22
407.267	444.78
407.645	459.47
408.023	454.49
408.401	445.68
408.779	477.77
409.156	473.48
409.534	475.74
409.912	473.02
410.29	499.24
410.667	477.32
411.045	478.22
411.422	507.6
411.8	500.37
412.178	501.27
412.555	519.12
412.933	522.74
413.31	534.49
413.687	525
414.065	541.05
414.442	554.15
414.819	534.94
415.197	569.29
415.574	579.24
415.951	562.74
416.328	589.41
416.705	588.5
417.082	616.3
417.46	596.18
417.837	610.87
418.214	592.8
418.591	591.67
418.967	588.73
419.344	624.43
419.721	623.53
420.098	640.93
420.475	656.3
420.852	659.69
421.228	641.16
421.605	655.62
421.982	668.95
422.358	666.92
422.735	675.05
423.111	683.87
423.488	689.97
423.864	703.98
424.241	703.98
424.617	726.58
424.994	746.46
425.37	739.68
425.746	760.25
426.123	763.64
426.499	741.27
426.875	776.07
427.251	773.36
427.627	833.92
428.003	811.09
428.379	810.64
428.756	831.43
429.132	832.11
429.507	838.21
429.883	848.61
430.259	862.62
430.635	875.95
431.011	856.07
431.387	897.19
431.763	908.04
432.138	905.78
432.514	939
432.89	925.67
433.265	949.62
433.641	956.85
434.016	973.35
434.392	973.12
434.767	1003.18
435.143	997.98
435.518	1033.91
435.894	1044.53
436.269	1068.26
436.644	1080.92
437.02	1092.67
437.395	1102.61
437.77	1116.85
438.145	1129.05
438.52	1132.44
438.895	1144.19
439.271	1156.85
439.646	1196.17
440.021	1198.2
440.395	1214.93
440.77	1197.53
441.145	1219.45
441.52	1216.28
441.895	1256.28
442.27	1259.44
442.645	1247.92
443.019	1271.65
443.394	1276.62
443.769	1288.82
444.143	1305.54
444.518	1310.52
444.892	1323.85
445.267	1341.7
445.641	1320.69
446.016	1324.98
446.39	1353.45
446.764	1378.99
447.139	1372.44
447.513	1392.77
447.887	1403.85
448.262	1406.33
448.636	1373.79
449.01	1431.87
449.384	1427.35
449.758	1449.5
450.132	1473.45
450.506	1486.78
450.88	1472.55
451.254	1486.56
451.628	1487.01
452.002	1504.86
452.376	1549.38
452.75	1533.56
453.123	1537.4
453.497	1560.23
453.871	1579.44
454.244	1620.11
454.618	1615.82
454.992	1634.8
455.365	1651.52
455.739	1652.43
456.112	1674.57
456.486	1701.24
456.859	1741.01
457.232	1746.44
457.606	1716.38
457.979	1768.36
458.352	1807
458.725	1832.08
459.099	1819.2
459.472	1859.88
459.845	1866.89
460.218	1862.37
460.591	1873.89
460.964	1887.9
461.337	1965.64
461.71	1944.85
462.083	1986.2
462.456	1966.54
462.829	1996.37
463.201	2031.4
463.574	2056.26
463.947	2038.86
464.32	2126.09
464.692	2107.11
465.065	2118.4
465.438	2165.41
465.81	2192.3
466.183	2173.77
466.555	2249.93
466.928	2248.57
467.3	2256.93
467.672	2318.63
468.045	2298.74
468.417	2350.04
468.789	2375.57
469.161	2400.21
469.534	2411.05
469.906	2467.77
470.278	2505.51
470.65	2501.22
471.022	2554.1
471.394	2567.66
471.766	2572.4
472.138	2629.13
472.51	2667.77
472.882	2696.24
473.253	2738.95
473.625	2743.02
473.997	2813.75
474.369	2864.37
474.74	2881.32
475.112	2905.05
475.484	2968.55
475.855	2990.25
476.227	3027.76
476.598	3093.75
476.97	3101.43
477.341	3154.99
477.713	3180.52
478.084	3249.22
478.455	3292.61
478.827	3314.08
479.198	3417.35
479.569	3393.17
479.94	3484.92
480.311	3515.88
480.682	3605.15
481.053	3646.5
481.424	3718.81
481.795	3718.59
482.166	3794.29
482.537	3819.38
482.908	3880.17
483.279	3922.2
483.65	3991.58
484.021	4016.66
484.391	4084.23
484.762	4081.29
485.133	4183.89
485.503	4179.59
485.874	4268.86
486.244	4341.17
486.615	4354.96
486.985	4408.29
487.356	4493.03
487.726	4556.08
488.097	4613.25
488.467	4556.76
488.837	4713.59
489.207	4704.33
489.578	4800.37
489.948	4816.19
490.318	4813.48
490.688	4858.9
491.058	4943.42
491.428	5016.86
491.798	5045.33
492.168	5132.11
492.538	5198.32
492.908	5160.36
493.278	5212.11
493.648	5226.12
494.017	5260.92
494.387	5322.84
494.757	5355.83
495.126	5426.11
495.496	5437.19
495.866	5434.48
496.235	5532.78
496.605	5533.91
496.974	5563.51
497.344	5604.64
497.713	5648.71
498.082	5655.94
498.452	5727.58
498.821	5768.25
499.19	5774.58
499.559	5828.14
499.928	5804.41
500.298	5822.94
500.667	5917.85
501.036	5851.87
501.405	5921.24
501.774	5915.14
502.143	5984.29
502.512	5935.71
502.88	6044.18
503.249	6062.48
503.618	6056.83
503.987	6085.76
504.356	6122.82
504.724	6104.29
505.093	6137.06
505.462	6137.73
505.83	6204.62
506.199	6252.76
506.567	6313.1
506.936	6277.17
507.304	6307
507.672	6334.57
508.041	6363.72
508.409	6334.79
508.777	6345.86
509.145	6438.74
509.514	6423.6
509.882	6468.57
510.25	6470.38
510.618	6506.09
510.986	6487.33
511.354	6545.41
511.722	6576.59
512.09	6589.7
512.458	6606.65
512.826	6662.47
513.193	6678.51
513.561	6632.18
513.929	6664.73
514.297	6783.14
514.664	6724.84
515.032	6722.8
515.4	6756.47
515.767	6783.37
516.135	6840.77
516.502	6745.4
516.869	6819.75
517.237	6850.48
517.604	6835.34
517.972	6913.08
518.339	6888.9
518.706	6905.4
519.073	6895
519.44	6968.45
519.808	7013.64
520.175	6914.89
520.542	6989.92
520.909	7038.5
521.276	7003.02
521.643	6993.08
522.009	7056.58
522.376	7087.09
522.743	7059.74
523.11	7097.03
523.477	7132.06
523.843	7179.29
524.21	7241.43
524.577	7277.82
524.943	7250.7
525.31	7248.89
525.676	7278.95
526.043	7307.65
526.409	7274.88
526.776	7388.77
527.142	7326.86
527.508	7369.79
527.874	7374.54
528.241	7410.02
528.607	7406.18
528.973	7452.95
529.339	7414.54
529.705	7485.5
530.071	7430.81
530.437	7497.7
530.803	7477.13
531.169	7517.36
531.535	7435.1
531.901	7396.23
532.267	7442.33
532.632	7526.85
532.998	7433.52
533.364	7539.51
533.73	7543.57
534.095	7535.21
534.461	7505.61
534.826	7548.77
535.192	7567.98
535.557	7574.08
535.923	7522.78
536.288	7574.98
536.653	7546.28
537.019	7456.8
537.384	7496.79
537.749	7532.73
538.114	7484.59
538.479	7445.72
538.845	7539.05
539.21	7436.91
539.575	7507.42
539.94	7499.51
540.305	7430.36
540.67	7408.66
541.034	7420.19
541.399	7445.27
541.764	7447.53
542.129	7466.51
542.494	7430.81
542.858	7511.48
543.223	7461.32
543.587	7445.04
543.952	7447.76
544.316	7461.32
544.681	7407.53
545.045	7380.19
545.41	7388.32
545.774	7407.76
546.138	7396.23
546.503	7367.08
546.867	7371.6
547.231	7429.23
547.595	7371.37
547.959	7373.63
548.324	7340.64
548.688	7325.73
549.052	7407.08
549.416	7327.76
549.779	7303.35
550.143	7383.58
550.507	7330.02
550.871	7303.58
551.235	7244.37
551.599	7377.7
551.962	7355.33
552.326	7337.7
552.689	7353.97
553.053	7346.97
553.417	7240.3
553.78	7354.2
554.143	7245.73
554.507	7315.1
554.87	7376.57
555.234	7395.55
555.597	7311.26
555.96	7325.73
556.323	7350.36
556.686	7287.08
557.05	7325.5
557.413	7326.18
557.776	7322.56
558.139	7399.62
558.502	7331.83
558.865	7323.47
559.228	7386.97
559.59	7357.82
559.953	7343.35
560.316	7405.27
560.679	7431.03
561.041	7406.18
561.404	7450.02
561.767	7484.37
562.129	7415.44
562.492	7431.03
562.854	7496.57
563.217	7492.5
563.579	7455.44
563.941	7460.41
564.304	7538.38
564.666	7535.89
565.028	7570.24
565.39	7648.88
565.753	7629.9
566.115	7631.48
566.477	7714.87
566.839	7636
567.201	7670.8
567.563	7697.24
567.925	7717.81
568.287	7698.15
568.648	7737.69
569.01	7773.4
569.372	7814.53
569.734	7751.7
570.095	7821.53
570.457	7874.64
570.819	7838.93
571.18	7838.71
571.542	7917.57
571.903	7888.2
572.265	7947.18
572.626	7956.44
572.987	7931.13
573.349	7980.17
573.71	8015.2
574.071	8020.85
574.432	8004.8
574.794	8024.46
575.155	8044.12
575.516	8036.89
575.877	8054.97
576.238	8100.39
576.599	8125.25
576.96	8104.24
577.32	8145.59
577.681	8143.11
578.042	8201.63
578.403	8177
578.763	8214.52
579.124	8242.99
579.485	8253.84
579.845	8267.4
580.206	8190.56
580.566	8261.07
580.927	8286.38
581.287	8294.51
581.648	8283.67
582.008	8311.46
582.368	8286.15
582.728	8339.48
583.089	8278.02
583.449	8369.54
583.809	8342.65
584.169	8390.1
584.529	8341.74
584.889	8473.04
585.249	8369.09
585.609	8406.38
585.969	8473.27
586.329	8419.48
586.688	8409.76
587.048	8469.2
587.408	8460.84
587.768	8450.89
588.127	8424.23
588.487	8428.3
588.846	8539.93
589.206	8510.55
589.565	8491.12
589.925	8501.29
590.284	8488.18
590.643	8517.11
591.003	8541.74
591.362	8595.3
591.721	8529.99
592.08	8576.54
592.44	8531.12
592.799	8528.41
593.158	8539.25
593.517	8534.06
593.876	8587.61
594.235	8528.86
594.593	8568.63
594.952	8547.16
595.311	8527.5
595.67	8544
596.029	8591.23
596.387	8616.76
596.746	8646.59
597.104	8636.65
597.463	8641.62
597.822	8627.39
598.18	8651.34
598.538	8668.97
598.897	8668.52
599.255	8568.4
599.613	8681.62
599.972	8642.53
600.33	8628.97
600.688	8677.1
601.046	8697.44
601.404	8661.28
601.762	8644.33
602.12	8714.84
602.478	8754.39
602.836	8739.93
603.194	8650.21
603.552	8687.5
603.91	8671.68
604.268	8753.48
604.625	8675.07
604.983	8726.37
605.341	8683.2
605.698	8734.5
606.056	8770.21
606.413	8768.85
606.771	8778.12
607.128	8812.24
607.485	8765.01
607.843	8746.25
608.2	8819.25
608.557	8881.16
608.914	8795.52
609.272	8865.12
609.629	8874.16
609.986	8905.8
610.343	8803.88
610.7	8849.3
611.057	8902.41
611.414	8849.98
611.771	8895.63
612.127	8911.22
612.484	8842.07
612.841	8910.99
613.198	8879.13
613.554	8934.72
613.911	8966.13
614.267	8950.99
614.624	8922.97
614.98	8934.5
615.337	9044.1
615.693	9005.68
616.05	8913.03
616.406	8958
616.762	8920.49
617.118	8962.29
617.475	8921.16
617.831	9015.4
618.187	9026.02
618.543	9016.3
618.899	9049.97
619.255	9064.21
619.611	9026.47
619.967	9100.14
620.323	9033.25
620.678	8977.89
621.034	9075.51
621.39	9028.05
621.746	8986.02
622.101	9093.59
622.457	9025.34
622.812	9025.34
623.168	9109.86
623.523	9035.74
623.879	9115.96
624.234	9012.01
624.589	9029.18
624.945	9088.16
625.3	9106.92
625.655	9054.27
626.01	9056.53
626.365	9087.49
626.72	9064.89
627.075	9053.14
627.43	9026.92
627.785	9056.98
628.14	9015.17
628.495	8950.09
628.85	9045.45
629.205	9052.69
629.559	9099.46
629.914	8979.69
630.269	8950.32
630.623	9006.36
630.978	8975.17
631.332	9017.21
631.687	8973.59
632.041	8950.99
632.396	8931.56
632.75	8922.07
633.104	8930.88
633.459	8948.28
633.813	8900.6
634.167	8923.65
634.521	8915.29
634.875	8844.33
635.229	8867.61
635.583	8881.39
635.937	8807.49
636.291	8886.14
636.645	8809.98
636.999	8775.86
637.352	8823.99
637.706	8773.37
638.06	8775.63
638.413	8829.19
638.767	8757.33
639.121	8727.5
639.474	8727.27
639.828	8709.19
640.181	8757.1
640.534	8722.98
640.888	8675.29
641.241	8708.06
641.594	8652.24
641.947	8677.78
642.301	8703.99
642.654	8630.1
643.007	8620.38
643.36	8695.86
643.713	8657.67
644.066	8682.3
644.419	8584.68
644.771	8623.09
645.124	8479.14
645.477	8515.52
645.83	8396.43
646.182	8349.88
646.535	8334.96
646.888	8340.84
647.24	8312.37
647.593	8361.63
647.945	8364.79
648.298	8345.36
648.65	8336.55
649.002	8295.64
649.355	8403.21
649.707	8346.72
650.059	8395.75
650.411	8473.04
650.763	8461.29
651.115	8511.46
651.467	8514.62
651.819	8468.52
652.171	8546.26
652.523	8484.57
652.875	8547.39
653.227	8474.4
653.578	8481.85
653.93	8498.35
654.282	8438.46
654.633	8384.45
654.985	8416.09
655.337	8471.23
655.688	8443.21
656.039	8470.33
656.391	8430.33
656.742	8402.99
657.094	8408.41
657.445	8492.7
657.796	8477.33
658.147	8457
658.498	8452.48
658.849	8463.55
659.2	8449.54
659.551	8432.36
659.902	8468.07
660.253	8443.89
660.604	8489.08
660.955	8464.45
661.306	8516.88
661.656	8453.83
662.007	8524.34
662.358	8496.77
662.708	8449.09
663.059	8452.93
663.409	8423.32
663.76	8454.96
664.11	8484.57
664.461	8496.09
664.811	8473.49
665.161	8438.69
665.511	8382.87
665.862	8458.35
666.212	8465.81
666.562	8474.17
666.912	8458.8
667.262	8422.19
667.612	8447.73
667.962	8450.22
668.312	8429.88
668.662	8450.44
669.011	8433.94
669.361	8459.03
669.711	8403.21
670.06	8369.77
670.41	8416.77
670.76	8448.63
671.109	8438.01
671.459	8355.98
671.808	8375.42
672.157	8401.63
672.507	8392.59
672.856	8386.49
673.205	8336.77
673.554	8375.64
673.904	8352.37
674.253	8439.59
674.602	8341.07
674.951	8225.59
675.3	8159.15
675.649	8384.91
675.998	8257
676.346	8285.93
676.695	8326.15
677.044	8293.38
677.393	8267.62
677.741	8289.09
678.09	8272.14
678.438	8261.75
678.787	8300.39
679.135	8218.36
679.484	8240.73
679.832	8246.83
680.181	8214.52
680.529	8254.51
680.877	8180.39
681.225	8195.31
681.573	8224.68
681.922	8178.58
682.27	8169.09
682.618	8158.25
682.966	8068.76
683.314	8096.1
683.661	8147.4
684.009	8067.4
684.357	8033.28
684.705	8031.24
685.053	8044.35
685.4	7988.98
685.748	7970
686.095	7914.86
686.443	7945.14
686.79	7939.72
687.138	8022.66
687.485	7934.52
687.832	7895.65
688.18	7901.98
688.527	7862.43
688.874	7832.83
689.221	7800.97
689.568	7781.08
689.915	7741.76
690.262	7753.51
690.609	7682.55
690.956	7703.57
691.303	7718.71
691.65	7656.34
691.997	7706.51
692.344	7582.67
692.69	7521.2
693.037	7544.7
693.383	7474.42
693.73	7530.47
694.077	7453.41
694.423	7490.47
694.769	7459.51
695.116	7405.72
695.462	7388.55
695.808	7397.36
696.155	7361.43
696.501	7298.83
696.847	7336.12
697.193	7292.05
697.539	7323.92
697.885	7226.52
698.231	7220.19
698.577	7189.23
698.923	7165.5
699.269	7170.48
699.614	7108.78
699.96	7086.86
700.306	7103.13
700.651	7047.99
700.997	6985.85
701.342	6989.92
701.688	6992.4
702.033	6930.26
702.379	6989.69
702.724	6909.01
703.069	6972.29
703.415	6857.94
703.76	6840.09
704.105	6865.17
704.45	6891.39
704.795	6828.56
705.14	6740.43
705.485	6794.67
705.83	6745.18
706.175	6800.32
706.52	6735.68
706.865	6717.15
707.209	6683.26
707.554	6659.3
707.899	6643.94
708.243	6623.37
708.588	6618.85
708.932	6536.59
709.277	6564.84
709.621	6591.06
709.966	6475.58
710.31	6522.58
710.654	6479.87
710.998	6535.69
711.342	6481.91
711.687	6492.53
712.031	6425.18
712.375	6405.52
712.719	6462.25
713.063	6431.96
713.407	6453.88
713.75	6409.14
714.094	6363.49
714.438	6328.01
714.782	6374.56
715.125	6366.43
715.469	6401.23
715.812	6325.98
716.156	6326.88
716.499	6301.12
716.843	6304.28
717.186	6308.35
717.53	6299.99
717.873	6301.12
718.216	6258.86
718.559	6252.08
718.902	6231.74
719.246	6215.47
719.589	6208.01
719.932	6200.56
720.275	6162.14
720.617	6198.75
720.96	6158.98
721.303	6200.78
721.646	6137.06
721.989	6126.21
722.331	6130.73
722.674	6115.81
723.016	6169.37
723.359	6130.28
723.701	6122.59
724.044	6125.31
724.386	6083.95
724.729	6125.98
725.071	6079.66
725.413	6038.3
725.755	6047.57
726.097	6018.87
726.439	6033.56
726.782	6063.61
727.124	6042.6
727.465	6036.49
727.807	6049.15
728.149	6059.77
728.491	6020.22
728.833	6010.05
729.175	5981.13
729.516	6011.86
729.858	5957.4
730.199	6018.42
730.541	6004.18
730.882	5990.39
731.224	6017.51
731.565	5900.68
731.906	5979.32
732.248	5977.06
732.589	6024.29
732.93	5909.94
733.271	5980.68
733.612	5968.92
733.953	5977.96
734.294	5955.37
734.635	5903.84
734.976	5951.3
735.317	5929.38
735.658	5963.73
735.999	5940.68
736.339	5942.71
736.68	6023.84
737.021	5970.73
737.361	5896.61
737.702	5969.83
738.042	5945.2
738.383	5985.87
738.723	5971.86
739.063	5952.43
739.404	5994.24
739.744	5991.98
740.084	5996.49
740.424	5976.61
740.764	5960.56
741.104	5973.44
741.444	6027.23
741.784	5994.46
742.124	5966.89
742.464	5978.64
742.804	6041.24
743.143	6038.08
743.483	6036.27
743.823	6029.94
744.162	6022.93
744.502	6111.29
744.841	6028.36
745.181	6071.52
745.52	6087.34
745.86	6175.47
746.199	6139.77
746.538	6168.47
746.877	6198.98
747.216	6241.46
747.556	6240.1
747.895	6229.48
748.234	6244.17
748.573	6290.5
748.911	6295.02
749.25	6355.58
749.589	6362.59
749.928	6433.55
750.267	6496.82
750.605	6474.67
750.944	6503.6
751.283	6563.49
751.621	6576.37
751.96	6639.87
752.298	6729.58
752.636	6813.65
752.975	6812.52
753.313	6884.61
753.651	6944.04
753.989	6959.18
754.327	7028.56
754.666	7081.44
755.004	7187.42
755.342	7248.89
755.679	7305.16
756.017	7430.58
756.355	7499.05
756.693	7517.36
757.031	7623.57
757.368	7716.22
757.706	7779.05
758.044	7830.8
758.381	7957.8
758.719	8018.14
759.056	8126.83
759.394	8226.04
759.731	8311.91
760.068	8369.54
760.405	8504.23
760.743	8604.56
761.08	8640.49
761.417	8717.78
761.754	8809.98
762.091	8879.81
762.428	9012.23
762.765	9055.85
763.102	9221.49
763.438	9302.85
763.775	9290.87
764.112	9457.19
764.449	9598.43
764.785	9597.3
765.122	9715.95
765.458	9730.63
765.795	9875.26
766.131	9918.88
766.467	9973.57
766.804	10009.5
767.14	10108.7
767.476	10150.28
767.812	10255.37
768.148	10352.09
768.485	10357.51
768.821	10437.51
769.157	10499.43
769.492	10550.5
769.828	10632.76
