Data from hue_36_FLMS001491_00069.txt Node
Date: Tue Feb 07 17:30:09 GMT 2017
User: dcchb
Spectrometer: FLMS00149
Trigger mode: 0
Integration Time (sec): 2.000000E-2
Scans to average: 10
Electric dark correction enabled: true
Nonlinearity correction enabled: false
Boxcar width: 0
XAxis mode: Wavelengths
Number of Pixels in Spectrum: 2048
>>>>>Begin Spectral Data<<<<<
341.393	-17.2
341.776	-17.2
342.16	-17.2
342.543	-77.31
342.927	-62.4
343.31	-89.07
343.693	-72.12
344.077	-76.86
344.46	-66.47
344.843	-60.59
345.226	-21.95
345.61	-32.8
345.993	-12.23
346.376	-5
346.759	-2.74
347.142	11.27
347.525	45.17
347.908	63.25
348.291	85.17
348.674	117.26
349.057	117.71
349.44	136.69
349.823	146.86
350.206	151.15
350.588	193.64
350.971	209.91
351.354	246.74
351.737	228.89
352.119	262.56
352.502	265.95
352.884	284.48
353.267	287.87
353.65	299.17
354.032	314.99
354.414	315.22
354.797	312.73
355.179	309.12
355.562	312.05
355.944	329.23
356.326	340.98
356.709	333.07
357.091	335.78
357.473	330.81
357.855	322.9
358.238	346.18
358.62	341.88
359.002	326.97
359.384	333.52
359.766	342.11
360.148	347.76
360.53	343.47
360.912	334.43
361.294	331.04
361.676	311.15
362.057	310.92
362.439	319.06
362.821	326.74
363.203	301.21
363.584	321.55
363.966	317.03
364.348	321.32
364.729	291.04
365.111	327.65
365.493	319.96
365.874	319.96
366.256	303.24
366.637	316.57
367.019	321.77
367.4	312.51
367.781	313.86
368.163	319.96
368.544	324.71
368.925	336.91
369.306	331.94
369.688	306.63
370.069	310.47
370.45	314.31
370.831	314.54
371.212	319.06
371.593	326.74
371.974	304.6
372.355	308.21
372.736	315.44
373.117	305.05
373.498	321.32
373.879	320.19
374.26	314.77
374.641	310.25
375.021	324.93
375.402	309.34
375.783	327.19
376.163	339.62
376.544	321.09
376.925	321.09
377.305	333.75
377.686	329
378.066	319.29
378.447	306.86
378.827	320.19
379.208	323.58
379.588	337.36
379.968	311.83
380.349	315.67
380.729	331.94
381.109	307.99
381.489	323.35
381.87	330.13
382.25	348.44
382.63	339.4
383.01	342.11
383.39	346.18
383.77	336.91
384.15	342.11
384.53	337.59
384.91	315.67
385.29	344.82
385.67	331.94
386.049	341.66
386.429	365.84
386.809	363.35
387.189	352.96
387.568	357.93
387.948	356.12
388.328	327.65
388.707	371.49
389.087	351.83
389.466	359.28
389.846	353.18
390.225	364.93
390.605	343.01
390.984	350.25
391.363	372.84
391.743	381.66
392.122	366.97
392.501	371.26
392.881	360.41
393.26	373.07
393.639	380.3
394.018	383.24
394.397	363.35
394.776	374.65
395.155	375.56
395.534	375.78
395.913	388.21
396.292	373.97
396.671	368.1
397.05	386.18
397.429	374.65
397.808	369.45
398.186	376.91
398.565	401.09
398.944	373.07
399.323	405.84
399.701	379.17
400.08	381.88
400.458	379.85
400.837	393.63
401.215	418.27
401.594	365.61
401.972	392.05
402.351	400.41
402.729	408.55
403.107	381.43
403.486	406.51
403.864	430.24
404.242	416.46
404.62	411.71
404.999	405.61
405.377	389.11
405.755	413.52
406.133	419.17
406.511	422.56
406.889	426.63
407.267	400.64
407.645	427.76
408.023	418.94
408.401	437.02
408.779	442.45
409.156	416.46
409.534	429.79
409.912	440.64
410.29	438.83
410.667	426.63
411.045	442.67
411.422	465.95
411.8	439.28
412.178	442.22
412.555	439.28
412.933	473.18
413.31	459.17
413.687	445.16
414.065	466.17
414.442	450.81
414.819	459.85
415.197	473.41
415.574	475.67
415.951	472.73
416.328	469.79
416.705	455.55
417.082	470.92
417.46	481.77
417.837	468.89
418.214	490.58
418.591	484.48
418.967	491.03
419.344	486.29
419.721	485.61
420.098	500.98
420.475	481.54
420.852	489.68
421.228	505.95
421.605	476.34
421.982	503.24
422.358	529.68
422.735	530.13
423.111	535.1
423.488	521.77
423.864	520.86
424.241	521.54
424.617	518.15
424.994	521.99
425.37	526.74
425.746	527.87
426.123	540.52
426.499	544.59
426.875	551.6
427.251	538.49
427.627	551.82
428.003	565.83
428.379	570.13
428.756	574.87
429.132	568.77
429.507	566.06
429.883	583.46
430.259	561.99
430.635	611.93
431.011	576.91
431.387	594.31
431.763	587.98
432.138	590.69
432.514	629.79
432.89	622.1
433.265	604.7
433.641	624.59
434.016	620.97
434.392	632.05
434.767	604.7
435.143	637.24
435.518	669.33
435.894	664.59
436.269	638.15
436.644	651.48
437.02	648.32
437.395	657.58
437.77	672.27
438.145	679.95
438.52	687.19
438.895	665.72
439.271	685.6
439.646	672.5
440.021	697.13
440.395	701.42
440.77	708.65
441.145	695.55
441.52	723.79
441.895	714.08
442.27	717.69
442.645	724.92
443.019	716.11
443.394	717.92
443.769	723.57
444.143	727.64
444.518	739.61
444.892	737.58
445.267	755.88
445.641	766.28
446.016	758.6
446.39	754.98
446.764	770.12
447.139	761.99
447.513	768.31
447.887	778.26
448.262	779.16
448.636	783
449.01	801.53
449.384	799.95
449.758	785.49
450.132	795.66
450.506	810.12
450.88	806.73
451.254	817.13
451.628	821.19
452.002	804.24
452.376	837.92
452.75	866.16
453.123	849.44
453.497	842.89
453.871	867.07
454.244	874.98
454.618	879.72
454.992	907.52
455.365	879.5
455.739	915.2
456.112	901.87
456.486	912.72
456.859	917.46
457.232	938.7
457.606	951.13
457.979	930.12
458.352	948.42
458.725	964.47
459.099	958.82
459.472	983.45
459.845	1006.95
460.218	1028.19
460.591	1010.34
460.964	1011.47
461.337	1028.42
461.71	1077.23
462.083	1065.48
462.456	1049.44
462.829	1074.29
463.201	1072.94
463.574	1072.26
463.947	1095.54
464.32	1124.01
464.692	1130.34
465.065	1135.54
465.438	1154.74
465.81	1152.26
466.183	1175.31
466.555	1206.72
466.928	1227.06
467.3	1221.18
467.672	1232.48
468.045	1242.2
468.417	1285.81
468.789	1275.42
469.161	1298.69
469.534	1340.5
469.906	1347.51
470.278	1385.7
470.65	1404.23
471.022	1434.96
471.394	1450.78
471.766	1472.02
472.138	1496.66
472.51	1520.16
472.882	1556.54
473.253	1556.54
473.625	1619.14
473.997	1634.73
474.369	1649.42
474.74	1703.2
475.112	1725.58
475.484	1779.81
475.855	1793.14
476.227	1849.87
476.598	1887.61
476.97	1928.73
477.341	1957.21
477.713	2004.66
478.084	2056.87
478.455	2095.74
478.827	2130.31
479.198	2207.82
479.569	2267.26
479.94	2307.03
480.311	2324.43
480.682	2427.03
481.053	2486.01
481.424	2555.38
481.795	2601.26
482.166	2652.78
482.537	2748.37
482.908	2790.18
483.279	2888.71
483.65	2924.19
484.021	2994.02
484.391	3081.25
484.762	3136.61
485.133	3197.4
485.503	3331.41
485.874	3408.92
486.244	3457.96
486.615	3565.53
486.985	3635.36
487.356	3719.87
487.726	3816.82
488.097	3902.92
488.467	3970.71
488.837	4079.41
489.207	4187.21
489.578	4303.81
489.948	4367.77
490.318	4455.22
490.688	4560.98
491.058	4603.01
491.428	4714.2
491.798	4756.68
492.168	4962.33
492.538	5006.62
492.908	5080.74
493.278	5227.18
493.648	5267.63
494.017	5377.91
494.387	5428.53
494.757	5561.63
495.126	5669.2
495.496	5701.97
495.866	5760.95
496.235	5833.26
496.605	5984.22
496.974	6090.43
497.344	6177.66
497.713	6246.36
498.082	6339.92
498.452	6438.45
498.821	6461.5
499.19	6546.24
499.559	6582.62
499.928	6733.13
500.298	6782.84
500.667	6907.59
501.036	7009.73
501.405	6997.53
501.774	7117.07
502.143	7178.54
502.512	7180.35
502.88	7260.35
503.249	7362.49
503.618	7402.04
503.987	7499.66
504.356	7571.52
504.724	7625.08
505.093	7720.67
505.462	7807
505.83	7880.67
506.199	7932.64
506.567	8016.26
506.936	8042.47
507.304	8173.77
507.672	8243.14
508.041	8280.66
508.409	8359.53
508.777	8453.31
509.145	8458.28
509.514	8511.61
509.882	8610.37
510.25	8654.66
510.618	8683.13
510.986	8715.45
511.354	8769.23
511.722	8902.34
512.09	8966.52
512.458	8949.79
512.826	9070.47
513.193	9123.57
513.561	9183.69
513.929	9171.26
514.297	9357.69
514.664	9374.41
515.032	9409.22
515.4	9513.39
515.767	9484.69
516.135	9662.32
516.502	9621.19
516.869	9799.26
517.237	9786.16
517.604	9769.21
517.972	9888.07
518.339	9994.29
518.706	9986.15
519.073	9995.19
519.44	10082.87
519.808	10173.04
520.175	10182.3
520.542	10316.99
520.909	10410.77
521.276	10368.96
521.643	10476.98
522.009	10555.85
522.376	10577.55
522.743	10633.59
523.11	10743.64
523.477	10784.32
523.843	10865
524.21	11014.6
524.577	11032.45
524.943	11079.23
525.31	11157.87
525.676	11261.14
526.043	11364.19
526.409	11368.71
526.776	11489.16
527.142	11550.63
527.508	11558.76
527.874	11725.77
528.241	11651.42
528.607	11735.93
528.973	11864.29
529.339	11858.42
529.705	11986.78
530.071	12052.76
530.437	12125.75
530.803	12202.59
531.169	12254.56
531.535	12297.95
531.901	12332.53
532.267	12359.42
532.632	12458.18
532.998	12546.31
533.364	12591.51
533.73	12602.35
534.095	12704.72
534.461	12795.57
534.826	12765.74
535.192	12877.83
535.557	13010.25
535.923	13010.25
536.288	13023.58
536.653	13078.72
537.019	13056.8
537.384	13170.92
537.749	13224.26
538.114	13302.45
538.479	13302.67
538.845	13298.15
539.21	13361.88
539.575	13461.09
539.94	13516.9
540.305	13579.95
540.67	13504.7
541.034	13623.34
541.399	13701.31
541.764	13669.44
542.129	13790.8
542.494	13828.31
542.858	13888.42
543.223	14007.97
543.587	14033.73
543.952	14067.62
544.316	14044.35
544.681	14118.47
545.045	14177.9
545.41	14257.45
545.774	14246.6
546.138	14319.14
546.503	14420.84
546.867	14405.92
547.231	14474.17
547.595	14523.43
547.959	14671.45
548.324	14645.46
548.688	14692.92
549.052	14791.45
549.416	14841.62
549.779	14809.98
550.143	14892.24
550.507	15008.62
550.871	15017.43
551.235	15087.03
551.599	15163.87
551.962	15096.98
552.326	15086.58
552.689	15235.28
553.053	15238.67
553.417	15284.99
553.78	15497.87
554.143	15398.44
554.507	15597.3
554.87	15650.63
555.234	15729.5
555.597	15676.17
555.96	15625.78
556.323	15684.76
556.686	15831.19
557.05	15826.45
557.413	15957.74
557.776	15974.02
558.139	16040.45
558.502	16071.87
558.865	16182.82
559.228	16272.31
559.59	16364.29
559.953	16302.14
560.316	16439.54
560.679	16429.14
561.041	16610.16
561.404	16614.9
561.767	16720.66
562.129	16672.53
562.492	16854.44
562.854	16849.02
563.217	16869.58
563.579	16895.8
563.941	17024.38
564.304	17042.91
564.666	17201.1
565.028	17242.68
565.39	17253.53
565.753	17303.25
566.115	17496.01
566.477	17492.39
566.839	17522.9
567.201	17683.35
567.563	17646.74
567.925	17889.9
568.287	17866.85
568.648	17855.77
569.01	18005.83
569.372	18130.34
569.734	18034.07
570.095	18143.45
570.457	18211.24
570.819	18301.19
571.18	18446.27
571.542	18408.08
571.903	18453.05
572.265	18648.52
572.626	18628.18
572.987	18807.84
573.349	18770.33
573.71	18966.03
574.071	18924.67
574.432	19078.79
574.794	19248.05
575.155	19283.98
575.516	19274.49
575.877	19423.42
576.238	19592.9
576.599	19684.43
576.96	19768.94
577.32	19836.51
577.681	20072.66
578.042	20070.86
578.403	20195.82
578.763	20241.93
579.124	20372.09
579.485	20662.48
579.845	20692.99
580.206	20790.84
580.566	20952.87
580.927	21119.64
581.287	21279.86
581.648	21330.03
582.008	21632.4
582.368	21769.79
582.728	21867.19
583.089	22010.01
583.449	22291.59
583.809	22374.75
584.169	22611.81
584.529	22704.69
584.889	23050.67
585.249	23134.96
585.609	23361.84
585.969	23565.23
586.329	23722.06
586.688	24027.36
587.048	24186.91
587.408	24264.19
587.768	24496.73
588.127	24830.96
588.487	24882.48
588.846	25339.64
589.206	25267.33
589.565	25578.51
589.925	26013.75
590.284	25960.65
590.643	26304.36
591.003	26576.45
591.362	26881.07
591.721	27000.62
592.08	27262.08
592.44	27623.88
592.799	27703.2
593.158	27951.33
593.517	28087.14
593.876	28407.36
594.235	28420.69
594.593	28784.3
594.952	29047.8
595.311	29104.74
595.67	29395.36
596.029	29813.2
596.387	29979.07
596.746	30227.65
597.104	30322.79
597.463	30532.73
597.822	30966.39
598.18	30944.92
598.538	31157.34
598.897	31544.23
599.255	31403.89
599.613	32103.99
599.972	31976.31
600.33	32381.49
600.688	32368.39
601.046	32663.29
601.404	32956.62
601.762	33008.14
602.12	33341.47
602.478	33475.7
602.836	33592.99
603.194	33634.79
603.552	33906.2
603.91	33944.39
604.268	34247.21
604.625	34344.83
604.983	34567.2
605.341	34584.15
605.698	34867.3
606.056	35174.19
606.413	35129.67
606.771	35329.21
607.128	35568.75
607.485	35578.25
607.843	35719.03
608.2	36012.36
608.557	36115.41
608.914	36215.29
609.272	36579.35
609.629	36709.06
609.986	36899.34
610.343	36727.14
610.7	37224.08
611.057	37215.94
611.414	37357.63
611.771	37424.98
612.127	37759.66
612.484	37676.27
612.841	38022.7
613.198	37863.83
613.554	37997.84
613.911	38364.39
614.267	38241
614.624	38603.02
614.98	38560.99
615.337	38791.27
615.693	38779.97
616.05	38787.65
616.406	38974.31
616.762	39152.61
617.118	39079.17
617.475	39353.51
617.831	39334.53
618.187	39587.86
618.543	39586.73
618.899	39863.33
619.255	39796.67
619.611	39755.31
619.967	39981.97
620.323	40094.96
620.678	40091.57
621.034	40136.77
621.39	40285.92
621.746	40106.26
622.101	40667.38
622.457	40376.99
622.812	40662.18
623.168	40650.2
623.523	40758.67
623.879	40873.02
624.234	40652.24
624.589	40904.66
624.945	41013.36
625.3	41080.25
625.655	40920.48
626.01	41058.78
626.365	41135.39
626.72	41055.39
627.075	41105.11
627.43	41116.4
627.785	41085.45
628.14	41138.55
628.495	41219.9
628.85	41197.08
629.205	41196.63
629.559	41335.83
629.914	41223.07
630.269	41260.81
630.623	41259.68
630.978	41269.62
631.332	41393.69
631.687	41476.85
632.041	41326.34
632.396	41387.13
632.75	41247.7
633.104	41504.19
633.459	41075.73
633.813	41210.19
634.167	41167.02
634.521	41117.99
634.875	41334.03
635.229	41247.47
635.583	41143.3
635.937	41141.26
636.291	41084.77
636.645	41106.46
636.999	41004.54
637.352	41286.12
637.706	41024.88
638.06	41136.74
638.413	41036.63
638.767	40959.12
639.121	41024.66
639.474	40927.71
639.828	40908.27
640.181	41094.94
640.534	40964.54
640.888	40776.3
641.241	40645
641.594	40842.06
641.947	40860.59
642.301	40851.78
642.654	40953.25
643.007	40917.09
643.36	40878.67
643.713	40880.7
644.066	41017.42
644.419	40701.73
644.771	40472.13
645.124	40034.17
645.477	40084.34
645.83	39906.27
646.182	39699.94
646.535	39626.05
646.888	39755.54
647.24	39496.56
647.593	39760.28
647.945	39669.89
648.298	39420.4
648.65	39436
649.002	39283.01
649.355	39452.27
649.707	39521.19
650.059	39589.89
650.411	39995.53
650.763	39989.2
651.115	40341.06
651.467	40362.3
651.819	40402.3
652.171	40093.38
652.523	40137.9
652.875	40125.92
653.227	39983.78
653.578	40252.7
653.93	40171.57
654.282	40145.58
654.633	39881.86
654.985	39953.5
655.337	40028.52
655.688	40046.83
656.039	40245.69
656.391	39755.31
656.742	39831.01
657.094	39910.33
657.445	40058.58
657.796	39912.82
658.147	39795.31
658.498	39965.02
658.849	40009.99
659.2	39952.37
659.551	39740.62
659.902	39804.8
660.253	39715.09
660.604	39781.52
660.955	39546.05
661.306	39908.75
661.656	39725.71
662.007	39716.67
662.358	39821.3
662.708	39734.07
663.059	39804.8
663.409	39679.15
663.76	39857.45
664.11	39708.76
664.461	39739.94
664.811	39840.96
665.161	39763.67
665.511	39728.42
665.862	39675.31
666.212	39764.58
666.562	39687.29
666.912	39739.04
667.262	39662.21
667.612	39600.06
667.962	39671.92
668.312	39645.48
668.662	39804.57
669.011	39605.26
669.361	39706.5
669.711	39717.8
670.06	39529.78
670.41	39496.79
670.76	39370.91
671.109	39636.44
671.459	39516.9
671.808	39541.98
672.157	39716.44
672.507	39338.6
672.856	39343.57
673.205	39439.39
673.554	39422.21
673.904	39372.27
674.253	39636.67
674.602	39450.46
674.951	38840.08
675.3	38731.38
675.649	39339.05
675.998	39266.51
676.346	39257.24
676.695	39450.69
677.044	39093.41
677.393	39188.32
677.741	39203.69
678.09	39081.66
678.438	39122.11
678.787	39129.11
679.135	39228.32
679.484	38982
679.832	39043.69
680.181	38794.88
680.529	38942
680.877	38874.2
681.225	38852.96
681.573	39008.66
681.922	38701.78
682.27	38661.55
682.618	38689.58
682.966	38480.09
683.314	38675.56
683.661	38390.83
684.009	38366.87
684.357	38206.2
684.705	38239.64
685.053	38389.02
685.4	38269.25
685.748	38085.98
686.095	37972.76
686.443	37967.11
686.79	37830.84
687.138	37848.69
687.485	38011.85
687.832	37845.98
688.18	37716.95
688.527	37520.57
688.874	37599.44
689.221	37532.54
689.568	37339.1
689.915	37339.1
690.262	37445.99
690.609	37374.36
690.956	37194.7
691.303	37171.2
691.65	36916.52
691.997	36920.58
692.344	36755.16
692.69	36865.67
693.037	36634.49
693.383	36491.44
693.73	36446.25
694.077	36252.13
694.423	36286.93
694.769	36082.64
695.116	36142.98
695.462	36164.9
695.808	36006.71
696.155	36091.9
696.501	35735.53
696.847	35753.83
697.193	35553.84
697.539	35783.21
697.885	35387.06
698.231	35406.27
698.577	35333.73
698.923	35253.51
699.269	35109.33
699.614	34940.97
699.96	34988.43
700.306	35026.4
700.651	34809.23
700.997	34655.33
701.342	34634.77
701.688	34625.28
702.033	34487.65
702.379	34436.13
702.724	34329.46
703.069	34422.34
703.415	33980.77
703.76	34073.43
704.105	34085.63
704.45	33955.24
704.795	33731.97
705.14	33741.91
705.485	33713.89
705.83	33614.46
706.175	33539.43
706.52	33458.98
706.865	33434.35
707.209	33296.95
707.554	33217.18
707.899	33264.63
708.243	33021.93
708.588	33028.03
708.932	32831.2
709.277	32891.08
709.621	32791.2
709.966	32584.43
710.31	32748.04
710.654	32283.87
710.998	32466.01
711.342	32500.81
711.687	32322.96
712.031	32228.73
712.375	32164.1
712.719	32225.11
713.063	32190.54
713.407	32137.66
713.75	31972.69
714.094	31951.9
714.438	31877.55
714.782	31862.64
715.125	31687.5
715.469	31746.03
715.812	31603.66
716.156	31353.27
716.499	31523.44
716.843	31447.73
717.186	31354.85
717.53	31429.43
717.873	31399.82
718.216	31266.95
718.559	31102.66
718.902	30944.47
719.246	30896.33
719.589	30942.66
719.932	30785.83
720.275	30753.06
720.617	30942.43
720.96	30671.26
721.303	30664.02
721.646	30742.89
721.989	30571.37
722.331	30616.12
722.674	30505.61
723.016	30553.52
723.359	30520.07
723.701	30524.82
724.044	30329.12
724.386	30151.27
724.729	30222.91
725.071	30270.14
725.413	30190.14
725.755	30174.55
726.097	30038.28
726.439	29907.89
726.782	29907.21
727.124	30045.96
727.465	29876.93
727.807	29939.3
728.149	29766.87
728.491	29725.74
728.833	29665.86
729.175	29651.17
729.516	29587.67
729.858	29531.17
730.199	29559.19
730.541	29392.65
730.882	29422.47
731.224	29438.75
731.565	29358.3
731.906	29231.07
732.248	29314.23
732.589	29108.81
732.93	29071.52
733.271	29093.22
733.612	29111.3
733.953	29219.99
734.294	28861.13
734.635	28810.29
734.976	29017.97
735.317	28835.6
735.658	28739.56
735.999	28805.09
736.339	28776.84
736.68	28785.43
737.021	28774.36
737.361	28540.46
737.702	28613.46
738.042	28646.9
738.383	28580.01
738.723	28651.87
739.063	28460.92
739.404	28538.43
739.744	28385.21
740.084	28286.46
740.424	28361.03
740.764	28201.04
741.104	28334.59
741.444	28197.2
741.784	28171.89
742.124	28165.33
742.464	28055.51
742.804	28015.05
743.143	27937.77
743.483	28063.64
743.823	27786.13
744.162	27763.76
744.502	27810.99
744.841	27764.89
745.181	27840.14
745.52	27688.06
745.86	27770.99
746.199	27580.49
746.538	27620.04
746.877	27653.71
747.216	27628.4
747.556	27500.04
747.895	27510.66
748.234	27353.83
748.573	27321.29
748.911	27323.55
749.25	27329.42
749.589	27184.34
749.928	27080.84
750.267	27192.7
750.605	27107.06
750.944	27054.85
751.283	26917.23
751.621	27036.32
751.96	26753.39
752.298	26869.1
752.636	26852.83
752.975	26696.44
753.313	26697.12
753.651	26851.24
753.989	26531.7
754.327	26539.84
754.666	26454.19
755.004	26491.03
755.342	26507.3
755.679	26388.43
756.017	26217.14
756.355	26279.73
756.693	26254.42
757.031	26262.11
757.368	26074.09
