Data from hue_110_FLMS001491_00098.txt Node
Date: Tue Feb 07 17:02:05 GMT 2017
User: dcchb
Spectrometer: FLMS00149
Trigger mode: 0
Integration Time (sec): 2.000000E-2
Scans to average: 10
Electric dark correction enabled: true
Nonlinearity correction enabled: false
Boxcar width: 0
XAxis mode: Wavelengths
Number of Pixels in Spectrum: 2048
>>>>>Begin Spectral Data<<<<<
341.393	-6.2
341.776	-6.2
342.16	-6.2
342.543	-59.08
342.927	-88.68
343.31	-54.79
343.693	-65.41
344.077	-79.42
344.46	-75.35
344.843	-37.84
345.226	-38.52
345.61	-38.29
345.993	-22.92
346.376	-3.49
346.759	13.46
347.142	-3.04
347.525	46.23
347.908	60.46
348.291	74.48
348.674	107.24
349.057	117.19
349.44	133
349.823	133.46
350.206	152.89
350.588	183.85
350.971	204.87
351.354	198.31
351.737	239.22
352.119	252.32
352.502	248.93
352.884	272.44
353.267	280.8
353.65	294.13
354.032	323.28
354.414	302.94
354.797	326.67
355.179	327.12
355.562	329.61
355.944	340.91
356.326	332.32
356.709	324.41
357.091	330.51
357.473	333.45
357.855	322.6
358.238	343.17
358.62	342.27
359.002	336.16
359.384	364.41
359.766	354.24
360.148	349.27
360.53	335.94
360.912	356.28
361.294	314.92
361.676	335.03
362.057	330.06
362.439	329.38
362.821	332.77
363.203	327.8
363.584	324.41
363.966	322.83
364.348	312.66
364.729	313.11
365.111	338.42
365.493	335.94
365.874	328.48
366.256	331.87
366.637	310.18
367.019	306.79
367.4	321.02
367.781	315.15
368.163	323.51
368.544	321.02
368.925	301.59
369.306	327.58
369.688	316.5
370.069	317.41
370.45	317.86
370.831	307.46
371.212	304.3
371.593	293.9
371.974	307.46
372.355	293
372.736	307.69
373.117	330.51
373.498	314.02
373.879	314.47
374.26	336.84
374.641	313.11
375.021	311.53
375.402	330.97
375.783	322.38
376.163	338.2
376.544	320.57
376.925	300.23
377.305	337.29
377.686	307.46
378.066	333.68
378.447	329.16
378.827	319.44
379.208	342.27
379.588	341.81
379.968	350.4
380.349	328.25
380.729	341.36
381.109	327.58
381.489	355.37
381.87	353.34
382.25	357.18
382.63	362.15
383.01	338.2
383.39	332.55
383.77	344.52
384.15	345.65
384.53	321.93
384.91	346.78
385.29	343.62
385.67	346.33
386.049	340.01
386.429	349.5
386.809	345.43
387.189	368.25
387.568	349.95
387.948	344.98
388.328	337.97
388.707	371.64
389.087	368.48
389.466	375.03
389.846	387.01
390.225	367.8
390.605	356.95
390.984	375.26
391.363	376.39
391.743	367.35
392.122	379.33
392.501	376.84
392.881	377.29
393.26	391.98
393.639	365.99
394.018	392.89
394.397	370.29
394.776	372.55
395.155	408.7
395.534	383.62
395.913	389.27
396.292	386.56
396.671	409.16
397.05	405.54
397.429	398.31
397.808	398.76
398.186	375.26
398.565	395.37
398.944	414.13
399.323	387.91
399.701	429.95
400.08	401.92
400.458	413.22
400.837	407.8
401.215	417.29
401.594	391.08
401.972	396.5
402.351	414.35
402.729	406.44
403.107	430.62
403.486	442.15
403.864	427.01
404.242	424.52
404.62	454.35
404.999	438.76
405.377	432.66
405.755	449.38
406.133	441.25
406.511	415.03
406.889	450.06
407.267	445.77
407.645	461.13
408.023	447.8
408.401	470.62
408.779	470.17
409.156	457.06
409.534	469.27
409.912	481.02
410.29	461.58
410.667	472.66
411.045	471.98
411.422	491.64
411.8	482.15
412.178	501.58
412.555	502.03
412.933	505.42
413.31	493.67
413.687	480.11
414.065	493.22
414.442	514.69
414.819	505.42
415.197	525.54
415.574	510.85
415.951	523.5
416.328	526.67
416.705	510.85
417.082	539.32
417.46	509.27
417.837	568.25
418.214	545.65
418.591	540.68
418.967	555.37
419.344	542.49
419.721	544.97
420.098	551.53
420.475	563.5
420.852	537.51
421.228	554.91
421.605	568.47
421.982	582.48
422.358	556.95
422.735	576.16
423.111	551.07
423.488	556.27
423.864	602.37
424.241	599.89
424.617	605.08
424.994	586.33
425.37	576.84
425.746	615.48
426.123	627
426.499	611.64
426.875	629.94
427.251	638.53
427.627	632.43
428.003	636.72
428.379	646.66
428.756	640.34
429.132	659.77
429.507	653.44
429.883	663.16
430.259	693.22
430.635	651.18
431.011	687.57
431.387	685.53
431.763	693.67
432.138	708.81
432.514	723.72
432.89	712.88
433.265	712.2
433.641	721.46
434.016	735.02
434.392	748.58
434.767	749.03
435.143	742.25
435.518	753.33
435.894	760.79
436.269	768.47
436.644	778.41
437.02	780.9
437.395	785.64
437.77	814.57
438.145	812.08
438.52	792.42
438.895	816.83
439.271	806.89
439.646	845.3
440.021	842.14
440.395	831.29
440.77	857.73
441.145	862.7
441.52	878.97
441.895	842.59
442.27	869.26
442.645	883.95
443.019	871.52
443.394	873.32
443.769	888.47
444.143	867
444.518	885.08
444.892	909.26
445.267	905.64
445.641	890.5
446.016	928.92
446.39	932.08
446.764	934.34
447.139	928.01
447.513	923.72
447.887	948.35
448.262	925.3
448.636	972.3
449.01	970.72
449.384	967.56
449.758	1015.47
450.132	989.25
450.506	1020.44
450.88	1000.33
451.254	995.81
451.628	1017.05
452.002	1006.65
452.376	1046.43
452.75	1052.3
453.123	1023.83
453.497	1067.9
453.871	1056.82
454.244	1081
454.618	1081.45
454.992	1114.67
455.365	1110.61
455.739	1135.24
456.112	1139.08
456.486	1179.31
456.859	1145.63
457.232	1181.79
457.606	1185.86
457.979	1166.42
458.352	1221.34
458.725	1233.09
459.099	1248.23
459.472	1268.57
459.845	1272.64
460.218	1279.19
460.591	1265.18
460.964	1284.16
461.337	1356.93
461.71	1365.74
462.083	1370.03
462.456	1365.29
462.829	1418.39
463.201	1421.56
463.574	1428.56
463.947	1437.83
464.32	1455.46
464.692	1522.35
465.065	1510.14
465.438	1544.72
465.81	1557.37
466.183	1547.21
466.555	1582.23
466.928	1631.5
467.3	1610.03
467.672	1654.55
468.045	1726.41
468.417	1735.45
468.789	1765.28
469.161	1776.13
469.534	1791.72
469.906	1838.04
470.278	1852.28
470.65	1876.91
471.022	1902.68
471.394	1956.69
471.766	2001.88
472.138	2024.03
472.51	2105.38
472.882	2106.96
473.253	2138.38
473.625	2217.24
473.997	2255.21
474.369	2261.31
474.74	2301.08
475.112	2375.21
475.484	2406.39
475.855	2507.18
476.227	2504.47
476.598	2600.96
476.97	2671.24
477.341	2722.32
477.713	2795.31
478.084	2852.03
478.455	2937.23
478.827	2964.34
479.198	3101.51
479.569	3148.07
479.94	3273.94
480.311	3326.37
480.682	3422.41
481.053	3534.72
481.424	3641.16
481.795	3725.9
482.166	3785.79
482.537	3876.18
482.908	3995.28
483.279	4084.31
483.65	4179.45
484.021	4301.03
484.391	4403.63
484.762	4459.9
485.133	4554.58
485.503	4703.28
485.874	4875.03
486.244	4990.28
486.615	5107.56
486.985	5194.57
487.356	5348.24
487.726	5485.41
488.097	5616.25
488.467	5659.87
488.837	5834.55
489.207	5987.31
489.578	6161.1
489.948	6328.77
490.318	6400.64
490.688	6529.67
491.058	6694.19
491.428	6817.35
491.798	6963.56
492.168	7151.35
492.538	7262.54
492.908	7406.71
493.278	7516.77
493.648	7604.45
494.017	7799.92
494.387	7983.65
494.757	8068.84
495.126	8234.03
495.496	8299.57
495.866	8442.84
496.235	8538.21
496.605	8668.15
496.974	8790.63
497.344	8975.26
497.713	9047.57
498.082	9182.03
498.452	9312.65
498.821	9420.22
499.19	9548.12
499.559	9625.64
499.928	9721
500.298	9919.19
500.667	10033.76
501.036	10035.8
501.405	10184.49
501.774	10243.7
502.143	10387.2
502.512	10455.45
502.88	10603.46
503.249	10588.55
503.618	10789.45
503.987	10778.37
504.356	10929.56
504.724	11002.55
505.093	11093.39
505.462	11183.56
505.83	11228.98
506.199	11319.6
506.567	11469.88
506.936	11515.53
507.304	11664.45
507.672	11730.67
508.041	11839.14
508.409	11820.38
508.777	11956.42
509.145	12026.7
509.514	11995.29
509.882	12116.19
510.25	12229.18
510.618	12296.53
510.986	12341.95
511.354	12466.47
511.722	12501.49
512.09	12676.86
512.458	12647.7
512.826	12653.13
513.193	12760.92
513.561	12752.33
513.929	12974.7
514.297	12947.36
514.664	13079.78
515.032	13061.03
515.4	13150.97
515.767	13226.9
516.135	13271.19
516.502	13160.91
516.869	13355.48
517.237	13387.35
517.604	13332.66
517.972	13530.84
518.339	13557.74
518.706	13601.35
519.073	13592.76
519.44	13646.77
519.808	13771.74
520.175	13739.43
520.542	13810.39
520.909	13898.29
521.276	13881.8
521.643	13946.65
522.009	14039.76
522.376	14040.21
522.743	14061.9
523.11	14151.17
523.477	14197.49
523.843	14305.97
524.21	14498.73
524.577	14425.06
524.943	14511.16
525.31	14485.62
525.676	14649.69
526.043	14562.46
526.409	14597.26
526.776	14725.39
527.142	14674.54
527.508	14723.36
527.874	14745.95
528.241	14873.63
528.607	14735.56
528.973	14930.36
529.339	14872.5
529.705	14918.38
530.071	15013.97
530.437	15003.35
530.803	14935.78
531.169	14979.39
531.535	14914.09
531.901	14909.11
532.267	14991.37
532.632	14993.86
532.998	14968.77
533.364	15056.45
533.73	15058.71
534.095	15102.78
534.461	15139.16
534.826	15095.55
535.192	15077.24
535.557	15234.53
535.923	15085.15
536.288	15114.98
536.653	15055.55
537.019	14969.68
537.384	15074.31
537.749	15111.82
538.114	14997.25
538.479	14994.31
538.845	14959.06
539.21	14842.9
539.575	14953.18
539.94	14939.85
540.305	14987.98
540.67	14895.33
541.034	14892.84
541.399	14885.16
541.764	14836.12
542.129	14785.5
542.494	14775.78
542.858	14856.01
543.223	14710.02
543.587	14796.57
543.952	14644.71
544.316	14691.04
544.681	14650.14
545.045	14649.91
545.41	14669.12
545.774	14624.15
546.138	14533.08
546.503	14587.77
546.867	14462.57
547.231	14610.59
547.595	14556.13
547.959	14532.85
548.324	14478.84
548.688	14381.22
549.052	14437.26
549.416	14425.28
549.779	14373.99
550.143	14390.48
550.507	14316.59
550.871	14389.81
551.235	14323.82
551.599	14326.08
551.962	14286.08
552.326	14291.28
552.689	14330.6
553.053	14210.15
553.417	14207.89
553.78	14418.05
554.143	14217.83
554.507	14213.09
554.87	14288.79
555.234	14299.19
555.597	14213.09
555.96	14234.1
556.323	14263.03
556.686	14115.91
557.05	14108.46
557.413	14165.4
557.776	14191.39
558.139	14195.23
558.502	14216.02
558.865	14153.43
559.228	14174.9
559.59	14235.23
559.953	14163.6
560.316	14216.7
560.679	14269.58
561.041	14298.06
561.404	14312.75
561.767	14290.15
562.129	14262.8
562.492	14392.74
562.854	14285.4
563.217	14229.81
563.579	14275.46
563.941	14339.64
564.304	14331.05
564.666	14413.31
565.028	14384.38
565.39	14406.08
565.753	14432.74
566.115	14518.16
566.477	14507.32
566.839	14467.09
567.201	14577.82
567.563	14498.95
567.925	14565.39
568.287	14500.31
568.648	14597.26
569.01	14688.33
569.372	14670.7
569.734	14635.45
570.095	14604.04
570.457	14699.4
570.819	14656.69
571.18	14668.67
571.542	14719.97
571.903	14717.03
572.265	14771.26
572.626	14829.57
572.987	14839.06
573.349	14855.78
573.71	14823.24
574.071	14748.21
574.432	14771.72
574.794	14976.46
575.155	14944.37
575.516	14827.99
575.877	14885.39
576.238	14902.56
576.599	14919.28
576.96	14860.3
577.32	14885.61
577.681	14955.89
578.042	15036.79
578.403	14921.54
578.763	15007.64
579.124	15013.97
579.485	15096
579.845	14985.72
580.206	14953.86
580.566	15037.25
580.927	15013.97
581.287	15090.35
581.648	15012.61
582.008	15004.03
582.368	14949.34
582.728	14941.66
583.089	15059.62
583.449	15030.01
583.809	15079.28
584.169	14978.94
584.529	14988.21
584.889	15053.97
585.249	14957.7
585.609	14859.85
585.969	14937.81
586.329	14924.25
586.688	15054.42
587.048	14930.13
587.408	14852.17
587.768	14798.16
588.127	14844.48
588.487	14874.76
588.846	14886.29
589.206	14792.51
589.565	14778.72
589.925	14920.86
590.284	14875.67
590.643	14857.14
591.003	14837.7
591.362	14854.65
591.721	14832.96
592.08	14819.4
592.44	14826.63
592.799	14805.61
593.158	14753.19
593.517	14848.1
593.876	14804.71
594.235	14757.71
594.593	14762.9
594.952	14801.09
595.311	14662.11
595.67	14750.02
596.029	14893.07
596.387	14806.52
596.746	14797.48
597.104	14734.65
597.463	14667.09
597.822	14882.67
598.18	14748.67
598.538	14703.24
598.897	14850.36
599.255	14642.68
599.613	14934.65
599.972	14821.21
600.33	14726.07
600.688	14724.49
601.046	14709.12
601.404	14807.2
601.762	14778.95
602.12	14813.3
602.478	14797.25
602.836	14812.39
603.194	14765.16
603.552	14707.76
603.91	14721.77
604.268	14792.73
604.625	14763.13
604.983	14859.17
605.341	14715.45
605.698	14801.77
606.056	14748.21
606.413	14833.18
606.771	14857.82
607.128	14886.29
607.485	14853.97
607.843	14837.48
608.2	14844.71
608.557	14897.36
608.914	14797.48
609.272	14899.85
609.629	14973.52
609.986	14925.16
610.343	14875.67
610.7	15044.25
611.057	15058.49
611.414	14956.12
611.771	14926.06
612.127	15037.92
612.484	14965.38
612.841	15061.88
613.198	14885.16
613.554	14926.06
613.911	15032.27
614.267	15036.34
614.624	14944.82
614.98	15048.54
615.337	15074.98
615.693	15076.34
616.05	15127.86
616.406	15147.3
616.762	15077.47
617.118	15121.54
617.475	15062.56
617.831	15095.55
618.187	15181.42
618.543	15182.78
618.899	15211.03
619.255	15227.75
619.611	15210.8
619.967	15310.68
620.323	15387.97
620.678	15172.38
621.034	15207.86
621.39	15234.08
621.746	15235.21
622.101	15433.17
622.457	15239.73
622.812	15269.33
623.168	15382.1
623.523	15286.96
623.879	15337.35
624.234	15255.32
624.589	15246.96
624.945	15327.63
625.3	15277.24
625.655	15331.25
626.01	15296.67
626.365	15227.3
626.72	15270.91
627.075	15185.94
627.43	15239.95
627.785	15190.91
628.14	15288.99
628.495	15261.65
628.85	15290.8
629.205	15203.12
629.559	15275.21
629.914	15132.61
630.269	15153.85
630.623	15119.96
630.978	15116.11
631.332	15128.54
631.687	15181.87
632.041	15155.21
632.396	15190.91
632.75	15069.79
633.104	15028.21
633.459	15041.31
633.813	14980.3
634.167	14991.6
634.521	15062.56
634.875	15121.09
635.229	14900.98
635.583	14909.57
635.937	14990.47
636.291	14931.26
636.645	14964.71
636.999	14934.42
637.352	14914.54
637.706	14859.4
638.06	14941.66
638.413	14895.33
638.767	14764.71
639.121	14848.55
639.474	14761.77
639.828	14739.85
640.181	14783.02
640.534	14802
640.888	14687.65
641.241	14689.91
641.594	14720.19
641.947	14749.12
642.301	14630.7
642.654	14703.7
643.007	14690.59
643.36	14625.05
643.713	14618.05
644.066	14542.57
644.419	14517.71
644.771	14521.78
645.124	14424.15
645.477	14352.29
645.83	14269.58
646.182	14267.55
646.535	14173.09
646.888	14244.72
647.24	14175.8
647.593	14200.43
647.945	14208.57
648.298	14096.03
648.65	14079.08
649.002	14093.77
649.355	14203.6
649.707	14144.84
650.059	14228.45
650.411	14337.15
650.763	14407.66
651.115	14494.89
651.467	14458.73
651.819	14481.78
652.171	14524.26
652.523	14455.79
652.875	14405.17
653.227	14384.83
653.578	14491.05
653.93	14367.88
654.282	14384.16
654.633	14465.28
654.985	14491.05
655.337	14398.17
655.688	14402.91
656.039	14464.15
656.391	14387.32
656.742	14360.43
657.094	14433.19
657.445	14442.46
657.796	14402.91
658.147	14476.81
658.498	14366.98
658.849	14427.54
659.2	14383.03
659.551	14468.45
659.902	14494.21
660.253	14404.95
660.604	14465.51
660.955	14344.83
661.306	14468.45
661.656	14346.19
662.007	14438.39
662.358	14485.17
662.708	14448.79
663.059	14439.52
663.409	14351.39
663.76	14444.27
664.11	14453.98
664.461	14489.69
664.811	14380.09
665.161	14445.85
665.511	14435
665.862	14428.45
666.212	14477.49
666.562	14502.12
666.912	14537.82
667.262	14476.81
667.612	14538.28
667.962	14573.53
668.312	14566.3
668.662	14527.43
669.011	14459.63
669.361	14546.19
669.711	14442.69
670.06	14416.47
670.41	14392.07
670.76	14466.41
671.109	14471.16
671.459	14363.59
671.808	14342.35
672.157	14435
672.507	14372.63
672.856	14308
673.205	14363.59
673.554	14322.91
673.904	14373.99
674.253	14381.9
674.602	14349.13
674.951	14223.26
675.3	14113.2
675.649	14308.45
675.998	14286.31
676.346	14246.08
676.695	14350.94
677.044	14172.64
677.393	14271.16
677.741	14231.84
678.09	14140.32
678.438	14173.99
678.787	14204.05
679.135	14127.67
679.484	14009.48
679.832	14172.86
680.181	14036.37
680.529	14054.9
680.877	14086.99
681.225	14001.11
681.573	14092.41
681.922	13937.61
682.27	13984.84
682.618	13941.68
682.966	13934
683.314	13916.6
683.661	13801.12
684.009	13817.62
684.357	13752.99
684.705	13728.81
685.053	13719.31
685.4	13698.07
685.748	13591.86
686.095	13641.35
686.443	13575.14
686.79	13605.65
687.138	13619.66
687.485	13540.56
687.832	13498.98
688.18	13525.42
688.527	13424.86
688.874	13386.89
689.221	13416.72
689.568	13320.68
689.915	13301.47
690.262	13255.6
690.609	13286.11
690.956	13214.69
691.303	13192.1
691.65	13111.42
691.997	13111.65
692.344	13025.32
692.69	12985.32
693.037	13046.79
693.383	12839.11
693.73	12963.18
694.077	12806.57
694.423	12852.44
694.769	12764.99
695.116	12730.87
695.462	12731.09
695.808	12620.59
696.155	12693.13
696.501	12539.01
696.847	12515.28
697.193	12472.79
697.539	12545.33
697.885	12418.56
698.231	12321.84
698.577	12355.51
698.923	12264.89
699.269	12242.74
699.614	12224.44
699.96	12146.25
700.306	12117.32
700.651	12115.74
700.997	12065.8
701.342	11973.15
701.688	11977.89
702.033	11929.53
702.379	11914.16
702.724	11868.97
703.069	11870.78
703.415	11697.67
703.76	11710.33
704.105	11724.11
704.45	11782.87
704.795	11572.93
705.14	11549.2
705.485	11514.85
705.83	11535.19
706.175	11530.67
706.52	11437.11
706.865	11425.36
707.209	11383.78
707.554	11276.44
707.899	11365.93
708.243	11172.94
708.588	11162.77
708.932	11165.94
709.277	11146.05
709.621	11195.09
709.966	11031.02
710.31	11121.64
710.654	10976.11
710.998	11081.87
711.342	11005.94
711.687	10938.82
712.031	10964.58
712.375	10851.37
712.719	10902.89
713.063	10883.91
713.407	10898.6
713.75	10809.33
714.094	10749.67
714.438	10766.4
714.782	10800.75
715.125	10623.35
715.469	10681.2
715.812	10668.1
716.156	10674.87
716.499	10602.56
716.843	10661.32
717.186	10609.79
717.53	10626.97
717.873	10603.69
718.216	10604.82
718.559	10541.09
718.902	10469
719.246	10471.04
719.589	10454.32
719.932	10417.48
720.275	10470.59
720.617	10451.6
720.96	10414.54
721.303	10481.66
721.646	10449.57
721.989	10367.54
722.331	10408.89
722.674	10471.49
723.016	10377.93
723.359	10405.5
723.701	10428.33
724.044	10305.39
724.386	10274.66
724.729	10341.1
725.071	10335.67
725.413	10231.95
725.755	10270.59
726.097	10221.33
726.439	10157.15
726.782	10169.8
727.124	10196.02
727.465	10144.95
727.807	10209.12
728.149	10168
728.491	10159.18
728.833	10197.15
729.175	10159.63
729.516	10185.62
729.858	10159.41
730.199	10198.95
730.541	10119.64
730.882	10091.84
731.224	10126.64
731.565	10090.48
731.906	10118.51
732.248	10158.05
732.589	10087.55
732.93	10082.35
733.271	10182.91
733.612	10189.24
733.953	10111.27
734.294	10100.2
734.635	10120.09
734.976	10118.28
735.317	10164.83
735.658	10141.33
735.999	10067.43
736.339	10111.27
736.68	10118.05
737.021	10127.54
737.361	10073.31
737.702	10168.45
738.042	10027.43
738.383	10159.18
738.723	10143.14
739.063	10119.86
739.404	10129.13
739.744	10111.27
740.084	10132.06
740.424	10143.14
740.764	10131.39
741.104	10194.66
741.444	10153.53
741.784	10155.79
742.124	10220.88
742.464	10269.46
742.804	10275.56
743.143	10226.3
743.483	10288.9
743.823	10229.69
744.162	10239.63
744.502	10313.08
744.841	10347.88
745.181	10361.21
745.52	10365.28
745.86	10421.55
746.199	10421.1
746.538	10514.88
746.877	10606.63
747.216	10598.94
747.556	10653.41
747.895	10692.73
748.234	10705.61
748.573	10733.18
748.911	10821.99
749.25	10894.3
749.589	11002.32
749.928	10996.22
750.267	11143.79
750.605	11164.58
750.944	11212.04
751.283	11291.36
751.621	11408.87
751.96	11479.83
752.298	11513.72
752.636	11663.1
752.975	11705.81
753.313	11800.49
753.651	11941.73
753.989	11987.61
754.327	12038.45
754.666	12056.53
755.004	12232.35
755.342	12461.49
755.679	12545.79
756.017	12525.67
756.355	12777.64
