Data from hue_36_FLMS001491_00074.txt Node
Date: Tue Feb 07 17:30:16 GMT 2017
User: dcchb
Spectrometer: FLMS00149
Trigger mode: 0
Integration Time (sec): 2.000000E-2
Scans to average: 10
Electric dark correction enabled: true
Nonlinearity correction enabled: false
Boxcar width: 0
XAxis mode: Wavelengths
Number of Pixels in Spectrum: 2048
>>>>>Begin Spectral Data<<<<<
341.393	-5.65
341.776	-5.65
342.16	-5.65
342.543	-87.46
342.927	-76.38
343.31	-72.77
343.693	-66.66
344.077	-80.68
344.46	-62.37
344.843	-63.28
345.226	-32.99
345.61	-57.17
345.993	-24.63
346.376	-9.27
346.759	23.95
347.142	32.54
347.525	58.3
347.908	67.12
348.291	70.51
348.674	100.79
349.057	116.61
349.44	137.17
349.823	149.6
350.206	157.51
350.588	199.77
350.971	228.02
351.354	237.28
351.737	241.12
352.119	251.97
352.502	268.02
352.884	262.82
353.267	282.48
353.65	293.33
354.032	297.39
354.414	328.58
354.797	318.64
355.179	337.17
355.562	333.1
355.944	336.71
356.326	348.01
356.709	338.75
357.091	347.79
357.473	340.78
357.855	371.06
358.238	351.86
358.62	343.04
359.002	367
359.384	344.85
359.766	343.95
360.148	327.67
360.53	337.39
360.912	363.61
361.294	355.02
361.676	337.62
362.057	335.13
362.439	347.11
362.821	326.09
363.203	337.39
363.584	321.57
363.966	340.56
364.348	336.49
364.729	327.9
365.111	340.78
365.493	352.53
365.874	333.78
366.256	335.81
366.637	314.34
367.019	312.08
367.4	327.9
367.781	317.28
368.163	300.78
368.544	323.83
368.925	315.47
369.306	349.82
369.688	316.83
370.069	321.8
370.45	328.8
370.831	334.45
371.212	340.33
371.593	327.45
371.974	327.67
372.355	311.63
372.736	331.06
373.117	305.75
373.498	303.27
373.879	319.09
374.26	331.97
374.641	305.3
375.021	332.65
375.402	331.97
375.783	326.77
376.163	314.12
376.544	333.78
376.925	330.16
377.305	357.73
377.686	326.77
378.066	341.69
378.447	336.04
378.827	334
379.208	324.74
379.588	330.16
379.968	330.61
380.349	333.32
380.729	334.45
381.109	353.21
381.489	342.14
381.87	340.78
382.25	357.05
382.63	331.97
383.01	349.82
383.39	348.24
383.77	335.13
384.15	375.58
384.53	359.99
384.91	353.21
385.29	379.2
385.67	353.89
386.049	362.93
386.429	357.05
386.809	361.8
387.189	368.13
387.568	354.79
387.948	364.96
388.328	360.22
388.707	369.93
389.087	359.31
389.466	372.65
389.846	341.69
390.225	361.35
390.605	379.65
390.984	355.24
391.363	359.09
391.743	372.87
392.122	364.06
392.501	391.63
392.881	393.89
393.26	366.77
393.639	376.26
394.018	386.88
394.397	352.53
394.776	407.45
395.155	395.02
395.534	367.45
395.913	384.4
396.292	412.42
396.671	384.17
397.05	398.63
397.429	398.18
397.808	396.83
398.186	379.2
398.565	407.67
398.944	387.79
399.323	386.2
399.701	415.13
400.08	383.94
400.458	414
400.837	414.23
401.215	385.53
401.594	417.39
401.972	407.45
402.351	418.07
402.729	409.48
403.107	405.19
403.486	424.62
403.864	421.91
404.242	429.14
404.62	417.16
404.999	418.75
405.377	415.81
405.755	417.62
406.133	439.54
406.511	422.36
406.889	427.79
407.267	451.29
407.645	449.71
408.023	441.57
408.401	435.69
408.779	455.58
409.156	451.74
409.534	463.72
409.912	450.16
410.29	459.42
410.667	440.44
411.045	448.8
411.422	475.24
411.8	436.15
412.178	465.98
412.555	458.52
412.933	476.82
413.31	489.7
413.687	482.7
414.065	491.51
414.442	468.01
414.819	486.77
415.197	472.76
415.574	483.38
415.951	489.03
416.328	479.08
416.705	484.51
417.082	491.96
417.46	523.83
417.837	536.71
418.214	513.66
418.591	497.39
418.967	510.72
419.344	525.41
419.721	505.52
420.098	534.22
420.475	527.22
420.852	503.26
421.228	524.51
421.605	521.57
421.982	527.9
422.358	545.52
422.735	557.5
423.111	531.74
423.488	578.97
423.864	544.84
424.241	552.53
424.617	563.38
424.994	561.34
425.37	578.97
425.746	544.84
426.123	578.06
426.499	580.55
426.875	580.78
427.251	585.3
427.627	568.35
428.003	604.05
428.379	603.15
428.756	588.69
429.132	587.78
429.507	609.7
429.883	611.96
430.259	613.77
430.635	621.9
431.011	609.25
431.387	635.92
431.763	610.38
432.138	637.5
432.514	618.06
432.89	644.05
433.265	668.91
433.641	651.73
434.016	660.1
434.392	683.6
434.767	674.78
435.143	684.28
435.518	686.31
435.894	709.81
436.269	695.57
436.644	706.42
437.02	699.42
437.395	684.5
437.77	707.33
438.145	710.04
438.52	723.6
438.895	731.05
439.271	726.08
439.646	723.37
440.021	736.7
440.395	728.12
440.77	733.54
441.145	755.23
441.52	767.89
441.895	749.36
442.27	762.92
442.645	750.71
443.019	788.91
443.394	803.59
443.769	781.67
444.143	784.61
444.518	785.74
444.892	795.46
445.267	786.65
445.641	785.97
446.016	808.34
446.39	796.82
446.764	820.32
447.139	797.72
447.513	807.21
447.887	836.59
448.262	853.31
448.636	831.62
449.01	840.2
449.384	845.85
449.758	851.73
450.132	863.93
450.506	840.43
450.88	858.51
451.254	863.25
451.628	881.11
452.002	888.11
452.376	883.59
452.75	887.21
453.123	891.73
453.497	918.85
453.871	937.38
454.244	929.24
454.618	930.15
454.992	919.52
455.365	955.46
455.739	977.38
456.112	969.69
456.486	1001.33
456.859	977.38
457.232	1013.53
457.606	969.92
457.979	1015.11
458.352	1030.48
458.725	1040.2
459.099	1062.34
459.472	1064.38
459.845	1067.32
460.218	1094.66
460.591	1085.4
460.964	1097.37
461.337	1120.65
461.71	1136.92
462.083	1121.1
462.456	1148.22
462.829	1144.6
463.201	1178.73
463.574	1189.8
463.947	1190.03
464.32	1180.31
464.692	1204.49
465.065	1241.32
465.438	1236.35
465.81	1262.34
466.183	1264.15
466.555	1279.51
466.928	1307.08
467.3	1330.59
467.672	1343.92
468.045	1370.13
468.417	1362.22
468.789	1365.39
469.161	1412.39
469.534	1444.48
469.906	1449.23
470.278	1444.48
470.65	1512.5
471.022	1517.02
471.394	1530.36
471.766	1562.22
472.138	1612.61
472.51	1630.69
472.882	1660.52
473.253	1701.2
473.625	1717.69
473.997	1755.66
474.369	1769.9
474.74	1812.83
475.112	1838.37
475.484	1875.88
475.855	1908.65
476.227	1945.71
476.598	2004.24
476.97	2035.2
477.341	2088.98
477.713	2129.89
478.084	2160.85
478.455	2217.57
478.827	2281.97
479.198	2353.16
479.569	2362.65
479.94	2468.86
480.311	2511.57
480.682	2566.03
481.053	2639.93
481.424	2683.09
481.795	2706.82
482.166	2790.44
482.537	2898.68
482.908	2961.28
483.279	2987.72
483.65	3110.88
484.021	3200.59
484.391	3243.3
484.762	3305.9
485.133	3389.52
485.503	3479.46
485.874	3550.42
486.244	3648.04
486.615	3758.09
486.985	3810.52
487.356	3947.47
487.726	3965.77
488.097	4153.11
488.467	4192.88
488.837	4344.52
489.207	4365.08
489.578	4507.45
489.948	4605.08
490.318	4700.67
490.688	4788.8
491.058	4854.79
491.428	4968
491.798	5075.57
492.168	5226.53
492.538	5306.98
492.908	5387.43
493.278	5450.93
493.648	5636.01
494.017	5692.73
494.387	5731.6
494.757	5842.56
495.126	5967.75
495.496	6047.3
495.866	6091.59
496.235	6207.97
496.605	6380.17
496.974	6356.67
497.344	6503.56
497.713	6550.11
498.082	6660.16
498.452	6805.24
498.821	6777.67
499.19	6859.93
499.559	7038.46
499.928	7091.79
500.298	7209.75
500.667	7314.38
501.036	7296.76
501.405	7420.82
501.774	7454.95
502.143	7599.35
502.512	7606.81
502.88	7732.45
503.249	7785.56
503.618	7938.77
503.987	7871.21
504.356	7972.22
504.724	8103.74
505.093	8122.72
505.462	8160.46
505.83	8338.09
506.199	8425.99
506.567	8491.53
506.936	8505.09
507.304	8640.9
507.672	8612.43
508.041	8687.46
508.409	8807.68
508.777	8924.51
509.145	8999.54
509.514	9008.8
509.882	9096.03
510.25	9095.35
510.618	9219.19
510.986	9262.81
511.354	9388
511.722	9433.88
512.09	9525.4
512.458	9562.46
512.826	9690.82
513.193	9634.55
513.561	9756.58
513.929	9770.14
514.297	9862.57
514.664	10015.56
515.032	9952.73
515.4	10173.29
515.767	10138.94
516.135	10184.59
516.502	10220.97
516.869	10435.88
517.237	10401.99
517.604	10320.41
517.972	10433.62
518.339	10549.1
518.706	10592.26
519.073	10635.43
519.44	10741.86
519.808	10808.08
520.175	10827.51
520.542	11030.44
520.909	10990.9
521.276	11010.78
521.643	11154.51
522.009	11145.02
522.376	11256.65
522.743	11355.41
523.11	11382.53
523.477	11597.44
523.843	11545.23
524.21	11673.14
524.577	11723.99
524.943	11788.84
525.31	11891.44
525.676	12045.56
526.043	12122.39
526.409	12065.67
526.776	12240.13
527.142	12275.84
527.508	12405.1
527.874	12345.89
528.241	12480.35
528.607	12556.96
528.973	12697.07
529.339	12619.33
529.705	12777.07
530.071	12927.8
530.437	12968.47
530.803	13043.72
531.169	13055.93
531.535	13084.63
531.901	13152.87
532.267	13303.38
532.632	13287.11
532.998	13371.63
533.364	13411.4
533.73	13517.84
534.095	13561.9
534.461	13669.7
534.826	13672.41
535.192	13712.18
535.557	13821.33
535.923	13846.64
536.288	13857.71
536.653	13945.62
537.019	13976.81
537.384	14056.13
537.749	14071.27
538.114	14245.5
538.479	14211.15
538.845	14192.85
539.21	14250.92
539.575	14375.44
539.94	14371.6
540.305	14480.07
540.67	14440.52
541.034	14584.7
541.399	14630.8
541.764	14574.98
542.129	14776.79
542.494	14756.22
542.858	14853.17
543.223	14965.03
543.587	15006.61
543.952	15010.68
544.316	15020.85
544.681	15043.45
545.045	15188.53
545.41	15236.89
545.774	15199.37
546.138	15250.67
546.503	15408.18
546.867	15389.2
547.231	15519.37
547.595	15423.32
547.959	15566.14
548.324	15566.37
548.688	15677.1
549.052	15699.93
549.416	15791.22
549.779	15827.83
550.143	15764.33
550.507	15956.19
550.871	16031.67
551.235	16004.55
551.599	16124.55
551.962	16197.09
552.326	16243.64
552.689	16308.72
553.053	16244.54
553.417	16303.07
553.78	16501.49
554.143	16408.16
554.507	16472.56
554.87	16661.03
555.234	16707.36
555.597	16761.14
555.96	16839.78
556.323	16824.64
556.686	16858.31
557.05	17006.78
557.413	16898.09
557.776	17003.85
558.139	17192.77
558.502	17212.88
558.865	17245.87
559.228	17321.58
559.59	17392.99
559.953	17421.69
560.316	17639.99
560.679	17599.09
561.041	17723.6
561.404	17735.58
561.767	17893.77
562.129	17815.35
562.492	18015.57
562.854	18007.89
563.217	17958.17
563.579	18076.81
563.941	18217.83
564.304	18329.01
564.666	18406.07
565.028	18308.22
565.39	18606.06
565.753	18642.9
566.115	18760.18
566.477	18730.81
566.839	18818.49
567.201	18817.36
567.563	18960.41
567.925	19021.65
568.287	19023.68
568.648	19042.44
569.01	19211.92
569.372	19367.17
569.734	19272.04
570.095	19469.09
570.457	19516.32
570.819	19560.62
571.18	19555.42
571.542	19772.59
571.903	19788.86
572.265	19912.7
572.626	19934.39
572.987	20042.18
573.349	20119.47
573.71	20166.48
574.071	20333.25
574.432	20371.67
574.794	20522.4
575.155	20577.09
575.516	20597.2
575.877	20723.97
576.238	20888.49
576.599	20983.86
576.96	21078.54
577.32	21158.99
577.681	21302.72
578.042	21322.15
578.403	21507.01
578.763	21598.53
579.124	21754.68
579.485	21835.58
579.845	22049.36
580.206	22162.58
580.566	22245.97
580.927	22450.03
581.287	22662
581.648	22724.37
582.008	22915.78
582.368	23093.4
582.728	23267.18
583.089	23442.55
583.449	23552.15
583.809	23722.09
584.169	24042.08
584.529	24067.62
584.889	24488.85
585.249	24528.62
585.609	24573.37
585.969	24976.29
586.329	25038.66
586.688	25302.39
587.048	25528.14
587.408	25665.09
587.768	25940.56
588.127	26099.2
588.487	26277.5
588.846	26633.88
589.206	26673.42
589.565	26830.48
589.925	27143.24
590.284	27408.54
590.643	27580.52
591.003	27842.43
591.362	28176.66
591.721	28227.05
592.08	28466.14
592.44	28929.41
592.799	29073.13
593.158	29224.99
593.517	29357.65
593.876	29703.17
594.235	29870.85
594.593	30025.2
594.952	30425.19
595.311	30660.66
595.67	30947.66
596.029	31185.62
596.387	31309.23
596.746	31582.67
597.104	31682.78
597.463	31948.54
597.822	32184.24
598.18	32322.77
598.538	32460.62
598.897	32859.02
599.255	32894.95
599.613	33464.88
599.972	33457.88
600.33	33675.05
600.688	33644.99
601.046	33962.27
601.404	34206.56
601.762	34337.85
602.12	34762.7
602.478	34833.66
602.836	35089.7
603.194	35070.72
603.552	35306.87
603.91	35187.32
604.268	35646.29
604.625	35735.78
604.983	35923.8
605.341	35929.45
605.698	36179.16
606.056	36542.54
606.413	36511.81
606.771	36836.77
607.128	36982.76
607.485	36940.27
607.843	37182.07
608.2	37469.98
608.557	37776.63
608.914	37668.39
609.272	37969.4
609.629	38151.54
609.986	38403.28
610.343	38224.08
610.7	38532.77
611.057	38655.25
611.414	38752.65
611.771	38975.02
612.127	39037.62
612.484	39093.89
612.841	39363.03
613.198	39458.4
613.554	39495.68
613.911	39796.24
614.267	39988.1
614.624	39759.18
614.98	40038.95
615.337	40265.83
615.693	40184.03
616.05	40396.9
616.406	40576.11
616.762	40544.7
617.118	40641.42
617.475	40652.94
617.831	40853.39
618.187	41000.5
618.543	40939.04
618.899	41349.87
619.255	41320.95
619.611	41408.18
619.967	41560.26
620.323	41677.32
620.678	41610.21
621.034	41480.27
621.39	41730.2
621.746	41653.14
622.101	42266.69
622.457	41995.51
622.812	41942.63
623.168	42202.73
623.523	42148.72
623.879	42270.75
624.234	42124.09
624.589	42373.35
624.945	42326.8
625.3	42477.75
625.655	42463.74
626.01	42531.76
626.365	42570.41
626.72	42586
627.075	42480.46
627.43	42593
627.785	42492.44
628.14	42730.18
628.495	42844.3
628.85	42763.85
629.205	42615.6
629.559	42847.46
629.914	42636.85
630.269	42852.88
630.623	42673.23
630.978	42616.28
631.332	42749.84
631.687	42900.34
632.041	42880
632.396	42893.11
632.75	42681.14
633.104	42931.75
633.459	42645.88
633.813	42728.37
634.167	42793.23
634.521	42835.03
634.875	42795.71
635.229	42912.09
635.583	42688.82
635.937	42717.97
636.291	42783.73
636.645	42785.32
636.999	42701.25
637.352	42868.7
637.706	42488.15
638.06	42761.14
638.413	42558.43
638.767	42567.02
639.121	42632.78
639.474	42470.75
639.828	42551.2
640.181	42663.06
640.534	42513.01
640.888	42385.33
641.241	42343.52
641.594	42377.64
641.947	42458.09
642.301	42343.75
642.654	42451.99
643.007	42355.27
643.36	42432.33
643.713	42239.12
644.066	42397.76
644.419	42190.53
644.771	41947.15
645.124	41480.27
645.477	41559.59
645.83	41344.9
646.182	41142.87
646.535	41131.12
646.888	41262.87
647.24	41044.57
647.593	41186.94
647.945	41143.1
648.298	41005.02
648.65	40937.45
649.002	40885.48
649.355	41031.24
649.707	41007.96
650.059	41192.14
650.411	41623.31
650.763	41319.14
651.115	41991.44
651.467	41935.85
651.819	41795.29
652.171	41756.87
652.523	41718
652.875	41572.47
653.227	41505.12
653.578	41891.78
653.93	41685.23
654.282	41675.06
654.633	41434.84
654.985	41570.88
655.337	41537.89
655.688	41600.94
656.039	41569.08
656.391	41347.84
656.742	41465.8
657.094	41581.51
657.445	41635.29
657.796	41496.31
658.147	41414.28
658.498	41388.74
658.849	41502.19
659.2	41414.05
659.551	41341.29
659.902	41543.99
660.253	41431.45
660.604	41416.99
660.955	41235.75
661.306	41499.93
661.656	41297.45
662.007	41297.67
662.358	41299.93
662.708	41395.3
663.059	41277.56
663.409	41137
663.76	41398.46
664.11	41224.23
664.461	41235.3
664.811	41266.71
665.161	41196.43
665.511	41169.99
665.862	41285.92
666.212	41266.71
666.562	41125.02
666.912	41202.53
667.262	41039.15
667.612	41145.58
667.962	41133.83
668.312	41059.71
668.662	41271.01
669.011	41145.58
669.361	41110.78
669.711	41020.62
670.06	41054.29
670.41	40958.92
670.76	40995.98
671.109	40975.65
671.459	41115.08
671.808	41035.53
672.157	41175.41
672.507	40892.03
672.856	40878.47
673.205	40932.26
673.554	41103.1
673.904	40856.33
674.253	41254.51
674.602	41024.46
674.951	40573.4
675.3	40309.9
675.649	40899.94
675.998	40852.26
676.346	40952.6
676.695	40790.11
677.044	40511.7
677.393	40822.2
677.741	40788.31
678.09	40727.74
678.438	40653.39
678.787	40689.78
679.135	40631.25
679.484	40434.64
679.832	40695.2
680.181	40299.96
680.529	40431.03
680.877	40478.26
681.225	40312.39
681.573	40470.12
681.922	40242.78
682.27	40129.79
682.618	40291.14
682.966	39948.1
683.314	40087.99
683.661	39963.92
684.009	39902.45
684.357	39779.07
684.705	39843.92
685.053	39716.02
685.4	39811.61
685.748	39647.55
686.095	39590.82
686.443	39344.73
686.79	39386.08
687.138	39565.74
687.485	39445.97
687.832	39350.15
688.18	39245.75
688.527	39056.37
688.874	39096.83
689.221	39090.5
689.568	38829.04
689.915	38931.63
690.262	38857.06
690.609	38635.59
690.956	38620.91
691.303	38476.5
691.65	38364.87
691.997	38419.78
692.344	38249.39
692.69	38271.54
693.037	38200.8
693.383	37952
693.73	37990.19
694.077	37867.25
694.423	37861.6
694.769	37728.27
695.116	37690.08
695.462	37650.54
695.808	37503.87
696.155	37477.66
696.501	37118.12
696.847	37250.55
697.193	36858.01
697.539	37250.09
697.885	36898.46
698.231	36939.82
698.577	36859.6
698.923	36828.64
699.269	36504.12
699.614	36394.75
699.96	36341.19
700.306	36322.66
700.651	36154.08
700.997	36079.73
701.342	35946.63
701.688	35998.38
702.033	35882.67
702.379	35812.39
702.724	35813.07
703.069	35801.32
703.415	35425.51
703.76	35400.88
704.105	35502.12
704.45	35326.53
704.795	35238.62
705.14	34929.48
705.485	35036.59
705.83	34874.34
706.175	34915.47
706.52	34710.5
706.865	34627.11
707.209	34546.89
707.554	34508.47
707.899	34568.58
708.243	34530.17
708.588	34375.59
708.932	34142.61
709.277	34152.77
709.621	34255.6
709.966	34053.12
710.31	34054.47
710.654	33727.7
710.998	33847.47
711.342	33782.84
711.687	33835.72
712.031	33628.27
712.375	33451.1
712.719	33401.38
713.063	33494.71
713.407	33570.42
713.75	33338.11
714.094	33228.96
714.438	33080.49
714.782	33259.24
715.125	33037.55
715.469	33158.45
715.812	32938.57
716.156	32854.05
716.499	32825.8
716.843	32823.77
717.186	32732.7
717.53	32680.04
717.873	32755.3
718.216	32653.83
718.559	32412.48
718.902	32339.26
719.246	32461.75
719.589	32303.11
719.932	32165.71
720.275	32076.67
720.617	32170
720.96	32092.04
721.303	32101.08
721.646	32042.77
721.989	31784.25
722.331	31991.48
722.674	31899.73
723.016	31793.06
723.359	31865.83
723.701	31746.28
724.044	31600.75
724.386	31444.37
724.729	31701.77
725.071	31490.7
725.413	31404.82
725.755	31495.67
726.097	31358.95
726.439	31163.93
726.782	31157.82
727.124	31438.95
727.465	31105.4
727.807	31120.76
728.149	31102.01
728.491	30949.92
728.833	31024.49
729.175	30791.05
729.516	30857.72
729.858	30816.82
730.199	30852.52
730.541	30651.4
730.882	30748.34
731.224	30577.28
731.565	30483.27
731.906	30502.25
732.248	30454.34
732.589	30410.95
732.93	30337.28
733.271	30237.17
733.612	30467.9
733.953	30335.7
734.294	30220.67
734.635	30170.73
734.976	30252.76
735.317	30077.18
735.658	30031.3
735.999	30067.23
736.339	29931.64
736.68	30024.3
737.021	29810.52
737.361	29860.01
737.702	29846.22
738.042	29779.1
738.383	29794.47
738.723	29820.46
739.063	29632.44
739.404	29808.03
739.744	29599.9
740.084	29571.43
740.424	29463.86
740.764	29427.02
741.104	29607.58
741.444	29276.07
741.784	29347.48
742.124	29318.55
742.464	29265.67
742.804	29130.99
743.143	29127.37
743.483	29158.1
743.823	29017.77
744.162	28959.69
744.502	29060.25
744.841	28845.34
745.181	28965.34
745.52	28933.93
745.86	28932.35
746.199	28841.5
746.538	28782.07
746.877	28794.5
747.216	28690.55
747.556	28701.84
747.895	28679.92
748.234	28441.29
748.573	28519.25
748.911	28508.18
749.25	28559.48
749.589	28261.86
749.928	28315.87
750.267	28307.73
750.605	28274.28
750.944	28154.06
751.283	28164.23
751.621	28258.01
751.96	27993.39
752.298	28010.11
752.636	28109.54
752.975	27880.85
753.313	27865.48
753.651	27986.83
753.989	27767.18
754.327	27778.48
754.666	27564.7
755.004	27587.52
755.342	27492.16
755.679	27538.26
756.017	27425.04
756.355	27498.71
756.693	27267.53
757.031	27313.63
757.368	27216.01
757.706	27122.22
