Data from hue_110_FLMS001491_00023.txt Node
Date: Tue Feb 07 17:01:05 GMT 2017
User: dcchb
Spectrometer: FLMS00149
Trigger mode: 0
Integration Time (sec): 2.000000E-2
Scans to average: 10
Electric dark correction enabled: true
Nonlinearity correction enabled: false
Boxcar width: 0
XAxis mode: Wavelengths
Number of Pixels in Spectrum: 2048
>>>>>Begin Spectral Data<<<<<
341.393	-9.39
341.776	-9.39
342.16	-9.39
342.543	-56.17
342.927	-61.14
343.31	-92.78
343.693	-68.37
344.077	-60.92
344.46	-50.52
344.843	-70.63
345.226	-39.67
345.61	-34.7
345.993	-16.4
346.376	6.88
346.759	8.69
347.142	14.56
347.525	29.25
347.908	72.64
348.291	105.63
348.674	81.23
349.057	115.12
349.44	110.15
349.823	138.85
350.206	162.35
350.588	207.55
350.971	222.01
351.354	210.04
351.737	246.87
352.119	246.19
352.502	270.37
352.884	266.31
353.267	267.89
353.65	299.98
354.032	316.7
354.414	298.17
354.797	308.11
355.179	323.93
355.562	318.28
355.944	311.5
356.326	353.99
356.709	334.55
357.091	344.27
357.473	328
357.855	341.56
358.238	323.25
358.62	330.49
359.002	358.96
359.384	351.95
359.766	362.12
360.148	341.11
360.53	346.76
360.912	350.37
361.294	316.7
361.676	323.93
362.057	342.69
362.439	341.33
362.821	335.68
363.203	341.11
363.584	337.94
363.966	327.77
364.348	336.36
364.729	331.84
365.111	316.7
365.493	322.35
365.874	336.36
366.256	316.93
366.637	320.54
367.019	312.41
367.4	310.15
367.781	330.94
368.163	311.28
368.544	320.99
368.925	328.68
369.306	300.43
369.688	327.1
370.069	319.19
370.45	319.41
370.831	287.1
371.212	313.08
371.593	306.08
371.974	313.31
372.355	311.96
372.736	313.31
373.117	331.39
373.498	300.66
373.879	292.75
374.26	295.91
374.641	330.03
375.021	286.87
375.402	322.58
375.783	313.99
376.163	328.45
376.544	320.09
376.925	341.11
377.305	332.07
377.686	328
378.066	346.3
378.447	323.03
378.827	317.15
379.208	332.29
379.588	350.37
379.968	343.59
380.349	336.14
380.729	336.81
381.109	346.98
381.489	354.21
381.87	332.07
382.25	338.17
382.63	337.27
383.01	346.98
383.39	357.38
383.77	346.98
384.15	336.36
384.53	346.08
384.91	359.41
385.29	338.4
385.67	347.43
386.049	339.07
386.429	360.32
386.809	342.91
387.189	351.95
387.568	334.78
387.948	352.18
388.328	355.34
388.707	361.22
389.087	353.31
389.466	347.66
389.846	367.77
390.225	358.06
390.605	390.6
390.984	355.8
391.363	349.69
391.743	370.71
392.122	367.55
392.501	358.51
392.881	370.94
393.26	381.11
393.639	360.77
394.018	356.93
394.397	376.81
394.776	382.46
395.155	388.11
395.534	395.12
395.913	371.61
396.292	385.17
396.671	382.91
397.05	370.26
397.429	382.91
397.808	372.74
398.186	405.51
398.565	380.65
398.944	398.51
399.323	384.27
399.701	409.13
400.08	374.55
400.458	381.33
400.837	407.32
401.215	396.47
401.594	394.44
401.972	392.63
402.351	388.11
402.729	407.32
403.107	387.66
403.486	404.83
403.864	415
404.242	398.51
404.62	411.84
404.999	389.92
405.377	428.34
405.755	427.43
406.133	434.89
406.511	431.05
406.889	398.05
407.267	417.04
407.645	411.16
408.023	418.39
408.401	454.55
408.779	400.99
409.156	437.38
409.534	445.74
409.912	440.09
410.29	440.77
410.667	443.48
411.045	434.44
411.422	465.4
411.8	459.97
412.178	460.43
412.555	458.62
412.933	457.04
413.31	457.04
413.687	483.02
414.065	469.24
414.442	469.24
414.819	464.95
415.197	480.76
415.574	490.03
415.951	490.71
416.328	483.48
416.705	488.9
417.082	479.63
417.46	485.28
417.837	517.15
418.214	508.56
418.591	505.85
418.967	486.19
419.344	479.63
419.721	494.1
420.098	516.7
420.475	501.78
420.852	529.12
421.228	489.13
421.605	538.84
421.982	525.06
422.358	532.74
422.735	552.17
423.111	538.62
423.488	512.18
423.864	561.21
424.241	545.4
424.617	552.63
424.994	565.51
425.37	561.44
425.746	546.3
426.123	554.21
426.499	553.98
426.875	539.29
427.251	570.48
427.627	586.07
428.003	599.63
428.379	599.41
428.756	593.3
429.132	589.91
429.507	578.39
429.883	630.36
430.259	613.19
430.635	608.9
431.011	624.26
431.387	614.55
431.763	637.37
432.138	642.57
432.514	613.19
432.89	646.86
433.265	655
433.641	650.48
434.016	652.06
434.392	648.9
434.767	678.05
435.143	676.24
435.518	685.05
435.894	687.31
436.269	676.69
436.644	686.86
437.02	697.26
437.395	713.75
437.77	691.15
438.145	702.68
438.52	732.28
438.895	728.67
439.271	715.56
439.646	727.09
440.021	728.44
440.395	753.53
440.77	764.6
441.145	756.46
441.52	761.21
441.895	771.15
442.27	773.86
442.645	791.49
443.019	770.02
443.394	795.11
443.769	809.8
444.143	772.51
444.518	808.89
444.892	803.47
445.267	812.96
445.641	810.7
446.016	832.62
446.39	839.17
446.764	814.31
447.139	837.36
447.513	832.17
447.887	828.1
448.262	837.14
448.636	842.79
449.01	858.61
449.384	857.25
449.758	864.48
450.132	877.82
450.506	900.41
450.88	848.21
451.254	879.62
451.628	887.99
452.002	919.85
452.376	897.25
452.75	910.81
453.123	916.91
453.497	944.25
453.871	931.37
454.244	942
454.618	973.41
454.992	995.55
455.365	990.36
455.739	975.44
456.112	992.16
456.486	1015.67
456.859	999.39
457.232	1031.03
457.606	1052.73
457.979	1064.7
458.352	1079.84
458.725	1084.82
459.099	1080.52
459.472	1109.45
459.845	1120.07
460.218	1121.88
460.591	1144.25
460.964	1180.63
461.337	1161.2
461.71	1192.61
462.083	1180.63
462.456	1214.53
462.829	1209.11
463.201	1231.93
463.574	1242.33
463.947	1232.61
464.32	1287.75
464.692	1278.03
465.065	1312.83
465.438	1338.14
465.81	1377.46
466.183	1377.69
466.555	1391.93
466.928	1419.04
467.3	1431.7
467.672	1440.96
468.045	1485.94
468.417	1501.98
468.789	1502.21
469.161	1546.95
469.534	1598.47
469.906	1602.99
470.278	1605.71
470.65	1664.91
471.022	1668.3
471.394	1739.26
471.766	1761.41
472.138	1759.83
472.51	1833.27
472.882	1865.13
473.253	1920.95
473.625	1940.84
473.997	1960.5
474.369	2005.92
474.74	2060.38
475.112	2095.64
475.484	2158.23
475.855	2204.79
476.227	2261.06
476.598	2301.51
476.97	2370.21
477.341	2442.75
477.713	2499.02
478.084	2539.02
478.455	2644.32
478.827	2664.21
479.198	2760.7
479.569	2802.29
479.94	2897.65
480.311	3002.51
480.682	3061.04
481.053	3187.36
481.424	3269.62
481.795	3306.9
482.166	3456.05
482.537	3498.09
482.908	3610.4
483.279	3748.47
483.65	3784.18
484.021	3931.75
484.391	4025.08
484.762	4090.16
485.133	4223.04
485.503	4337.84
485.874	4480.66
486.244	4597.04
486.615	4703.03
486.985	4813.53
487.356	5004.26
487.726	5086.97
488.097	5257.81
488.467	5305.5
488.837	5507.75
489.207	5582.55
489.578	5761.98
489.948	5894.41
490.318	6059.15
490.688	6116.55
491.058	6288.75
491.428	6440.38
491.798	6590.43
492.168	6760.83
492.538	6872.01
492.908	7036.07
493.278	7188.16
493.648	7309.96
494.017	7417.08
494.387	7500.92
494.757	7721.7
495.126	7801.48
495.496	8006.44
495.866	8063.16
496.235	8208.02
496.605	8342.03
496.974	8528.01
497.344	8569.82
497.713	8664.96
498.082	8800.32
498.452	8929.13
498.821	9123.93
499.19	9160.99
499.559	9287.99
499.928	9424.48
500.298	9462.9
500.667	9603.24
501.036	9665.16
501.405	9780.63
501.774	9815.66
502.143	10051.13
502.512	10014.07
502.88	10191.24
503.249	10276.89
503.618	10387.17
503.987	10477.11
504.356	10610.89
504.724	10594.17
505.093	10720.27
505.462	10825.12
505.83	10829.19
506.199	10919.13
506.567	11070.77
506.936	11142.86
507.304	11296.75
507.672	11333.36
508.041	11285.9
508.409	11447.71
508.777	11615.16
509.145	11712.79
509.514	11644.76
509.882	11680.02
510.25	11767.7
510.618	11846.12
510.986	11896.96
511.354	11969.05
511.722	12040.01
512.09	12124.98
512.458	12171.3
512.826	12264.41
513.193	12340.79
513.561	12322.71
513.929	12384.18
514.297	12502.14
514.664	12534.01
515.032	12629.6
515.4	12675.02
515.767	12664.85
516.135	12714.79
516.502	12611.07
516.869	12795.69
517.237	12865.75
517.604	12772.87
517.972	12861.68
518.339	12965.18
518.706	12951.62
519.073	12992.98
519.44	13013.09
519.808	13193.65
520.175	13083.6
520.542	13233.2
520.909	13230.49
521.276	13214.67
521.643	13349.58
522.009	13407.88
522.376	13382.12
522.743	13370.59
523.11	13514.09
523.477	13487.65
523.843	13542.79
524.21	13668.44
524.577	13630.02
524.943	13679.29
525.31	13736.46
525.676	13781.66
526.043	13850.36
526.409	13767.19
526.776	13905.27
527.142	13924.7
527.508	13913.18
527.874	13989.34
528.241	13898.94
528.607	13913.63
528.973	13959.05
529.339	14001.76
529.705	14038.15
530.071	14067.98
530.437	14045.83
530.803	14036.34
531.169	14040.63
531.535	14011.48
531.901	14047.87
532.267	14047.19
532.632	13998.6
532.998	13987.75
533.364	14103.23
533.73	13976.68
534.095	14026.4
534.461	13975.1
534.826	14046.74
535.192	14023.23
535.557	14067.75
535.923	14023.01
536.288	14042.44
536.653	13972.39
537.019	13899.62
537.384	13908.89
537.749	13838.38
538.114	13766.29
538.479	13961.77
538.845	13784.82
539.21	13743.92
539.575	13754.54
539.94	13747.08
540.305	13813.52
540.67	13681.1
541.034	13641.1
541.399	13706.18
541.764	13668.89
542.129	13622.34
542.494	13569.46
542.858	13575.11
543.223	13496.02
543.587	13599.06
543.952	13475
544.316	13426.19
544.681	13392.52
545.045	13460.31
545.41	13331.27
545.774	13385.51
546.138	13289.47
546.503	13373.98
546.867	13286.08
547.231	13362.46
547.595	13221.45
547.959	13189.36
548.324	13142.13
548.688	13075.46
549.052	13097.61
549.416	13058.29
549.779	13065.29
550.143	12973.32
550.507	13049.7
550.871	12993.66
551.235	12917.27
551.599	12997.27
551.962	13000.89
552.326	12860.33
552.689	12998.4
553.053	12749.14
553.417	12773.77
553.78	12883.83
554.143	12819.87
554.507	12778.52
554.87	12698.3
555.234	12788.92
555.597	12701.23
555.96	12727.67
556.323	12698.52
556.686	12657.62
557.05	12745.3
557.413	12706.66
557.776	12670.05
558.139	12658.98
558.502	12670.73
558.865	12676.83
559.228	12693.32
559.59	12574.01
559.953	12741.68
560.316	12781.46
560.679	12692.19
561.041	12734.45
561.404	12702.59
561.767	12748.24
562.129	12656.04
562.492	12789.82
562.854	12637.96
563.217	12645.64
563.579	12652.65
563.941	12741.68
564.304	12746.66
564.666	12762.25
565.028	12791.85
565.39	12808.58
565.753	12781.68
566.115	12815.36
566.477	12877.5
566.839	12867.78
567.201	12857.84
567.563	12887.67
567.925	12965.18
568.287	12936.03
568.648	12843.6
569.01	12845.64
569.372	13010.83
569.734	12920.21
570.095	12989.59
570.457	12997.5
570.819	12972.19
571.18	12977.61
571.542	13006.31
571.903	12998.18
572.265	13079.98
572.626	13043.82
572.987	13026.42
573.349	13112.75
573.71	13056.7
574.071	13139.41
574.432	13140.09
574.794	13183.03
575.155	13113.2
575.516	13101.22
575.877	13134.67
576.238	13220.77
576.599	13081.34
576.96	13213.31
577.32	13152.3
577.681	13173.99
578.042	13209.7
578.403	13231.39
578.763	13198.17
579.124	13164.95
579.485	13215.12
579.845	13221.9
580.206	13218.73
580.566	13130.83
580.927	13253.99
581.287	13222.8
581.648	13125.18
582.008	13264.16
582.368	13212.41
582.728	13187.1
583.089	13139.87
583.449	13119.53
583.809	13148.91
584.169	13272.29
584.529	13095.12
584.889	13143.93
585.249	13146.87
585.609	13044.5
585.969	13187.77
586.329	13082.47
586.688	13121.11
587.048	13064.39
587.408	13020.55
587.768	13093.99
588.127	13046.31
588.487	13076.82
588.846	13161.11
589.206	13025.07
589.565	13050.15
589.925	13049.25
590.284	13117.27
590.643	13074.78
591.003	13082.47
591.362	13023.94
591.721	12985.07
592.08	13059.87
592.44	13011.51
592.799	13086.99
593.158	13046.54
593.517	13021
593.876	13075.69
594.235	12928.57
594.593	13011.28
594.952	12996.14
595.311	12909.36
595.67	12950.94
596.029	13019.19
596.387	12999.08
596.746	12955.24
597.104	12890.38
597.463	12879.99
597.822	12969.7
598.18	12838.86
598.538	12864.39
598.897	12922.24
599.255	12852.19
599.613	13059.64
599.972	12880.44
600.33	12954.33
600.688	12927.22
601.046	12927.67
601.404	12955.46
601.762	12912.98
602.12	12958.18
602.478	12971.06
602.836	12971.74
603.194	12845.41
603.552	12918.18
603.91	12741.68
604.268	12958.85
604.625	12886.99
604.983	12921.12
605.341	12823.26
605.698	12947.78
606.056	12982.13
606.413	12927.22
606.771	12931.06
607.128	12977.38
607.485	12901.23
607.843	12937.61
608.2	12954.11
608.557	12948.68
608.914	13045.63
609.272	12993.66
609.629	13038.4
609.986	13061
610.343	13036.14
610.7	13086.53
611.057	13072.75
611.414	12903.49
611.771	13011.96
612.127	13144.39
612.484	13138.51
612.841	13135.8
613.198	13082.47
613.554	13125.63
613.911	13098.74
614.267	13076.14
614.624	13086.08
614.98	13155.91
615.337	13166.76
615.693	13149.58
616.05	13099.42
616.406	13181
616.762	13202.69
617.118	13216.93
617.475	13163.14
617.831	13208.57
618.187	13245.63
618.543	13216.47
618.899	13335.12
619.255	13313.65
619.611	13303.48
619.967	13329.01
620.323	13347.77
620.678	13272.29
621.034	13229.81
621.39	13315.91
621.746	13270.03
622.101	13356.81
622.457	13248.56
622.812	13326.75
623.168	13333.53
623.523	13333.08
623.879	13359.07
624.234	13286.08
624.589	13377.83
624.945	13376.7
625.3	13361.1
625.655	13309.35
626.01	13363.36
626.365	13300.77
626.72	13259.19
627.075	13242.69
627.43	13331.27
627.785	13288.34
628.14	13357.49
628.495	13275.91
628.85	13257.6
629.205	13236.36
629.559	13264.61
629.914	13313.87
630.269	13293.53
630.623	13258.96
630.978	13109.36
631.332	13237.94
631.687	13231.39
632.041	13205.4
632.396	13225.74
632.75	13171.5
633.104	13170.6
633.459	13136.02
633.813	13131.96
634.167	13078.63
634.521	13080.21
634.875	13088.79
635.229	13126.53
635.583	12995.01
635.937	13016.48
636.291	13056.93
636.645	13043.15
636.999	12992.98
637.352	12996.59
637.706	12946.2
638.06	12973.77
638.413	12951.17
638.767	12947.1
639.121	12909.82
639.474	12866.43
639.828	12844.05
640.181	12881.79
640.534	12839.08
640.888	12845.18
641.241	12778.52
641.594	12852.64
641.947	12867.11
642.301	12835.02
642.654	12839.08
643.007	12811.74
643.36	12738.3
643.713	12772.87
644.066	12790.05
644.419	12738.75
644.771	12712.31
645.124	12556.15
645.477	12572.88
645.83	12457.17
646.182	12430.05
646.535	12353.9
646.888	12431.86
647.24	12307.12
647.593	12370.17
647.945	12395.93
648.298	12289.04
648.65	12298.53
649.002	12246.56
649.355	12345.76
649.707	12260.12
650.059	12301.47
650.411	12484.52
650.763	12519.09
651.115	12639.54
651.467	12645.19
651.819	12631.41
652.171	12578.53
652.523	12505.76
652.875	12600.9
653.227	12545.98
653.578	12572.88
653.93	12566.32
654.282	12605.87
654.633	12554.57
654.985	12605.64
655.337	12630.95
655.688	12628.02
656.039	12668.47
656.391	12571.07
656.742	12547.11
657.094	12623.04
657.445	12621.01
657.796	12607.23
658.147	12608.35
658.498	12602.48
658.849	12614.68
659.2	12561.58
659.551	12590.95
659.902	12640.9
660.253	12627.11
660.604	12635.25
660.955	12616.04
661.306	12680.44
661.656	12597.28
662.007	12642.93
662.358	12745.53
662.708	12724.96
663.059	12759.54
663.409	12643.38
663.76	12676.15
664.11	12700.78
664.461	12774.23
664.811	12726.09
665.161	12694.45
665.511	12700.56
665.862	12673.66
666.212	12704.17
666.562	12692.19
666.912	12658.75
667.262	12716.6
667.612	12731.29
667.962	12705.98
668.312	12700.56
668.662	12727.67
669.011	12652.65
669.361	12731.29
669.711	12713.44
670.06	12673.89
670.41	12639.31
670.76	12592.08
671.109	12733.1
671.459	12601.12
671.808	12564.51
672.157	12618.98
672.507	12570.62
672.856	12560.45
673.205	12587.11
673.554	12643.16
673.904	12564.74
674.253	12668.69
674.602	12616.49
674.951	12386.67
675.3	12252.43
675.649	12557.96
675.998	12509.6
676.346	12489.49
676.695	12494.46
677.044	12420.34
677.393	12497.85
677.741	12460.56
678.09	12441.81
678.438	12410.62
678.787	12377.85
679.135	12411.98
679.484	12354.35
679.832	12425.53
680.181	12305.76
680.529	12240.91
680.877	12250.17
681.225	12245.2
681.573	12265.54
681.922	12244.75
682.27	12216.5
682.618	12135.15
682.966	12148.25
683.314	12252.88
683.661	12060.12
684.009	11990.74
684.357	12110.51
684.705	12032.78
685.053	12026.45
685.4	11920.46
685.748	11991.65
686.095	11926.34
686.443	11866.68
686.79	11924.98
687.138	11915.72
687.485	11871.43
687.832	11781.71
688.18	11833.23
688.527	11778.55
688.874	11780.81
689.221	11680.24
689.568	11653.8
689.915	11527.93
690.262	11625.56
690.609	11661.26
690.956	11562.73
691.303	11520.93
691.65	11432.57
691.997	11439.57
692.344	11437.54
692.69	11343.3
693.037	11393.7
693.383	11264.21
693.73	11264.89
694.077	11274.6
694.423	11207.49
694.769	11163.2
695.116	11107.15
695.462	11138.11
695.808	11019.02
696.155	11114.38
696.501	10969.98
696.847	10913.26
697.193	10885.01
697.539	10934.05
697.885	10757.1
698.231	10806.14
698.577	10739.93
698.923	10744.22
699.269	10714.17
699.614	10633.94
699.96	10614.96
700.306	10555.75
700.651	10540.39
700.997	10590.1
701.342	10445.93
701.688	10480.28
702.033	10429.66
702.379	10301.07
702.724	10363.67
703.069	10424.23
703.415	10183.56
703.76	10257.68
704.105	10245.93
704.45	10208.87
704.795	10143.11
705.14	10055.88
705.485	10052.72
705.83	10016.11
706.175	10011.59
706.52	9998.03
706.865	9907.18
707.209	9979.5
707.554	9936.33
707.899	9908.99
708.243	9903.79
708.588	9839.16
708.932	9775.44
709.277	9671.93
709.621	9715.78
709.966	9635.55
710.31	9667.87
710.654	9570.24
710.998	9634.87
711.342	9579.06
711.687	9565.5
712.031	9498.38
712.375	9464.71
712.719	9465.16
713.063	9529.34
713.407	9516.01
713.75	9427.87
714.094	9496.57
714.438	9389
714.782	9403.02
715.125	9342.23
715.469	9350.14
715.812	9362.11
716.156	9267.88
716.499	9310.14
716.843	9291.83
717.186	9254.32
717.53	9274.88
717.873	9285.96
718.216	9190.59
718.559	9227.43
718.902	9189.46
719.246	9228.33
719.589	9223.13
719.932	9139.97
720.275	9104.27
720.617	9072.4
720.96	9079.63
721.303	9169.12
721.646	9074.21
721.989	9064.49
722.331	9125.96
722.674	9037.6
723.016	9017.04
723.359	9100.88
723.701	8985.17
724.044	8968.9
724.386	8962.12
724.729	8971.39
725.071	8967.32
725.413	9029.69
725.755	9021.1
726.097	8914.44
726.439	8949.92
726.782	8905.18
727.124	8941.33
727.465	8940.88
727.807	8893.88
728.149	8948.11
728.491	8934.55
728.833	8922.35
729.175	8849.81
729.516	8885.74
729.858	8892.52
730.199	8844.84
730.541	8860.66
730.882	8887.1
731.224	8824.95
731.565	8879.41
731.906	8828.57
732.248	8838.74
732.589	8771.39
732.93	8757.83
733.271	8862.46
733.612	8822.69
733.953	8882.58
734.294	8808.45
734.635	8820.21
734.976	8865.63
735.317	8787.44
735.658	8898.17
735.999	8869.24
736.339	8868.79
736.68	8849.58
737.021	8880.54
737.361	8824.95
737.702	8852.07
738.042	8825.18
738.383	8826.31
738.723	8899.53
739.063	8911.95
739.404	8958.96
739.744	8945.4
740.084	8878.74
740.424	8981.11
740.764	8923.71
741.104	9015.46
741.444	8956.02
741.784	8963.93
742.124	8979.3
742.464	8997.83
742.804	9026.75
743.143	9101.33
743.483	9133.19
743.823	9071.72
744.162	9138.39
744.502	9168.45
744.841	9177.48
745.181	9173.64
745.52	9219.29
745.86	9308.1
746.199	9246.18
746.538	9365.5
746.877	9404.6
747.216	9410.47
747.556	9523.01
747.895	9609.56
748.234	9586.06
748.573	9596.68
748.911	9713.74
749.25	9754.19
749.589	9779.05
749.928	9855.21
750.267	9947.63
750.605	10010.91
750.944	10115.54
751.283	10160.74
751.621	10215.2
751.96	10322.77
752.298	10377.45
752.636	10530.67
752.975	10535.42
753.313	10671.23
753.651	10855.41
753.989	10864.45
754.327	11035.74
754.666	11077.32
755.004	11161.39
755.342	11352.57
755.679	11430.31
756.017	11610.42
756.355	11701.03
756.693	11831.88
757.031	12043.62
757.368	12052.44
757.706	12253.11
758.044	12441.58
758.381	12616.49
758.719	12688.13
759.056	12970.38
