Data from hue_250_FLMS001491_00037.txt Node
Date: Tue Feb 07 16:00:54 GMT 2017
User: dcchb
Spectrometer: FLMS00149
Trigger mode: 0
Integration Time (sec): 2.000000E-2
Scans to average: 10
Electric dark correction enabled: true
Nonlinearity correction enabled: false
Boxcar width: 0
XAxis mode: Wavelengths
Number of Pixels in Spectrum: 2048
>>>>>Begin Spectral Data<<<<<
341.393	-26.47
341.776	-26.47
342.16	-26.47
342.543	-51.1
342.927	-73.47
343.31	-65.11
343.693	-71.89
344.077	-74.6
344.46	-51.33
344.843	-46.81
345.226	-38.67
345.61	-17.43
345.993	-25.34
346.376	-10.88
346.759	25.51
347.142	22.12
347.525	40.2
347.908	46.75
348.291	59.86
348.674	87.88
349.057	119.74
349.44	106.18
349.823	139.86
350.206	164.26
350.588	169.23
350.971	180.31
351.354	208.55
351.737	268.44
352.119	232.96
352.502	260.76
352.884	259.4
353.267	274.31
353.65	285.16
354.032	303.92
354.414	294.2
354.797	323.58
355.179	312.05
355.562	325.61
355.944	308.89
356.326	312.05
356.709	345.73
357.091	333.97
357.473	321.32
357.855	329.45
358.238	320.64
358.62	337.59
359.002	332.17
359.384	332.17
359.766	316.57
360.148	326.29
360.53	343.92
360.912	315.44
361.294	327.42
361.676	331.71
362.057	316.57
362.439	328.1
362.821	308.89
363.203	324.26
363.584	319.29
363.966	302.34
364.348	323.13
364.729	304.37
365.111	318.61
365.493	289.23
365.874	288.33
366.256	282.68
366.637	304.14
367.019	310.7
367.4	314.77
367.781	302.34
368.163	316.8
368.544	307.08
368.925	291.72
369.306	303.24
369.688	294.65
370.069	312.96
370.45	290.59
370.831	297.82
371.212	296.01
371.593	311.15
371.974	297.82
372.355	318.16
372.736	290.13
373.117	295.33
373.498	324.71
373.879	304.37
374.26	312.73
374.641	301.43
375.021	309.34
375.402	324.48
375.783	303.01
376.163	323.35
376.544	305.5
376.925	310.25
377.305	309.57
377.686	322.9
378.066	319.96
378.447	312.96
378.827	302.11
379.208	316.57
379.588	304.14
379.968	332.62
380.349	310.25
380.729	287.65
381.109	333.07
381.489	334.88
381.87	318.16
382.25	337.14
382.63	317.7
383.01	330.81
383.39	343.69
383.77	337.36
384.15	345.27
384.53	331.49
384.91	343.24
385.29	341.88
385.67	338.04
386.049	337.59
386.429	369.23
386.809	352.05
387.189	341.43
387.568	338.04
387.948	337.14
388.328	349.79
388.707	353.18
389.087	339.4
389.466	336.46
389.846	348.89
390.225	341.66
390.605	364.48
390.984	367.19
391.363	372.62
391.743	346.63
392.122	380.53
392.501	363.58
392.881	378.94
393.26	368.55
393.639	386.4
394.018	366.52
394.397	355.67
394.776	368.32
395.155	368.1
395.534	365.16
395.913	381.66
396.292	384.37
396.671	377.81
397.05	385.95
397.429	374.88
397.808	373.3
398.186	401.32
398.565	378.04
398.944	398.38
399.323	406.29
399.701	395.44
400.08	402.67
400.458	406.29
400.837	406.06
401.215	420.75
401.594	416.23
401.972	400.41
402.351	421.2
402.729	405.84
403.107	422.33
403.486	424.82
403.864	424.59
404.242	423.46
404.62	436.34
404.999	425.05
405.377	444.25
405.755	443.58
406.133	455.33
406.511	444.03
406.889	448.55
407.267	464.59
407.645	449.9
408.023	454.2
408.401	500.3
408.779	460.75
409.156	471.37
409.534	495.55
409.912	500.98
410.29	473.18
410.667	491.94
411.045	518.15
411.422	507.08
411.8	511.37
412.178	516.57
412.555	524.7
412.933	532.39
413.31	545.72
413.687	524.03
414.065	562.44
414.442	549.79
414.819	575.32
415.197	574.65
415.574	590.69
415.951	551.14
416.328	583.01
416.705	580.97
417.082	599.5
417.46	627.53
417.837	623.23
418.214	619.39
418.591	613.06
418.967	624.36
419.344	666.39
419.721	645.15
420.098	655.1
420.475	675.21
420.852	648.77
421.228	672.04
421.605	675.21
421.982	689.22
422.358	707.3
422.735	705.26
423.111	714.53
423.488	739.16
423.864	722.66
424.241	762.44
424.617	757.01
424.994	744.81
425.37	787.07
425.746	783.23
426.123	765.15
426.499	794.3
426.875	809.22
427.251	811.25
427.627	804.7
428.003	848.09
428.379	840.4
428.756	855.99
429.132	868.42
429.507	866.84
429.883	875.65
430.259	898.03
430.635	919.5
431.011	898.48
431.387	924.02
431.763	935.54
432.138	944.58
432.514	954.75
432.89	946.84
433.265	993.17
433.641	1028.65
434.016	1001.3
434.392	1041.98
434.767	1067.74
435.143	1038.14
435.518	1084.46
435.894	1090.79
436.269	1109.77
436.644	1075.2
437.02	1146.16
437.395	1136.89
437.77	1151.13
438.145	1177.34
438.52	1191.8
438.895	1234.74
439.271	1236.1
439.646	1247.85
440.021	1256.44
440.395	1291.92
440.77	1282.42
441.145	1294.18
441.52	1291.24
441.895	1322.42
442.27	1334.17
442.645	1328.52
443.019	1359.03
443.394	1343.21
443.769	1369.65
444.143	1382.76
444.518	1406.49
444.892	1408.3
445.267	1408.3
445.641	1433.38
446.016	1402.65
446.39	1403.55
446.764	1449.88
447.139	1447.84
447.513	1441.97
447.887	1474.96
448.262	1485.36
448.636	1497.33
449.01	1500.05
449.384	1507.73
449.758	1567.84
450.132	1564.68
450.506	1578.69
450.88	1585.47
451.254	1555.86
451.628	1596.09
452.002	1595.18
452.376	1609.87
452.75	1634.96
453.123	1658.23
453.497	1660.04
453.871	1688.97
454.244	1701.17
454.618	1696.65
454.992	1742.3
455.365	1722.19
455.739	1775.52
456.112	1771.22
456.486	1821.17
456.859	1793.37
457.232	1835.86
457.606	1854.84
457.979	1840.15
458.352	1894.39
458.725	1926.47
459.099	1935.51
459.472	1965.57
459.845	1947.94
460.218	1975.06
460.591	2035.17
460.964	2029.07
461.337	2049.64
461.71	2056.64
462.083	2106.58
462.456	2128.96
462.829	2125.34
463.201	2150.65
463.574	2155.85
463.947	2171.21
464.32	2238.33
464.692	2227.94
465.065	2264.32
465.438	2283.08
465.81	2313.13
466.183	2343.41
466.555	2367.37
466.928	2408.04
467.3	2388.38
467.672	2432.9
468.045	2490.75
468.417	2482.62
468.789	2523.97
469.161	2549.51
469.534	2566.01
469.906	2605.55
470.278	2619.56
470.65	2645.78
471.022	2688.04
471.394	2736.17
471.766	2750.18
472.138	2777.75
472.51	2829.5
472.882	2883.06
473.253	2929.84
473.625	2938.43
473.997	2996.05
474.369	3020.68
474.74	3031.3
475.112	3078.53
475.484	3126.67
475.855	3176.61
476.227	3185.65
476.598	3279.89
476.97	3317.85
477.341	3360.56
477.713	3401.01
478.084	3443.95
478.455	3519.2
478.827	3551.97
479.198	3613.89
479.569	3562.14
479.94	3679.65
480.311	3723.72
480.682	3786.99
481.053	3878.06
481.424	3887.33
481.795	3972.07
482.166	4008.23
482.537	4059.3
482.908	4106.53
483.279	4152.18
483.65	4188.79
484.021	4264.72
484.391	4311.95
484.762	4342.23
485.133	4386.3
485.503	4440.31
485.874	4505.39
486.244	4560.08
486.615	4646.4
486.985	4734.08
487.356	4697.93
487.726	4789.68
488.097	4861.76
488.467	4891.37
488.837	4928.66
489.207	4990.8
489.578	5076.22
489.948	5126.62
490.318	5150.34
490.688	5132.04
491.058	5221.53
491.428	5321.41
491.798	5308.76
492.168	5467.62
492.538	5445.25
492.908	5488.64
493.278	5569.77
493.648	5520.96
494.017	5648.41
494.387	5690.67
494.757	5662.42
495.126	5732.02
495.496	5741.52
495.866	5786.26
496.235	5805.47
496.605	5846.37
496.974	5893.6
497.344	5943.77
497.713	5959.82
498.082	6022.64
498.452	6054.73
498.821	6044.56
499.19	6121.17
499.559	6113.26
499.928	6155.52
500.298	6238.45
500.667	6280.26
501.036	6201.62
501.405	6284.33
501.774	6222.63
502.143	6297.66
502.512	6351.9
502.88	6357.09
503.249	6418.11
503.618	6379.01
503.987	6447.49
504.356	6418.79
504.724	6493.59
505.093	6506.92
505.462	6544.66
505.83	6556.41
506.199	6567.48
506.567	6652.45
506.936	6644.32
507.304	6704.2
507.672	6762.28
508.041	6764.99
508.409	6743.75
508.777	6757.76
509.145	6875.95
509.514	6854.93
509.882	6837.76
510.25	6873.01
510.618	6878.43
510.986	6874.82
511.354	6939
511.722	7014.7
512.09	7026.91
512.458	7003.63
512.826	6993.23
513.193	7076.4
513.561	7062.84
513.929	7062.61
514.297	7137.19
514.664	7183.06
515.032	7134.25
515.4	7158.65
515.767	7234.81
516.135	7230.29
516.502	7213.34
516.869	7294.02
517.237	7257.63
517.604	7135.38
517.972	7320.68
518.339	7362.49
518.706	7273.68
519.073	7275.94
519.44	7254.7
519.808	7420.79
520.175	7399.55
520.542	7408.36
520.909	7438.42
521.276	7431.19
521.643	7482.94
522.009	7471.41
522.376	7518.42
522.743	7571.98
523.11	7603.84
523.477	7654.01
523.843	7676.15
524.21	7677.06
524.577	7657.4
524.943	7754.12
525.31	7716.83
525.676	7821.24
526.043	7833.21
526.409	7789.82
526.776	7867.56
527.142	7815.13
527.508	7880.89
527.874	7827.56
528.241	7862.36
528.607	7877.05
528.973	7960.67
529.339	7929.93
529.705	7982.36
530.071	7977.39
530.437	8042.47
530.803	8016.26
531.169	8005.86
531.535	7994.56
531.901	7933.77
532.267	8034.79
532.632	8091.06
532.998	8033.21
533.364	8084.96
533.73	8072.08
534.095	8073.66
534.461	8070.72
534.826	8077.95
535.192	8062.36
535.557	8043.6
535.923	8059.87
536.288	8114.56
536.653	8033.21
537.019	8027.33
537.384	8062.58
537.749	8091.74
538.114	8042.47
538.479	8076.82
538.845	8027.11
539.21	7958.41
539.575	8061
539.94	8044.96
540.305	8046.99
540.67	7973.1
541.034	8032.53
541.399	8025.75
541.764	8093.09
542.129	8090.15
542.494	8065.75
542.858	8045.64
543.223	7992.76
543.587	8053.77
543.952	8015.81
544.316	7997.95
544.681	7995.02
545.045	8066.88
545.41	8031.62
545.774	7999.31
546.138	7997.95
546.503	8012.87
546.867	7981.91
547.231	8042.47
547.595	8008.57
547.959	7976.71
548.324	7990.04
548.688	7980.78
549.052	7992.98
549.416	7955.24
549.779	7926.99
550.143	7924.74
550.507	7936.49
550.871	8016.26
551.235	7940.55
551.599	7994.34
551.962	7993.66
552.326	7973.55
552.689	7988.69
553.053	7949.82
553.417	7900.33
553.78	7963.15
554.143	7979.42
554.507	7913.89
554.87	7906.2
555.234	8036.37
555.597	7955.47
555.96	7929.71
556.323	8023.04
556.686	7931.97
557.05	7972.87
557.413	8052.87
557.776	8052.42
558.139	8011.74
558.502	8014.68
558.865	8031.4
559.228	8073.66
559.59	8056.03
559.953	8083.15
560.316	8142.36
560.679	8065.3
561.041	8085.41
561.404	8182.58
561.767	8224.39
562.129	8148.01
562.492	8201.56
562.854	8183.03
563.217	8206.99
563.579	8200.66
563.941	8257.16
564.304	8251.05
564.666	8287.89
565.028	8388
565.39	8325.85
565.753	8310.71
566.115	8348
566.477	8414.67
566.839	8409.24
567.201	8402.69
567.563	8433.65
567.925	8425.06
568.287	8403.14
568.648	8441.78
569.01	8547.77
569.372	8525.17
569.734	8549.13
570.095	8574.66
570.457	8583.02
570.819	8679.07
571.18	8577.37
571.542	8693.75
571.903	8642.68
572.265	8692.17
572.626	8663.92
572.987	8685.85
573.349	8746.86
573.71	8794.32
574.071	8776.24
574.432	8772.17
574.794	8850.13
575.155	8818.95
575.516	8865.95
575.877	8875.9
576.238	8925.16
576.599	8923.8
576.96	8915.9
577.32	8931.49
577.681	8961.54
578.042	8969.23
578.403	8963.13
578.763	9028.89
579.124	9005.61
579.485	8993.41
579.845	9041.09
580.206	9097.81
580.566	9084.7
580.927	9089.45
581.287	9137.13
581.648	9133.29
582.008	9200.41
582.368	9132.16
582.728	9172.16
583.089	9237.69
583.449	9226.85
583.809	9196.34
584.169	9320.18
584.529	9199.5
584.889	9248.99
585.249	9217.13
585.609	9211.93
585.969	9299.84
586.329	9243.34
586.688	9254.64
587.048	9336.22
587.408	9343.68
587.768	9328.77
588.127	9244.25
588.487	9346.39
588.846	9387.97
589.206	9314.3
589.565	9378.26
589.925	9444.24
590.284	9359.5
590.643	9370.8
591.003	9417.58
591.362	9491.25
591.721	9473.17
592.08	9440.18
592.44	9489.89
592.799	9503
593.158	9494.64
593.517	9553.17
593.876	9448.76
594.235	9527.63
594.593	9510.68
594.952	9559.49
595.311	9448.08
595.67	9481.08
596.029	9600.17
596.387	9577.35
596.746	9594.52
597.104	9537.57
597.463	9496.67
597.822	9548.2
598.18	9529.89
598.538	9533.73
598.897	9605.37
599.255	9604.69
599.613	9680.62
599.972	9607.18
600.33	9645.14
600.688	9571.02
601.046	9724.01
601.404	9721.52
601.762	9659.15
602.12	9697.57
602.478	9697.57
602.836	9668.19
603.194	9635.65
603.552	9692.82
603.91	9663.22
604.268	9714.29
604.625	9668.19
604.983	9665.25
605.341	9611.47
605.698	9699.6
606.056	9684.91
606.413	9679.04
606.771	9684.69
607.128	9710.45
607.485	9719.26
607.843	9772.6
608.2	9743.9
608.557	9788.19
608.914	9720.39
609.272	9834.97
609.629	9815.08
609.986	9896.66
610.343	9855.76
610.7	9893.27
611.057	9830.9
611.414	9847.85
611.771	9828.64
612.127	9913.16
612.484	9888.07
612.841	9918.36
613.198	9898.02
613.554	9911.58
613.911	9974.4
614.267	9912.48
614.624	9914.97
614.98	9944.57
615.337	9928.07
615.693	9945.02
616.05	9950.22
616.406	10041.74
616.762	9973.49
617.118	9897.56
617.475	9984.79
617.831	10031.12
618.187	10046.49
618.543	10004.91
618.899	10096.43
619.255	10065.7
619.611	10043.78
619.967	10051.46
620.323	10077.67
620.678	10014.17
621.034	10020.5
621.39	10065.02
621.746	9958.35
622.101	10182.08
622.457	10067.05
622.812	10064.57
623.168	10089.2
623.523	10036.32
623.879	10117.67
624.234	10100.05
624.589	10051.91
624.945	10062.53
625.3	10060.95
625.655	10048.97
626.01	10044.91
626.365	10042.65
626.72	10004.68
627.075	10022.31
627.43	10039.26
627.785	10008.75
628.14	10012.82
628.495	10079.71
628.85	10100.5
629.205	10060.05
629.559	10031.35
629.914	10012.82
630.269	10017.34
630.623	9890.56
630.978	9960.39
631.332	10014.4
631.687	10005.13
632.041	9945.25
632.396	9964
632.75	9873.84
633.104	9919.26
633.459	9862.31
633.813	9909.09
634.167	9900.73
634.521	9873.84
634.875	9832.26
635.229	9823.44
635.583	9804.23
635.937	9849.43
636.291	9775.53
636.645	9787.96
636.999	9756.55
637.352	9775.31
637.706	9663.67
638.06	9871.8
638.413	9777.34
638.767	9745.03
639.121	9736.66
639.474	9691.92
639.828	9732.15
640.181	9709.09
640.534	9704.12
640.888	9624.13
641.241	9580.06
641.594	9586.39
641.947	9662.77
642.301	9625.93
642.654	9604.46
643.007	9651.02
643.36	9630.68
643.713	9557.01
644.066	9629.78
644.419	9596.78
644.771	9488.54
645.124	9423.45
645.477	9452.6
645.83	9391.59
646.182	9318.14
646.535	9250.58
646.888	9278.6
647.24	9258.26
647.593	9301.42
647.945	9246.51
648.298	9215.77
648.65	9225.72
649.002	9208.32
649.355	9289.67
649.707	9230.01
650.059	9279.73
650.411	9404.24
650.763	9453.51
651.115	9475.43
651.467	9438.14
651.819	9460.29
652.171	9463.9
652.523	9459.16
652.875	9363.79
653.227	9451.7
653.578	9432.04
653.93	9438.14
654.282	9388.88
654.633	9369.89
654.985	9471.81
655.337	9411.25
655.688	9427.29
656.039	9442.66
656.391	9376
656.742	9373.74
657.094	9375.54
657.445	9391.82
657.796	9364.92
658.147	9372.83
658.498	9422.55
658.849	9454.41
659.2	9345.04
659.551	9340.97
659.902	9408.99
660.253	9325.83
660.604	9427.52
660.955	9353.17
661.306	9438.14
661.656	9384.13
662.007	9373.96
662.358	9433.85
662.708	9403.11
663.059	9412.61
663.409	9350.91
663.76	9393.62
664.11	9420.52
664.461	9332.61
664.811	9407.63
665.161	9389.33
665.511	9403.11
665.862	9371.7
666.212	9437.69
666.562	9447.18
666.912	9353.4
667.262	9375.09
667.612	9433.4
667.962	9411.25
668.312	9352.49
668.662	9402.21
669.011	9374.19
669.361	9461.19
669.711	9366.28
670.06	9318.14
670.41	9368.99
670.76	9382.32
671.109	9412.15
671.459	9407.86
671.808	9379.16
672.157	9416.22
672.507	9307.52
672.856	9363.57
673.205	9302.55
673.554	9329.44
673.904	9359.5
674.253	9338.48
674.602	9334.87
674.951	9194.31
675.3	9077.25
675.649	9265.94
675.998	9271.37
676.346	9268.65
676.695	9286.28
677.044	9251.71
677.393	9198.83
677.741	9216.23
678.09	9237.47
678.438	9149.56
678.787	9191.82
679.135	9153.4
679.484	9189.11
679.832	9182.78
680.181	9102.78
680.529	9095.78
680.877	9098.04
681.225	9081.77
681.573	9114.99
681.922	9059.62
682.27	9034.99
682.618	9009.45
682.966	8960.41
683.314	9071.82
683.661	9014.88
684.009	8942.11
684.357	8896.69
684.705	8919.51
685.053	8954.31
685.4	8969
685.748	8891.49
686.095	8873.64
686.443	8808.1
686.79	8811.72
687.138	8853.52
687.485	8815.79
687.832	8809.46
688.18	8759.06
688.527	8720.19
688.874	8706.18
689.221	8649.24
689.568	8656.69
689.915	8662.79
690.262	8590.93
690.609	8604.49
690.956	8628.9
691.303	8590.25
691.65	8479.75
691.997	8469.35
692.344	8419.41
692.69	8450.6
693.037	8382.8
693.383	8317.72
693.73	8381.22
694.077	8382.35
694.423	8258.74
694.769	8289.92
695.116	8329.92
695.462	8216.03
695.808	8220.09
696.155	8291.28
696.501	8163.82
696.847	8146.88
697.193	8122.24
697.539	8127.89
697.885	8017.16
698.231	8003.38
698.577	8013.09
698.923	8025.07
699.269	8006.31
699.614	7938.07
699.96	7885.64
700.306	7927.45
700.651	7839.31
700.997	7785.3
701.342	7833.44
701.688	7857.17
702.033	7719.09
702.379	7793.89
702.724	7723.84
703.069	7760.67
703.415	7663.05
703.76	7636.83
704.105	7654.46
704.45	7662.82
704.795	7590.51
705.14	7488.59
705.485	7507.8
705.83	7479.32
706.175	7532.66
706.52	7424.41
706.865	7403.17
707.209	7422.38
707.554	7399.55
707.899	7383.28
708.243	7332.21
708.588	7370.85
708.932	7287.69
709.277	7285.66
709.621	7335.37
709.966	7237.3
710.31	7222.15
710.654	7172.89
710.998	7199.78
711.342	7159.11
711.687	7172.89
712.031	7151.87
712.375	7126.56
712.719	7098.32
713.063	7103.29
713.407	7114.59
713.75	7065.55
714.094	7088.6
714.438	7015.83
714.782	7052.67
715.125	7016.96
715.469	7016.06
715.812	6967.47
716.156	6942.16
716.499	6956.62
716.843	6960.47
717.186	6906.91
717.53	6939.9
717.873	6995.95
718.216	6932.67
718.559	6882.28
718.902	6839.57
719.246	6857.42
719.589	6819
719.932	6791.88
720.275	6848.83
720.617	6797.53
720.96	6837.76
721.303	6841.83
721.646	6801.15
721.989	6752.79
722.331	6849.06
722.674	6810.64
723.016	6727.03
723.359	6757.76
723.701	6736.07
724.044	6728.38
724.386	6686.35
724.729	6769.29
725.071	6744.43
725.413	6734.71
725.755	6698.78
726.097	6631.21
726.439	6643.19
726.782	6635.73
727.124	6634.15
727.465	6661.94
727.807	6652.68
728.149	6618.55
728.491	6575.17
728.833	6682.28
729.175	6662.17
729.516	6644.09
729.858	6607.93
730.199	6621.04
730.541	6590.31
730.882	6622.4
731.224	6602.06
731.565	6580.82
731.906	6619.68
732.248	6600.48
732.589	6567.48
732.93	6569.52
733.271	6520.7
733.612	6534.94
733.953	6591.89
734.294	6581.49
734.635	6576.97
734.976	6589.18
735.317	6550.76
735.658	6573.81
735.999	6549.18
736.339	6534.94
736.68	6623.98
737.021	6564.77
737.361	6548.95
737.702	6636.41
738.042	6510.76
738.383	6554.15
738.723	6544.21
739.063	6599.8
739.404	6557.77
739.744	6576.07
740.084	6567.93
740.424	6560.93
740.764	6619.91
741.104	6594.83
741.444	6609.06
741.784	6585.11
742.124	6625.11
742.464	6664.88
742.804	6644.99
743.143	6677.99
743.483	6662.4
743.823	6671.66
744.162	6618.78
744.502	6666.01
744.841	6679.8
745.181	6714.82
745.52	6726.57
745.86	6741.04
746.199	6786.91
746.538	6799.57
746.877	6857.87
747.216	6854.48
747.556	6862.62
747.895	6903.52
748.234	6899
748.573	6970.64
748.911	6958.43
749.25	7035.04
749.589	7052.67
749.928	7098.54
750.267	7131.99
750.605	7147.58
750.944	7250.85
751.283	7202.72
751.621	7390.74
751.96	7336.95
752.298	7391.19
752.636	7522.49
752.975	7530.4
753.313	7599.77
753.651	7677.96
753.989	7699.2
754.327	7759.32
754.666	7858.75
755.004	7945.53
755.342	8003.6
755.679	8132.64
756.017	8155.46
756.355	8273.65
756.693	8290.15
757.031	8427.32
757.368	8503.48
757.706	8588.67
758.044	8655.79
758.381	8812.17
758.719	8933.07
759.056	8974.88
759.394	9107.53
759.731	9112.73
760.068	9214.19
760.405	9383
760.743	9367.86
761.08	9622.09
761.417	9631.36
761.754	9787.96
762.091	9872.93
762.428	9872.93
762.765	9953.16
763.102	10152.25
763.438	10227.5
763.775	10322.86
764.112	10435.86
764.449	10534.84
764.785	10603.99
765.122	10625.23
765.458	10765.34
765.795	10911.1
766.131	10956.29
766.467	11065.67
766.804	11138.21
767.14	11187.47
767.476	11292.78
767.812	11316.28
768.148	11367.36
768.485	11452.33
