Data from hue_290_FLMS001491_00097.txt Node
Date: Tue Feb 07 15:53:45 GMT 2017
User: dcchb
Spectrometer: FLMS00149
Trigger mode: 0
Integration Time (sec): 2.000000E-2
Scans to average: 10
Electric dark correction enabled: true
Nonlinearity correction enabled: false
Boxcar width: 0
XAxis mode: Wavelengths
Number of Pixels in Spectrum: 2048
>>>>>Begin Spectral Data<<<<<
341.393	-28.05
341.776	-28.05
342.16	-28.05
342.543	-44.09
342.927	-67.82
343.31	-70.31
343.693	-66.47
344.077	-68.5
344.46	-64.43
344.843	-55.39
345.226	-46.35
345.61	-37.09
345.993	-23.76
346.376	1.55
346.759	15.34
347.142	27.09
347.525	55.56
347.908	67.54
348.291	52.4
348.674	115
349.057	97.82
349.44	131.95
349.823	132.85
350.206	165.84
350.588	194.32
350.971	222.34
351.354	247.2
351.737	229.57
352.119	265.73
352.502	249.46
352.884	265.5
353.267	264.37
353.65	284.94
354.032	305.5
354.414	290.36
354.797	311.15
355.179	301.66
355.562	322.68
355.944	343.01
356.326	357.48
356.709	317.93
357.091	335.78
357.473	355.44
357.855	343.24
358.238	348.89
358.62	339.85
359.002	339.17
359.384	331.04
359.766	322.9
360.148	347.76
360.53	358.61
360.912	311.6
361.294	346.18
361.676	350.47
362.057	349.79
362.439	353.86
362.821	321.32
363.203	336.91
363.584	319.96
363.966	326.29
364.348	331.71
364.729	315.44
365.111	317.25
365.493	307.53
365.874	335.33
366.256	312.96
366.637	315.67
367.019	316.35
367.4	332.39
367.781	309.57
368.163	306.86
368.544	315.67
368.925	317.48
369.306	313.41
369.688	324.93
370.069	329.68
370.45	301.88
370.831	336.01
371.212	318.16
371.593	325.39
371.974	316.12
372.355	320.64
372.736	317.25
373.117	330.58
373.498	325.16
373.879	310.02
374.26	310.25
374.641	333.97
375.021	325.16
375.402	336.46
375.783	327.87
376.163	324.93
376.544	320.64
376.925	317.48
377.305	322.68
377.686	328.1
378.066	329.91
378.447	329.23
378.827	329.45
379.208	322.68
379.588	344.82
379.968	327.42
380.349	348.21
380.729	323.58
381.109	326.52
381.489	329.23
381.87	347.31
382.25	350.47
382.63	330.58
383.01	342.56
383.39	347.08
383.77	343.24
384.15	347.08
384.53	355.67
384.91	349.57
385.29	342.79
385.67	340.08
386.049	373.3
386.429	379.17
386.809	371.94
387.189	350.47
387.568	383.46
387.948	371.49
388.328	368.32
388.707	373.3
389.087	365.84
389.466	361.77
389.846	361.77
390.225	376.01
390.605	361.77
390.984	348.21
391.363	387.76
391.743	370.13
392.122	394.76
392.501	391.6
392.881	382.11
393.26	393.86
393.639	403.58
394.018	371.49
394.397	392.73
394.776	392.28
395.155	409
395.534	390.02
395.913	379.17
396.292	396.12
396.671	421.2
397.05	426.18
397.429	413.07
397.808	409
398.186	404.48
398.565	434.31
398.944	414.2
399.323	410.58
399.701	411.03
400.08	433.86
400.458	442.22
400.837	451.03
401.215	422.11
401.594	426.85
401.972	422.56
402.351	440.19
402.729	435.21
403.107	445.84
403.486	467.08
403.864	445.38
404.242	452.16
404.62	443.8
404.999	469.79
405.377	470.69
405.755	472.73
406.133	471.15
406.511	474.31
406.889	466.63
407.267	505.27
407.645	484.48
408.023	481.32
408.401	501.65
408.779	500.52
409.156	509.79
409.534	525.38
409.912	513.63
410.29	523.12
410.667	529
411.045	513.86
411.422	540.97
411.8	555.44
412.178	573.97
412.555	586.85
412.933	573.52
413.31	583.69
413.687	593.63
414.065	585.95
414.442	608.09
414.819	613.97
415.197	624.14
415.574	631.37
415.951	650.8
416.328	666.17
416.705	651.03
417.082	653.97
417.46	665.94
417.837	678.37
418.214	701.2
418.591	692.38
418.967	717.47
419.344	700.52
419.721	721.31
420.098	729.44
420.475	743.23
420.852	735.32
421.228	744.58
421.605	776.45
421.982	749.56
422.358	766.05
422.735	765.83
423.111	790.69
423.488	797.69
423.864	813.06
424.241	814.41
424.617	823.68
424.994	824.81
425.37	848.09
425.746	857.35
426.123	855.99
426.499	845.6
426.875	898.03
427.251	871.81
427.627	916.56
428.003	918.59
428.379	930.57
428.756	928.76
429.132	943.45
429.507	978.03
429.883	941.42
430.259	976.22
430.635	988.87
431.011	982.09
431.387	1009.44
431.763	1025.71
432.138	1054.41
432.514	1047.63
432.89	1065.25
433.265	1087.17
433.641	1080.17
434.016	1106.38
434.392	1094.86
434.767	1141.18
435.143	1129.21
435.518	1168.53
435.894	1144.57
436.269	1168.75
436.644	1202.43
437.02	1221.41
437.395	1222.76
437.77	1251.69
438.145	1234.97
438.52	1245.14
438.895	1270.22
439.271	1273.84
439.646	1308.86
440.021	1298.92
440.395	1294.18
440.77	1309.77
441.145	1288.53
441.52	1346.38
441.895	1309.54
442.27	1361.52
442.645	1350.22
443.019	1370.56
443.394	1391.57
443.769	1390.44
444.143	1399.26
444.518	1413.27
444.892	1405.36
445.267	1427.5
445.641	1426.37
446.016	1437
446.39	1452.81
446.764	1458.92
447.139	1470.44
447.513	1453.27
447.887	1455.07
448.262	1453.04
448.636	1458.69
449.01	1467.28
449.384	1481.74
449.758	1497.33
450.132	1514.06
450.506	1540.72
450.88	1512.25
451.254	1505.69
451.628	1530.33
452.002	1549.99
452.376	1575.98
452.75	1595.64
453.123	1603.32
453.497	1617.56
453.871	1608.74
454.244	1617.33
454.618	1631.34
454.992	1686.48
455.365	1658.91
455.739	1680.61
456.112	1693.49
456.486	1713.82
456.859	1717.21
457.232	1751.11
457.606	1738.23
457.979	1757.21
458.352	1759.02
458.725	1803.77
459.099	1805.8
459.472	1817.78
459.845	1874.5
460.218	1875.18
460.591	1874.72
460.964	1886.02
461.337	1926.02
461.71	1920.6
462.083	1930.54
462.456	1953.59
462.829	1913.14
463.201	1973.03
463.574	1954.5
463.947	2022.29
464.32	2058.22
464.692	2045.57
465.065	2076.53
465.438	2093.02
465.81	2123.08
466.183	2149.52
466.555	2127.37
466.928	2154.27
467.3	2188.84
467.672	2157.43
468.045	2232.68
468.417	2222.74
468.789	2236.07
469.161	2239.46
469.534	2290.53
469.906	2297.31
470.278	2307.71
470.65	2326.01
471.022	2373.24
471.394	2415.05
471.766	2448.49
472.138	2437.87
472.51	2460.92
472.882	2490.3
473.253	2545.22
473.625	2563.75
473.997	2600.58
474.369	2597.42
474.74	2658.66
475.112	2670.41
475.484	2695.72
475.855	2701.37
476.227	2751.54
476.598	2807.81
476.97	2833.57
477.341	2876.51
477.713	2903.17
478.084	2896.62
478.455	2961.48
478.827	2989.72
479.198	3024.75
479.569	3037.18
479.94	3112.88
480.311	3127.35
480.682	3196.72
481.053	3265.42
481.424	3270.85
481.795	3304.74
482.166	3340.67
482.537	3357.62
482.908	3384.52
483.279	3445.3
483.65	3452.54
484.021	3535.25
484.391	3532.08
484.762	3582.93
485.133	3568.69
485.503	3640.55
485.874	3682.81
486.244	3695.24
486.615	3756.94
486.985	3794.67
487.356	3852.53
487.726	3872.86
488.097	3949.7
488.467	3932.75
488.837	4007.78
489.207	4018.85
489.578	4050.94
489.948	4121.67
490.318	4159.86
490.688	4165.96
491.058	4186.98
491.428	4254.32
491.798	4344.49
492.168	4307.66
492.538	4308.79
492.908	4383.13
493.278	4457.48
493.648	4464.71
494.017	4465.17
494.387	4499.06
494.757	4531.38
495.126	4564.82
495.496	4593.98
495.866	4631.71
496.235	4667.65
496.605	4732.95
496.974	4674.2
497.344	4719.62
497.713	4740.64
498.082	4800.07
498.452	4803.69
498.821	4828.77
499.19	4806.63
499.559	4881.88
499.928	4878.26
500.298	4895.44
500.667	4951.71
501.036	4949.9
501.405	4973.4
501.774	4979.95
502.143	5051.59
502.512	5040.07
502.88	5065.6
503.249	5044.81
503.618	5098.82
503.987	5083.91
504.356	5096.33
504.724	5119.84
505.093	5168.88
505.462	5159.38
505.83	5218.59
506.199	5269.89
506.567	5225.37
506.936	5234.86
507.304	5341.75
507.672	5340.17
508.041	5321.87
508.409	5345.82
508.777	5381.07
509.145	5433.05
509.514	5381.07
509.882	5453.39
510.25	5451.35
510.618	5499.04
510.986	5436.66
511.354	5517.79
511.722	5559.37
512.09	5615.19
512.458	5574.74
512.826	5653.61
513.193	5643.89
513.561	5669.43
513.929	5681.63
514.297	5722.31
514.664	5696.77
515.032	5762.76
515.4	5778.12
515.767	5775.41
516.135	5772.02
516.502	5713.49
516.869	5834.85
517.237	5838.69
517.604	5780.84
517.972	5837.33
518.339	5864.68
518.706	5886.14
519.073	5915.07
519.44	5982.41
519.808	5965.01
520.175	5937.22
520.542	6046.59
520.909	6027.84
521.276	6037.33
521.643	6094.73
522.009	6081.85
522.376	6161.62
522.743	6168.4
523.11	6170.66
523.477	6289.98
523.843	6206.59
524.21	6295.4
524.577	6288.39
524.943	6346.47
525.31	6347.38
525.676	6400.93
526.043	6432.34
526.409	6436.86
526.776	6403.65
527.142	6462.85
527.508	6496.52
527.874	6572.45
528.241	6590.31
528.607	6576.75
528.973	6631.89
529.339	6656.97
529.705	6627.59
530.071	6745.56
530.437	6721.38
530.803	6772.45
531.169	6800.7
531.535	6813.13
531.901	6859.45
532.267	6861.03
532.632	6864.88
532.998	6884.31
533.364	6925.21
533.73	7020.13
534.095	6997.53
534.461	7032.78
534.826	7080.69
535.192	7137.86
535.557	7062.16
535.923	7102.16
536.288	7110.52
536.653	7164.98
537.019	7092.21
537.384	7157.75
537.749	7180.8
538.114	7212.89
538.479	7215.15
538.845	7255.37
539.21	7245.2
539.575	7265.09
539.94	7317.75
540.305	7297.86
540.67	7312.32
541.034	7360.91
541.399	7405.65
541.764	7456.5
542.129	7419.44
542.494	7487.01
542.858	7442.71
543.223	7470.51
543.587	7538.53
543.952	7507.57
544.316	7578.08
544.681	7594.8
545.045	7584.18
545.41	7654.46
545.774	7639.77
546.138	7713.44
546.503	7666.44
546.867	7704.4
547.231	7801.35
547.595	7774.68
547.959	7784.4
548.324	7773.33
548.688	7832.99
549.052	7837.96
549.416	7828.92
549.779	7854.45
550.143	7872.31
550.507	7849.03
550.871	7875.02
551.235	7957.05
551.599	7931.74
551.962	7959.99
552.326	8045.64
552.689	7985.75
553.053	8046.77
553.417	7997.73
553.78	8082.47
554.143	8071.85
554.507	8067.56
554.87	8112.98
555.234	8142.58
555.597	8114.56
555.96	8150.94
556.323	8254.44
556.686	8134.22
557.05	8208.57
557.413	8242.24
557.776	8208.57
558.139	8298.74
558.502	8275.46
558.865	8311.62
559.228	8358.17
559.59	8320.88
559.953	8383.71
560.316	8509.35
560.679	8443.59
561.041	8475.46
561.404	8549.58
561.767	8559.52
562.129	8489.69
562.492	8613.08
562.854	8560.65
563.217	8607.66
563.579	8577.15
563.941	8685.17
564.304	8688.56
564.666	8800.64
565.028	8735.11
565.39	8843.36
565.753	8810.14
566.115	8857.14
566.477	8940.3
566.839	8932.84
567.201	8934.43
567.563	8892.85
567.925	8988.21
568.287	9009.9
568.648	9043.8
569.01	9087.87
569.372	9128.55
569.734	9105.27
570.095	9167.64
570.457	9206.51
570.819	9311.37
571.18	9251.93
571.542	9337.58
571.903	9352.04
572.265	9398.82
572.626	9360.63
572.987	9458.25
573.349	9471.36
573.71	9476.11
574.071	9545.71
574.432	9630.45
574.794	9648.08
575.155	9667.29
575.516	9701.19
575.877	9747.06
576.238	9852.59
576.599	9909.09
576.96	9902.99
577.32	9920.61
577.681	9996.32
578.042	10103.21
578.403	10128.07
578.763	10156.31
579.124	10245.13
579.485	10322.64
579.845	10388.17
580.206	10361.51
580.566	10535.97
580.927	10635.4
581.287	10731.44
581.648	10728.73
582.008	10819.57
582.368	10914.71
582.728	10990.42
583.089	11099.57
583.449	11113.35
583.809	11264.53
584.169	11312.89
584.529	11450.74
584.889	11636.5
585.249	11739.32
585.609	11710.62
585.969	11891.41
586.329	12038.75
586.688	12072.65
587.048	12269.25
587.408	12296.6
587.768	12408.01
588.127	12581.34
588.487	12660.66
588.846	12862.68
589.206	12907.2
589.565	13036.92
589.925	13205.05
590.284	13315.33
590.643	13491.37
591.003	13607.3
591.362	13799.83
591.721	13920.96
592.08	14079.38
592.44	14193.04
592.799	14283.21
593.158	14440.72
593.517	14553.49
593.876	14756.42
594.235	14845.23
594.593	14930.43
594.952	15191.66
595.311	15265.11
595.67	15391.88
596.029	15682.27
596.387	15649.28
596.746	15861.48
597.104	15960
597.463	16135.59
597.822	16169.49
598.18	16286.32
598.538	16413.1
598.897	16648.8
599.255	16557.05
599.613	16880.88
599.972	16942.8
600.33	17129.69
600.688	17053.08
601.046	17308.44
601.404	17534.43
601.762	17544.6
602.12	17803.57
602.478	17818.03
602.836	17930.57
603.194	17883.12
603.552	18208.08
603.91	18275.65
604.268	18378.92
604.625	18401.97
604.983	18514.29
605.341	18526.26
605.698	18705.47
606.056	18738.69
606.413	18866.59
606.771	18934.16
607.128	19067.72
607.485	19097.55
607.843	19070.2
608.2	19305.9
608.557	19415.28
608.914	19444.66
609.272	19517.65
609.629	19669.51
609.986	19711.09
610.343	19746.8
610.7	19964.87
611.057	19927.81
611.414	20016.85
611.771	20045.55
612.127	20215.26
612.484	20238.31
612.841	20357.18
613.198	20326.89
613.554	20465.87
613.911	20558.08
614.267	20631.52
614.624	20761.23
614.98	20680.78
615.337	20957.84
615.693	20851.63
616.05	20845.3
616.406	21054.11
616.762	21024.5
617.118	21105.41
617.475	21164.16
617.831	21209.36
618.187	21335.68
618.543	21388.79
618.899	21457.94
619.255	21429.92
619.611	21542
619.967	21592.85
620.323	21615.45
620.678	21690.25
621.034	21598.27
621.39	21611.15
621.746	21651.38
622.101	21839.62
622.457	21708.78
622.812	21786.07
623.168	21974.31
623.523	21826.52
623.879	21934.08
624.234	21845.05
624.589	21985.83
624.945	21926.17
625.3	21953.29
625.655	22029.45
626.01	21932.5
626.365	22087.75
626.72	21981.54
627.075	22089.79
627.43	22065.61
627.785	21998.94
628.14	22078.04
628.495	22177.24
628.85	22208.88
629.205	22074.42
629.559	22212.95
629.914	22186.73
630.269	22206.17
630.623	22052.05
630.978	22164.13
631.332	22111.48
631.687	22212.72
632.041	22101.31
632.396	22115.55
632.75	22131.37
633.104	22112.38
633.459	22022.44
633.813	22005.04
634.167	22024.25
634.521	22081.88
634.875	22056.57
635.229	21915.55
635.583	21962.78
635.937	21923.24
636.291	21877.14
636.645	21979.51
636.999	21910.58
637.352	21901.54
637.706	21900.19
638.06	21991.71
638.413	21911.94
638.767	21933.63
639.121	21941.09
639.474	21803.24
639.828	21878.94
640.181	21858.15
640.534	21835.1
640.888	21852.5
641.241	21693.64
641.594	21739.06
641.947	21870.81
642.301	21796.91
642.654	21864.03
643.007	21814.09
643.36	21796.46
643.713	21728.44
644.066	21877.14
644.419	21742.9
644.771	21552.63
645.124	21402.12
645.477	21419.97
645.83	21268.11
646.182	21175.69
646.535	21124.16
646.888	21133.65
647.24	21055.24
647.593	21231.28
647.945	21105.86
648.298	20959.87
648.65	20960.32
649.002	21032.41
649.355	21160.09
649.707	21078.29
650.059	21109.02
650.411	21382.91
650.763	21429.01
651.115	21662.45
651.467	21629.91
651.819	21517.6
652.171	21559.63
652.523	21455
652.875	21624.94
653.227	21497.71
653.578	21682.57
653.93	21597.37
654.282	21561.44
654.633	21419.97
654.985	21565.05
655.337	21628.1
655.688	21608.9
656.039	21642.57
656.391	21475.11
656.742	21506.3
657.094	21536.35
657.445	21652.06
657.796	21660.42
658.147	21599.18
658.498	21613.19
658.849	21605.28
659.2	21598.05
659.551	21572.96
659.902	21529.35
660.253	21604.6
660.604	21604.38
660.955	21522.34
661.306	21554.21
661.656	21595.11
662.007	21596.01
662.358	21605.51
662.708	21654.09
663.059	21663.58
663.409	21586.07
663.76	21727.76
664.11	21694.77
664.461	21711.72
664.811	21771.83
665.161	21693.41
665.511	21624.49
665.862	21672.4
666.212	21741.55
666.562	21794.88
666.912	21673.98
667.262	21690.93
667.612	21685.96
667.962	21711.04
668.312	21603.02
668.662	21731.38
669.011	21750.36
669.361	21565.05
669.711	21565.73
670.06	21565.05
670.41	21571.38
670.76	21574.55
671.109	21622.68
671.459	21632.62
671.808	21525.06
672.157	21597.82
672.507	21527.09
672.856	21481.67
673.205	21505.62
673.554	21618.16
673.904	21441.22
674.253	21577.94
674.602	21613.41
674.951	21248.9
675.3	20950.61
675.649	21354.21
675.998	21432.18
676.346	21408.22
676.695	21467.2
677.044	21269.24
677.393	21373.42
677.741	21298.62
678.09	21325.29
678.438	21326.42
678.787	21276.25
679.135	21257.72
679.484	21070.15
679.832	21186.08
680.181	21064.28
680.529	21113.31
680.877	21032.41
681.225	20972.98
681.573	21094.11
681.922	20922.59
682.27	20962.13
682.618	20926.43
682.966	20796.94
683.314	20889.82
683.661	20803.94
684.009	20666.1
684.357	20636.04
684.705	20718.52
685.053	20730.95
685.4	20649.6
685.748	20528.47
686.095	20542.03
686.443	20505.65
686.79	20528.25
687.138	20404.18
687.485	20407.57
687.832	20281.7
688.18	20290.96
688.527	20163.74
688.874	20214.81
689.221	20061.82
689.568	20088.26
689.915	20029.05
690.262	19998.77
690.609	19986.56
690.956	19768.27
691.303	19855.49
691.65	19726.91
691.997	19788.38
692.344	19615.95
692.69	19587.25
693.037	19605.56
693.383	19470.19
693.73	19497.54
694.077	19283.98
694.423	19331.44
694.769	19287.37
695.116	19223.2
695.462	19167.83
695.808	19152.91
696.155	19139.81
696.501	19060.04
696.847	19007.61
697.193	18826.82
697.539	18824.56
697.885	18785.01
698.231	18667.73
698.577	18682.64
698.923	18627.96
699.269	18426.15
699.614	18385.48
699.96	18424.57
700.306	18396.1
700.651	18302.77
700.997	18193.84
701.342	18230
701.688	18195.2
702.033	18091.93
702.379	17936
702.724	17902.78
703.069	17979.84
703.415	17708.43
703.76	17830.92
704.105	17770.8
704.45	17710.24
704.795	17621.66
705.14	17587.98
705.485	17580.53
705.83	17477.7
706.175	17427.99
706.52	17380.76
706.865	17340.53
707.209	17291.72
707.554	17283.36
707.899	17220.31
708.243	17131.95
708.588	17130.37
708.932	16971.28
709.277	16969.24
709.621	16877.27
709.966	16791.85
710.31	16850.38
710.654	16638.4
710.998	16686.54
711.342	16683.15
711.687	16630.49
712.031	16655.58
712.375	16589.59
712.719	16558.63
713.063	16531.74
713.407	16569.93
713.75	16534.9
714.094	16479.76
714.438	16366.1
714.782	16401.8
715.125	16373.78
715.469	16383.04
715.812	16270.73
716.156	16185.31
716.499	16213.1
716.843	16140.34
717.186	16218.53
717.53	16131.3
717.873	16145.76
718.216	16086.33
718.559	16064.41
718.902	15902.6
719.246	15974.69
719.589	15987.8
719.932	15895.82
720.275	15903.96
720.617	15846.56
720.96	15845.88
721.303	15882.04
721.646	15820.8
721.989	15706.9
722.331	15791.65
722.674	15761.82
723.016	15821.48
723.359	15734.47
723.701	15697.41
724.044	15579
724.386	15655.15
724.729	15658.77
725.071	15643.63
725.413	15614.7
725.755	15617.19
726.097	15478.66
726.439	15414.03
726.782	15383.3
727.124	15521.82
727.465	15446.57
727.807	15415.16
728.149	15465.33
728.491	15401.6
728.833	15441.83
729.175	15400.92
729.516	15453.12
729.858	15345.78
730.199	15400.24
730.541	15392.56
730.882	15275.5
731.224	15435.95
731.565	15292.68
731.906	15388.95
732.248	15303.52
732.589	15218.78
732.93	15226.69
733.271	15282.96
733.612	15309.63
733.953	15340.81
734.294	15239.8
734.635	15268.72
734.976	15363.86
735.317	15244.77
735.658	15173.13
735.999	15218.1
736.339	15251.77
736.68	15268.72
737.021	15316.41
737.361	15159.8
737.702	15366.8
738.042	15253.58
738.383	15280.47
738.723	15348.95
739.063	15250.87
739.404	15288.38
739.744	15353.92
740.084	15264.66
740.424	15357.08
740.764	15233.92
741.104	15295.61
741.444	15295.39
741.784	15364.99
742.124	15323.41
742.464	15292.9
742.804	15297.87
743.143	15347.36
743.483	15341.94
743.823	15321.15
744.162	15362.73
744.502	15440.92
744.841	15375.84
745.181	15492.67
745.52	15477.3
745.86	15616.06
746.199	15468.94
746.538	15565.89
746.877	15674.59
747.216	15653.12
747.556	15703.51
747.895	15810.86
748.234	15763.17
748.573	15873.45
748.911	15824.64
749.25	15932.43
749.589	16029.83
749.928	16063.28
750.267	16216.04
750.605	16186.89
750.944	16209.72
751.283	16390.05
751.621	16453.1
751.96	16526.32
752.298	16461.23
752.636	16585.75
752.975	16680.21
753.313	16718.18
753.651	16883.14
753.989	16920.88
754.327	17036.81
754.666	17021.45
755.004	17244.26
755.342	17307.54
755.679	17421.43
756.017	17479.51
756.355	17710.69
756.693	17675.44
757.031	17837.47
757.368	17878.15
757.706	17857.13
758.044	18054.19
758.381	18192.71
758.719	18218.02
759.056	18339.15
