Data from hue_230_FLMS001491_00064.txt Node
Date: Tue Feb 07 16:37:35 GMT 2017
User: dcchb
Spectrometer: FLMS00149
Trigger mode: 0
Integration Time (sec): 2.000000E-2
Scans to average: 10
Electric dark correction enabled: true
Nonlinearity correction enabled: false
Boxcar width: 0
XAxis mode: Wavelengths
Number of Pixels in Spectrum: 2048
>>>>>Begin Spectral Data<<<<<
341.393	-14.56
341.776	-14.56
342.16	-14.56
342.543	-57.5
342.927	-63.37
343.31	-76.26
343.693	-62.7
344.077	-66.99
344.46	-52.3
344.843	-57.05
345.226	-62.02
345.61	-29.25
345.993	-5.07
346.376	-33.54
346.759	9.39
347.142	38.09
347.525	46.91
347.908	53.01
348.291	83.51
348.674	107.47
349.057	106.79
349.44	142.95
349.823	134.59
350.206	152.89
350.588	183.63
350.971	191.76
351.354	241.25
351.737	238.54
352.119	230.4
352.502	268.14
352.884	278.09
353.267	270.63
353.65	270.85
354.032	296.62
354.414	291.19
354.797	301.59
355.179	302.27
355.562	316.28
355.944	321.93
356.326	323.96
356.709	315.37
357.091	314.7
357.473	331.42
357.855	337.07
358.238	335.49
358.62	344.52
359.002	321.02
359.384	335.26
359.766	323.96
360.148	343.85
360.53	325.77
360.912	348.37
361.294	325.32
361.676	311.98
362.057	316.05
362.439	316.05
362.821	309.5
363.203	316.95
363.584	318.54
363.966	314.02
364.348	319.21
364.729	315.6
365.111	318.31
365.493	325.09
365.874	314.47
366.256	296.62
366.637	300.23
367.019	309.27
367.4	301.36
367.781	293.68
368.163	308.59
368.544	291.87
368.925	297.52
369.306	314.24
369.688	289.84
370.069	302.27
370.45	302.72
370.831	303.62
371.212	284.64
371.593	307.01
371.974	300.91
372.355	309.27
372.736	311.98
373.117	309.5
373.498	306.79
373.879	297.97
374.26	293.68
374.641	305.2
375.021	309.72
375.402	329.84
375.783	314.47
376.163	328.48
376.544	330.29
376.925	340.91
377.305	326.22
377.686	331.64
378.066	328.48
378.447	320.34
378.827	327.12
379.208	314.47
379.588	311.53
379.968	329.84
380.349	313.79
380.729	329.38
381.109	319.21
381.489	309.72
381.87	331.64
382.25	315.15
382.63	347.69
383.01	333.45
383.39	335.49
383.77	341.81
384.15	342.49
384.53	329.84
384.91	312.44
385.29	318.54
385.67	335.49
386.049	340.01
386.429	325.77
386.809	343.17
387.189	335.94
387.568	340.01
387.948	335.26
388.328	346.78
388.707	370.96
389.087	360.12
389.466	352.43
389.846	368.93
390.225	360.8
390.605	353.11
390.984	358.08
391.363	365.32
391.743	377.52
392.122	345.88
392.501	357.18
392.881	364.64
393.26	362.15
393.639	373.9
394.018	387.69
394.397	382.94
394.776	368.03
395.155	370.29
395.534	390.17
395.913	380.91
396.292	371.42
396.671	374.81
397.05	373.68
397.429	376.61
397.808	385.43
398.186	358.76
398.565	389.5
398.944	388.59
399.323	401.47
399.701	399.21
400.08	383.39
400.458	378.87
400.837	386.56
401.215	400.34
401.594	412.77
401.972	399.21
402.351	404.18
402.729	407.35
403.107	411.87
403.486	418.87
403.864	429.04
404.242	433.79
404.62	437.4
404.999	447.12
405.377	439.44
405.755	417.07
406.133	420.23
406.511	444.41
406.889	439.21
407.267	451.64
407.645	450.06
408.023	464.97
408.401	478.53
408.779	462.94
409.156	452.09
409.534	484.86
409.912	485.54
410.29	502.26
410.667	473.11
411.045	503.16
411.422	510.4
411.8	509.27
412.178	509.94
412.555	516.05
412.933	509.04
413.31	518.53
413.687	531.86
414.065	554.69
414.442	553.56
414.819	559.21
415.197	566.44
415.574	582.03
415.951	551.75
416.328	589.49
416.705	590.62
417.082	625.42
417.46	603.28
417.837	608.47
418.214	612.09
418.591	618.87
418.967	617.06
419.344	644.63
419.721	638.75
420.098	638.3
420.475	631.97
420.852	655.25
421.228	649.83
421.605	674.91
421.982	692.54
422.358	685.31
422.735	692.76
423.111	697.28
423.488	744.97
423.864	710.62
424.241	747
424.617	771.18
424.994	742.25
425.37	757.17
425.746	789.94
426.123	786.77
426.499	804.4
426.875	815.25
427.251	814.57
427.627	829.94
428.003	837.17
428.379	845.3
428.756	868.35
429.132	838.75
429.507	880.78
429.883	858.86
430.259	905.19
430.635	893.89
431.011	912.42
431.387	936.83
431.763	955.58
432.138	945.86
432.514	955.13
432.89	962.36
433.265	983.6
433.641	1001
434.016	1023.6
434.392	1042.13
434.767	1050.72
435.143	1056.82
435.518	1083.71
435.894	1063.83
436.269	1108.57
436.644	1116.48
437.02	1132.75
437.395	1152.87
437.77	1157.38
438.145	1196.48
438.52	1238.06
438.895	1235.35
439.271	1201.68
439.646	1248.46
440.021	1265.4
440.395	1267.44
440.77	1271.73
441.145	1280.55
441.52	1330.49
441.895	1357.15
442.27	1341.79
442.645	1384.27
443.019	1378.62
443.394	1353.99
443.769	1422.91
444.143	1404.84
444.518	1408.68
444.892	1398.28
445.267	1435.34
445.641	1444.61
446.016	1423.14
446.39	1459.52
446.764	1471.05
447.139	1475.12
447.513	1480.99
447.887	1515.12
448.262	1513.53
448.636	1525.74
449.01	1543.82
449.384	1557.37
449.758	1565.06
450.132	1589.24
450.506	1592.63
450.88	1588.79
451.254	1607.09
451.628	1641.21
452.002	1654.55
452.376	1661.55
452.75	1645.28
453.123	1664.49
453.497	1733.64
453.871	1720.08
454.244	1741.1
454.618	1744.94
454.992	1789.23
455.365	1789.01
455.739	1826.29
456.112	1836.69
456.486	1860.87
456.859	1857.25
457.232	1853.86
457.606	1877.14
457.979	1954.88
458.352	1899.96
458.725	1965.27
459.099	1960.53
459.472	2026.06
459.845	2006.18
460.218	2032.84
460.591	2056.34
460.964	2101.31
461.337	2127.53
461.71	2102.9
462.083	2200.07
462.456	2137.7
462.829	2171.82
463.201	2192.16
463.574	2209.33
463.947	2249.11
464.32	2264.93
464.692	2316.45
465.065	2322.1
465.438	2344.02
465.81	2386.05
466.183	2397.35
466.555	2445.26
466.928	2414.53
467.3	2456.79
467.672	2501.76
468.045	2546.27
468.417	2503.56
468.789	2561.87
469.161	2580.17
469.534	2626.27
469.906	2665.82
470.278	2699.04
470.65	2725.25
471.022	2790.79
471.394	2785.82
471.766	2821.97
472.138	2882.31
472.51	2915.3
472.882	2955.98
473.253	2956.21
473.625	3006.6
473.997	3073.04
474.369	3082.31
474.74	3120.05
475.112	3144.9
475.484	3214.28
475.855	3245.24
476.227	3269.42
476.598	3336.31
476.97	3382.64
477.341	3427.83
477.713	3485.46
478.084	3481.17
478.455	3560.26
478.827	3619.02
479.198	3664.44
479.569	3690.88
479.94	3791.67
480.311	3802.74
480.682	3865.56
481.053	3978.55
481.424	4015.61
481.795	4049.74
482.166	4094.48
482.537	4090.87
482.908	4201.6
483.279	4269.39
483.65	4277.53
484.021	4381.03
484.391	4416.96
484.762	4470.97
485.133	4485.43
485.503	4520.01
485.874	4595.26
486.244	4627.8
486.615	4711.87
486.985	4784.86
487.356	4830.06
487.726	4861.92
488.097	4971.75
488.467	5007.91
488.837	5050.62
489.207	5072.31
489.578	5164.74
489.948	5212.42
490.318	5268.92
490.688	5249.03
491.058	5350.49
491.428	5419.65
491.798	5432.3
492.168	5519.08
492.538	5532.41
492.908	5620.77
493.278	5602.69
493.648	5680.43
494.017	5725.63
494.387	5802.01
494.757	5799.52
495.126	5844.27
495.496	5846.53
495.866	5895.11
496.235	5946.86
496.605	5991.16
496.974	6044.49
497.344	6063.02
497.713	6049.69
498.082	6153.19
498.452	6164.48
498.821	6181.43
499.19	6203.13
499.559	6269.11
499.928	6226.18
500.298	6319.96
500.667	6286.74
501.036	6325.84
501.405	6345.27
501.774	6312.96
502.143	6376
502.512	6438.83
502.88	6460.3
503.249	6443.12
503.618	6467.08
503.987	6543.01
504.356	6563.57
504.724	6589.78
505.093	6596.34
505.462	6605.6
505.83	6560.18
506.199	6663.23
506.567	6705.26
506.936	6688.54
507.304	6772.15
507.672	6764.92
508.041	6800.85
508.409	6849.44
508.777	6879.95
509.145	6959.27
509.514	6865.48
509.882	6889.89
510.25	6917.91
510.618	6945.03
510.986	6935.54
511.354	7009.43
511.722	6985.93
512.09	7064.35
512.458	7025.71
512.826	7061.41
513.193	7051.69
513.561	7041.75
513.929	7112.03
514.297	7134.85
514.664	7159.94
515.032	7151.13
515.4	7239.71
515.767	7193.16
516.135	7162.2
516.502	7177.34
516.869	7245.36
517.237	7250.33
517.604	7234.06
517.972	7271.35
518.339	7272.48
518.706	7284.91
519.073	7252.82
519.44	7316.77
519.808	7375.98
520.175	7288.07
520.542	7359.93
520.909	7355.87
521.276	7382.53
521.643	7393.15
522.009	7424.56
522.376	7387.96
522.743	7405.81
523.11	7502.53
523.477	7486.03
523.843	7559.93
524.21	7528.29
524.577	7546.6
524.943	7535.52
525.31	7547.05
525.676	7641.28
526.043	7623.66
526.409	7650.55
526.776	7662.52
527.142	7652.81
527.508	7586.37
527.874	7703.2
528.241	7677.21
528.607	7690.09
528.973	7634.05
529.339	7704.78
529.705	7763.31
530.071	7721.05
530.437	7780.71
530.803	7785.69
531.169	7766.02
531.535	7649.64
531.901	7669.53
532.267	7726.93
532.632	7719.25
532.998	7713.37
533.364	7709.53
533.73	7691
534.095	7723.77
534.461	7702.07
534.826	7731.45
535.192	7722.64
535.557	7696.2
535.923	7749.08
536.288	7713.37
536.653	7714.5
537.019	7693.94
537.384	7680.38
537.749	7673.6
538.114	7696.87
538.479	7670.43
538.845	7658
539.21	7624.56
539.575	7653.26
539.94	7598.12
540.305	7637.21
540.67	7592.24
541.034	7565.58
541.399	7537.33
541.764	7599.25
542.129	7561.51
542.494	7536.43
542.858	7561.74
543.223	7551.79
543.587	7537.56
543.952	7504.56
544.316	7504.34
544.681	7459.14
545.045	7523.09
545.41	7494.17
545.774	7469.08
546.138	7479.03
546.503	7448.07
546.867	7410.33
547.231	7431.8
547.595	7472.92
547.959	7411.68
548.324	7359.93
548.688	7351.8
549.052	7387.5
549.416	7292.14
549.779	7380.05
550.143	7298.92
550.507	7372.14
550.871	7331.46
551.235	7311.35
551.599	7337.56
551.962	7286.94
552.326	7304.34
552.689	7356.54
553.053	7237
553.417	7231.35
553.78	7340.05
554.143	7234.51
554.507	7279.94
554.87	7277.22
555.234	7305.02
555.597	7249.65
555.96	7258.24
556.323	7205.81
556.686	7210.78
557.05	7249.88
557.413	7241.97
557.776	7177.11
558.139	7251.01
558.502	7258.69
558.865	7278.81
559.228	7253.04
559.59	7250.78
559.953	7247.62
560.316	7308.18
560.679	7335.08
561.041	7243.55
561.404	7322.65
561.767	7358.8
562.129	7319.48
562.492	7379.59
562.854	7399.71
563.217	7358.13
563.579	7370.33
563.941	7382.98
564.304	7394.96
564.666	7425.47
565.028	7377.33
565.39	7460.27
565.753	7400.38
566.115	7545.92
566.477	7508.63
566.839	7502.3
567.201	7510.66
567.563	7505.69
567.925	7588.63
568.287	7566.03
568.648	7473.6
569.01	7511.79
569.372	7616.2
569.734	7607.84
570.095	7627.95
570.457	7721.51
570.819	7691.45
571.18	7624.56
571.542	7695.52
571.903	7702.07
572.265	7684.22
572.626	7717.89
572.987	7783.2
573.349	7720.83
573.71	7772.35
574.071	7801.05
574.432	7862.52
574.794	7859.58
575.155	7835.85
575.516	7852.35
575.877	7908.17
576.238	7927.38
576.599	7886.02
576.96	7952.46
577.32	7949.75
577.681	8018.9
578.042	8018.9
578.403	7991.33
578.763	7983.19
579.124	7980.71
579.485	8024.55
579.845	8056.64
580.206	8072.68
580.566	8069.29
580.927	8092.34
581.287	8184.77
581.648	8083.3
582.008	8136.18
582.368	8114.49
582.728	8150.42
583.089	8164.43
583.449	8168.73
583.809	8152.46
584.169	8188.61
584.529	8130.76
584.889	8302.73
585.249	8204.43
585.609	8234.49
585.969	8201.04
586.329	8157.2
586.688	8237.65
587.048	8229.29
587.408	8236.97
587.768	8234.26
588.127	8311.55
588.487	8215.5
588.846	8320.81
589.206	8305.9
589.565	8345.67
589.925	8305.9
590.284	8345.44
590.643	8339.57
591.003	8428.61
591.362	8399.91
591.721	8336.41
592.08	8387.03
592.44	8417.98
592.799	8410.08
593.158	8450.07
593.517	8439
593.876	8401.26
594.235	8477.87
594.593	8398.55
594.952	8468.83
595.311	8384.77
595.67	8523.52
596.029	8521.48
596.387	8556.51
596.746	8575.95
597.104	8467.93
597.463	8505.67
597.822	8518.32
598.18	8520.81
598.538	8478.77
598.897	8589.05
599.255	8536.63
599.613	8646.23
599.972	8478.1
600.33	8619.11
600.688	8577.53
601.046	8584.53
601.404	8679.45
601.762	8569.62
602.12	8640.58
602.478	8604.87
602.836	8665.89
603.194	8625.44
603.552	8613.91
603.91	8625.21
604.268	8671.09
604.625	8616.85
604.983	8619.79
605.341	8627.47
605.698	8657.75
606.056	8693.23
606.413	8644.19
606.771	8644.65
607.128	8672.44
607.485	8649.62
607.843	8694.81
608.2	8719.22
608.557	8740.24
608.914	8688.94
609.272	8781.59
609.629	8759.9
609.986	8784.53
610.343	8677.87
610.7	8827.47
611.057	8690.29
611.414	8739.78
611.771	8720.8
612.127	8791.31
612.484	8742.72
612.841	8783.17
613.198	8851.65
613.554	8742.72
613.911	8797.86
614.267	8792.21
614.624	8760.57
614.98	8834.25
615.337	8886.22
615.693	8855.94
616.05	8845.32
616.406	8916.28
616.762	8907.92
617.118	8868.14
617.475	8892.77
617.831	8903.17
618.187	8931.19
618.543	8890.97
618.899	8960.57
619.255	8952.66
619.611	8977.07
619.967	8987.69
620.323	8982.26
620.678	8902.04
621.034	8954.69
621.39	8951.3
621.746	8863.4
622.101	8995.37
622.457	8937.52
622.812	8904.07
623.168	8945.43
623.523	8982.94
623.879	9010.74
624.234	8937.97
624.589	8953.11
624.945	8952.89
625.3	8987.91
625.655	8985.43
626.01	8859.78
626.365	9002.83
626.72	8926.9
627.075	8947.91
627.43	8938.88
627.785	8852.78
628.14	8876.5
628.495	8991.53
628.85	8904.3
629.205	8921.25
629.559	8978.65
629.914	8822.95
630.269	8933
630.623	8878.54
630.978	8813.68
631.332	8907.24
631.687	8995.6
632.041	8861.59
632.396	8838.31
632.75	8860.46
633.104	8823.62
633.459	8798.31
633.813	8813.91
634.167	8816.17
634.521	8794.25
634.875	8799.9
635.229	8722.38
635.583	8750.18
635.937	8728.94
636.291	8703.4
636.645	8728.49
636.999	8755.6
637.352	8749.05
637.706	8681.03
638.06	8756.51
638.413	8634.7
638.767	8647.36
639.121	8644.42
639.474	8637.19
639.828	8625.89
640.181	8694.36
640.534	8677.87
640.888	8638.54
641.241	8601.71
641.594	8549.96
641.947	8578.66
642.301	8557.64
642.654	8550.86
643.007	8614.36
643.36	8566
643.713	8586.57
644.066	8571.2
644.419	8535.95
644.771	8474.03
645.124	8334.37
645.477	8381.83
645.83	8423.86
646.182	8328.5
646.535	8273.13
646.888	8360.59
647.24	8285.78
647.593	8258.22
647.945	8266.35
648.298	8215.96
648.65	8198.78
649.002	8197.88
649.355	8260.25
649.707	8257.76
650.059	8302.51
650.411	8363.75
650.763	8400.81
651.115	8432.67
651.467	8426.12
651.819	8438.55
652.171	8455.72
652.523	8409.4
652.875	8408.95
653.227	8374.6
653.578	8442.39
653.93	8413.47
654.282	8392.45
654.633	8361.04
654.985	8383.41
655.337	8363.3
655.688	8438.55
656.039	8483.75
656.391	8349.51
656.742	8418.66
657.094	8359.68
657.445	8389.74
657.796	8382.05
658.147	8399
658.498	8358.55
658.849	8445.1
659.2	8363.75
659.551	8396.52
659.902	8417.98
660.253	8391.77
660.604	8449.85
660.955	8403.75
661.306	8392.67
661.656	8433.35
662.007	8465.67
662.358	8425.67
662.708	8451.66
663.059	8401.94
663.409	8388.38
663.76	8457.76
664.11	8436.74
664.461	8476.74
664.811	8401.04
665.161	8384.99
665.511	8375.5
665.862	8403.97
666.212	8422.5
666.562	8425.89
666.912	8455.05
667.262	8435.61
667.612	8349.29
667.962	8426.12
668.312	8417.08
668.662	8407.82
669.011	8384.54
669.361	8414.6
669.711	8384.09
670.06	8350.64
670.41	8307.48
670.76	8332.56
671.109	8343.18
671.459	8345.44
671.808	8351.55
672.157	8397.42
672.507	8316.97
672.856	8356.29
673.205	8340.7
673.554	8321.04
673.904	8292.34
674.253	8293.02
674.602	8304.99
674.951	8195.62
675.3	8177.31
675.649	8273.81
675.998	8279.68
676.346	8269.06
676.695	8303.19
677.044	8224.32
677.393	8269.06
677.741	8274.71
678.09	8250.31
678.438	8208.27
678.787	8233.36
679.135	8238.1
679.484	8196.07
679.832	8183.41
680.181	8127.82
680.529	8170.08
680.877	8100.48
681.225	8055.96
681.573	8175.96
681.922	8148.84
682.27	8058.45
682.618	8083.53
682.966	8082.63
683.314	8041.05
683.661	7997.2
684.009	7986.81
684.357	7932.57
684.705	7933.7
685.053	7998.56
685.4	7928.96
685.748	7877.66
686.095	7902.97
686.443	7892.57
686.79	7875.63
687.138	7926.25
687.485	7874.95
687.832	7906.81
688.18	7802.63
688.527	7791.79
688.874	7757.21
689.221	7693.94
689.568	7701.62
689.915	7604.22
690.262	7723.99
690.609	7631.34
690.956	7620.49
691.303	7669.53
691.65	7575.07
691.997	7600.83
692.344	7573.04
692.69	7512.7
693.037	7506.82
693.383	7435.41
693.73	7473.6
694.077	7433.83
694.423	7380.95
694.769	7374.62
695.116	7334.62
695.462	7331.91
695.808	7326.71
696.155	7274.51
696.501	7307.51
696.847	7282.87
697.193	7192.48
697.539	7215.98
697.885	7161.75
698.231	7173.05
698.577	7158.36
698.923	7142.31
699.269	7086.72
699.614	7020.28
699.96	7037
700.306	7025.48
700.651	6968.08
700.997	6947.97
701.342	6926.72
701.688	6950.68
702.033	6929.44
702.379	6912.49
702.724	6933.5
703.069	6874.3
703.415	6836.11
703.76	6767.86
704.105	6773.28
704.45	6781.42
704.795	6750.01
705.14	6726.05
705.485	6678.37
705.83	6637.69
706.175	6674.08
706.52	6606.06
706.865	6597.02
707.209	6646.51
707.554	6568.09
707.899	6584.13
708.243	6552.5
708.588	6508.88
708.932	6518.15
709.277	6514.53
709.621	6517.92
709.966	6471.14
710.31	6493.52
710.654	6398.6
710.998	6443.8
711.342	6419.62
711.687	6384.82
712.031	6373.74
712.375	6366.74
712.719	6361.77
713.063	6344.82
713.407	6386.17
713.75	6322.22
714.094	6306.85
714.438	6304.59
714.782	6260.75
715.125	6275.22
715.469	6270.92
715.812	6222.34
716.156	6197.03
716.499	6189.34
716.843	6182.11
717.186	6224.14
717.53	6178.5
717.873	6213.07
718.216	6194.31
718.559	6096.01
718.902	6093.75
719.246	6135.33
719.589	6133.3
719.932	6101.66
720.275	6138.72
720.617	6084.94
720.96	6059.63
721.303	6099.63
721.646	6063.24
721.989	6075.67
722.331	6042.91
722.674	5990.03
723.016	6057.59
723.359	6037.48
723.701	6129.23
724.044	6016.47
724.386	6013.53
724.729	6054.21
725.071	5989.57
725.413	6037.71
725.755	6006.75
726.097	5959.97
726.439	5923.14
726.782	5965.39
727.124	5967.65
727.465	5962.68
727.807	5964.04
728.149	5939.86
728.491	5951.61
728.833	5975.34
729.175	5902.8
729.516	5940.54
729.858	5928.78
730.199	5932.17
730.541	5884.27
730.882	5960.2
731.224	5940.76
731.565	5898.73
731.906	5912.74
732.248	5929.91
732.589	5885.85
732.93	5909.8
733.271	5929.01
733.612	5946.86
733.953	5907.54
734.294	5929.24
734.635	5882.91
734.976	5934.21
735.317	5868.45
735.658	5922.46
735.999	5876.36
736.339	5914.55
736.68	5876.58
737.021	5868.67
737.361	5877.03
737.702	5941.67
738.042	5892.63
738.383	5940.08
738.723	5932.63
739.063	5930.82
739.404	5943.02
739.744	5971.04
740.084	5967.2
740.424	5942.34
740.764	5962.91
741.104	6014.43
741.444	5980.08
741.784	5934.66
742.124	5984.38
742.464	6003.13
742.804	6008.33
743.143	5978.05
743.483	6050.59
743.823	6057.82
744.162	6091.94
744.502	6067.76
744.841	6098.05
745.181	6141.43
745.52	6116.12
745.86	6162.45
746.199	6197.93
746.538	6148.44
746.877	6334.2
747.216	6279.28
747.556	6253.3
747.895	6337.81
748.234	6277.93
748.573	6378.94
748.911	6421.88
749.25	6464.36
749.589	6464.82
749.928	6564.93
750.267	6634.53
750.605	6613.74
750.944	6625.49
751.283	6644.25
751.621	6791.81
751.96	6810.34
752.298	6879.49
752.636	6949.32
752.975	7006.95
753.313	7083.1
753.651	7153.84
753.989	7173.5
754.327	7351.8
754.666	7357.22
755.004	7435.41
755.342	7576.88
755.679	7632.02
756.017	7686.25
756.355	7881.05
756.693	7879.92
757.031	8032.46
757.368	8114.04
757.706	8200.82
758.044	8248.27
758.381	8394.03
758.719	8507.25
759.056	8637.64
759.394	8725.32
759.731	8821.36
760.068	8926.22
760.405	8996.5
760.743	9087.57
761.08	9300.9
761.417	9342.93
761.754	9527.79
762.091	9603.49
762.428	9690.95
762.765	9815.91
763.102	9923.03
763.438	9993.08
763.775	10128.67
764.112	10305.62
764.449	10440.98
764.785	10476.01
765.122	10607.76
765.458	10673.52
765.795	10777.92
766.131	10854.53
766.467	11031.48
766.804	11163.22
767.14	11238.25
767.476	11318.47
767.812	11370.68
768.148	11494.51
768.485	11605.7
768.821	11625.81
769.157	11621.97
