Data from hue_34_FLMS001491_00088.txt Node
Date: Tue Feb 07 17:26:20 GMT 2017
User: dcchb
Spectrometer: FLMS00149
Trigger mode: 0
Integration Time (sec): 2.000000E-2
Scans to average: 10
Electric dark correction enabled: true
Nonlinearity correction enabled: false
Boxcar width: 0
XAxis mode: Wavelengths
Number of Pixels in Spectrum: 2048
>>>>>Begin Spectral Data<<<<<
341.393	2.94
341.776	2.94
342.16	2.94
342.543	-65.99
342.927	-72.99
343.31	-53.78
343.693	-58.08
344.077	-44.52
344.46	-79.32
344.843	-48.36
345.226	-37.06
345.61	-34.8
345.993	-27.34
346.376	-21.24
346.759	-0.45
347.142	14.46
347.525	37.51
347.908	65.76
348.291	62.6
348.674	93.33
349.057	131.3
349.44	127.23
349.823	164.52
350.206	172.2
350.588	210.62
350.971	229.82
351.354	220.79
351.737	229.82
352.119	237.96
352.502	269.82
352.884	267.34
353.267	287.68
353.65	298.98
354.032	298.52
354.414	310.27
354.797	319.09
355.179	312.31
355.562	329.26
355.944	319.54
356.326	343.72
356.709	337.39
357.091	338.75
357.473	349.82
357.855	332.65
358.238	347.34
358.62	351.86
359.002	331.06
359.384	340.1
359.766	372.65
360.148	340.1
360.53	326.77
360.912	357.28
361.294	348.01
361.676	322.7
362.057	331.52
362.439	325.87
362.821	345.75
363.203	331.52
363.584	320.67
363.966	326.77
364.348	324.06
364.729	327.45
365.111	322.25
365.493	311.18
365.874	333.78
366.256	319.31
366.637	307.34
367.019	310.27
367.4	337.84
367.781	303.72
368.163	293.33
368.544	310.95
368.925	307.11
369.306	323.16
369.688	322.03
370.069	328.58
370.45	323.16
370.831	285.64
371.212	312.31
371.593	319.09
371.974	314.79
372.355	317.28
372.736	308.47
373.117	335.36
373.498	332.65
373.879	322.93
374.26	324.51
374.641	317.51
375.021	336.04
375.402	326.77
375.783	328.13
376.163	331.74
376.544	322.93
376.925	333.32
377.305	330.16
377.686	342.59
378.066	323.83
378.447	321.12
378.827	333.1
379.208	345.08
379.588	318.18
379.968	355.24
380.349	331.52
380.729	344.85
381.109	341.46
381.489	344.17
381.87	340.33
382.25	347.11
382.63	339.43
383.01	331.97
383.39	345.3
383.77	349.37
384.15	322.03
384.53	326.55
384.91	336.04
385.29	330.61
385.67	326.55
386.049	361.8
386.429	356.15
386.809	346.66
387.189	349.37
387.568	359.76
387.948	331.52
388.328	371.97
388.707	381.91
389.087	381.01
389.466	359.99
389.846	369.71
390.225	365.64
390.605	367.67
390.984	382.59
391.363	382.14
391.743	378.3
392.122	374.68
392.501	372.42
392.881	370.84
393.26	366.32
393.639	393.66
394.018	385.53
394.397	382.36
394.776	390.72
395.155	394.79
395.534	382.14
395.913	404.96
396.292	388.46
396.671	386.43
397.05	384.62
397.429	372.65
397.808	383.49
398.186	389.14
398.565	400.89
398.944	382.36
399.323	414.23
399.701	414.23
400.08	393.44
400.458	409.71
400.837	406.54
401.215	411.97
401.594	402.93
401.972	403.61
402.351	418.75
402.729	412.87
403.107	415.58
403.486	416.49
403.864	424.17
404.242	418.29
404.62	427.11
404.999	430.95
405.377	406.77
405.755	423.04
406.133	426.43
406.511	424.85
406.889	462.13
407.267	434.56
407.645	434.56
408.023	420.55
408.401	445.41
408.779	427.11
409.156	444.28
409.534	466.88
409.912	441.57
410.29	444.51
410.667	461.46
411.045	440.67
411.422	448.12
411.8	460.55
412.178	462.36
412.555	462.36
412.933	486.54
413.31	478.18
413.687	467.11
414.065	475.02
414.442	490.83
414.819	471.4
415.197	472.08
415.574	473.21
415.951	488.8
416.328	492.64
416.705	503.04
417.082	480.21
417.46	513.66
417.837	515.47
418.214	502.59
418.591	530.38
418.967	499.87
419.344	524.73
419.721	524.28
420.098	501.23
420.475	535.13
420.852	515.92
421.228	519.08
421.605	527.44
421.982	543.04
422.358	547.1
422.735	536.94
423.111	551.17
423.488	554.34
423.864	549.14
424.241	538.06
424.617	564.28
424.994	552.3
425.37	559.53
425.746	568.35
426.123	578.29
426.499	545.3
426.875	550.49
427.251	555.24
427.627	584.39
428.003	588.69
428.379	615.58
428.756	601.57
429.132	613.09
429.507	578.29
429.883	619.64
430.259	608.8
430.635	612.41
431.011	616.48
431.387	620.1
431.763	645.41
432.138	617.84
432.514	650.38
432.89	635.01
433.265	653.54
433.641	659.19
434.016	659.42
434.392	665.52
434.767	665.97
435.143	681.79
435.518	684.73
435.894	681.79
436.269	702.58
436.644	674.11
437.02	698.29
437.395	699.64
437.77	704.39
438.145	716.37
438.52	725.63
438.895	725.63
439.271	726.76
439.646	717.27
440.021	734.44
440.395	728.12
440.77	743.48
441.145	734.44
441.52	782.8
441.895	755.91
442.27	759.75
442.645	771.73
443.019	749.81
443.394	769.02
443.769	763.6
444.143	780.09
444.518	802.69
444.892	773.09
445.267	802.46
445.641	807.44
446.016	793.2
446.39	782.35
446.764	814.67
447.139	806.76
447.513	828
447.887	816.93
448.262	838.17
448.636	827.1
449.01	832.52
449.384	868.23
449.758	844.27
450.132	849.92
450.506	848.34
450.88	864.38
451.254	862.58
451.628	877.04
452.002	870.49
452.376	884.04
452.75	888.79
453.123	901.22
453.497	937.15
453.871	922.69
454.244	952.07
454.618	924.04
454.992	952.74
455.365	949.58
455.739	948.68
456.112	963.59
456.486	971.05
456.859	981.22
457.232	973.76
457.606	998.62
457.979	988
458.352	1023.93
458.725	1041.33
459.099	1019.41
459.472	1059.86
459.845	1082.23
460.218	1081.78
460.591	1087.2
460.964	1095.56
461.337	1090.14
461.71	1105.28
462.083	1123.13
462.456	1129.24
462.829	1133.53
463.201	1159.97
463.574	1181.21
463.947	1186.64
464.32	1181.89
464.692	1210.14
465.065	1221.21
465.438	1244.94
465.81	1261.44
466.183	1295.79
466.555	1297.59
466.928	1294.2
467.3	1296.92
467.672	1340.76
468.045	1362.9
468.417	1358.16
468.789	1396.35
469.161	1409.45
469.534	1423.47
469.906	1463.01
470.278	1475.67
470.65	1485.38
471.022	1514.31
471.394	1558.6
471.766	1580.98
472.138	1604.7
472.51	1611.94
472.882	1619.84
473.253	1643.12
473.625	1675.21
473.997	1731.25
474.369	1748.65
474.74	1771.93
475.112	1803.12
475.484	1856.9
475.855	1896.22
476.227	1933.06
476.598	1978.03
476.97	1984.58
477.341	2042.43
477.713	2088.76
478.084	2122.66
478.455	2191.81
478.827	2187.51
479.198	2274.06
479.569	2331.46
479.94	2375.76
480.311	2450.56
480.682	2502.99
481.053	2583.89
481.424	2585.69
481.795	2653.94
482.166	2696.65
482.537	2772.13
482.908	2837.44
483.279	2929.19
483.65	2961.05
484.021	3035.4
484.391	3091.22
484.762	3208.5
485.133	3234.49
485.503	3307.48
485.874	3379.8
486.244	3464.99
486.615	3595.16
486.985	3634.03
487.356	3715.61
487.726	3773.01
488.097	3927.35
488.467	3916.51
488.837	4006.9
489.207	4131.19
489.578	4187.46
489.948	4293.22
490.318	4401.47
490.688	4488.7
491.058	4528.24
491.428	4656.37
491.798	4689.59
492.168	4832.42
492.538	4882.81
492.908	5000.32
493.278	5042.35
493.648	5115.12
494.017	5261.78
494.387	5278.51
494.757	5376.81
495.126	5422.91
495.496	5478.05
495.866	5600.53
496.235	5662.22
496.605	5777.25
496.974	5824.71
497.344	5924.82
497.713	5916.45
498.082	6032.16
498.452	6153.06
498.821	6188.99
499.19	6240.29
499.559	6295.88
499.928	6370.68
500.298	6480.73
500.667	6562.99
501.036	6574.97
501.405	6647.28
501.774	6714.85
502.143	6809.99
502.512	6846.6
502.88	6947.16
503.249	6934.28
503.618	7023.77
503.987	7076.42
504.356	7100.15
504.724	7190.32
505.093	7231
505.462	7297.44
505.83	7302.41
506.199	7423.53
506.567	7509.86
506.936	7480.03
507.304	7624.88
507.672	7625.56
508.041	7782.39
508.409	7830.75
508.777	7879.57
509.145	7863.75
509.514	7985.55
509.882	7976.29
510.25	8044.53
510.618	8107.36
510.986	8164.76
511.354	8242.5
511.722	8374.92
512.09	8360.01
512.458	8367.69
512.826	8461.92
513.193	8517.74
513.561	8578.98
513.929	8612.65
514.297	8645.2
514.664	8761.8
515.032	8772.2
515.4	8879.54
515.767	8837.28
516.135	8918.64
516.502	8870.5
516.869	9038.86
517.237	8950.73
517.604	9040.44
517.972	9156.37
518.339	9155.01
518.706	9185.97
519.073	9310.49
519.44	9268.91
519.808	9402.24
520.175	9413.09
520.542	9484.5
520.909	9571.95
521.276	9482.24
521.643	9678.16
522.009	9717.03
522.376	9743.92
522.743	9730.14
523.11	9867.31
523.477	9962.45
523.843	9948.66
524.21	10121.32
524.577	10177.81
524.943	10238.37
525.31	10272.27
525.676	10401.99
526.043	10399.73
526.409	10463
526.776	10561.53
527.142	10610.79
527.508	10598.59
527.874	10784.58
528.241	10764.91
528.607	10811.47
528.973	10923.33
529.339	10936.21
529.705	11015.08
530.071	11074.06
530.437	11159.03
530.803	11161.74
531.169	11297.1
531.535	11195.41
531.901	11301.62
532.267	11335.75
532.632	11424.56
532.998	11446.93
533.364	11570.32
533.73	11559.92
534.095	11597.44
534.461	11684.21
534.826	11767.37
535.192	11834.72
535.557	11896.64
535.923	11858.9
536.288	11968.95
536.653	12001.49
537.019	12020.02
537.384	12055.73
537.749	12106.12
538.114	12200.58
538.479	12145.22
538.845	12234.48
539.21	12248.04
539.575	12293.24
539.94	12334.36
540.305	12481.71
540.67	12413.23
541.034	12567.13
541.399	12569.16
541.764	12582.04
542.129	12703.39
542.494	12714.24
542.858	12782.94
543.223	12760.34
543.587	12858.42
543.952	12839.66
544.316	12953.78
544.681	12927.12
545.045	13073.33
545.41	13140.45
545.774	13147.9
546.138	13165.98
546.503	13218.64
546.867	13277.39
547.231	13384.05
547.595	13350.38
547.959	13520.1
548.324	13436.03
548.688	13453.43
549.052	13607.78
549.416	13626.99
549.779	13585.41
550.143	13667.66
550.507	13713.54
550.871	13797.38
551.235	13689.58
551.599	13915.57
551.962	13943.81
552.326	14028.56
552.689	14145.62
553.053	14025.85
553.417	14028.56
553.78	14232.62
554.143	14035.34
554.507	14283.92
554.87	14276.01
555.234	14417.93
555.597	14392.16
555.96	14376.12
556.323	14566.4
556.686	14435.78
557.05	14587.19
557.413	14647.07
557.776	14682.55
558.139	14759.16
558.502	14710.8
558.865	14837.58
559.228	14933.17
559.59	14961.41
559.953	14938.82
560.316	15170.22
560.679	15140.39
561.041	15216.55
561.404	15253.38
561.767	15350.33
562.129	15296.32
562.492	15466.26
562.854	15425.58
563.217	15521.17
563.579	15461.51
563.941	15560.04
564.304	15682.53
564.666	15751.68
565.028	15772.24
565.39	15805.91
565.753	15906.93
566.115	15891.79
566.477	15978.34
566.839	15987.38
567.201	16212.91
567.563	16101.95
567.925	16255.39
568.287	16270.08
568.648	16367.03
569.01	16531.32
569.372	16500.81
569.734	16442.73
570.095	16649.28
570.457	16565.44
570.819	16649.28
571.18	16763.18
571.542	16906.9
571.903	16840.46
572.265	17058.53
572.626	17140.79
572.987	17141.02
573.349	17214.46
573.71	17246.33
574.071	17406.32
574.432	17471.41
574.794	17636.15
575.155	17681.12
575.516	17706.88
575.877	17783.04
576.238	17945.52
576.599	18091.5
576.96	18086.08
577.32	18214.89
577.681	18443.13
578.042	18485.39
578.403	18629.57
578.763	18686.51
579.124	18825.27
579.485	18995.88
579.845	19200.4
580.206	19212.83
580.566	19452.82
580.927	19598.13
581.287	19676.77
581.648	19834.28
582.008	20028.85
582.368	20181.84
582.728	20351.78
583.089	20494.83
583.449	20691.43
583.809	20815.72
584.169	21017.3
584.529	21222.49
584.889	21587.91
585.249	21622.03
585.609	21828.58
585.969	22146.08
586.329	22348.11
586.688	22532.97
587.048	22717.14
587.408	22954.65
587.768	23065.61
588.127	23411.14
588.487	23597.57
588.846	23939.71
589.206	23976.54
589.565	24200.49
589.925	24603.19
590.284	24777.43
590.643	25051.09
591.003	25302.84
591.362	25616.28
591.721	25841.35
592.08	26042.25
592.44	26355.92
592.799	26584.39
593.158	26823.25
593.517	26926.75
593.876	27295.1
594.235	27428.66
594.593	27773.51
594.952	28051.01
595.311	28186.38
595.67	28510.21
596.029	28890.77
596.387	29094.6
596.746	29445.55
597.104	29436.97
597.463	29688.71
597.822	29979.78
598.18	30140.68
598.538	30415.92
598.897	30807.33
599.255	30744.5
599.613	31413.64
599.972	31372.28
600.33	31699.73
600.688	31855.89
601.046	32018.14
601.404	32377.45
601.762	32535.42
602.12	32832.81
602.478	33070.54
602.836	33153.7
603.194	33191.22
603.552	33318.9
603.91	33468.5
604.268	33794.59
604.625	33948.26
604.983	34176.5
605.341	34230.74
605.698	34619.65
606.056	34738.97
606.413	34932.87
606.771	35141.67
607.128	35256.93
607.485	35472.29
607.843	35541.21
608.2	35837.48
608.557	36147.07
608.914	36059.16
609.272	36303.9
609.629	36519.49
609.986	36861.18
610.343	36771.69
610.7	37065.69
611.057	37199.02
611.414	37119.7
611.771	37463.2
612.127	37631.55
612.484	37869.06
612.841	37784.54
613.198	37911.77
613.554	38031.77
613.911	38371.19
614.267	38402.38
614.624	38528.25
614.98	38663.39
615.337	38750.39
615.693	38876.27
616.05	38933.44
616.406	39270.83
616.762	39185.86
617.118	39325.52
617.475	39385.18
617.831	39631.27
618.187	39950.59
618.543	39897.93
618.899	40085.05
619.255	40113.75
619.611	40095.44
619.967	40262.9
620.323	40492.49
620.678	40395.77
621.034	40249.79
621.39	40479.84
621.746	40583.34
622.101	41000.73
622.457	40773.39
622.812	40927.06
623.168	40954.86
623.523	40939.49
623.879	41259.71
624.234	40941.97
624.589	41108.98
624.945	41186.04
625.3	41407.27
625.655	41273.27
626.01	41323.21
626.365	41496.99
626.72	41433.03
627.075	41415.86
627.43	41435.75
627.785	41542.64
628.14	41706.93
628.495	41661.5
628.85	41678
629.205	41647.27
629.559	41863.31
629.914	41666.93
630.269	41728.85
630.623	41575.63
630.978	41685.46
631.332	41860.37
631.687	41934.26
632.041	41842.74
632.396	41855.62
632.75	41670.32
633.104	41753.7
633.459	41661.96
633.813	41649.75
634.167	41757.32
634.521	41710.77
634.875	41898.11
635.229	41626.7
635.583	41570.21
635.937	41544.67
636.291	41640.26
636.645	41750.09
636.999	41569.08
637.352	41693.14
637.706	41659.7
638.06	41736.53
638.413	41496.08
638.767	41556.42
639.121	41656.31
639.474	41283.21
639.828	41524.33
640.181	41506.03
640.534	41423.09
640.888	41361.62
641.241	41378.12
641.594	41439.59
641.947	41433.49
642.301	41353.94
642.654	41521.39
643.007	41360.27
643.36	41359.36
643.713	41307.84
644.066	41421.74
644.419	41133.38
644.771	40962.99
645.124	40541.76
645.477	40649.33
645.83	40372.5
646.182	40149.9
646.535	40005.95
646.888	40243.24
647.24	39999.4
647.593	40255.21
647.945	40100.87
648.298	39919.18
648.65	39993.52
649.002	39807.31
649.355	39947.65
649.707	39952.4
650.059	40200.3
650.411	40495.21
650.763	40539.95
651.115	40999.6
651.467	40850.68
651.819	40742.43
652.171	40778.14
652.523	40717.12
652.875	40802.99
653.227	40617.24
653.578	40825.37
653.93	40743.79
654.282	40453.4
654.633	40423.8
654.985	40469.9
655.337	40574.07
655.688	40520.06
656.039	40905.37
656.391	40379.5
656.742	40532.49
657.094	40688.2
657.445	40615.43
657.796	40490.91
658.147	40611.59
658.498	40592.83
658.849	40438.48
659.2	40533.85
659.551	40465.83
659.902	40535.43
660.253	40328.21
660.604	40441.42
660.955	40427.41
661.306	40567.75
661.656	40431.93
662.007	40514.87
662.358	40324.59
662.708	40367.3
663.059	40412.5
663.409	40150.36
663.76	40458.82
664.11	40273.52
664.461	40443.46
664.811	40340.41
665.161	40332.5
665.511	40205.04
665.862	40242.33
666.212	40278.71
666.562	40282.33
666.912	40296.34
667.262	40190.13
667.612	40256.79
667.962	40266.96
668.312	40219.96
668.662	40349.67
669.011	40243.46
669.361	40163.46
669.711	40226.06
670.06	40058.61
670.41	39978.16
670.76	40033.07
671.109	40215.21
671.459	40070.13
671.808	40128.44
672.157	40123.01
672.507	39885.05
672.856	39951.27
673.205	39993.75
673.554	40092.05
673.904	39995.78
674.253	40229
674.602	39976.58
674.951	39428.57
675.3	39126.88
675.649	39915.33
675.998	39678.05
676.346	39822.46
676.695	40061.32
677.044	39701.1
677.393	39819.29
677.741	39823.13
678.09	39747.2
678.438	39588.56
678.787	39774.55
679.135	39754.66
679.484	39403.71
679.832	39719.63
680.181	39450.49
680.529	39630.6
680.877	39498.62
681.225	39373.88
681.573	39766.86
681.922	39350.15
682.27	39104.73
682.618	39260.44
682.966	39205.52
683.314	39193.32
683.661	39060.22
684.009	38925.98
684.357	38800.79
684.705	38747
685.053	38814.35
685.4	38733.44
685.748	38553.56
686.095	38603.05
686.443	38513.11
686.79	38406.45
687.138	38483.06
687.485	38591.75
687.832	38209.62
688.18	38351.99
688.527	38171.65
688.874	38192.67
689.221	38130.3
689.568	38019.11
689.915	37870.87
690.262	37789.97
690.609	37763.53
690.956	37687.14
691.303	37645.11
691.65	37536.87
691.997	37473.14
692.344	37215.29
692.69	37201.28
693.037	37163.77
693.383	36938.69
693.73	36985.47
694.077	36836.77
694.423	36801.97
694.769	36651.92
695.116	36627.29
695.462	36685.36
695.808	36519.72
696.155	36556.55
696.501	36445.82
696.847	36230.69
697.193	36102.33
697.539	36223.68
697.885	35976.91
698.231	35937.36
698.577	35820.3
698.923	35710.02
699.269	35767.87
699.614	35356.13
699.96	35330.14
700.306	35479.97
700.651	35362.46
700.997	35176.02
701.342	35209.24
701.688	35077.27
702.033	34883.38
702.379	34854.68
702.724	34761.8
703.069	34889.48
703.415	34414.69
703.76	34410.62
704.105	34558.19
704.45	34390.28
704.795	34268.93
705.14	34215.37
705.485	34135.83
705.83	34077.3
706.175	33905.78
706.52	33912.1
706.865	33787.59
707.209	33765.89
707.554	33630.98
707.899	33718.89
708.243	33485.22
708.588	33402.06
708.932	33305.79
709.277	33264.21
709.621	33259.92
709.966	33067.83
710.31	33164.78
710.654	32671.46
710.998	33001.84
711.342	33018.79
711.687	32805.92
712.031	32686.6
712.375	32605.47
712.719	32751.46
713.063	32504
713.407	32652.25
713.75	32467.85
714.094	32474.63
714.438	32366.61
714.782	32385.82
715.125	32207.51
715.469	32314.18
715.812	31995.99
716.156	31997.12
716.499	31957.58
716.843	31843.68
717.186	31801.88
717.53	31963.23
717.873	31938.6
718.216	31766.85
718.559	31661.99
718.902	31491.6
719.246	31513.52
719.589	31339.51
719.932	31213.87
720.275	31368.44
720.617	31153.98
720.96	31166.41
721.303	31128.9
721.646	31316.24
721.989	31030.14
722.331	31085.51
722.674	30998.05
723.016	31047.77
723.359	30909.24
723.701	31063.36
724.044	30657.27
724.386	30605.3
724.729	30713.77
725.071	30681
725.413	30679.87
725.755	30664.28
726.097	30347
726.439	30286.21
726.782	30387.22
727.124	30486.66
727.465	30220.45
727.807	30227
728.149	30084.86
728.491	30115.37
728.833	30100.9
729.175	30122.6
729.516	30033.79
729.858	30067.01
730.199	29952.66
730.541	30034.92
730.882	29912.89
731.224	29994.47
731.565	29839.67
731.906	29741.82
732.248	29719.22
732.589	29646.45
732.93	29505.66
733.271	29426.34
733.612	29612.78
733.953	29550.41
734.294	29584.76
734.635	29351.54
734.976	29514.93
735.317	29242.85
735.658	29324.43
735.999	29306.57
736.339	29174.83
736.68	29280.81
737.021	29132.57
737.361	28980.48
737.702	29200.59
738.042	29064.77
738.383	28959.69
738.723	29022.29
739.063	28886.02
739.404	28923.76
739.744	28921.27
740.084	28647.61
740.424	28877.66
740.764	28573.71
741.104	28912.01
741.444	28613.48
741.784	28559.48
742.124	28619.36
742.464	28503.88
742.804	28535.07
743.143	28482.87
743.483	28509.53
743.823	28394.51
744.162	28410.33
744.502	28499.59
744.841	28241.52
745.181	28319.93
745.52	28218.02
745.86	28200.84
746.199	28189.77
746.538	28005.37
746.877	28139.15
747.216	28050.11
747.556	27922.66
747.895	28086.49
748.234	27819.83
748.573	27798.14
748.911	27833.17
749.25	27762.21
749.589	27612.61
749.928	27704.36
750.267	27783.68
750.605	27741.64
750.944	27649.22
751.283	27490.8
751.621	27550.24
751.96	27461.88
752.298	27438.15
752.636	27441.54
752.975	27305.5
753.313	27171.26
753.651	27366.51
753.989	27227.98
754.327	27139.4
754.666	26890.14
755.004	26988.22
755.342	27089.23
755.679	26858.28
756.017	26804.94
756.355	26809.01
756.693	26682.46
757.031	26775.12
757.368	26648.34
757.706	26588
