Data from hue_36_FLMS001491_00025.txt Node
Date: Tue Feb 07 17:29:35 GMT 2017
User: dcchb
Spectrometer: FLMS00149
Trigger mode: 0
Integration Time (sec): 2.000000E-2
Scans to average: 10
Electric dark correction enabled: true
Nonlinearity correction enabled: false
Boxcar width: 0
XAxis mode: Wavelengths
Number of Pixels in Spectrum: 2048
>>>>>Begin Spectral Data<<<<<
341.393	-30.17
341.776	-30.17
342.16	-30.17
342.543	-70.17
342.927	-78.08
343.31	-62.03
343.693	-63.39
344.077	-63.16
344.46	-47.34
344.843	-55.25
345.226	-56.38
345.61	-36.27
345.993	-2.15
346.376	-11.19
346.759	18.19
347.142	40.34
347.525	46.67
347.908	44.63
348.291	56.38
348.674	69.94
349.057	121.01
349.44	105.87
349.823	136.83
350.206	167.34
350.588	191.97
350.971	202.37
351.354	229.71
351.737	227.45
352.119	256.83
352.502	269.94
352.884	286.89
353.267	284.85
353.65	283.04
354.032	307.68
354.414	303.16
354.797	293.44
355.179	324.4
355.562	324.17
355.944	340.89
356.326	323.49
356.709	318.07
357.091	353.78
357.473	329.14
357.855	351.06
358.238	353.55
358.62	334.79
359.002	351.97
359.384	358.97
359.766	350.84
360.148	335.25
360.53	328.47
360.912	349.93
361.294	327.11
361.676	327.34
362.057	348.58
362.439	339.54
362.821	346.09
363.203	330.05
363.584	331.4
363.966	313.1
364.348	335.92
364.729	321.46
365.111	328.47
365.493	355.13
365.874	310.84
366.256	311.07
366.637	295.47
367.019	324.4
367.4	319.2
367.781	318.75
368.163	337.51
368.544	317.84
368.925	322.59
369.306	324.62
369.688	304.74
370.069	316.71
370.45	321.91
370.831	311.74
371.212	320.33
371.593	313.78
371.974	311.52
372.355	330.05
372.736	335.02
373.117	319.2
373.498	312.87
373.879	330.73
374.26	315.81
374.641	336.15
375.021	318.75
375.402	299.77
375.783	322.82
376.163	332.99
376.544	355.81
376.925	317.84
377.305	317.17
377.686	313.1
378.066	323.72
378.447	333.66
378.827	334.12
379.208	337.05
379.588	325.98
379.968	306.55
380.349	347
380.729	337.96
381.109	341.35
381.489	321.91
381.87	326.43
382.25	327.11
382.63	329.37
383.01	337.51
383.39	338.41
383.77	328.47
384.15	322.14
384.53	346.54
384.91	351.29
385.29	363.04
385.67	333.21
386.049	332.53
386.429	356.71
386.809	353.78
387.189	363.72
387.568	361.91
387.948	363.04
388.328	334.12
388.707	351.29
389.087	348.35
389.466	348.58
389.846	359.65
390.225	381.35
390.605	369.59
390.984	350.61
391.363	356.94
391.743	359.88
392.122	358.07
392.501	369.82
392.881	387.45
393.26	364.62
393.639	368.24
394.018	403.04
394.397	353.32
394.776	371.18
395.155	372.31
395.534	373.44
395.913	365.53
396.292	377.73
396.671	371.4
397.05	352.87
397.429	386.32
397.808	374.79
398.186	374.57
398.565	378.41
398.944	361.46
399.323	399.65
399.701	382.93
400.08	382.7
400.458	389.48
400.837	394.9
401.215	397.39
401.594	398.07
401.972	379.09
402.351	389.93
402.729	396.03
403.107	412.98
403.486	400.1
403.864	393.55
404.242	384.96
404.62	398.29
404.999	426.09
405.377	416.37
405.755	419.09
406.133	411.63
406.511	407.33
406.889	417.05
407.267	413.89
407.645	424.73
408.023	411.4
408.401	432.19
408.779	425.19
409.156	430.61
409.534	424.28
409.912	447.56
410.29	459.31
410.667	444.17
411.045	446.88
411.422	464.28
411.8	457.28
412.178	462.25
412.555	468.8
412.933	435.81
413.31	466.09
413.687	453.21
414.065	457.5
414.442	477.84
414.819	480.1
415.197	467.22
415.574	471.51
415.951	491.17
416.328	492.08
416.705	464.96
417.082	476.94
417.46	492.53
417.837	496.6
418.214	506.09
418.591	501.57
418.967	500.44
419.344	497.95
419.721	496.37
420.098	511.74
420.475	509.48
420.852	504.05
421.228	527.78
421.605	502.02
421.982	522.36
422.358	495.47
422.735	535.69
423.111	516.94
423.488	532.3
423.864	524.84
424.241	534.56
424.617	541.12
424.994	550.83
425.37	553.54
425.746	561.45
426.123	533.43
426.499	537.73
426.875	561.91
427.251	561.68
427.627	553.32
428.003	568.01
428.379	572.75
428.756	583.83
429.132	581.79
429.507	589.25
429.883	594.67
430.259	584.73
430.635	576.14
431.011	594.67
431.387	608.46
431.763	605.52
432.138	623.37
432.514	633.32
432.89	634.9
433.265	630.83
433.641	637.38
434.016	636.93
434.392	633.54
434.767	634.67
435.143	651.85
435.518	648.01
435.894	639.42
436.269	672.41
436.644	669.25
437.02	682.81
437.395	687.33
437.77	687.78
438.145	703.82
438.52	685.52
438.895	697.95
439.271	698.85
439.646	707.21
440.021	719.19
440.395	709.92
440.77	734.1
441.145	741.79
441.52	748.79
441.895	727.78
442.27	743.37
442.645	740.88
443.019	731.85
443.394	739.08
443.769	764.39
444.143	768.23
444.518	760.09
444.892	733.2
445.267	758.96
445.641	767.1
446.016	764.84
446.39	765.97
446.764	772.97
447.139	785.86
447.513	796.02
447.887	766.65
448.262	775.23
448.636	796.7
449.01	812.97
449.384	810.04
449.758	827.21
450.132	824.95
450.506	835.12
450.88	851.39
451.254	843.03
451.628	845.97
452.002	848
452.376	872.18
452.75	854.55
453.123	873.31
453.497	867.66
453.871	885.74
454.244	884.16
454.618	886.64
454.992	890.03
455.365	906.53
455.739	920.09
456.112	915.34
456.486	931.39
456.859	930.48
457.232	974.78
457.606	954.66
457.979	983.36
458.352	996.92
458.725	981.56
459.099	1016.36
459.472	998.5
459.845	1024.72
460.218	1020.43
460.591	1047.54
460.964	1048.22
461.337	1055.45
461.71	1078.95
462.083	1057.26
462.456	1106.07
462.829	1111.5
463.201	1130.7
463.574	1154.66
463.947	1158.05
464.32	1135
464.692	1179.74
465.065	1171.16
465.438	1214.32
465.81	1224.71
466.183	1223.58
466.555	1277.82
466.928	1277.14
467.3	1276.46
467.672	1292.51
468.045	1351.26
468.417	1345.61
468.789	1360.3
469.161	1389.91
469.534	1397.82
469.906	1415.89
470.278	1432.84
470.65	1446.4
471.022	1498.38
471.394	1500.86
471.766	1521.65
472.138	1546.29
472.51	1585.38
472.882	1601.2
473.253	1651.59
473.625	1692.5
473.997	1708.77
474.369	1729.79
474.74	1724.59
475.112	1806.17
475.484	1840.06
475.855	1878.26
476.227	1913.28
476.598	1972.04
476.97	1984.69
477.341	2083.45
477.713	2095.2
478.084	2125.71
478.455	2210.22
478.827	2223.56
479.198	2315.31
479.569	2307.17
479.94	2431.46
480.311	2469.65
480.682	2558.24
481.053	2615.64
481.424	2656.31
481.795	2696.99
482.166	2771.57
482.537	2848.85
482.908	2914.39
483.279	2998.23
483.65	3065.34
484.021	3183.76
484.391	3219.01
484.762	3319.8
485.133	3364.77
485.503	3442.06
485.874	3537.87
486.244	3600.02
486.615	3700.13
486.985	3816.96
487.356	3931.99
487.726	3979.9
488.097	4080.46
488.467	4116.84
488.837	4232.54
489.207	4381.24
489.578	4469.15
489.948	4522.48
490.318	4620.56
490.688	4720.44
491.058	4835.69
491.428	4960.66
491.798	5026.42
492.168	5148
492.538	5231.39
492.908	5318.39
493.278	5406.3
493.648	5469.57
494.017	5618.72
494.387	5703.24
494.757	5781.66
495.126	5879.51
495.496	5913.4
495.866	6031.59
496.235	6107.07
496.605	6192.94
496.974	6311.36
497.344	6427.74
497.713	6472.94
498.082	6566.04
498.452	6646.04
498.821	6738.92
499.19	6782.31
499.559	6924.45
499.928	6999.7
500.298	7044
500.667	7170.09
501.036	7137.1
501.405	7314.5
501.774	7356.76
502.143	7450.54
502.512	7488.28
502.88	7574.83
503.249	7659.12
503.618	7715.62
503.987	7779.34
504.356	7855.5
504.724	7984.31
505.093	7983.63
505.462	8066.57
505.83	8134.81
506.199	8200.35
506.567	8253.46
506.936	8358.54
507.304	8430.4
507.672	8516.05
508.041	8551.3
508.409	8679.66
508.777	8746.32
509.145	8818.86
509.514	8900.9
509.882	8863.16
510.25	8982.25
510.618	9017.5
510.986	9022.47
511.354	9158.97
511.722	9249.14
512.09	9304.5
512.458	9338.4
512.826	9460.43
513.193	9469.69
513.561	9530.26
513.929	9592.63
514.297	9714.43
514.664	9831.04
515.032	9782.91
515.4	9857.03
515.767	9937.93
516.135	10007.76
516.502	9925.95
516.869	10098.15
517.237	10181.54
517.604	10179.51
517.972	10282.55
518.339	10336.34
518.706	10307.64
519.073	10401.87
519.44	10474.87
519.808	10540.17
520.175	10589.21
520.542	10676.89
520.909	10762.99
521.276	10767.51
521.643	10879.15
522.009	10958.69
522.376	11021.97
522.743	11073.95
523.11	11170.44
523.477	11281.4
523.843	11381.73
524.21	11367.27
524.577	11512.8
524.943	11525.01
525.31	11583.76
525.676	11670.31
526.043	11738.56
526.409	11793.48
526.776	11925.45
527.142	11927.03
527.508	12001.83
527.874	12170.87
528.241	12162.28
528.607	12181.94
528.973	12413.8
529.339	12326.79
529.705	12473.68
530.071	12595.04
530.437	12736.05
530.803	12618.54
531.169	12771.98
531.535	12763.62
531.901	12868.48
532.267	12881.81
532.632	12982.82
532.998	13035.25
533.364	13040.67
533.73	13096.04
534.095	13212.19
534.461	13169.48
534.826	13359.08
535.192	13297.39
535.557	13466.88
535.923	13423.94
536.288	13491.51
536.653	13557.5
537.019	13594.56
537.384	13706.87
537.749	13789.81
538.114	13800.43
538.479	13768.56
538.845	13890.6
539.21	13864.83
539.575	13983.47
539.94	13991.61
540.305	14079.29
540.67	14155.67
541.034	14170.14
541.399	14250.36
541.764	14208.78
542.129	14369.23
542.494	14395.21
542.858	14444.03
543.223	14468.66
543.587	14529
543.952	14637.69
544.316	14639.05
544.681	14661.2
545.045	14672.95
545.41	14903.45
545.774	14873.39
546.138	14900.74
546.503	15019.61
546.867	14975.54
547.231	15156.1
547.595	15161.07
547.959	15258.69
548.324	15275.87
548.688	15335.75
549.052	15325.81
549.416	15408.75
549.779	15424.57
550.143	15476.99
550.507	15524.45
550.871	15612.58
551.235	15593.38
551.599	15724.45
551.962	15740.04
552.326	15748.4
552.689	15920.82
553.053	15795.86
553.417	15910.66
553.78	16097.09
554.143	15960.82
554.507	16059.35
554.87	16156.98
555.234	16328.72
555.597	16146.58
555.96	16385.9
556.323	16397.87
556.686	16335.73
557.05	16559.9
557.413	16562.84
557.776	16603.74
558.139	16703.18
558.502	16752.67
558.865	16746.79
559.228	16963.51
559.59	16954.47
559.953	16994.47
560.316	17231.3
560.679	17222.03
561.041	17195.37
561.404	17389.49
561.767	17455.02
562.129	17408.02
562.492	17617.73
562.854	17521.23
563.217	17479.88
563.579	17594.68
563.941	17666.77
564.304	17787.67
564.666	17826.31
565.028	17888.91
565.39	17917.83
565.753	18071.05
566.115	18077.83
566.477	18206.64
566.839	18198.73
567.201	18374.77
567.563	18414.32
567.925	18490.93
568.287	18549.91
568.648	18634.2
569.01	18667.42
569.372	18789.22
569.734	18746.96
570.095	18954.87
570.457	18989.9
570.819	18989.22
571.18	19054.98
571.542	19271.92
571.903	19184.24
572.265	19261.08
572.626	19363.45
572.987	19436.66
573.349	19592.82
573.71	19675.75
574.071	19740.61
574.432	19747.39
574.794	20018.34
575.155	20083.65
575.516	19951.45
575.877	20211.78
576.238	20227.15
576.599	20362.29
576.96	20361.84
577.32	20524.09
577.681	20734.26
578.042	20816.74
578.403	20899.9
578.763	21108.71
579.124	21163.17
579.485	21222.61
579.845	21514.35
580.206	21601.35
580.566	21675.25
580.927	21819.88
581.287	22085.86
581.648	22004.05
582.008	22374.44
582.368	22486.3
582.728	22757.48
583.089	22834.77
583.449	22926.74
583.809	23148.43
584.169	23380.97
584.529	23446.73
584.889	23848.07
585.249	23900.5
585.609	24051.01
585.969	24338.23
586.329	24362.64
586.688	24837.65
587.048	24897.76
587.408	25086.91
587.768	25221.82
588.127	25382.72
588.487	25598.31
588.846	26029.26
589.206	26019.32
589.565	26199.88
589.925	26516.93
590.284	26672.86
590.643	26960.76
591.003	27175.67
591.362	27431.03
591.721	27673.96
592.08	27854.52
592.44	28099.94
592.799	28312.59
593.158	28387.84
593.517	28605.46
593.876	28928.84
594.235	29116.86
594.593	29276.41
594.952	29531.99
595.311	29712.55
595.67	29992.54
596.029	30328.81
596.387	30596.6
596.746	30880.88
597.104	30887.66
597.463	30981.9
597.822	31393.64
598.18	31372.4
598.538	31553.41
598.897	32012.6
599.255	31855.32
599.613	32533.95
599.972	32637.45
600.33	32814.62
600.688	32811.45
601.046	33143.65
601.404	33237.43
601.762	33402.85
602.12	33795.83
602.478	33904.98
602.836	34064.98
603.194	34076.05
603.552	34229.04
603.91	34297.52
604.268	34593.55
604.625	34709.48
604.983	34937.73
605.341	35002.81
605.698	35217.94
606.056	35471.5
606.413	35579.06
606.771	35874.65
607.128	36056.34
607.485	35951.94
607.843	36066.74
608.2	36536.33
608.557	36599.83
608.914	36525.25
609.272	36829.65
609.629	36868.97
609.986	37191.45
610.343	37046.82
610.7	37541.27
611.057	37352.35
611.414	37574.27
611.771	37756.18
612.127	37985.55
612.484	38002.73
612.841	38188.26
613.198	38162.05
613.554	38270.75
613.911	38523.39
614.267	38581.25
614.624	38672.09
614.98	38900.79
615.337	38942.82
615.693	39056.26
616.05	39078.86
616.406	39532.86
616.762	39236.37
617.118	39370.38
617.475	39422.13
617.831	39588.22
618.187	39724.94
618.543	39870.03
618.899	40066.4
619.255	39991.38
619.611	40049.91
619.967	40319.96
620.323	40390.01
620.678	40253.97
621.034	40352.27
621.39	40270.24
621.746	40439.5
622.101	40857.12
622.457	40692.83
622.812	40807.18
623.168	40772.83
623.523	40953.61
623.879	41026.83
624.234	40957
624.589	41100.28
624.945	41164.68
625.3	41171.91
625.655	41158.13
626.01	41251.23
626.365	41372.58
626.72	41324.22
627.075	41252.59
627.43	41310.67
627.785	41355.86
628.14	41348.18
628.495	41430.21
628.85	41370.1
629.205	41314.73
629.559	41636.31
629.914	41335.52
630.269	41474.28
630.623	41378.23
630.978	41273.83
631.332	41642.86
631.687	41685.34
632.041	41547.27
632.396	41696.42
632.75	41437.67
633.104	41580.26
633.459	41282.19
633.813	41523.31
634.167	41415.07
634.521	41379.14
634.875	41575.52
635.229	41473.82
635.583	41323.32
635.937	41444.22
636.291	41391.34
636.645	41414.84
636.999	41272.25
637.352	41506.37
637.706	41309.99
638.06	41396.99
638.413	41327.39
638.767	41227.28
639.121	41353.15
639.474	41168.52
639.828	41141.63
640.181	41243.55
640.534	41220.27
640.888	41238.35
641.241	41050.56
641.594	41083.55
641.947	41174.85
642.301	41021.18
642.654	41090.78
643.007	41063.89
643.36	41089.43
643.713	41098.02
644.066	41283.77
644.419	40916.33
644.771	40688.08
645.124	40302.56
645.477	40290.13
645.83	39922.23
646.182	40026.63
646.535	39830.03
646.888	39842.23
647.24	39641.33
647.593	39915.67
647.945	39771.04
648.298	39630.94
648.65	39606.76
649.002	39447.66
649.355	39630.94
649.707	39612.86
650.059	39804.72
650.411	40192.5
650.763	40228.43
651.115	40710.45
651.467	40538.71
651.819	40540.74
652.171	40553.62
652.523	40404.47
652.875	40457.35
653.227	40213.52
653.578	40601.76
653.93	40384.81
654.282	40225.95
654.633	40136.46
654.985	40335.55
655.337	40264.59
655.688	40346.85
656.039	40399.95
656.391	40001.55
656.742	40024.15
657.094	40125.16
657.445	40347.75
657.796	40128.32
658.147	40177.36
658.498	40056.91
658.849	40320.41
659.2	40230.02
659.551	40065.05
659.902	40214.65
660.253	40197.47
660.604	40249.68
660.955	39947.31
661.306	40094.65
661.656	40035.9
662.007	40138.49
662.358	40008.78
662.708	40092.17
663.059	39940.08
663.409	39747.99
663.76	40180.98
664.11	40103.92
664.461	40042.45
664.811	40079.06
665.161	39970.59
665.511	39886.75
665.862	40053.52
666.212	40185.5
666.562	39951.6
666.912	39908.89
667.262	39891.49
667.612	39969.68
667.962	39895.11
668.312	39870.93
668.662	39896.24
669.011	39909.35
669.361	39918.16
669.711	39786.19
670.06	39694.44
670.41	39839.29
670.76	39689.01
671.109	39889.69
671.459	39696.02
671.808	39610.14
672.157	39785.96
672.507	39509.81
672.856	39583.7
673.205	39522.46
673.554	39840.65
673.904	39547.32
674.253	39803.13
674.602	39612.18
674.951	39007.67
675.3	38828.92
675.649	39619.18
675.998	39501.67
676.346	39536.47
676.695	39597.94
677.044	39316.37
677.393	39510.26
677.741	39548.68
678.09	39420.32
678.438	39351.39
678.787	39472.97
679.135	39490.6
679.484	39163.6
679.832	39269.36
680.181	39119.54
680.529	39211.51
680.877	39081.12
681.225	38949.6
681.573	39055.58
681.922	38943.72
682.27	38905.98
682.618	38867.34
682.966	38931.74
683.314	38760
683.661	38873.22
684.009	38655.59
684.357	38577.18
684.705	38447.92
685.053	38434.81
685.4	38340.8
685.748	38297.86
686.095	38219
686.443	38063.52
686.79	38033.24
687.138	38187.36
687.485	38087.93
687.832	37964.76
688.18	38056.06
688.527	37791.89
688.874	37727.03
689.221	37858.55
689.568	37622.17
689.915	37656.75
690.262	37748.05
690.609	37462.4
690.956	37402.07
691.303	37386.25
691.65	37132.7
691.997	37203.43
692.344	36883.66
692.69	36994.17
693.037	36919.37
693.383	36593.05
693.73	36836.43
694.077	36689.54
694.423	36565.25
694.769	36459.72
695.116	36425.82
695.462	36228.54
695.808	36269.67
696.155	36419.04
696.501	35991.48
696.847	35996
697.193	35815.89
697.539	35880.98
697.885	35602.57
698.231	35645.96
698.577	35669.01
698.923	35567.77
699.269	35417.26
699.614	35187.21
699.96	35162.58
700.306	35258.17
700.651	35010.49
700.997	34825.86
701.342	34908.57
701.688	34804.4
702.033	34657.51
702.379	34645.3
702.724	34473.56
703.069	34559.66
703.415	34360.11
703.76	34184.98
704.105	34283.28
704.45	34181.59
704.795	34040.57
705.14	33849.84
705.485	33898.2
705.83	33695.5
706.175	33686.01
706.52	33737.08
706.865	33460.93
707.209	33648.49
707.554	33471.1
707.899	33492.57
708.243	33324.43
708.588	33194.27
708.932	32942.75
709.277	32999.92
709.621	32883.09
709.966	32822.53
710.31	32875.63
710.654	32513.83
710.998	32741.4
711.342	32734.39
711.687	32610.55
712.031	32486.94
712.375	32354.29
712.719	32335.08
713.063	32251.92
713.407	32457.79
713.75	32107.97
714.094	32111.13
714.438	31978.48
714.782	32056.67
715.125	31943
715.469	31996.56
715.812	31827.07
716.156	31730.13
716.499	31622.11
716.843	31691.94
717.186	31494.2
717.53	31598.38
717.873	31536.01
718.216	31427.54
718.559	31360.87
718.902	31310.7
719.246	31309.12
719.589	31216.92
719.932	31064.15
720.275	31107.77
720.617	31120.65
720.96	31016.7
721.303	30950.03
721.646	30957.27
721.989	30772.41
722.331	30766.99
722.674	30686.76
723.016	30787.1
723.359	30677.27
723.701	30741.45
724.044	30574
724.386	30362.7
724.729	30571.06
725.071	30390.05
725.413	30515.02
725.755	30277.51
726.097	30221.01
726.439	30094.01
726.782	30091.53
727.124	30136.95
727.465	30129.26
727.807	30010.4
728.149	29886.33
728.491	29826.67
728.833	29819.44
729.175	29751.42
729.516	29821.93
729.858	29889.04
730.199	29685.89
730.541	29752.33
730.882	29560.24
731.224	29706.9
731.565	29429.17
731.906	29547.81
732.248	29494.93
732.589	29439.79
732.93	29278.44
733.271	29238.44
733.612	29367.48
733.953	29244.77
734.294	29184.66
734.635	29077.31
734.976	29121.61
735.317	29017.43
735.658	29024.66
735.999	29074.83
736.339	28960.93
736.68	28957.32
737.021	28993.93
737.361	28783.54
737.702	28967.03
738.042	28775.85
738.383	28732.24
738.723	28797.77
739.063	28537.22
739.404	28687.49
739.744	28574.73
740.084	28409.08
740.424	28502.41
740.764	28353.94
741.104	28430.1
741.444	28254.51
741.784	28402.98
742.124	28295.87
742.464	28314.17
742.804	28154.85
743.143	27972.94
743.483	28107.62
743.823	27834.86
744.162	28003.44
744.502	27928.42
744.841	27890.68
745.181	27947.17
745.52	27852.26
745.86	27900.17
746.199	27798.93
746.538	27857.46
746.877	27746.28
747.216	27727.07
747.556	27723
747.895	27692.72
748.234	27513.74
748.573	27473.51
748.911	27459.5
749.25	27459.05
749.589	27294.31
749.928	27371.14
750.267	27345.38
750.605	27327.53
750.944	27212.96
751.283	27019.97
751.621	27232.17
751.96	27019.29
752.298	27066.29
752.636	26990.36
752.975	26883.7
753.313	26750.6
753.651	26873.98
753.989	26751.73
754.327	26645.06
754.666	26609.13
755.004	26569.13
755.342	26679.41
755.679	26562.13
756.017	26448.68
756.355	26483.03
756.693	26300.89
757.031	26292.53
757.368	26236.03
