Data from hue_36_FLMS001491_00072.txt Node
Date: Tue Feb 07 17:30:16 GMT 2017
User: dcchb
Spectrometer: FLMS00149
Trigger mode: 0
Integration Time (sec): 2.000000E-2
Scans to average: 10
Electric dark correction enabled: true
Nonlinearity correction enabled: false
Boxcar width: 0
XAxis mode: Wavelengths
Number of Pixels in Spectrum: 2048
>>>>>Begin Spectral Data<<<<<
341.393	-11.19
341.776	-11.19
342.16	-11.19
342.543	-56.16
342.927	-86.44
343.31	-73.78
343.693	-58.19
344.077	-71.3
344.46	-55.25
344.843	-42.82
345.226	-48.7
345.61	-34.46
345.993	-19.55
346.376	-12.09
346.759	19.1
347.142	34.69
347.525	21.58
347.908	57.29
348.291	74.24
348.674	96.83
349.057	112.43
349.44	126.44
349.823	138.41
350.206	140
350.588	164.4
350.971	220.9
351.354	220.67
351.737	213.21
352.119	241.69
352.502	258.86
352.884	278.07
353.267	266.32
353.65	292.08
354.032	294.34
354.414	304.06
354.797	306.09
355.179	331.18
355.562	329.14
355.944	330.73
356.326	330.27
356.709	344.28
357.091	342.48
357.473	332.76
357.855	355.58
358.238	363.95
358.62	339.09
359.002	342.25
359.384	333.44
359.766	357.39
360.148	327.34
360.53	332.76
360.912	332.53
361.294	331.18
361.676	356.49
362.057	331.18
362.439	326.88
362.821	337.05
363.203	331.86
363.584	325.3
363.966	359.65
364.348	343.83
364.729	313.78
365.111	324.4
365.493	325.98
365.874	326.66
366.256	302.93
366.637	315.36
367.019	321.91
367.4	328.01
367.781	313.1
368.163	313.55
368.544	306.09
368.925	329.37
369.306	313.78
369.688	320.33
370.069	328.01
370.45	307.9
370.831	320.78
371.212	327.34
371.593	307.68
371.974	325.75
372.355	320.1
372.736	328.01
373.117	322.59
373.498	308.81
373.879	307.68
374.26	310.39
374.641	330.27
375.021	306.77
375.402	329.37
375.783	349.71
376.163	335.02
376.544	344.74
376.925	326.66
377.305	330.95
377.686	321.69
378.066	326.21
378.447	316.94
378.827	343.61
379.208	330.95
379.588	315.81
379.968	356.94
380.349	338.64
380.729	339.09
381.109	324.62
381.489	321.01
381.87	336.38
382.25	337.73
382.63	326.88
383.01	333.44
383.39	362.14
383.77	343.15
384.15	356.26
384.53	337.05
384.91	353.55
385.29	342.7
385.67	368.01
386.049	352.65
386.429	335.02
386.809	368.92
387.189	348.35
387.568	367.33
387.948	348.35
388.328	364.17
388.707	338.18
389.087	368.69
389.466	347.9
389.846	372.53
390.225	378.86
390.605	368.92
390.984	382.48
391.363	371.4
391.743	378.41
392.122	361.69
392.501	365.53
392.881	371.85
393.26	368.01
393.639	361.69
394.018	363.27
394.397	385.19
394.776	386.09
395.155	384.28
395.534	367.33
395.913	374.11
396.292	404.85
396.671	387
397.05	380.44
397.429	396.49
397.808	392.87
398.186	387.9
398.565	385.41
398.944	402.14
399.323	380.22
399.701	393.55
400.08	369.82
400.458	408.24
400.837	391.97
401.215	383.15
401.594	406.88
401.972	388.58
402.351	425.41
402.729	405.98
403.107	406.43
403.486	396.26
403.864	394.9
404.242	413.89
404.62	407.11
404.999	423.83
405.377	417.73
405.755	426.99
406.133	405.98
406.511	429.71
406.889	436.03
407.267	425.19
407.645	424.51
408.023	433.1
408.401	430.61
408.779	437.62
409.156	465.41
409.534	436.94
409.912	460.67
410.29	445.53
410.667	440.55
411.045	467.45
411.422	455.47
411.8	471.74
412.178	461.34
412.555	445.07
412.933	478.74
413.31	477.39
413.687	479.87
414.065	464.73
414.442	474.9
414.819	491.17
415.197	491.85
415.574	479.42
415.951	495.24
416.328	500.66
416.705	481.91
417.082	479.65
417.46	503.38
417.837	509.03
418.214	504.51
418.591	499.53
418.967	489.59
419.344	492.3
419.721	498.18
420.098	523.94
420.475	530.49
420.852	491.4
421.228	523.26
421.605	519.65
421.982	543.83
422.358	532.98
422.735	548.12
423.111	532.98
423.488	557.84
423.864	546.54
424.241	560.1
424.617	525.52
424.994	568.01
425.37	572.98
425.746	562.36
426.123	563.26
426.499	556.93
426.875	581.11
427.251	572.3
427.627	581.79
428.003	595.35
428.379	593.54
428.756	578.4
429.132	585.86
429.507	603.26
429.883	619.31
430.259	607.1
430.635	625.86
431.011	605.75
431.387	621.11
431.763	617.05
432.138	611.4
432.514	633.32
432.89	633.99
433.265	642.13
433.641	638.06
434.016	654.33
434.392	671.06
434.767	671.06
435.143	660.66
435.518	680.77
435.894	684.84
436.269	721.22
436.644	713.31
437.02	693.65
437.395	693.43
437.77	693.2
438.145	716.25
438.52	728.68
438.895	735.46
439.271	747.21
439.646	734.1
440.021	742.92
440.395	730.72
440.77	744.5
441.145	750.6
441.52	747.66
441.895	746.99
442.27	778.85
442.645	751.73
443.019	771.17
443.394	769.36
443.769	789.92
444.143	790.37
444.518	788.34
444.892	789.7
445.267	815.68
445.641	786.76
446.016	803.48
446.39	784.73
446.764	793.31
447.139	813.42
447.513	807.1
447.887	829.02
448.262	818.85
448.636	829.7
449.01	838.51
449.384	839.86
449.758	877.6
450.132	873.99
450.506	858.62
450.88	858.4
451.254	868.11
451.628	875.12
452.002	871.73
452.376	872.63
452.75	894.1
453.123	886.64
453.497	909.92
453.871	913.31
454.244	896.13
454.618	929.13
454.992	930.48
455.365	948.34
455.739	962.12
456.112	968.22
456.486	965.96
456.859	981.33
457.232	1018.39
457.606	1003.7
457.979	1003.02
458.352	1000.54
458.725	1037.15
459.099	1056.58
459.472	1049.12
459.845	1062.91
460.218	1053.87
460.591	1077.15
460.964	1088.9
461.337	1105.17
461.71	1103.59
462.083	1110.37
462.456	1151.72
462.829	1137.03
463.201	1151.72
463.574	1180.87
463.947	1167.99
464.32	1236.46
464.692	1189.69
465.065	1238.27
465.438	1222.23
465.81	1266.29
466.183	1249.8
466.555	1291.15
466.928	1285.5
467.3	1305.62
467.672	1334.99
468.045	1381.32
468.417	1389
468.789	1395.78
469.161	1392.39
469.534	1438.04
469.906	1462.45
470.278	1470.58
470.65	1461.77
471.022	1519.62
471.394	1510.36
471.766	1564.59
472.138	1578.15
472.51	1615.66
472.882	1665.83
473.253	1687.07
473.625	1697.92
473.997	1737.69
474.369	1749.9
474.74	1776.56
475.112	1826.28
475.484	1866.96
475.855	1917.35
476.227	1972.04
476.598	2018.37
476.97	2022.43
477.341	2057.69
477.713	2125.93
478.084	2136.78
478.455	2264.91
478.827	2264.23
479.198	2351.92
479.569	2362.08
479.94	2429.65
480.311	2475.75
480.682	2548.29
481.053	2645.92
481.424	2694.28
481.795	2752.13
482.166	2780.15
482.537	2888.17
482.908	2975.85
483.279	3032.8
483.65	3090.2
484.021	3204.32
484.391	3225.11
484.762	3322.06
485.133	3383.75
485.503	3487.7
485.874	3607.25
486.244	3654.71
486.615	3750.75
486.985	3833.23
487.356	3891.54
487.726	3945.32
488.097	4105.77
488.467	4173.56
488.837	4301.47
489.207	4388.92
489.578	4492.88
489.948	4563.16
490.318	4677.96
490.688	4788.24
491.058	4898.52
491.428	4996.59
491.798	5059.41
492.168	5161.79
492.538	5264.38
492.908	5408.33
493.278	5468.9
493.648	5542.57
494.017	5648.78
494.387	5770.58
494.757	5861.65
495.126	5973.74
495.496	5957.92
495.866	6118.6
496.235	6245.82
496.605	6331.25
496.974	6396.33
497.344	6441.75
497.713	6497.8
498.082	6594.29
498.452	6792.48
498.821	6813.27
499.19	6954.96
499.559	6963.09
499.928	7081.96
500.298	7116.99
500.667	7250.77
501.036	7302.52
501.405	7398.11
501.774	7403.08
502.143	7607.14
502.512	7632.68
502.88	7746.8
503.249	7738.67
503.618	7805.33
503.987	7896.18
504.356	7953.35
504.724	8040.13
505.093	8117.19
505.462	8249.61
505.83	8278.54
506.199	8413
506.567	8497.52
506.936	8511.98
507.304	8671.07
507.672	8672.65
508.041	8769.37
508.409	8814.57
508.777	8979.54
509.145	8937.73
509.514	9012.31
509.882	9144.28
510.25	9146.54
510.618	9240.55
510.986	9211.85
511.354	9397.83
511.722	9450.26
512.09	9469.47
512.458	9523.03
512.826	9566.64
513.193	9648.22
513.561	9723.47
513.929	9839.63
514.297	9901.55
514.664	9937.7
515.032	10059.28
515.4	10076.68
515.767	10177.7
516.135	10233.29
516.502	10187.19
516.869	10336.11
517.237	10400.52
517.604	10324.59
517.972	10466.05
518.339	10509.22
518.706	10637.57
519.073	10599.38
519.44	10727.97
519.808	10824.69
520.175	10818.81
520.542	10991.46
520.909	10995.76
521.276	11017
521.643	11111.91
522.009	11175.41
522.376	11250.21
522.743	11313.26
523.11	11437.1
523.477	11476.2
523.843	11501.73
524.21	11646.36
524.577	11720.71
524.943	11776.3
525.31	11862.85
525.676	12016.52
526.043	12019.46
526.409	12065.56
526.776	12230.98
527.142	12299.9
527.508	12339.22
527.874	12415.61
528.241	12537.41
528.607	12520.46
528.973	12594.36
529.339	12688.37
529.705	12796.39
530.071	12884.07
530.437	12959.32
530.803	13071.18
531.169	13071.41
531.535	13032.09
531.901	13123.38
532.267	13089.49
532.632	13224.17
532.998	13312.53
533.364	13426.2
533.73	13467.56
534.095	13550.49
534.461	13549.36
534.826	13734.22
535.192	13697.15
535.557	13732.41
535.923	13758.17
536.288	13871.16
536.653	13895.34
537.019	14008.56
537.384	13916.58
537.749	14060.99
538.114	14134.43
538.479	14154.54
538.845	14256.01
539.21	14189.34
539.575	14269.12
539.94	14362.45
540.305	14493.74
540.67	14445.38
541.034	14495.33
541.399	14514.99
541.764	14553.63
542.129	14724.02
542.494	14781.42
542.858	14843.11
543.223	14837.01
543.587	14930.79
543.952	14946.61
544.316	15039.72
544.681	15008.76
545.045	15137.79
545.41	15180.05
545.774	15213.05
546.138	15257.34
546.503	15265.93
546.867	15303.44
547.231	15476.99
547.595	15489.65
547.959	15545.69
548.324	15543.89
548.688	15642.19
549.052	15675.63
549.416	15737.1
549.779	15754.95
550.143	15843.31
550.507	15949.3
550.871	15928.06
551.235	15954.95
551.599	16120.14
551.962	16180.93
552.326	16240.36
552.689	16295.96
553.053	16242.4
553.417	16326.69
553.78	16522.62
554.143	16378.67
554.507	16502.28
554.87	16624.31
555.234	16683.52
555.597	16646.45
555.96	16629.73
556.323	16812.78
556.686	16840.57
557.05	16886.67
557.413	16990.17
557.776	17055.71
558.139	17073.56
558.502	17178.19
558.865	17225.87
559.228	17271.52
559.59	17380.9
559.953	17305.19
560.316	17496.83
560.679	17569.37
561.041	17706.77
561.404	17719.42
561.767	17856.14
562.129	17829.02
562.492	18016.14
562.854	17899.76
563.217	17919.42
563.579	18097.26
563.941	18226.98
564.304	18281.21
564.666	18337.48
565.028	18416.58
565.39	18439.18
565.753	18563.69
566.115	18646.63
566.477	18714.2
566.839	18709.45
567.201	18917.13
567.563	18824.7
567.925	18965.26
568.287	18945.38
568.648	19092.49
569.01	19128.42
569.372	19297.91
569.734	19138.37
570.095	19377
570.457	19519.83
570.819	19515.76
571.18	19574.29
571.542	19685.25
571.903	19718.46
572.265	19741.74
572.626	19849.76
572.987	19986.25
573.349	20076.2
573.71	20204.55
574.071	20222.41
574.432	20314.83
574.794	20557.09
575.155	20509.63
575.516	20611.77
575.877	20715.5
576.238	20797.53
576.599	20957.98
576.96	21002.5
577.32	21117.75
577.681	21273.9
578.042	21470.28
578.403	21583.73
578.763	21519.1
579.124	21787.34
579.485	21901.01
579.845	22007.9
580.206	22129.93
580.566	22278.85
580.927	22362.24
581.287	22621.89
581.648	22754.77
582.008	22936.23
582.368	23094.2
582.728	23251.93
583.089	23368.76
583.449	23478.82
583.809	23724.01
584.169	23911.8
584.529	24031.57
584.889	24412.13
585.249	24400.6
585.609	24633.14
585.969	24969.85
586.329	25031.32
586.688	25270.63
587.048	25460.01
587.408	25559.21
587.768	25759.66
588.127	26058.64
588.487	26328.01
588.846	26585.18
589.206	26644.61
589.565	26816.13
589.925	27185.39
590.284	27333.63
590.643	27540.18
591.003	27831.25
591.362	28180.16
591.721	28240.05
592.08	28531.11
592.44	28815.17
592.799	29096.98
593.158	29187.37
593.517	29354.37
593.876	29621.03
594.235	29759.1
594.593	30102.6
594.952	30330.84
595.311	30397.05
595.67	30760.43
596.029	31120.42
596.387	31405.84
596.746	31613.97
597.104	31627.53
597.463	31929.22
597.822	32156.56
598.18	32274.29
598.538	32407.4
598.897	32873.37
599.255	32785.24
599.613	33411.44
599.972	33395.62
600.33	33509.74
600.688	33655.73
601.046	34029.05
601.404	34271.3
601.762	34362.37
602.12	34740.44
602.478	34863.15
602.836	35075.57
603.194	35020.44
603.552	35175.46
603.91	35351.5
604.268	35649.8
604.625	35755.33
604.983	35999.62
605.341	35932.73
605.698	36181.08
606.056	36501.3
606.413	36541.98
606.771	36750.79
607.128	36996.88
607.485	36980.61
607.843	37026.71
608.2	37395.29
608.557	37747.6
608.914	37616.53
609.272	37786.24
609.629	37962.73
609.986	38376.51
610.343	38169.73
610.7	38644.52
611.057	38584.18
611.414	38746.66
611.771	38850.39
612.127	39094.45
612.484	39149.37
612.841	39293.09
613.198	39269.14
613.554	39425.97
613.911	39649.24
614.267	39858.5
614.624	39857.82
614.98	39965.84
615.337	40211.26
615.693	40236.57
616.05	40217.13
616.406	40672.04
616.762	40556.79
617.118	40614.64
617.475	40677.91
617.831	40919.04
618.187	40990.45
618.543	41013.05
618.899	41290.1
619.255	41106.6
619.611	41261.63
619.967	41590.43
620.323	41638.34
620.678	41620.04
621.034	41473.15
621.39	41580.04
621.746	41506.82
622.101	42065
622.457	41943.19
622.812	41867.71
623.168	41979.8
623.523	42147.25
623.879	42214.14
624.234	41972.12
624.589	42318.32
624.945	42298.44
625.3	42463.63
625.655	42397.87
626.01	42490.07
626.365	42642.83
626.72	42530.52
627.075	42516.51
627.43	42612.33
627.785	42600.35
628.14	42695.26
628.495	42666.11
628.85	42696.17
629.205	42581.59
629.559	42777.97
629.914	42693.91
630.269	42752.66
630.623	42533.01
630.978	42636.05
631.332	42802.83
631.687	42895.03
632.041	42797.18
632.396	42961.92
632.75	42683.96
633.104	42879.66
633.459	42721.25
633.813	42778.65
634.167	42750.4
634.521	42686.67
634.875	42805.99
635.229	42715.15
635.583	42577.3
635.937	42533.01
636.291	42551.76
636.645	42741.14
636.999	42568.26
637.352	42764.41
637.706	42407.13
638.06	42622.04
638.413	42548.15
638.767	42460.92
639.121	42581.14
639.474	42434.25
639.828	42545.21
640.181	42341.6
640.534	42441.93
640.888	42325.55
641.241	42199.91
641.594	42337.76
641.947	42411.2
642.301	42425.44
642.654	42344.08
643.007	42433.35
643.36	42383.18
643.713	42284.2
644.066	42348.6
644.419	42189.06
644.771	41924.43
645.124	41483.54
645.477	41447.16
645.83	41293.94
646.182	41102.08
646.535	41185.02
646.888	41125.59
647.24	40940.96
647.593	41215.98
647.945	41067.51
648.298	40965.82
648.65	41008.75
649.002	40838.59
649.355	40936.66
649.707	40831.81
650.059	41015.08
650.411	41577.78
650.763	41540.26
651.115	41887.6
651.467	41738
651.819	41818.9
652.171	41807.6
652.523	41579.13
652.875	41644.67
653.227	41434.73
653.578	41706.59
653.93	41779.35
654.282	41471.11
654.633	41440.15
654.985	41548.17
655.337	41470.89
655.688	41462.75
656.039	41774.38
656.391	41256.2
656.742	41481.28
657.094	41440.61
657.445	41527.38
657.796	41450.1
658.147	41490.77
658.498	41432.47
658.849	41532.81
659.2	41410.78
659.551	41321.74
659.902	41454.84
660.253	41274.73
660.604	41418.46
660.955	41259.14
661.306	41366.26
661.656	41281.74
662.007	41307.73
662.358	41264.34
662.708	41229.09
663.059	41191.12
663.409	41024.12
663.76	41279.25
664.11	41204
664.461	41284.45
664.811	41297.33
665.161	41160.16
665.511	41069.77
665.862	41088.3
666.212	41295.75
666.562	41133.95
666.912	41116.32
667.262	41078.81
667.612	41068.64
667.962	41135.3
668.312	41074.29
668.662	41293.94
669.011	41057.34
669.361	41093.5
669.711	41002.2
670.06	40980.5
670.41	40965.59
670.76	40934.18
671.109	41057.34
671.459	41039.94
671.808	41065.02
672.157	40964.46
672.507	40730.34
672.856	40770.11
673.205	40940.96
673.554	40917.23
673.904	40895.76
674.253	41036.77
674.602	40979.83
674.951	40519.27
675.3	40307.53
675.649	40729.44
675.998	40686.05
676.346	40920.84
676.695	41015.76
677.044	40505.49
677.393	40677.24
677.741	40736.67
678.09	40686.5
678.438	40560.18
678.787	40641.3
679.135	40604.47
679.484	40329.67
679.832	40651.93
680.181	40228.66
680.529	40534.87
680.877	40416.68
681.225	40147.98
681.573	40592.94
681.922	40193.86
682.27	40148.44
682.618	40179.4
682.966	40057.14
683.314	40078.61
683.661	40030.25
684.009	39920.42
684.357	39774.66
684.705	39675.23
685.053	39775.79
685.4	39732.63
685.748	39553.2
686.095	39531.73
686.443	39443.6
686.79	39302.36
687.138	39434.56
687.485	39210.16
687.832	39233.66
688.18	39275.92
688.527	39036.15
688.874	39025.75
689.221	38988.24
689.568	38859.2
689.915	38736.27
690.262	38809.49
690.609	38592.77
690.956	38655.59
691.303	38397.3
691.65	38361.82
691.997	38355.04
692.344	38147.58
692.69	38175.83
693.037	38055.16
693.383	37940.36
693.73	37977.87
694.077	37794.6
694.423	37778.1
694.769	37545.79
695.116	37590.76
695.462	37492.46
695.808	37519.13
696.155	37476.64
696.501	37329.3
696.847	37277.55
697.193	36976.09
697.539	37088.18
697.885	36934.51
698.231	36762.31
698.577	36747.4
698.923	36767.96
699.269	36490.45
699.614	36462.43
699.96	36223.57
700.306	36424.24
700.651	36119.16
700.997	36035.1
701.342	35978.83
701.688	35920.75
702.033	35845.5
702.379	35890.24
702.724	35724.82
703.069	35811.6
703.415	35376.36
703.76	35483.7
704.105	35377.26
704.45	35343.59
704.795	35083.71
705.14	35038.06
705.485	35063.6
705.83	34819.08
706.175	34802.81
706.52	34741.12
706.865	34633.1
707.209	34700.44
707.554	34560.33
707.899	34647.56
708.243	34289.15
708.588	34419.09
708.932	34084.87
709.277	34111.31
709.621	34176.62
709.966	33895.27
710.31	34069.05
710.654	33719
710.998	33854.14
711.342	33769.39
711.687	33662.5
712.031	33664.54
712.375	33456.86
712.719	33466.13
713.063	33439.46
713.407	33514.03
713.75	33204.89
714.094	33189.97
714.438	33103.65
714.782	33225.23
715.125	33041.5
715.469	33026.59
715.812	32904.56
716.156	32822.98
716.499	32729.65
716.843	32860.04
717.186	32599.26
717.53	32796.76
717.873	32730.78
718.216	32650.78
718.559	32477
718.902	32276.78
719.246	32381.63
719.589	32212.37
719.932	32172.15
720.275	32079.5
720.617	32213.5
720.96	31981.42
721.303	31985.26
721.646	32050.34
721.989	31771.03
722.331	31992.49
722.674	31711.14
723.016	31851.25
723.359	31683.57
723.701	31755.89
724.044	31543.24
724.386	31533.97
724.729	31579.4
725.071	31491.49
725.413	31452.39
725.755	31375.56
726.097	31318.84
726.439	31161.1
726.782	31128.11
727.124	31305.73
727.465	31089.24
727.807	31063.93
728.149	30964.04
728.491	30976.47
728.833	30930.6
729.175	30876.59
729.516	30771.06
729.858	30716.59
730.199	30676.14
730.541	30717.72
730.882	30648.12
731.224	30726.54
731.565	30557.28
731.906	30557.95
732.248	30604.73
732.589	30338.98
732.93	30289.26
733.271	30271.86
733.612	30410.16
733.953	30376.49
734.294	30113.45
734.635	30169.72
734.976	30098.76
735.317	29925.65
735.658	30092.88
735.999	29976.5
736.339	29972.66
736.68	30050.17
737.021	29977.86
737.361	29819.22
737.702	29834.58
738.042	29853.34
738.383	29734.7
738.723	29832.32
739.063	29541.94
739.404	29632.1
739.744	29501.94
740.084	29514.37
740.424	29449.96
740.764	29463.52
741.104	29624.87
741.444	29300.59
741.784	29180.59
742.124	29423.52
742.464	29333.8
742.804	29226.24
743.143	29175.39
743.483	29153.02
743.823	28869.86
744.162	28890.88
744.502	29051.55
744.841	28899.47
745.181	28934.49
745.52	28921.61
745.86	28788.51
746.199	28761.84
746.538	28745.12
746.877	28665.57
747.216	28788.06
747.556	28641.62
747.895	28682.3
748.234	28625.8
748.573	28479.59
748.911	28327.73
749.25	28477.56
749.589	28329.99
749.928	28316.88
750.267	28384
750.605	28281.86
750.944	28251.57
751.283	28110.33
751.621	28196.66
751.96	28124.8
752.298	27994.18
752.636	27997.34
752.975	27830.12
753.313	27703.57
753.651	27899.49
753.989	27671.02
754.327	27650.01
754.666	27542.44
755.004	27564.59
755.342	27554.64
755.679	27511.71
756.017	27339.28
756.355	27454.53
756.693	27301.54
757.031	27280.75
757.368	27071.94
757.706	27138.38
