Data from hue_90_FLMS001491_5.txt Node
Date: Mon Feb 06 15:24:36 GMT 2017
User: dcchb
Spectrometer: FLMS00149
Trigger mode: 0
Integration Time (sec): 2.000000E-2
Scans to average: 10
Electric dark correction enabled: true
Nonlinearity correction enabled: false
Boxcar width: 0
XAxis mode: Wavelengths
Number of Pixels in Spectrum: 2048
>>>>>Begin Spectral Data<<<<<
341.393	-13.46
341.776	-13.46
342.16	-13.46
342.543	-37.87
342.927	-43.29
343.31	-73.12
343.693	-77.64
344.077	-58.43
344.46	-62.72
344.843	-57.75
345.226	-50.52
345.61	-38.54
345.993	-21.82
346.376	-7.13
346.759	14.79
347.142	26.99
347.525	44.39
347.908	76.48
348.291	71.28
348.674	104.05
349.057	109.7
349.44	127.78
349.823	150.6
350.206	165.97
350.588	211.17
350.971	218.17
351.354	239.41
351.737	229.25
352.119	239.41
352.502	273.54
352.884	294.1
353.267	261.56
353.65	296.14
354.032	296.59
354.414	311.96
354.797	309.92
355.179	319.86
355.562	323.93
355.944	315.34
356.326	338.17
356.709	344.72
357.091	318.51
357.473	338.17
357.855	335.23
358.238	342.01
358.62	328.23
359.002	325.51
359.384	334.55
359.766	335.01
360.148	332.97
360.53	338.4
360.912	336.36
361.294	325.06
361.676	326.64
362.057	328
362.439	333.65
362.821	311.5
363.203	315.57
363.584	326.87
363.966	318.28
364.348	323.93
364.729	310.15
365.111	325.29
365.493	315.34
365.874	309.92
366.256	321.22
366.637	338.4
367.019	304.05
367.4	324.16
367.781	311.96
368.163	311.28
368.544	307.89
368.925	330.03
369.306	332.52
369.688	323.25
370.069	290.49
370.45	305.63
370.831	326.19
371.212	318.73
371.593	308.34
371.974	318.06
372.355	309.92
372.736	335.91
373.117	314.89
373.498	333.65
373.879	317.15
374.26	325.51
374.641	312.63
375.021	305.85
375.402	322.58
375.783	322.8
376.163	329.13
376.544	324.38
376.925	334.78
377.305	332.52
377.686	304.5
378.066	317.15
378.447	317.38
378.827	314.21
379.208	342.24
379.588	336.81
379.968	345.63
380.349	354.21
380.729	354.44
381.109	339.75
381.489	336.14
381.87	328.23
382.25	339.98
382.63	332.75
383.01	340.88
383.39	343.82
383.77	349.02
384.15	349.02
384.53	355.8
384.91	337.94
385.29	353.54
385.67	328.23
386.049	351.95
386.429	342.46
386.809	334.1
387.189	359.86
387.568	346.3
387.948	354.21
388.328	370.26
388.707	366.19
389.087	342.46
389.466	359.19
389.846	363.71
390.225	345.63
390.605	354.89
390.984	377.49
391.363	356.02
391.743	356.7
392.122	384.5
392.501	371.84
392.881	373.87
393.26	357.15
393.639	378.62
394.018	359.64
394.397	371.84
394.776	387.89
395.155	379.07
395.534	369.81
395.913	367.09
396.292	386.53
396.671	385.4
397.05	382.24
397.429	379.52
397.808	380.65
398.186	377.04
398.565	386.3
398.944	394.21
399.323	379.75
399.701	418.39
400.08	397.15
400.458	392.86
400.837	403.48
401.215	404.38
401.594	396.92
401.972	412.07
402.351	401.44
402.729	428.11
403.107	388.79
403.486	403.93
403.864	405.06
404.242	438.73
404.62	403.7
404.999	410.94
405.377	396.02
405.755	399.64
406.133	420.88
406.511	449.35
406.889	444.15
407.267	426.98
407.645	444.15
408.023	440.99
408.401	439.41
408.779	438.73
409.156	456.36
409.534	438.28
409.912	459.52
410.29	450.03
410.667	438.51
411.045	473.98
411.422	465.17
411.8	457.04
412.178	471.72
412.555	459.3
412.933	475.57
413.31	481.22
413.687	476.02
414.065	462.23
414.442	484.83
414.819	465.4
415.197	463.82
415.574	493.65
415.951	481.44
416.328	496.13
416.705	490.93
417.082	473.53
417.46	503.81
417.837	498.16
418.214	502.91
418.591	497.94
418.967	505.4
419.344	503.81
419.721	521.67
420.098	528.22
420.475	524.6
420.852	533.64
421.228	543.14
421.605	531.38
421.982	533.19
422.358	543.81
422.735	551.72
423.111	547.43
423.488	536.58
423.864	553.76
424.241	583.59
424.617	575
424.994	552.17
425.37	554.66
425.746	570.25
426.123	573.87
426.499	576.58
426.875	557.6
427.251	587.88
427.627	596.92
428.003	602.12
428.379	574.55
428.756	615
429.132	587.65
429.507	633.08
429.883	611.83
430.259	611.38
430.635	620.65
431.011	633.98
431.387	626.98
431.763	652.06
432.138	650.48
432.514	649.35
432.89	654.32
433.265	658.61
433.641	670.14
434.016	666.3
434.392	693.64
434.767	684.83
435.143	682.79
435.518	709.46
435.894	721.66
436.269	692.96
436.644	725.5
437.02	709.01
437.395	729.8
437.77	706.07
438.145	722.57
438.52	761.21
438.895	734.09
439.271	726.18
439.646	732.28
440.021	766.63
440.395	763.47
440.77	768.44
441.145	757.37
441.52	773.19
441.895	789.91
442.27	770.7
442.645	783.36
443.019	801.43
443.394	796.46
443.769	791.26
444.143	820.42
444.518	808.21
444.892	790.59
445.267	823.81
445.641	825.84
446.016	851.83
446.39	840.08
446.764	836.24
447.139	832.39
447.513	873.97
447.887	857.7
448.262	842.79
448.636	843.92
449.01	857.25
449.384	861.09
449.758	864.26
450.132	886.86
450.506	913.52
450.88	897.7
451.254	899.06
451.628	923.69
452.002	932.96
452.376	927.76
452.75	900.19
453.123	949.68
453.497	955.55
453.871	977.02
454.244	976.34
454.618	975.67
454.992	976.12
455.365	993.75
455.739	1021.77
456.112	1027.42
456.486	1045.27
456.859	1034.2
457.232	1062.44
457.606	1070.81
457.979	1067.87
458.352	1087.53
458.725	1094.99
459.099	1087.3
459.472	1146.96
459.845	1177.92
460.218	1147.41
460.591	1177.47
460.964	1156.9
461.337	1209.33
461.71	1195.55
462.083	1211.59
462.456	1207.07
462.829	1253.4
463.201	1264.47
463.574	1271.48
463.947	1301.99
464.32	1326.62
464.692	1306.51
465.065	1316.22
465.438	1359.61
465.81	1393.51
466.183	1382.21
466.555	1392.15
466.928	1417.46
467.3	1451.59
467.672	1472.15
468.045	1497.01
468.417	1506.27
468.789	1533.17
469.161	1557.12
469.534	1601.19
469.906	1633.28
470.278	1644.58
470.65	1672.6
471.022	1704.23
471.394	1748.53
471.766	1731.13
472.138	1746.49
472.51	1799.83
472.882	1859.03
473.253	1885.25
473.625	1913.04
473.997	1950.78
474.369	1978.58
474.74	2012.02
475.112	2079.37
475.484	2133.83
475.855	2169.76
476.227	2195.52
476.598	2251.57
476.97	2287.72
477.341	2359.13
477.713	2402.97
478.084	2474.16
478.455	2534.27
478.827	2537.21
479.198	2661.5
479.569	2731.1
479.94	2794.6
480.311	2859.23
480.682	2927.03
481.053	2995.05
481.424	3086.35
481.795	3173.35
482.166	3247.25
482.537	3317.98
482.908	3384.19
483.279	3468.93
483.65	3590.96
484.021	3695.14
484.391	3743.5
484.762	3858.08
485.133	3921.13
485.503	4077.05
485.874	4152.53
486.244	4200.21
486.615	4357.5
486.985	4447.21
487.356	4587.1
487.726	4640.43
488.097	4759.75
488.467	4843.81
488.837	5045.84
489.207	5090.59
489.578	5181.43
489.948	5357.92
490.318	5472.27
490.688	5545.26
491.058	5704.81
491.428	5840.4
491.798	5891.24
492.168	6091.01
492.538	6146.83
492.908	6266.37
493.278	6391.12
493.648	6516.31
494.017	6598.8
494.387	6742.52
494.757	6835.17
495.126	6957.43
495.496	7027.03
495.866	7158.55
496.235	7278.1
496.605	7390.41
496.974	7463.63
497.344	7596.06
497.713	7726.68
498.082	7813.68
498.452	7880.12
498.821	7954.92
499.19	8087.57
499.559	8186.55
499.928	8270.16
500.298	8365.98
500.667	8431.29
501.036	8541.12
501.405	8641.91
501.774	8662.47
502.143	8787.66
502.512	8839.64
502.88	8946.3
503.249	8998.73
503.618	9088.67
503.987	9182.23
504.356	9223.36
504.724	9239.4
505.093	9408.44
505.462	9419.06
505.83	9502
506.199	9664.93
506.567	9772.05
506.936	9716.68
507.304	9839.16
507.672	9921.42
508.041	9942.89
508.409	10026.28
508.777	10037.8
509.145	10200.51
509.514	10177.46
509.882	10290.45
510.25	10244.8
510.618	10419.26
510.986	10474.63
511.354	10532.93
511.722	10572.7
512.09	10670.78
512.458	10631.01
512.826	10676.43
513.193	10702.64
513.561	10835.75
513.929	10848.85
514.297	10920.04
514.664	10956.42
515.032	10977.21
515.4	11085.01
515.767	11022.63
516.135	11198.45
516.502	10962.3
516.869	11240.03
517.237	11172.91
517.604	11227.37
517.972	11256.98
518.339	11267.37
518.706	11333.81
519.073	11341.72
519.44	11434.37
519.808	11530.64
520.175	11431.89
520.542	11572.9
520.909	11645.44
521.276	11513.92
521.643	11616.74
522.009	11632.34
522.376	11698.55
522.743	11771.77
523.11	11801.14
523.477	11880.69
523.843	11880.92
524.21	11920.69
524.577	11989.84
524.943	11997.3
525.31	12046.79
525.676	12020.57
526.043	12007.01
526.409	12083.17
526.776	12182.83
527.142	12081.14
527.508	12172.43
527.874	12217.63
528.241	12290.85
528.607	12227.57
528.973	12293.33
529.339	12185.54
529.705	12291.08
530.071	12367.46
530.437	12306.22
530.803	12334.46
531.169	12350.96
531.535	12266.22
531.901	12280
532.267	12270.96
532.632	12316.16
532.998	12284.52
533.364	12407.68
533.73	12316.39
534.095	12374.91
534.461	12341.47
534.826	12287.01
535.192	12305.99
535.557	12395.71
535.923	12256.27
536.288	12288.36
536.653	12213.34
537.019	12203.62
537.384	12257.63
537.749	12235.71
538.114	12141.93
538.479	12150.51
538.845	12140.12
539.21	12105.09
539.575	12158.42
539.94	12066.22
540.305	12149.16
540.67	12106.45
541.034	12054.7
541.399	12047.69
541.764	11958.65
542.129	12017.64
542.494	12015.15
542.858	11951.65
543.223	11974.93
543.587	11944.42
543.952	11847.24
544.316	11865.32
544.681	11790.07
545.045	11811.31
545.41	11846.79
545.774	11818.09
546.138	11691.09
546.503	11749.62
546.867	11640.47
547.231	11772.9
547.595	11722.28
547.959	11590.3
548.324	11597.99
548.688	11614.03
549.052	11559.57
549.416	11522.06
549.779	11559.79
550.143	11509.17
550.507	11516.86
550.871	11554.15
551.235	11518.44
551.599	11529.29
551.962	11470.31
552.326	11438.89
552.689	11489.51
553.053	11421.72
553.417	11304.89
553.78	11463.98
554.143	11455.84
554.507	11352.34
554.87	11316.64
555.234	11421.49
555.597	11280.71
555.96	11324.32
556.323	11313.93
556.686	11261.72
557.05	11239.8
557.413	11297.2
557.776	11280.48
558.139	11314.15
558.502	11287.94
558.865	11268.96
559.228	11329.52
559.59	11291.55
559.953	11292.46
560.316	11339.24
560.679	11313.93
561.041	11394.15
561.404	11399.57
561.767	11367.03
562.129	11345.34
562.492	11358.22
562.854	11373.13
563.217	11451.78
563.579	11300.59
563.941	11425.11
564.304	11489.74
564.666	11421.49
565.028	11458.55
565.39	11468.05
565.753	11503.53
566.115	11565.44
566.477	11529.74
566.839	11447.93
567.201	11576.52
567.563	11531.77
567.925	11576.97
568.287	11564.54
568.648	11593.01
569.01	11685.44
569.372	11655.39
569.734	11595.27
570.095	11674.14
570.457	11719.11
570.819	11657.19
571.18	11693.8
571.542	11778.77
571.903	11672.79
572.265	11773.57
572.626	11709.62
572.987	11771.77
573.349	11781.71
573.71	11829.39
574.071	11759.34
574.432	11834.82
574.794	11870.3
575.155	11878.66
575.516	11800.01
575.877	11804.99
576.238	11824.42
576.599	11825.32
576.96	11917.3
577.32	11756.85
577.681	11846.79
578.042	11943.06
578.403	11836.4
578.763	11878.88
579.124	11847.47
579.485	11961.14
579.845	11932.44
580.206	11950.52
580.566	11893.35
580.927	11839.56
581.287	11890.18
581.648	11813.8
582.008	11908.03
582.368	11865.1
582.728	11872.33
583.089	11891.99
583.449	11782.16
583.809	11810.41
584.169	11879.79
584.529	11875.27
584.889	11863.29
585.249	11863.74
585.609	11793.69
585.969	11877.98
586.329	11818.32
586.688	11861.71
587.048	11839.34
587.408	11754.59
587.768	11798.21
588.127	11775.83
588.487	11736.97
588.846	11790.52
589.206	11743.07
589.565	11704.42
589.925	11794.14
590.284	11773.8
590.643	11761.15
591.003	11750.75
591.362	11764.76
591.721	11713.46
592.08	11743.29
592.44	11794.37
592.799	11747.81
593.158	11729.06
593.517	11743.97
593.876	11793.69
594.235	11727.25
594.593	11676.63
594.952	11681.15
595.311	11640.24
595.67	11666.23
596.029	11695.16
596.387	11736.06
596.746	11708.04
597.104	11676.18
597.463	11617.65
597.822	11699
598.18	11619
598.538	11644.99
598.897	11726.57
599.255	11623.52
599.613	11801.37
599.972	11674.37
600.33	11659.45
600.688	11673.69
601.046	11692.45
601.404	11739
601.762	11689.74
602.12	11740.13
602.478	11701.71
602.836	11735.61
603.194	11613.8
603.552	11697.19
603.91	11642.96
604.268	11726.57
604.625	11634.6
604.983	11682.28
605.341	11616.29
605.698	11729.73
606.056	11676.63
606.413	11672.11
606.771	11820.58
607.128	11729.73
607.485	11615.39
607.843	11690.64
608.2	11713.69
608.557	11703.75
608.914	11615.39
609.272	11733.35
609.629	11744.42
609.986	11789.62
610.343	11762.95
610.7	11834.82
611.057	11742.61
611.414	11833.23
611.771	11846.34
612.127	11938.77
612.484	11853.8
612.841	11889.73
613.198	11900.58
613.554	11745.78
613.911	11852.89
614.267	11860.13
614.624	11871.2
614.98	11881.37
615.337	11967.69
615.693	11864.65
616.05	11946.45
616.406	11989.39
616.762	11947.36
617.118	11963.17
617.475	11987.35
617.831	11936.06
618.187	11897.19
618.543	11925.44
618.899	12003.17
619.255	11979.9
619.611	11987.13
619.967	12055.6
620.323	12065.77
620.678	11985.09
621.034	12001.59
621.39	12000.46
621.746	11979.9
622.101	12024.19
622.457	12065.32
622.812	12007.24
623.168	12029.84
623.523	12023.74
623.879	12156.84
624.234	12001.82
624.589	11979.22
624.945	12121.14
625.3	12115.94
625.655	12078.65
626.01	12100.8
626.365	12042.95
626.72	12042.72
627.075	12099.89
627.43	12065.32
627.785	11981.93
628.14	12011.31
628.495	12054.02
628.85	11917.53
629.205	12020.57
629.559	11999.78
629.914	11947.58
630.269	11972.67
630.623	11920.69
630.978	11897.64
631.332	11957.52
631.687	11963.85
632.041	11927.69
632.396	11937.86
632.75	11831.88
633.104	11884.08
633.459	11897.87
633.813	11828.71
634.167	11847.02
634.521	11817.19
634.875	11844.08
635.229	11814.93
635.583	11749.85
635.937	11743.74
636.291	11679.57
636.645	11725.44
636.999	11735.38
637.352	11725.67
637.706	11697.42
638.06	11796.62
638.413	11709.85
638.767	11663.97
639.121	11665.78
639.474	11631.43
639.828	11593.01
640.181	11699.23
640.534	11614.03
640.888	11493.58
641.241	11564.99
641.594	11609.06
641.947	11617.19
642.301	11558.21
642.654	11638.89
643.007	11535.39
643.36	11468.5
643.713	11476.18
644.066	11528.84
644.419	11500.59
644.771	11418.1
645.124	11370.42
645.477	11261.05
645.83	11264.44
646.182	11233.93
646.535	11142.63
646.888	11194.38
647.24	11167.71
647.593	11147.15
647.945	11117.32
648.298	11080.94
648.65	11076.19
649.002	11073.93
649.355	11074.84
649.707	11081.39
650.059	11076.64
650.411	11329.74
650.763	11307.15
651.115	11348.05
651.467	11398.44
651.819	11402.28
652.171	11340.59
652.523	11301.04
652.875	11337.2
653.227	11313.93
653.578	11353.7
653.93	11313.93
654.282	11286.36
654.633	11318.9
654.985	11323.64
655.337	11326.58
655.688	11259.92
656.039	11300.82
656.391	11286.81
656.742	11259.69
657.094	11295.62
657.445	11274.83
657.796	11311.67
658.147	11278.22
658.498	11305.56
658.849	11329.07
659.2	11294.04
659.551	11225.11
659.902	11342.63
660.253	11251.78
660.604	11282.29
660.955	11222.63
661.306	11353.02
661.656	11303.3
662.007	11302.17
662.358	11302.17
662.708	11348.95
663.059	11378.1
663.409	11230.09
663.76	11326.35
664.11	11298.56
664.461	11324.55
664.811	11334.49
665.161	11320.48
665.511	11303.53
665.862	11311.89
666.212	11390.31
666.562	11362.51
666.912	11325.22
667.262	11352.34
667.612	11341.95
667.962	11393.25
668.312	11389.18
668.662	11387.37
669.011	11287.71
669.361	11331.78
669.711	11294.94
670.06	11352.57
670.41	11250.2
670.76	11310.31
671.109	11306.02
671.459	11285.9
671.808	11360.03
672.157	11311.21
672.507	11162.97
672.856	11205.68
673.205	11253.14
673.554	11284.1
673.904	11196.64
674.253	11272.12
674.602	11186.25
674.951	10998.91
675.3	11075.06
675.649	11224.21
675.998	11277.09
676.346	11129.3
676.695	11201.16
677.044	11111.9
677.393	11233.25
677.741	11167.71
678.09	11108.51
678.438	11084.33
678.787	11126.36
679.135	11162.07
679.484	11035.97
679.832	11127.04
680.181	11010.2
680.529	11035.29
680.877	11026.7
681.225	10892.24
681.573	11038.68
681.922	11023.76
682.27	10850.89
682.618	10889.3
682.966	10892.69
683.314	10875.97
683.661	10860.38
684.009	10787.84
684.357	10782.41
684.705	10787.16
685.053	10726.37
685.4	10791.45
685.748	10697.22
686.095	10696.77
686.443	10625.81
686.79	10594.17
687.138	10623.32
687.485	10675.52
687.832	10520.73
688.18	10592.81
688.527	10585.36
688.874	10480.95
689.221	10495.64
689.568	10411.58
689.915	10451.35
690.262	10403.89
690.609	10373.84
690.956	10271.92
691.303	10301.52
691.65	10262.65
691.997	10269.43
692.344	10170.45
692.69	10149.21
693.037	10142.88
693.383	10076.9
693.73	10134.07
694.077	10028.31
694.423	10022.66
694.769	10040.06
695.116	9968.42
695.462	9977.24
695.808	9910.35
696.155	9972.27
696.501	9795.32
696.847	9832.38
697.193	9708.77
697.539	9757.13
697.885	9671.93
698.231	9654.99
698.577	9684.59
698.923	9625.16
699.269	9558.49
699.614	9478.72
699.96	9484.82
700.306	9517.81
700.651	9481.66
700.997	9397.14
701.342	9370.7
701.688	9388.33
702.033	9348.78
702.379	9331.15
702.724	9268.1
703.069	9249.12
703.415	9179.74
703.76	9209.8
704.105	9193.53
704.45	9214.77
704.795	9084.38
705.14	9080.99
705.485	9074.44
705.83	9100.65
706.175	8961.22
706.52	9024.49
706.865	8978.85
707.209	8916.93
707.554	8897.49
707.899	8890.94
708.243	8883.93
708.588	8846.65
708.932	8731.62
709.277	8733.88
709.621	8721.9
709.966	8734.78
710.31	8719.64
710.654	8686.88
710.998	8574.11
711.342	8629.25
711.687	8674.9
712.031	8600.1
712.375	8564.39
712.719	8550.61
713.063	8518.29
713.407	8561
713.75	8486.88
714.094	8502.93
714.438	8459.54
714.782	8491.4
715.125	8461.57
715.469	8493.43
715.812	8437.17
716.156	8360.11
716.499	8332.08
716.843	8421.35
717.186	8304.29
717.53	8370.27
717.873	8370.95
718.216	8269.26
718.559	8263.38
718.902	8283.5
719.246	8284.17
719.589	8290.95
719.932	8207.34
720.275	8265.87
720.617	8210.73
720.96	8251.18
721.303	8163.73
721.646	8175.48
721.989	8168.02
722.331	8261.35
722.674	8178.87
723.016	8160.11
723.359	8162.37
723.701	8158.53
724.044	8098.19
724.386	8078.76
724.729	8100.68
725.071	8148.59
725.413	8166.66
725.755	8120.56
726.097	8117.4
726.439	8029.72
726.782	8077.4
727.124	8098.19
727.465	8074.91
727.807	8026.1
728.149	8009.38
728.491	7979.32
728.833	7971.19
729.175	7970.28
729.516	7932.32
729.858	8031.75
730.199	8000.79
730.541	7992.21
730.882	8001.02
731.224	8016.39
731.565	7935.48
731.906	7992.88
732.248	7977.52
732.589	7977.29
732.93	7895.94
733.271	8010.96
733.612	8011.41
733.953	7942.71
734.294	7975.48
734.635	7984.97
734.976	7972.09
735.317	7956.5
735.658	7959.21
735.999	7959.21
736.339	7930.29
736.68	8005.31
737.021	7959.89
737.361	7875.82
737.702	7980.91
738.042	7906.33
738.383	7971.64
738.723	7984.97
739.063	7928.03
739.404	7986.1
739.744	7966.67
740.084	8012.54
740.424	7961.02
740.764	7980.68
741.104	8009.83
741.444	7970.51
741.784	7966.9
742.124	8025.2
742.464	8065.2
742.804	8026.33
743.143	8013.22
743.483	8066.78
743.823	8062.03
744.162	8123.95
744.502	8182.03
744.841	8145.87
745.181	8208.02
745.52	8197.85
745.86	8250.96
746.199	8310.61
746.538	8274.46
746.877	8298.41
747.216	8312.65
747.556	8414.11
747.895	8446.43
748.234	8471.51
748.573	8510.38
748.911	8612.98
749.25	8595.13
749.589	8635.13
749.928	8594.68
750.267	8745.63
750.605	8765.52
750.944	8916.47
751.283	8843.48
751.621	9030.14
751.96	9063.59
752.298	9095
752.636	9174.77
752.975	9294.09
753.313	9333.64
753.651	9473.97
753.989	9510.81
754.327	9604.14
754.666	9570.02
755.004	9788.54
755.342	9956.9
755.679	9965.49
756.017	9970.68
756.355	10233.95
756.693	10205.03
757.031	10391.46
757.368	10465.81
757.706	10593.94
758.044	10731.12
758.381	10844.33
758.719	10929.98
759.056	11148.73
759.394	11206.13
759.731	11315.06
760.068	11416.52
