Data from hue_40_FLMS001491_61.txt Node
Date: Mon Feb 06 15:08:15 GMT 2017
User: dcchb
Spectrometer: FLMS00149
Trigger mode: 0
Integration Time (sec): 2.000000E-2
Scans to average: 10
Electric dark correction enabled: true
Nonlinearity correction enabled: false
Boxcar width: 0
XAxis mode: Wavelengths
Number of Pixels in Spectrum: 2048
>>>>>Begin Spectral Data<<<<<
341.393	-38.26
341.776	-38.26
342.16	-38.26
342.543	-64.48
342.927	-78.71
343.31	-67.64
343.693	-85.27
344.077	-71.71
344.46	-63.35
344.843	-35.32
345.226	-58.83
345.61	-32.84
345.993	-12.5
346.376	-0.97
346.759	12.13
347.142	29.99
347.525	49.65
347.908	45.58
348.291	75.86
348.674	92.36
349.057	122.86
349.44	126.93
349.823	131
350.206	155.63
350.588	232.01
350.971	204.67
351.354	241.73
351.737	245.57
352.119	251.22
352.502	263.65
352.884	275.85
353.267	274.95
353.65	279.47
354.032	296.64
354.414	309.3
354.797	305.91
355.179	339.13
355.562	318.11
355.944	322.18
356.326	332.12
356.709	342.29
357.091	329.64
357.473	344.78
357.855	327.15
358.238	348.62
358.62	355.4
359.002	337.77
359.384	336.19
359.766	330.09
360.148	349.3
360.53	335.29
360.912	333.25
361.294	339.36
361.676	348.17
362.057	332.58
362.439	351.11
362.821	339.81
363.203	302.52
363.584	334.84
363.966	338.68
364.348	316.76
364.729	328.73
365.111	317.89
365.493	313.82
365.874	331.22
366.256	307.94
366.637	317.21
367.019	310.66
367.4	311.56
367.781	313.82
368.163	328.06
368.544	310.2
368.925	301.39
369.306	330.32
369.688	300.49
370.069	292.13
370.45	311.56
370.831	314.95
371.212	325.12
371.593	330.54
371.974	327.6
372.355	321.95
372.736	312.46
373.117	324.21
373.498	319.47
373.879	309.75
374.26	329.19
374.641	328.96
375.021	319.24
375.402	333.25
375.783	333.93
376.163	330.99
376.544	345.91
376.925	344.33
377.305	322.41
377.686	325.34
378.066	330.99
378.447	319.24
378.827	328.73
379.208	336.64
379.588	328.51
379.968	332.12
380.349	332.58
380.729	341.62
381.109	337.55
381.489	332.35
381.87	332.8
382.25	350.65
382.63	335.74
383.01	348.85
383.39	325.34
383.77	336.64
384.15	355.63
384.53	348.85
384.91	335.29
385.29	349.3
385.67	337.1
386.049	353.59
386.429	371.22
386.809	369.19
387.189	355.4
387.568	355.85
387.948	372.12
388.328	364.44
388.707	364.67
389.087	368.73
389.466	359.24
389.846	358.11
390.225	329.64
390.605	366.47
390.984	360.37
391.363	368.96
391.743	370.09
392.122	382.74
392.501	376.87
392.881	387.26
393.26	388.17
393.639	384.1
394.018	394.5
394.397	399.69
394.776	402.4
395.155	381.39
395.534	405.34
395.913	380.03
396.292	393.37
396.671	404.44
397.05	395.17
397.429	394.27
397.808	382.97
398.186	403.76
398.565	388.39
398.944	404.44
399.323	400.37
399.701	407.6
400.08	384.55
400.458	399.69
400.837	402.4
401.215	405.79
401.594	410.31
401.972	417.09
402.351	420.71
402.729	385.23
403.107	425.45
403.486	439.69
403.864	418.22
404.242	424.55
404.62	443.99
404.999	438.34
405.377	447.6
405.755	403.53
406.133	436.3
406.511	423.42
406.889	433.82
407.267	439.47
407.645	439.01
408.023	442.18
408.401	439.69
408.779	434.04
409.156	456.19
409.534	464.55
409.912	453.48
410.29	476.53
410.667	480.37
411.045	471.1
411.422	475.62
411.8	482.63
412.178	491.67
412.555	483.98
412.933	486.92
413.31	470.65
413.687	508.84
414.065	507.71
414.442	524.89
414.819	510.88
415.197	494.83
415.574	512.91
415.951	514.94
416.328	509.97
416.705	506.36
417.082	512.01
417.46	526.02
417.837	541.38
418.214	535.51
418.591	528.28
418.967	550.88
419.344	549.52
419.721	547.71
420.098	548.16
420.475	580.03
420.852	549.75
421.228	575.51
421.605	554.72
421.982	584.77
422.358	567.15
422.735	569.41
423.111	555.17
423.488	594.04
423.864	586.35
424.241	593.36
424.617	611.21
424.994	588.61
425.37	622.96
425.746	595.85
426.123	590.87
426.499	608.73
426.875	589.29
427.251	619.12
427.627	619.57
428.003	628.16
428.379	632.68
428.756	662.28
429.132	656.41
429.507	650.99
429.883	657.09
430.259	669.06
430.635	674.04
431.011	667.71
431.387	681.72
431.763	669.52
432.138	693.47
432.514	701.15
432.89	718.1
433.265	733.92
433.641	717.88
434.016	725.79
434.392	748.38
434.767	750.42
435.143	756.29
435.518	737.31
435.894	751.1
436.269	749.29
436.644	768.72
437.02	767.59
437.395	773.47
437.77	794.71
438.145	796.52
438.52	826.57
438.895	798.1
439.271	784.77
439.646	830.19
440.021	804.88
440.395	835.16
440.77	837.42
441.145	825.44
441.52	849.85
441.895	860.02
442.27	847.36
442.645	852.34
443.019	855.5
443.394	857.53
443.769	855.73
444.143	865.22
444.518	883.75
444.892	872.45
445.267	916.74
445.641	892.79
446.016	886.46
446.39	903.86
446.764	890.98
447.139	912.67
447.513	914.26
447.887	899.34
448.262	909.74
448.636	950.64
449.01	928.72
449.384	951.99
449.758	951.09
450.132	955.38
450.506	970.98
450.88	999
451.254	972.56
451.628	980.02
452.002	1004.87
452.376	1018.43
452.75	1006.91
453.123	1009.62
453.497	1020.02
453.871	1021.37
454.244	1054.82
454.618	1054.59
454.992	1067.92
455.365	1072.44
455.739	1096.4
456.112	1110.63
456.486	1130.52
456.859	1144.08
457.232	1133.01
457.606	1149.96
457.979	1130.3
458.352	1146.11
458.725	1204.42
459.099	1160.12
459.472	1208.94
459.845	1230.63
460.218	1239.22
460.591	1253
460.964	1252.1
461.337	1281.48
461.71	1277.86
462.083	1266.79
462.456	1294.36
462.829	1321.7
463.201	1349.95
463.574	1354.02
463.947	1366
464.32	1404.41
464.692	1405.32
465.065	1427.91
465.438	1441.47
465.81	1445.32
466.183	1480.34
466.555	1499.1
466.928	1517.4
467.3	1526.22
467.672	1550.17
468.045	1573.67
468.417	1600.34
468.789	1643.05
469.161	1631.3
469.534	1658.87
469.906	1692.99
470.278	1738.41
470.65	1729.38
471.022	1797.4
471.394	1800.56
471.766	1870.61
472.138	1852.54
472.51	1941.35
472.882	1931.4
473.253	1966.88
473.625	2014.34
473.997	2049.37
474.369	2090.27
474.74	2093.66
475.112	2175.47
475.484	2180.89
475.855	2238.97
476.227	2288.46
476.598	2363.71
476.97	2334.11
477.341	2439.87
477.713	2539.3
478.084	2566.42
478.455	2640.31
478.827	2672.4
479.198	2750.14
479.569	2807.77
479.94	2926.63
480.311	2951.72
480.682	3045.5
481.053	3121.43
481.424	3205.72
481.795	3275.1
482.166	3399.16
482.537	3430.35
482.908	3552.15
483.279	3585.82
483.65	3722.54
484.021	3787.63
484.391	3880.05
484.762	3944.91
485.133	4019.48
485.503	4151.68
485.874	4226.94
486.244	4375.41
486.615	4449.3
486.985	4564.56
487.356	4623.76
487.726	4699.24
488.097	4863.3
488.467	4961.61
488.837	5094.94
489.207	5154.6
489.578	5272.11
489.948	5439.33
490.318	5567.01
490.688	5626.45
491.058	5792.32
491.428	5880
491.798	5916.84
492.168	6185.98
492.538	6249.71
492.908	6300.33
493.278	6454
493.648	6510.04
494.017	6708.45
494.387	6830.26
494.757	6883.59
495.126	6979.63
495.496	7066.18
495.866	7159.52
496.235	7311.38
496.605	7506.85
496.974	7515.89
497.344	7591.37
497.713	7714.98
498.082	7820.29
498.452	7959.72
498.821	7984.8
499.19	8102.32
499.559	8196.55
499.928	8333.95
500.298	8432.7
500.667	8505.92
501.036	8596.09
501.405	8740.04
501.774	8790.21
502.143	8880.6
502.512	8981.61
502.88	9133.47
503.249	9152.23
503.618	9248.5
503.987	9290.76
504.356	9408.5
504.724	9519.23
505.093	9591.32
505.462	9592.22
505.83	9724.19
506.199	9793.8
506.567	9891.19
506.936	9985.66
507.304	10149.72
507.672	10248.25
508.041	10286.44
508.409	10363.5
508.777	10493.44
509.145	10529.82
509.514	10637.39
509.882	10720.55
510.25	10771.85
510.618	10826.54
510.986	10876.25
511.354	10983.14
511.722	11052.52
512.09	11190.6
512.458	11224.04
512.826	11386.3
513.193	11463.13
513.561	11474.2
513.929	11589.91
514.297	11670.58
514.664	11756.23
515.032	11775.66
515.4	11961.87
515.767	12101.31
516.135	12069.44
516.502	12074.19
516.869	12205.48
517.237	12324.8
517.604	12344.46
517.972	12384.01
518.339	12496.55
518.706	12527.74
519.073	12564.8
519.44	12681.4
519.808	12805.02
520.175	12877.56
520.542	12979.48
520.909	13080.94
521.276	13073.03
521.643	13269.86
522.009	13295.62
522.376	13377.66
522.743	13558.44
523.11	13614.03
523.477	13716.4
523.843	13833.92
524.21	13891.09
524.577	13976.74
524.943	14023.74
525.31	14182.16
525.676	14300.57
526.043	14346.67
526.409	14438.87
526.776	14556.16
527.142	14603.39
527.508	14703.72
527.874	14878.41
528.241	14852.87
528.607	14932.64
528.973	15115.24
529.339	15091.28
529.705	15225.97
530.071	15322.01
530.437	15428.68
530.803	15534.66
531.169	15526.07
531.535	15630.03
531.901	15698.27
532.267	15783.92
532.632	15909.12
532.998	16040.19
533.364	16033.41
533.73	16039.96
534.095	16188.66
534.461	16250.8
534.826	16330.57
535.192	16351.59
535.557	16538.25
535.923	16421.19
536.288	16602.43
536.653	16681.75
537.019	16706.38
537.384	16692.15
537.749	16838.81
538.114	16978.69
538.479	16884.23
538.845	17040.39
539.21	17020.27
539.575	17135.52
539.94	17185.92
540.305	17250.78
540.67	17463.65
541.034	17375.07
541.399	17525.8
541.764	17600.6
542.129	17596.53
542.494	17694.38
542.858	17734.15
543.223	17671.56
543.587	17923.07
543.952	17991.55
544.316	17952.45
544.681	17921.04
545.045	18086.69
545.41	18208.94
545.774	18161.94
546.138	18250.52
546.503	18437.41
546.867	18364.19
547.231	18616.84
547.595	18549.05
547.959	18553.57
548.324	18696.84
548.688	18635.37
549.052	18762.6
549.416	18835.82
549.779	18872.65
550.143	18971.18
550.507	19028.58
550.871	19100.22
551.235	19144.28
551.599	19293.43
551.962	19318.97
552.326	19408.46
552.689	19482.58
553.053	19438.74
553.417	19534.11
553.78	19712.86
554.143	19639.86
554.507	19787.66
554.87	19815.23
555.234	19984.26
555.597	19837.15
555.96	20023.36
556.323	20109.23
556.686	20095.22
557.05	20283.46
557.413	20434.42
557.776	20454.53
558.139	20505.38
558.502	20590.8
558.865	20587.18
559.228	20672.83
559.59	20831.02
559.953	20783.56
560.316	21120.96
560.679	21071.69
561.041	21205.7
561.404	21208.41
561.767	21432.81
562.129	21264
562.492	21542.87
562.854	21496.54
563.217	21539.7
563.579	21651.56
563.941	21779.47
564.304	21854.95
564.666	21975.4
565.028	21971.56
565.39	22157.31
565.753	22256.07
566.115	22220.81
566.477	22272.79
566.839	22430.75
567.201	22466.01
567.563	22485.44
567.925	22732.21
568.287	22742.16
568.648	22887.69
569.01	22914.13
569.372	23102.82
569.734	23026.22
570.095	23220.56
570.457	23283.38
570.819	23407.68
571.18	23337.17
571.542	23579.65
571.903	23564.51
572.265	23658.74
572.626	23777.61
572.987	23784.61
573.349	24008.34
573.71	24135.79
574.071	24128.79
574.432	24291.49
574.794	24555.44
575.155	24504.82
575.516	24503.92
575.877	24715.66
576.238	24755.44
576.599	24957.92
576.96	24965.83
577.32	25120.17
577.681	25244.24
578.042	25408.98
578.403	25549.77
578.763	25614.62
579.124	25745.69
579.485	25835.86
579.845	26017.78
580.206	26121.95
580.566	26207.6
580.927	26535.28
581.287	26639.91
581.648	26620.02
582.008	26968.94
582.368	26925.55
582.728	27166.45
583.089	27320.34
583.449	27405.31
583.809	27581.8
584.169	27808.69
584.529	27802.81
584.889	28151.73
585.249	28270.37
585.609	28262.92
585.969	28558.95
586.329	28662
586.688	28934.99
587.048	29113.74
587.408	29191.48
587.768	29319.84
588.127	29478.25
588.487	29620.62
588.846	30021.74
589.206	30052.92
589.565	30259.7
589.925	30462.18
590.284	30639.12
590.643	30926.12
591.003	31141.94
591.362	31371.53
591.721	31411.53
592.08	31571.3
592.44	31959.09
592.799	31928.13
593.158	32063.49
593.517	32286.09
593.876	32526.53
594.235	32649.69
594.593	32846.98
594.952	33049.68
595.311	33121.54
595.67	33407.64
596.029	33792.26
596.387	33771.02
596.746	34015.31
597.104	33944.57
597.463	34199.26
597.822	34505.91
598.18	34524.67
598.538	34716.98
598.897	35112.68
599.255	34848.5
599.613	35556.51
599.972	35481.03
600.33	35688.48
600.688	35707.01
601.046	35923.5
601.404	36204.85
601.762	36319.43
602.12	36556.26
602.478	36479.42
602.836	36777.49
603.194	36538.18
603.552	36968.22
603.91	36958.96
604.268	37146.07
604.625	37146.3
604.983	37535.21
605.341	37393.52
605.698	37755.55
606.056	37854.98
606.413	37912.38
606.771	38103.11
607.128	38262.65
607.485	38169.1
607.843	38285.48
608.2	38700.61
608.557	38791.68
608.914	38692.25
609.272	38982.18
609.629	39122.97
609.986	39343.53
610.343	39180.14
610.7	39627.59
611.057	39554.14
611.414	39615.84
611.771	39773.57
612.127	39861.48
612.484	40002.95
612.841	40241.13
613.198	40114.81
613.554	40080.23
613.911	40494.91
614.267	40562.48
614.624	40469.83
614.98	40729.25
615.337	40796.14
615.693	40908.46
616.05	40995.46
616.406	41192.74
616.762	41114.78
617.118	41268.9
617.475	41268.45
617.831	41456.47
618.187	41477.71
618.543	41576.01
618.899	41853.74
619.255	41830.24
619.611	41774.65
619.967	42077.02
620.323	42069.56
620.678	41991.37
621.034	42001.76
621.39	41911.6
621.746	42114.3
622.101	42523.78
622.457	42143.45
622.812	42297.8
623.168	42397.01
623.523	42447.4
623.879	42565.59
624.234	42295.09
624.589	42493.5
624.945	42623.89
625.3	42581.63
625.655	42664.57
626.01	42777.56
626.365	42817.11
626.72	42756.32
627.075	42753.16
627.43	42755.64
627.785	42777.11
628.14	42815.3
628.495	42946.37
628.85	42880.38
629.205	42849.2
629.559	43007.16
629.914	42806.94
630.269	42929.42
630.623	42858.01
630.978	42895.75
631.332	43018.69
631.687	43017.78
632.041	42787.73
632.396	42947.5
632.75	42788.41
633.104	42834.51
633.459	42708.64
633.813	42855.3
634.167	42834.51
634.521	42761.74
634.875	42830.89
635.229	42766.26
635.583	42590.45
635.937	42761.06
636.291	42647.4
636.645	42678.36
636.999	42666.83
637.352	42844.23
637.706	42522.43
638.06	42688.3
638.413	42586.83
638.767	42625.48
639.121	42604.68
639.474	42435.65
639.828	42480.17
640.181	42483.11
640.534	42614.63
640.888	42368.76
641.241	42222.32
641.594	42325.6
641.947	42445.37
642.301	42197.01
642.654	42424.12
643.007	42305.26
643.36	42248.31
643.713	42214.19
644.066	42376.22
644.419	42124.7
644.771	41911.37
645.124	41535.33
645.477	41481.32
645.83	41315.23
646.182	41146.19
646.535	40966.54
646.888	41110.26
647.24	40810.38
647.593	41141.67
647.945	40950.27
648.298	40839.08
648.65	40718.63
649.002	40602.7
649.355	40781
649.707	40728.12
650.059	41001.34
650.411	41382.8
650.763	41461.44
651.115	41911.82
651.467	41782.11
651.819	41644.94
652.171	41540.31
652.523	41580.76
652.875	41591.38
653.227	41347.77
653.578	41573.53
653.93	41583.47
654.282	41539.18
654.633	41333.31
654.985	41492.17
655.337	41401.1
655.688	41390.93
656.039	41587.76
656.391	41185.29
656.742	41443.81
657.094	41275
657.445	41330.82
657.796	41395.9
658.147	41195.91
658.498	41168.34
658.849	41318.84
659.2	41122.24
659.551	41134.22
659.902	41290.6
660.253	41147.1
660.604	41256.92
660.955	40978.74
661.306	41201.11
661.656	41045.4
662.007	41156.14
662.358	40997.5
662.708	41024.84
663.059	41125.85
663.409	40774.22
663.76	41176.02
664.11	41040.43
664.461	41063.71
664.811	41022.13
665.161	40992.75
665.511	41030.26
665.862	40973.77
666.212	41036.82
666.562	41108.23
666.912	41001.79
667.262	40954.56
667.612	40923.83
667.962	41027.55
668.312	40884.05
668.662	41004.95
669.011	40933.32
669.361	40747.78
669.711	41002.02
670.06	40805.86
670.41	40658.52
670.76	40789.82
671.109	41019.42
671.459	40900.77
671.808	40576.49
672.157	40794.11
672.507	40635.02
672.856	40676.6
673.205	40694.9
673.554	40679.99
673.904	40611.06
674.253	40918.4
674.602	40704.4
674.951	40124.52
675.3	39960.91
675.649	40447.23
675.998	40451.3
676.346	40424.4
676.695	40558.18
677.044	40255.37
677.393	40406.32
677.741	40462.59
678.09	40406.78
678.438	40319.55
678.787	40395.03
679.135	40281.81
679.484	40123.62
679.832	40388.7
680.181	40054.92
680.529	40036.62
680.877	40051.53
681.225	39930.4
681.573	40099.67
681.922	39866.23
682.27	39891.31
682.618	39791.65
682.966	39744.2
683.314	39818.54
683.661	39691.99
684.009	39454.94
684.357	39484.77
684.705	39382.62
685.053	39482.28
685.4	39420.14
685.748	39159.58
686.095	39206.58
686.443	39115.51
686.79	39000.26
687.138	39001.62
687.485	39241.38
687.832	38930.43
688.18	38993.93
688.527	38807.95
688.874	38906.25
689.221	38689.31
689.568	38677.78
689.915	38500.39
690.262	38560.5
690.609	38378.13
690.956	38215.87
691.303	38231.47
691.65	38172.94
691.997	38208.87
692.344	37813.85
692.69	37899.72
693.037	37876.45
693.383	37450.92
693.73	37656.79
694.077	37468.32
694.423	37405.73
694.769	37284.15
695.116	37177.03
695.462	37150.36
695.808	36943.14
696.155	37064.72
696.501	36846.64
696.847	36862.69
697.193	36633.54
697.539	36709.02
697.885	36508.35
698.231	36415.7
698.577	36365.3
698.923	36314.91
699.269	36179.32
699.614	35924.18
699.96	35925.31
700.306	35905.2
700.651	35775.49
700.997	35701.59
701.342	35621.37
701.688	35643.74
702.033	35541.14
702.379	35389.96
702.724	35349.73
703.069	35363.97
703.415	34989.97
703.76	35110.19
704.105	35034.94
704.45	34984.77
704.795	34675.18
705.14	34714.72
705.485	34749.3
705.83	34455.52
706.175	34473.37
706.52	34464.56
706.865	34376.88
707.209	34286.03
707.554	34050.56
707.899	34328.29
708.243	34108.41
708.588	33984.57
708.932	33826.38
709.277	33788.19
709.621	33766.73
709.966	33529.9
710.31	33674.75
710.654	33340.07
710.998	33448.09
711.342	33382.55
711.687	33395.66
712.031	33146.85
712.375	33139.17
712.719	33168.55
713.063	33046.29
713.407	33207.64
713.75	32965.39
714.094	32999.29
714.438	32795
714.782	32925.39
715.125	32609.69
715.469	32764.49
715.812	32535.57
716.156	32419.42
716.499	32343.26
716.843	32484.27
717.186	32226.43
717.53	32329.47
717.873	32379.64
718.216	32219.2
718.559	32156.37
718.902	31926.55
719.246	32028.01
719.589	31847.91
719.932	31805.42
720.275	31871.41
720.617	31719.1
720.96	31697.85
721.303	31682.94
721.646	31696.72
721.989	31448.59
722.331	31550.06
722.674	31444.07
723.016	31516.61
723.359	31247.24
723.701	31438.65
724.044	31152.56
724.386	30965.67
724.729	31134.03
725.071	31133.35
725.413	31095.83
725.755	31047.7
726.097	30918.44
726.439	30724.77
726.782	30683.87
727.124	30883.86
727.465	30495.4
727.807	30624.89
728.149	30518.9
728.491	30558.67
728.833	30522.52
729.175	30315.29
729.516	30409.3
729.858	30249.53
730.199	30312.8
730.541	30116.88
730.882	30202.07
731.224	30341.28
731.565	30101.06
731.906	30110.78
732.248	30056.54
732.589	29811.35
732.93	29819.71
733.271	29889.31
733.612	29857.9
733.953	29963.89
734.294	29721.18
734.635	29660.39
734.976	29800.5
735.317	29561.41
735.658	29653.16
735.999	29562.09
736.339	29504.92
736.68	29622.43
737.021	29466.95
737.361	29305.83
737.702	29478.7
738.042	29316.67
738.383	29257.92
738.723	29387.18
739.063	29183.34
739.404	29400.29
739.744	29146.73
740.084	29088.88
740.424	29120.97
740.764	29014.31
741.104	29092.95
741.444	28865.16
741.784	28872.39
742.124	28882.79
742.464	28809.34
742.804	28722.56
743.143	28742.22
743.483	28737.03
743.823	28628.78
744.162	28501.78
744.502	28577.03
744.841	28321.67
745.181	28610.7
745.52	28375
745.86	28433.53
746.199	28301.78
746.538	28318.73
746.877	28304.72
747.216	28202.58
747.556	28152.41
747.895	28235.57
748.234	28003.71
748.573	28050.72
748.911	27958.06
749.25	27958.97
749.589	27851.4
749.928	27735.47
750.267	27845.3
750.605	27757.39
750.944	27719.43
751.283	27591.75
751.621	27667.45
751.96	27646.66
752.298	27422.26
752.636	27379.55
752.975	27254.81
753.313	27166.9
753.651	27343.62
753.989	27170.51
754.327	27262.94
754.666	27077.86
755.004	27182.49
755.342	27101.14
755.679	27099.33
756.017	26987.69
756.355	26968.71
756.693	26778.89
757.031	26817.3
