Data from hue_300_FLMS001491_00081.txt Node
Date: Tue Feb 07 15:51:19 GMT 2017
User: dcchb
Spectrometer: FLMS00149
Trigger mode: 0
Integration Time (sec): 2.000000E-2
Scans to average: 10
Electric dark correction enabled: true
Nonlinearity correction enabled: false
Boxcar width: 0
XAxis mode: Wavelengths
Number of Pixels in Spectrum: 2048
>>>>>Begin Spectral Data<<<<<
341.393	-4.01
341.776	-4.01
342.16	-4.01
342.543	-55.99
342.927	-44.46
343.31	-53.28
343.693	-66.61
344.077	-63.44
344.46	-67.29
344.843	-56.44
345.226	-48.53
345.61	-25.71
345.993	-17.34
346.376	-5.14
346.759	18.36
347.142	31.02
347.525	35.54
347.908	64.01
348.291	65.59
348.674	85.25
349.057	104.01
349.44	111.47
349.823	162.09
350.206	163.67
350.588	193.27
350.971	206.83
351.354	256.77
351.737	244.8
352.119	243.21
352.502	262.42
352.884	281.86
353.267	312.36
353.65	299.03
354.032	289.09
354.414	311.01
354.797	318.01
355.179	337.22
355.562	310.33
355.944	323.89
356.326	326.15
356.709	355.3
357.091	330.67
357.473	331.8
357.855	346.26
358.238	365.92
358.62	351.91
359.002	323.89
359.384	377.22
359.766	360.05
360.148	341.97
360.53	357.11
360.912	344.91
361.294	327.96
361.676	346.04
362.057	338.35
362.439	337
362.821	346.49
363.203	332.48
363.584	335.87
363.966	309.2
364.348	337.45
364.729	343.1
365.111	343.55
365.493	322.53
365.874	317.79
366.256	308.97
366.637	309.88
367.019	322.31
367.4	317.79
367.781	313.04
368.163	311.69
368.544	318.47
368.925	312.82
369.306	330.44
369.688	320.73
370.069	325.47
370.45	293.38
370.831	336.54
371.212	308.97
371.593	330.22
371.974	342.19
372.355	324.12
372.736	322.99
373.117	323.44
373.498	344.68
373.879	326.6
374.26	330.67
374.641	329.09
375.021	337.45
375.402	329.77
375.783	329.54
376.163	349.2
376.544	356.66
376.925	362.08
377.305	321.4
377.686	332.25
378.066	344.23
378.447	327.51
378.827	344.23
379.208	352.82
379.588	341.29
379.968	353.49
380.349	367.96
380.729	347.17
381.109	344.68
381.489	340.84
381.87	353.95
382.25	337.45
382.63	348.75
383.01	338.13
383.39	362.31
383.77	331.12
384.15	369.09
384.53	361.85
384.91	373.38
385.29	351.01
385.67	346.26
386.049	376.32
386.429	362.08
386.809	360.27
387.189	374.74
387.568	362.76
387.948	380.16
388.328	376.54
388.707	381.52
389.087	375.41
389.466	385.13
389.846	395.75
390.225	395.75
390.605	399.82
390.984	391.46
391.363	400.27
391.743	398.92
392.122	394.4
392.501	407.28
392.881	401.63
393.26	410.89
393.639	419.71
394.018	392.36
394.397	401.4
394.776	434.85
395.155	417.45
395.534	415.41
395.913	419.93
396.292	434.17
396.671	422.42
397.05	425.36
397.429	431.23
397.808	431.91
398.186	426.71
398.565	435.98
398.944	446.15
399.323	428.97
399.701	426.03
400.08	443.21
400.458	430.33
400.837	445.24
401.215	449.99
401.594	458.35
401.972	474.17
402.351	468.74
402.729	482.98
403.107	489.08
403.486	480.5
403.864	480.27
404.242	473.04
404.62	482.53
404.999	494.96
405.377	486.6
405.755	495.41
406.133	513.72
406.511	520.95
406.889	504.9
407.267	522.98
407.645	545.8
408.023	541.29
408.401	550.1
408.779	544
409.156	541.06
409.534	567.05
409.912	575.18
410.29	574.28
410.667	579.02
411.045	602.98
411.422	608.63
411.8	606.82
412.178	607.27
412.555	634.16
412.933	642.75
413.31	629.64
413.687	666.93
414.065	662.19
414.442	686.14
414.819	680.49
415.197	711.22
415.574	712.35
415.951	725.69
416.328	732.69
416.705	737.89
417.082	751.45
417.46	740.38
417.837	780.15
418.214	760.04
418.591	802.3
418.967	783.31
419.344	796.42
419.721	802.07
420.098	829.87
420.475	824.89
420.852	844.78
421.228	857.89
421.605	880.03
421.982	871.45
422.358	896.08
422.735	911.9
423.111	893.37
423.488	923.87
423.864	929.98
424.241	948.51
424.617	958.22
424.994	957.32
425.37	972.91
425.746	968.84
426.123	973.14
426.499	973.36
426.875	1019.01
427.251	1029.41
427.627	1039.13
428.003	1063.08
428.379	1061.05
428.756	1070.08
429.132	1107.37
429.507	1113.93
429.883	1134.26
430.259	1130.65
430.635	1123.64
431.011	1162.51
431.387	1182.4
431.763	1205
432.138	1230.08
432.514	1213.36
432.89	1230.08
433.265	1242.06
433.641	1284.32
434.016	1300.36
434.392	1281.15
434.767	1304.2
435.143	1334.94
435.518	1325.22
435.894	1362.28
436.269	1383.07
436.644	1403.64
437.02	1380.36
437.395	1409.96
437.77	1442.5
438.145	1449.74
438.52	1467.14
438.895	1467.59
439.271	1481.6
439.646	1516.85
440.021	1494.93
440.395	1496.51
440.77	1518.21
441.145	1513.24
441.52	1547.59
441.895	1580.81
442.27	1564.76
442.645	1523.63
443.019	1581.71
443.394	1591.43
443.769	1576.51
444.143	1562.5
444.518	1596.85
444.892	1590.98
445.267	1610.18
445.641	1617.19
446.016	1595.72
446.39	1631.2
446.764	1649.28
447.139	1617.19
447.513	1652.89
447.887	1651.76
448.262	1666.91
448.636	1708.26
449.01	1672.1
449.384	1694.93
449.758	1706.9
450.132	1707.58
450.506	1726.34
450.88	1712.33
451.254	1722.27
451.628	1734.02
452.002	1778.77
452.376	1746.45
452.75	1759.33
453.123	1783.29
453.497	1811.08
453.871	1786
454.244	1844.08
454.618	1858.99
454.992	1871.42
455.365	1853.12
455.739	1898.99
456.112	1910.97
456.486	1910.29
456.859	1906.9
457.232	1953.68
457.606	1964.98
457.979	1945.99
458.352	2005.88
458.725	2013.56
459.099	2004.75
459.472	2013.11
459.845	2055.82
460.218	2063.51
460.591	2045.2
460.964	2089.27
461.337	2119.55
461.71	2117.29
462.083	2170.62
462.456	2198.87
462.829	2174.69
463.201	2231.64
463.574	2184.63
463.947	2225.99
464.32	2289.26
464.692	2268.47
465.065	2260.34
465.438	2315.48
465.81	2329.71
466.183	2330.84
466.555	2382.82
466.928	2457.39
467.3	2400.22
467.672	2400.22
468.045	2456.94
468.417	2472.99
468.789	2479.77
469.161	2463.04
469.534	2534.91
469.906	2584.85
470.278	2565.19
470.65	2573.55
471.022	2620.78
471.394	2646.09
471.766	2667.11
472.138	2680.66
472.51	2734.45
472.882	2766.09
473.253	2748.68
473.625	2805.18
473.997	2882.24
474.369	2849.93
474.74	2868.46
475.112	2950.49
475.484	2962.24
475.855	2983.03
476.227	3033.88
476.598	3038.85
476.97	3093.08
477.341	3165.62
477.713	3175.79
478.084	3156.58
478.455	3243.59
478.827	3233.42
479.198	3353.19
479.569	3304.6
479.94	3396.35
480.311	3455.78
480.682	3455.33
481.053	3514.31
481.424	3587.76
481.795	3585.95
482.166	3663.91
482.537	3677.02
482.908	3704.14
483.279	3750.24
483.65	3758.15
484.021	3818.26
484.391	3881.08
484.762	3858.94
485.133	3891.03
485.503	3938.48
485.874	3988.88
486.244	4014.41
486.615	4074.53
486.985	4128.76
487.356	4141.64
487.726	4198.14
488.097	4251.7
488.467	4260.96
488.837	4382.31
489.207	4346.38
489.578	4402.88
489.948	4454.85
490.318	4469.32
490.688	4476.77
491.058	4572.59
491.428	4613.04
491.798	4685.58
492.168	4703.66
492.538	4734.4
492.908	4719.25
493.278	4769.87
493.648	4787.95
494.017	4813.04
494.387	4851.68
494.757	4883.32
495.126	4945.92
495.496	4916.99
495.866	5008.29
496.235	5032.47
496.605	5049.64
496.974	5074.73
497.344	5081.96
497.713	5143.65
498.082	5166.02
498.452	5260.71
498.821	5229.3
499.19	5194.5
499.559	5268.84
499.928	5197.43
500.298	5314.94
500.667	5309.3
501.036	5328.28
501.405	5398.33
501.774	5363.98
502.143	5375.73
502.512	5425.22
502.88	5419.35
503.249	5470.87
503.618	5425.45
503.987	5474.71
504.356	5481.95
504.724	5596.75
505.093	5553.13
505.462	5566.46
505.83	5568.95
506.199	5587.48
506.567	5650.98
506.936	5611.66
507.304	5717.65
507.672	5730.75
508.041	5754.03
508.409	5764.42
508.777	5823.18
509.145	5855.27
509.514	5774.37
509.882	5852.78
510.25	5871.77
510.618	5881.48
510.986	5898.21
511.354	5964.65
511.722	6006.23
512.09	5999.9
512.458	5976.4
512.826	6024.98
513.193	6071.31
513.561	6071.54
513.929	6087.58
514.297	6087.81
514.664	6173.23
515.032	6163.96
515.4	6200.35
515.767	6248.03
516.135	6185.88
516.502	6155.37
516.869	6216.84
517.237	6290.29
517.604	6246.45
517.972	6341.13
518.339	6303.62
518.706	6350.85
519.073	6350.17
519.44	6369.15
519.808	6391.98
520.175	6434.92
520.542	6476.04
520.909	6413.9
521.276	6466.55
521.643	6555.36
522.009	6574.35
522.376	6541.81
522.743	6577.28
523.11	6707.9
523.477	6664.97
523.843	6759.65
524.21	6791.74
524.577	6816.15
524.943	6821.35
525.31	6854.79
525.676	6897.05
526.043	6909.03
526.409	6951.29
526.776	7008.91
527.142	7007.56
527.508	7069.02
527.874	7150.38
528.241	7098.63
528.607	7150.6
528.973	7200.32
529.339	7227.66
529.705	7220.21
530.071	7317.15
530.437	7312.86
530.803	7400.99
531.169	7392.4
531.535	7410.48
531.901	7411.39
532.267	7440.31
532.632	7493.19
532.998	7551.5
533.364	7600.31
533.73	7652.06
534.095	7645.73
534.461	7719.18
534.826	7683.92
535.192	7710.36
535.557	7739.51
535.923	7826.52
536.288	7882.34
536.653	7908.55
537.019	7838.04
537.384	7899.96
537.749	7934.09
538.114	7942.9
538.479	8009.79
538.845	8017.7
539.21	8021.54
539.575	8071.03
539.94	8056.12
540.305	8160.97
540.67	8181.76
541.034	8153.74
541.399	8196.23
541.764	8279.61
542.129	8300.86
542.494	8393.73
542.858	8396.67
543.223	8415.43
543.587	8439.38
543.952	8425.15
544.316	8473.51
544.681	8444.81
545.045	8560.74
545.41	8632.82
545.774	8668.76
546.138	8678.92
546.503	8633.73
546.867	8639.15
547.231	8789.2
547.595	8735.65
547.959	8830.33
548.324	8847.28
548.688	8814.97
549.052	8948.75
549.416	8904.46
549.779	8902.87
550.143	8977
550.507	9051.8
550.871	9040.5
551.235	9078.69
551.599	9118.23
551.962	9148.52
552.326	9103.09
552.689	9174.28
553.053	9250.21
553.417	9195.29
553.78	9261.28
554.143	9297.44
554.507	9284.11
554.87	9357.1
555.234	9450.43
555.597	9452.01
555.96	9450.43
556.323	9386.93
556.686	9499.02
557.05	9581.05
557.413	9515.29
557.776	9520.26
558.139	9635.06
558.502	9665.11
558.865	9616.98
559.228	9740.14
559.59	9805.22
559.953	9722.51
560.316	9895.16
560.679	9827.37
561.041	9826.92
561.404	9922.73
561.767	9946.46
562.129	9929.29
562.492	10009.74
562.854	9971.09
563.217	10020.58
563.579	10090.64
563.941	10167.92
564.304	10060.81
564.666	10186.23
565.028	10173.12
565.39	10232.33
565.753	10278.43
566.115	10294.93
566.477	10316.62
566.839	10322.72
567.201	10415.15
567.563	10387.35
567.925	10506.45
568.287	10575.37
568.648	10608.82
569.01	10570.85
569.372	10697.4
569.734	10687.69
570.095	10754.12
570.457	10790.73
570.819	10913.67
571.18	10796.83
571.542	10900.33
571.903	10979.2
572.265	10972.65
572.626	11043.38
572.987	11114.79
573.349	11148.69
573.71	11284.96
574.071	11329.93
574.432	11374.22
574.794	11516.36
575.155	11468.46
575.516	11479.53
575.877	11667.55
576.238	11769.69
576.599	11886.07
576.96	11886.75
577.32	12024.83
577.681	12099.63
578.042	12293.07
578.403	12333.74
578.763	12423.91
579.124	12570.12
579.485	12701.64
579.845	12862.77
580.206	12851.02
580.566	13096.21
580.927	13255.98
581.287	13547.72
581.648	13621.85
582.008	13834.95
582.368	13918.56
582.728	14194.26
583.089	14311.54
583.449	14486.68
583.809	14754.02
584.169	14970.51
584.529	15143.61
584.889	15431.29
585.249	15499.76
585.609	15801.67
585.969	16111.95
586.329	16303.81
586.688	16659.51
587.048	16878.93
587.408	17152.37
587.768	17425.81
588.127	17633.49
588.487	17943.31
588.846	18403.87
589.206	18474.15
589.565	18876.17
589.925	19270.28
590.284	19392.09
590.643	19881.12
591.003	20236.36
591.362	20547.09
591.721	20892.16
592.08	21154.98
592.44	21538.93
592.799	21870.67
593.158	22246.48
593.517	22617.54
593.876	22994.93
594.235	23161.26
594.593	23600.57
594.952	23933.21
595.311	24229.02
595.67	24524.16
596.029	25048.89
596.387	25468.99
596.746	25688.65
597.104	25992.82
597.463	26287.95
597.822	26819.01
598.18	26928.84
598.538	27259.45
598.897	27669.84
599.255	27902.6
599.613	28487.22
599.972	28778.06
600.33	29190.25
600.688	29323.81
601.046	29684.93
601.404	30110.45
601.762	30345.47
602.12	30777.78
602.478	31106.36
602.836	31304.32
603.194	31432.45
603.552	31790.86
603.91	32011.42
604.268	32489.15
604.625	32613.89
604.983	32973.2
605.341	32913.77
605.698	33491.38
606.056	33730.47
606.413	34155.54
606.771	34468.3
607.128	34653.16
607.485	34694.74
607.843	35024.45
608.2	35431.22
608.557	35894.48
608.914	35818.32
609.272	36230.29
609.629	36508.48
609.986	36765.42
610.343	36715.48
610.7	37213.09
611.057	37394.78
611.414	37503.7
611.771	37696.69
612.127	38130.81
612.484	38225.72
612.841	38462.1
613.198	38412.61
613.554	38634.07
613.911	38986.15
614.267	39163.77
614.624	39251.45
614.98	39472.46
615.337	39855.96
615.693	39840.36
616.05	39975.95
616.406	40326.68
616.762	40304.99
617.118	40438.09
617.475	40713.56
617.831	40974.35
618.187	41025.42
618.543	41279.2
618.899	41570.94
619.255	41510.6
619.611	41569.81
619.967	41871.5
620.323	42123.24
620.678	42056.8
621.034	42017.48
621.39	42172.05
621.746	42174.77
622.101	42678.03
622.457	42480.97
622.812	42706.05
623.168	42881.64
623.523	42990.34
623.879	43217.68
624.234	43000.51
624.589	43147.62
624.945	43350.78
625.3	43303.1
625.655	43438.24
626.01	43557.33
626.365	43618.34
626.72	43554.84
627.075	43584.9
627.43	43791.67
627.785	43660.15
628.14	43865.12
628.495	44021.5
628.85	43934.95
629.205	43920.48
629.559	44156.86
629.914	44011.1
630.269	44197.76
630.623	44030.54
630.978	44106.47
631.332	44069.63
631.687	44353.01
632.041	44093.59
632.396	44248.16
632.75	44056.75
633.104	44185.56
633.459	44117.99
633.813	44103.08
634.167	44110.08
634.521	44187.14
634.875	44296.97
635.229	44229.85
635.583	44160.48
635.937	44201.15
636.291	44216.75
636.645	44050.65
636.999	44082.06
637.352	44292.23
637.706	43960.48
638.06	44339.23
638.413	44171.55
638.767	44114.83
639.121	44029.18
639.474	43872.35
639.828	43987.6
640.181	43954.38
640.534	44107.82
640.888	43970.88
641.241	43709.42
641.594	43906.25
641.947	44099.46
642.301	43962.97
642.654	44034.38
643.007	44189.4
643.36	43976.08
643.713	43995.06
644.066	44163.19
644.419	43882.97
644.771	43710.55
645.124	43195.53
645.477	43150.11
645.83	42886.84
646.182	42794.19
646.535	42647.97
646.888	42785.15
647.24	42489.11
647.593	42856.33
647.945	42842.77
648.298	42549.22
648.65	42682.1
649.002	42505.38
649.355	42758.93
649.707	42595.09
650.059	42711.02
650.411	43226.94
650.763	43260.61
651.115	43623.99
651.467	43479.37
651.819	43571.11
652.171	43652.47
652.523	43426.26
652.875	43419.25
653.227	43230.56
653.578	43687.5
653.93	43390.33
654.282	43296.77
654.633	43239.37
654.985	43365.47
655.337	43468.52
655.688	43341.29
656.039	43494.28
656.391	43205.7
656.742	43018.59
657.094	43186.49
657.445	43407.28
657.796	43340.16
658.147	43204.8
658.498	43370.22
658.849	43219.03
659.2	43265.81
659.551	43163.44
659.902	43241.63
660.253	43165.48
660.604	43122.76
660.955	43122.99
661.306	43046.38
661.656	43031.47
662.007	43009.1
662.358	43133.39
662.708	43124.57
663.059	43044.12
663.409	42811.59
663.76	43192.82
664.11	42979.72
664.461	43132.71
664.811	42949.21
665.161	43101.97
665.511	42906.5
665.862	43031.24
666.212	43140.39
666.562	43151.24
666.912	43035.08
667.262	43129.77
667.612	43040.96
667.962	43075.31
668.312	43090.67
668.662	43118.47
669.011	43030.34
669.361	42889.55
669.711	43003.45
670.06	42853.62
670.41	42748.09
670.76	42752.38
671.109	43100.17
671.459	42931.13
671.808	42762.32
672.157	42987.4
672.507	42662.66
672.856	42622.66
673.205	42760.97
673.554	42787.63
673.904	42743.11
674.253	42741.08
674.602	42619.05
674.951	42088.44
675.3	41942.23
675.649	42655.88
675.998	42578.37
676.346	42486.62
676.695	42627.18
677.044	42352.62
677.393	42493.4
677.741	42421.31
678.09	42302
678.438	42347.87
678.787	42358.72
679.135	42333.18
679.484	42049.35
679.832	42353.75
680.181	41981.1
680.529	42124.82
680.877	42053.87
681.225	42046.86
681.573	42199.62
681.922	41970.7
682.27	41850.93
682.618	41820.88
682.966	41714.67
683.314	41877.37
683.661	41570.71
684.009	41524.39
684.357	41560.09
684.705	41471.51
685.053	41521
685.4	41360.32
685.748	41113.78
686.095	41176.15
686.443	41025.87
686.79	41045.53
687.138	41123.49
687.485	40923.95
687.832	40838.53
688.18	40857.51
688.527	40682.38
688.874	40752.88
689.221	40494.81
689.568	40458.88
689.915	40411.65
690.262	40437.64
690.609	40233.57
690.956	40369.16
691.303	40100.25
691.65	40197.19
691.997	39981.6
692.344	39764.43
692.69	39759.92
693.037	39592.91
693.383	39359.47
693.73	39536.42
694.077	39362.41
694.423	39193.83
694.769	39199.93
695.116	39040.84
695.462	39054.17
695.808	39006.04
696.155	39005.13
696.501	38601.53
696.847	38747.06
697.193	38537.8
697.539	38509.1
697.885	38344.81
698.231	38125.16
698.577	38214.42
698.923	38154.53
699.269	37937.14
699.614	37715.67
699.96	37753.41
700.306	37738.27
700.651	37533.76
700.997	37376.93
701.342	37483.36
701.688	37367.89
702.033	37201.34
702.379	37281.79
702.724	36999.76
703.069	37205.18
703.415	36745.98
703.76	36728.81
704.105	36870.05
704.45	36632.99
704.795	36461.7
705.14	36317.29
705.485	36256.05
705.83	36183.29
706.175	36271.87
706.52	36179.22
706.865	35946.46
707.209	36000.92
707.554	35852.67
707.899	35931.54
708.243	35676.86
708.588	35657.2
708.932	35557.31
709.277	35405.91
709.621	35335.62
709.966	35215.63
710.31	35210.88
710.654	34942.41
710.998	35074.39
711.342	34999.81
711.687	34873.26
712.031	34813.38
712.375	34560.73
712.719	34663.78
713.063	34707.17
713.407	34745.13
713.75	34643.21
714.094	34524.57
714.438	34408.87
714.782	34405.48
715.125	34172.27
715.469	34287.29
715.812	34052.72
716.156	33905.61
716.499	33904.48
716.843	34028.54
717.186	33898.37
717.53	33926.17
717.873	33891.14
718.216	33769.34
718.559	33647.99
718.902	33417.71
719.246	33519.85
719.589	33436.01
719.932	33352.85
720.275	33289.12
720.617	33394.66
720.96	33256.81
721.303	33123.25
721.646	33210.71
721.989	33023.14
722.331	33185.85
722.674	32990.83
723.016	32935.01
723.359	32917.61
723.701	32951.73
724.044	32707.67
724.386	32653.66
724.729	32654.79
725.071	32518.3
725.413	32522.37
725.755	32470.62
726.097	32500.9
726.439	32234.24
726.782	32281.47
727.124	32405.31
727.465	32170.96
727.807	32310.17
728.149	32217.97
728.491	32118.99
728.833	32204.18
729.175	31985.43
729.516	32119.21
729.858	31969.39
730.199	31924.64
730.541	31946.11
730.882	31794.02
731.224	31868.6
731.565	31758.09
731.906	31696.17
732.248	31564.2
732.589	31486.91
732.93	31443.3
733.271	31603.29
733.612	31386.35
733.953	31527.36
734.294	31397.2
734.635	31192
734.976	31321.94
735.317	31267.03
735.658	31110.2
735.999	31163.76
736.339	31052.35
736.68	31048.73
737.021	30998.11
737.361	30843.99
737.702	31019.81
738.042	30863.2
738.383	30995.17
738.723	30932.8
739.063	30799.02
739.404	30870.66
739.744	30765.8
740.084	30632.25
740.424	30666.37
740.764	30686.26
741.104	30773.94
741.444	30399.94
741.784	30519.71
742.124	30434.74
742.464	30461.18
742.804	30380.95
743.143	30357.45
743.483	30406.71
743.823	30145.93
744.162	30226.83
744.502	30200.84
744.841	30027.06
745.181	30134.63
745.52	30184.57
745.86	30072.49
746.199	30146.16
746.538	30021.64
746.877	30102.32
747.216	30012.83
747.556	29966.5
747.895	29950.23
748.234	29869.78
748.573	29757.92
748.911	29754.75
749.25	29768.77
749.589	29696.9
749.928	29626.4
750.267	29635.66
750.605	29721.08
750.944	29604.25
751.283	29398.83
751.621	29567.87
751.96	29426.63
752.298	29505.5
752.636	29388.89
752.975	29375.78
753.313	29243.58
753.651	29289.68
753.989	29248.55
754.327	29108.67
754.666	29065.73
755.004	29172.4
755.342	29153.64
755.679	29024.83
756.017	28875.23
756.355	29145.05
756.693	28837.26
757.031	29021.89
757.368	28859.18
757.706	28745.06
