Data from hue_24_FLMS001491_00096.txt Node
Date: Tue Feb 07 17:13:01 GMT 2017
User: dcchb
Spectrometer: FLMS00149
Trigger mode: 0
Integration Time (sec): 2.000000E-2
Scans to average: 10
Electric dark correction enabled: true
Nonlinearity correction enabled: false
Boxcar width: 0
XAxis mode: Wavelengths
Number of Pixels in Spectrum: 2048
>>>>>Begin Spectral Data<<<<<
341.393	4.97
341.776	4.97
342.16	4.97
342.543	-61.02
342.927	-88.36
343.31	-82.48
343.693	-82.26
344.077	-65.31
344.46	-78.64
344.843	-59.89
345.226	-41.13
345.61	-10.17
345.993	-10.4
346.376	-2.26
346.759	4.52
347.142	23.5
347.525	57.63
347.908	51.98
348.291	63.28
348.674	104.18
349.057	127.45
349.44	119.09
349.823	129.94
350.206	168.81
350.588	200.22
350.971	231.41
351.354	235.7
351.737	258.52
352.119	267.56
352.502	265.3
352.884	270.5
353.267	314.34
353.65	309.82
354.032	315.7
354.414	330.61
354.797	331.29
355.179	324.74
355.562	334.91
355.944	325.64
356.326	331.74
356.709	351.18
357.091	359.76
357.473	355.7
357.855	344.62
358.238	338.97
358.62	349.6
359.002	362.25
359.384	345.53
359.766	338.97
360.148	348.92
360.53	363.83
360.912	350.05
361.294	350.05
361.676	332.42
362.057	340.1
362.439	332.65
362.821	332.19
363.203	322.93
363.584	344.4
363.966	339.2
364.348	328.35
364.729	362.25
365.111	327.67
365.493	358.18
365.874	330.84
366.256	343.27
366.637	358.86
367.019	331.52
367.4	329.03
367.781	352.76
368.163	327
368.544	334.68
368.925	324.29
369.306	332.87
369.688	332.42
370.069	315.7
370.45	338.97
370.831	353.21
371.212	343.27
371.593	324.96
371.974	335.36
372.355	345.98
372.736	319.54
373.117	350.5
373.498	339.65
373.879	356.6
374.26	338.3
374.641	338.3
375.021	347.79
375.402	326.09
375.783	354.11
376.163	343.72
376.544	337.62
376.925	361.35
377.305	352.08
377.686	350.73
378.066	356.6
378.447	371.06
378.827	344.62
379.208	354.34
379.588	335.81
379.968	352.08
380.349	372.65
380.729	345.3
381.109	350.73
381.489	372.19
381.87	357.05
382.25	349.82
382.63	364.28
383.01	358.86
383.39	363.15
383.77	373.32
384.15	348.92
384.53	360.67
384.91	381.68
385.29	379.65
385.67	375.81
386.049	394.57
386.429	352.31
386.809	357.5
387.189	385.3
387.568	372.42
387.948	365.64
388.328	385.3
388.707	402.48
389.087	404.96
389.466	392.31
389.846	385.53
390.225	408.12
390.605	395.92
390.984	393.44
391.363	402.7
391.743	408.8
392.122	403.15
392.501	401.8
392.881	422.81
393.26	424.62
393.639	426.66
394.018	418.75
394.397	393.44
394.776	410.61
395.155	414.23
395.534	434.56
395.913	414.68
396.292	421.23
396.671	422.59
397.05	425.07
397.429	433.43
397.808	417.39
398.186	430.05
398.565	431.18
398.944	432.53
399.323	429.59
399.701	430.72
400.08	452.19
400.458	413.77
400.837	441.12
401.215	446.54
401.594	455.81
401.972	472.3
402.351	459.65
402.729	463.72
403.107	466.65
403.486	481.34
403.864	471.4
404.242	466.43
404.62	483.83
404.999	479.31
405.377	484.96
405.755	469.59
406.133	474.79
406.511	493.09
406.889	496.26
407.267	484.28
407.645	505.75
408.023	488.12
408.401	486.99
408.779	501.68
409.156	500.33
409.534	500.1
409.912	500.78
410.29	522.02
410.667	533.32
411.045	535.35
411.422	551.62
411.8	523.38
412.178	540.1
412.555	525.86
412.933	559.31
413.31	553.43
413.687	543.71
414.065	551.17
414.442	543.26
414.819	552.75
415.197	557.73
415.574	573.09
415.951	573.09
416.328	577.16
416.705	604.73
417.082	590.27
417.46	592.98
417.837	626.42
418.214	581.68
418.591	617.38
418.967	589.14
419.344	615.8
419.721	622.13
420.098	604.28
420.475	619.42
420.852	642.69
421.228	645.63
421.605	630.72
421.982	632.07
422.358	660.32
422.735	653.77
423.111	642.24
423.488	667.33
423.864	657.61
424.241	696.48
424.617	656.25
424.994	676.59
425.37	662.58
425.746	693.77
426.123	698.29
426.499	699.19
426.875	719.53
427.251	699.87
427.627	708.46
428.003	720.66
428.379	733.77
428.756	721.79
429.132	739.64
429.507	747.32
429.883	721.34
430.259	767.66
430.635	764.05
431.011	793.2
431.387	780.77
431.763	779.87
432.138	788
432.514	817.61
432.89	817.83
433.265	807.21
433.641	813.54
434.016	842.01
434.392	831.62
434.767	859.19
435.143	842.46
435.518	883.37
435.894	885.63
436.269	855.8
436.644	884.95
437.02	896.02
437.395	896.7
437.77	910.71
438.145	918.85
438.52	889.92
438.895	937.83
439.271	919.3
439.646	936.92
440.021	940.99
440.395	956.59
440.77	975.57
441.145	968.11
441.52	985.96
441.895	984.38
442.27	974.21
442.645	992.06
443.019	972.63
443.394	1011.5
443.769	1008.11
444.143	1004.49
444.518	1026.64
444.892	1016.7
445.267	1014.66
445.641	1032.97
446.016	1053.53
446.39	1046.98
446.764	1059.86
447.139	1073.42
447.513	1069.8
447.887	1091.5
448.262	1081.55
448.636	1054.66
449.01	1093.08
449.384	1091.5
449.758	1101.89
450.132	1096.69
450.506	1102.57
450.88	1137.37
451.254	1132.63
451.628	1153.64
452.002	1159.52
452.376	1179.86
452.75	1159.52
453.123	1176.01
453.497	1221.44
453.871	1204.04
454.244	1205.17
454.618	1224.6
454.992	1252.17
455.365	1222.11
455.739	1270.7
456.112	1281.77
456.486	1317.03
456.859	1298.72
457.232	1323.58
457.606	1359.06
457.979	1341.21
458.352	1364.03
458.725	1390.47
459.099	1404.03
459.472	1413.07
459.845	1416.91
460.218	1420.53
460.591	1453.75
460.964	1448.1
461.337	1473.63
461.71	1535.78
462.083	1529.68
462.456	1546.85
462.829	1541.65
463.201	1583.91
463.574	1583.01
463.947	1586.85
464.32	1630.01
464.692	1603.57
465.065	1651.48
465.438	1675.66
465.81	1696.68
466.183	1699.84
466.555	1750.24
466.928	1719.95
467.3	1788.43
467.672	1778.26
468.045	1804.02
468.417	1853.28
468.789	1857.58
469.161	1865.71
469.534	1900.29
469.906	1961.3
470.278	1926.05
470.65	1972.83
471.022	2019.83
471.394	2026.16
471.766	2062.77
472.138	2091.24
472.51	2135.54
472.882	2167.4
473.253	2196.1
473.625	2236.33
473.997	2286.95
474.369	2320.39
474.74	2357.45
475.112	2388.41
475.484	2413.5
475.855	2468.18
476.227	2490.78
476.598	2549.76
476.97	2562.42
477.341	2630.67
477.713	2651.68
478.084	2707.95
478.455	2781.62
478.827	2829.53
479.198	2880.15
479.569	2870.21
479.94	3012.8
480.311	3022.29
480.682	3052.12
481.053	3175.28
481.424	3195.85
481.795	3265.9
482.166	3292.34
482.537	3333.7
482.908	3428.16
483.279	3492.56
483.65	3565.1
484.021	3624.76
484.391	3678.32
484.762	3697.76
485.133	3741.14
485.503	3799.9
485.874	3932.78
486.244	3932.55
486.615	4031.53
486.985	4076.05
487.356	4172.55
487.726	4197.4
488.097	4299.77
488.467	4297.06
488.837	4388.36
489.207	4478.3
489.578	4564.4
489.948	4607.34
490.318	4707.22
490.688	4696.37
491.058	4799.87
491.428	4869.02
491.798	4928.23
492.168	5024.95
492.538	5043.94
492.908	5127.32
493.278	5213.2
493.648	5230.14
494.017	5258.17
494.387	5339.75
494.757	5332.52
495.126	5466.97
495.496	5471.04
495.866	5483.25
496.235	5598.04
496.605	5634.88
496.974	5723.92
497.344	5743.13
497.713	5779.06
498.082	5851.37
498.452	5936.34
498.821	5951.48
499.19	5990.35
499.559	6016.11
499.928	6097.92
500.298	6090.24
500.667	6148.09
501.036	6211.14
501.405	6226.05
501.774	6243.9
502.143	6320.06
502.512	6373.17
502.88	6403.67
503.249	6409.32
503.618	6422.66
503.987	6474.63
504.356	6553.05
504.724	6559.6
505.093	6610.67
505.462	6610.9
505.83	6728.86
506.199	6721.18
506.567	6818.58
506.936	6792.82
507.304	6897.67
507.672	6974.96
508.041	6920.5
508.409	6988.74
508.777	7003.21
509.145	7111
509.514	7052.7
509.882	7083.66
510.25	7136.08
510.618	7173.82
510.986	7214.5
511.354	7226.25
511.722	7358.22
512.09	7393.7
512.458	7383.76
512.826	7425.34
513.193	7478.22
513.561	7520.71
513.929	7535.4
514.297	7584.21
514.664	7625.79
515.032	7666.92
515.4	7773.58
515.767	7759.34
516.135	7831.43
516.502	7743.75
516.869	7875.73
517.237	7922.73
517.604	7908.27
517.972	7957.3
518.339	7998.21
518.706	8021.94
519.073	8104.42
519.44	8071.43
519.808	8171.99
520.175	8168.15
520.542	8303.28
520.909	8329.05
521.276	8303.96
521.643	8362.27
522.009	8454.24
522.376	8515.71
522.743	8519.78
523.11	8627.57
523.477	8681.35
523.843	8714.12
524.21	8762.26
524.577	8878.41
524.943	8858.3
525.31	8865.3
525.676	8998.63
526.043	8995.24
526.409	9056.94
526.776	9143.94
527.142	9190.94
527.508	9206.09
527.874	9307.33
528.241	9330.83
528.607	9328.57
528.973	9411.5
529.339	9443.59
529.705	9544.38
530.071	9569.01
530.437	9675.45
530.803	9690.82
531.169	9808.33
531.535	9733.76
531.901	9822.11
532.267	9783.25
532.632	9918.84
532.998	9919.74
533.364	10016.46
533.73	10055.78
534.095	10041.77
534.461	10172.39
534.826	10202.9
535.192	10233.86
535.557	10291.25
535.923	10321.31
536.288	10358.37
536.653	10417.81
537.019	10380.52
537.384	10510.23
537.749	10482.21
538.114	10542.32
538.479	10593.62
538.845	10645.6
539.21	10689.21
539.575	10671.36
539.94	10721.3
540.305	10832.48
540.67	10804.91
541.034	10860.28
541.399	10899.6
541.764	10868.41
542.129	10955.19
542.494	10977.79
542.858	11097.79
543.223	11069.09
543.587	11220.5
543.952	11135.98
544.316	11227.5
544.681	11261.17
545.045	11380.49
545.41	11392.69
545.774	11490.09
546.138	11425.24
546.503	11451.22
546.867	11553.37
547.231	11626.36
547.595	11583.42
547.959	11702.52
548.324	11667.94
548.688	11662.29
549.052	11715.62
549.416	11825.45
549.779	11862.51
550.143	11873.59
550.507	11988.84
550.871	12020.7
551.235	12093.69
551.599	12070.64
551.962	12093.92
552.326	12124.2
552.689	12158.78
553.053	12185.89
553.417	12208.72
553.78	12345.21
554.143	12331.88
554.507	12370.52
554.87	12469.73
555.234	12594.92
555.597	12497.98
555.96	12606.67
556.323	12580.01
556.686	12636.28
557.05	12651.42
557.413	12779.1
557.776	12787.01
558.139	12790.4
558.502	12875.82
558.865	12928.93
559.228	13036.95
559.59	12994.91
559.953	13140.45
560.316	13157.39
560.679	13252.08
561.041	13391.51
561.404	13389.93
561.767	13416.37
562.129	13343.83
562.492	13464.5
562.854	13467.44
563.217	13541.34
563.579	13593.77
563.941	13638.51
564.304	13688.68
564.666	13749.69
565.028	13838.28
565.39	13851.16
565.753	13897.71
566.115	14027.88
566.477	13964.83
566.839	14034.89
567.201	14158.05
567.563	14163.92
567.925	14349
568.287	14322.11
568.648	14275.78
569.01	14299.51
569.372	14384.48
569.734	14391.26
570.095	14530.47
570.457	14608.43
570.819	14676.22
571.18	14662.21
571.542	14793.74
571.903	14827.86
572.265	14904.01
572.626	14942.88
572.987	15019.27
573.349	15099.94
573.71	15173.61
574.071	15272.14
574.432	15265.36
574.794	15430.78
575.155	15460.84
575.516	15455.19
575.877	15559.82
576.238	15675.97
576.599	15819.47
576.96	15851.11
577.32	15918.23
577.681	16006.13
578.042	16200.7
578.403	16143.98
578.763	16300.81
579.124	16472.11
579.485	16605.67
579.845	16741.93
580.206	16782.38
580.566	17014.69
580.927	17111.19
581.287	17242.71
581.648	17341.69
582.008	17660.33
582.368	17835.46
582.728	17867.1
583.089	18031.39
583.449	18244.94
583.809	18419.18
584.169	18623.69
584.529	18717.25
584.889	19111.14
585.249	19202.66
585.609	19400.62
585.969	19636.77
586.329	19797.67
586.688	20125.12
587.048	20366.7
587.408	20439.01
587.768	20742.96
588.127	21042.84
588.487	21190.86
588.846	21678.07
589.206	21830.16
589.565	22066.54
589.925	22577.49
590.284	22712.4
590.643	22998.94
591.003	23415.88
591.362	23706.5
591.721	24093.6
592.08	24339.92
592.44	24718.9
592.799	24983.75
593.158	25226
593.517	25658.99
593.876	26043.61
594.235	26358.4
594.593	26647.43
594.952	26981.44
595.311	27350.24
595.67	27662.55
596.029	28279.93
596.387	28607.38
596.746	28889.18
597.104	29092.12
597.463	29410.98
597.822	30032.66
598.18	30274.91
598.538	30395.13
598.897	30996.7
599.255	31120.76
599.613	31899.27
599.972	31995.77
600.33	32416.32
600.688	32652.93
601.046	33108.96
601.404	33574.71
601.762	33816.51
602.12	34237.97
602.478	34590.73
602.836	34911.62
603.194	35071.85
603.552	35515
603.91	35670.02
604.268	36104.59
604.625	36328.99
604.983	36756.1
605.341	36903.89
605.698	37373.03
606.056	37793.36
606.413	37923.3
606.771	38387.69
607.128	38689.83
607.485	38767.34
607.843	38986.77
608.2	39455.91
608.557	39808.44
608.914	39940.64
609.272	40400.75
609.629	40656.78
609.986	40973.39
610.343	41007.74
610.7	41704.21
611.057	41648.62
611.414	41987.14
611.771	42334.71
612.127	42502.84
612.484	42844.98
612.841	42974.69
613.198	43099.21
613.554	43359.76
613.911	43539.19
614.267	43874.78
614.624	44003.81
614.98	44381.88
615.337	44687.41
615.693	44682.44
616.05	44856.67
616.406	45142.99
616.762	45159.26
617.118	45274.97
617.475	45622.76
617.831	45759.7
618.187	45934.16
618.543	46157.66
618.899	46513.13
619.255	46501.83
619.611	46676.74
619.967	46812.33
620.323	47040.12
620.678	46946.56
621.034	47045.77
621.39	47163.51
621.746	47144.07
622.101	47714.45
622.457	47576.15
622.812	47654.57
623.168	47785.41
623.523	47851.17
623.879	48179.75
624.234	48008.23
624.589	48154.21
624.945	48288.22
625.3	48380.42
625.655	48493.87
626.01	48539.06
626.365	48544.03
626.72	48620.19
627.075	48705.16
627.43	48698.61
627.785	48660.87
628.14	48896.34
628.495	48950.13
628.85	49003.68
629.205	48943.8
629.559	49139.05
629.914	48986.96
630.269	49130.91
630.623	49208.42
630.978	49089.33
631.332	49252.26
631.687	49417.46
632.041	49282.77
632.396	49376.55
632.75	49269.21
633.104	49432.6
633.459	49295.2
633.813	49235.32
634.167	49359.15
634.521	49372.49
634.875	49473.73
635.229	49501.98
635.583	49313.96
635.937	49383.11
636.291	49420.85
636.645	49400.51
636.999	49291.36
637.352	49392.15
637.706	49258.37
638.06	49503.33
638.413	49363.9
638.767	49258.14
639.121	49331.81
639.474	49102.21
639.828	49257.46
640.181	49353.73
640.534	49332.04
640.888	49241.42
641.241	49101.53
641.594	49175.66
641.947	49265.82
642.301	49232.6
642.654	49214.3
643.007	49240.29
643.36	49204.81
643.713	49242.77
644.066	49339.04
644.419	49129.33
644.771	48898.6
645.124	48580.64
645.477	48514.2
645.83	48344.49
646.182	48094.33
646.535	48078.51
646.888	48145.85
647.24	48064.27
647.593	48151.73
647.945	48116.47
648.298	47940.21
648.65	47781.12
649.002	47832.41
649.355	48070.15
649.707	47902.92
650.059	48161.9
650.411	48659.74
650.763	48641.66
651.115	48961.65
651.467	48854.76
651.819	48810.69
652.171	48734.99
652.523	48738.83
652.875	48711.04
653.227	48575.45
653.578	48824.93
653.93	48777.02
654.282	48737.25
654.633	48561.21
654.985	48586.07
655.337	48631.04
655.688	48789.68
656.039	48893.86
656.391	48445.73
656.742	48607.76
657.094	48635.78
657.445	48713.97
657.796	48654.54
658.147	48546.75
658.498	48677.82
658.849	48581.55
659.2	48551.72
659.551	48352.63
659.902	48620.42
660.253	48433.75
660.604	48548.55
660.955	48332.74
661.306	48520.98
661.656	48408.67
662.007	48528.89
662.358	48513.75
662.708	48402.12
663.059	48433.53
663.409	48140.43
663.76	48415.45
664.11	48396.47
664.461	48509.23
664.811	48464.26
665.161	48318.5
665.511	48256.58
665.862	48372.06
666.212	48401.89
666.562	48415.68
666.912	48427.2
667.262	48267.88
667.612	48375.23
667.962	48353.53
668.312	48322.57
668.662	48564.82
669.011	48358.05
669.361	48308.56
669.711	48360.76
670.06	48229.24
670.41	48194.21
670.76	48169.13
671.109	48324.15
671.459	48215.91
671.808	48101.79
672.157	48302.46
672.507	47977.95
672.856	47989.47
673.205	48055.69
673.554	48185.4
673.904	48036.93
674.253	48222.46
674.602	48142.01
674.951	47551.52
675.3	47340.45
675.649	47995.12
675.998	47933.65
676.346	47931.62
676.695	48114.89
677.044	47869.48
677.393	47879.19
677.741	47976.14
678.09	47841.91
678.438	47716.26
678.787	47853.21
679.135	47797.16
679.484	47491.63
679.832	47738.41
680.181	47542.03
680.529	47657.73
680.877	47418.41
681.225	47303.61
681.573	47590.61
681.922	47338.42
682.27	47278.76
682.618	47338.42
682.966	47247.8
683.314	47236.27
683.661	47181.36
684.009	46843.06
684.357	46896.85
684.705	46890.07
685.053	46945.66
685.4	46871.99
685.748	46710.18
686.095	46706.79
686.443	46509.51
686.79	46596.29
687.138	46643.29
687.485	46473.35
687.832	46405.33
688.18	46512.45
688.527	46283.98
688.874	46183.87
689.221	46160.82
689.568	45981.62
689.915	45818
690.262	45914.72
690.609	45693.04
690.956	45554.96
691.303	45580.95
691.65	45424.12
691.997	45487.17
692.344	45296.66
692.69	45148.19
693.037	45240.39
693.383	44761.31
693.73	45060.28
694.077	44865.71
694.423	44761.31
694.769	44696
695.116	44534.42
695.462	44408.1
695.808	44419.4
696.155	44260.98
696.501	44049.92
696.847	44163.36
697.193	43776.02
697.539	44094.89
697.885	43704.39
698.231	43718.85
698.577	43574
698.923	43741
699.269	43446.09
699.614	43123.39
699.96	43122.03
700.306	43188.69
700.651	43011.3
700.997	42871.42
701.342	42807.24
701.688	42830.51
702.033	42653.79
702.379	42716.62
702.724	42496.06
703.069	42607.02
703.415	42089.74
703.76	42205.9
704.105	42096.29
704.45	42120.25
704.795	41838
705.14	41680.03
705.485	41733.37
705.83	41487.04
706.175	41665.57
706.52	41414.96
706.865	41422.87
707.209	41278.91
707.554	41149.88
707.899	41307.61
708.243	40916.44
708.588	40913.5
708.932	40621.76
709.277	40695.88
709.621	40683
709.966	40348.54
710.31	40547.63
710.654	40201.65
710.998	40222.67
711.342	40397.13
711.687	40172.5
712.031	39840.08
712.375	39875.56
712.719	39992.17
713.063	39727.32
713.407	39914.66
713.75	39736.81
714.094	39604.61
714.438	39455.69
714.782	39616.36
715.125	39421.56
715.469	39415.01
715.812	39276.71
716.156	38929.15
716.499	38973.66
716.843	39002.82
717.186	38928.69
717.53	38971.86
717.873	39028.58
718.216	38960.33
718.559	38722.82
718.902	38432.44
719.246	38561.92
719.589	38321.93
719.932	38422.49
720.275	38309.05
720.617	38380.23
720.96	38247.36
721.303	38099.34
721.646	38126.23
721.989	37977.98
722.331	38071.54
722.674	37931.21
723.016	37966.01
723.359	37885.78
723.701	37844.65
724.044	37703.64
724.386	37487.83
724.729	37609.86
725.071	37487.83
725.413	37541.16
725.755	37411.9
726.097	37204.9
726.439	36971.23
726.782	37201.96
727.124	37246.48
727.465	37166.93
727.807	37031.57
728.149	36942.76
728.491	36937.56
728.833	37068.4
729.175	36812.14
729.516	36714.97
729.858	36791.57
730.199	36783.89
730.541	36641.52
730.882	36577.57
731.224	36597.68
731.565	36340.97
731.906	36448.08
732.248	36494.18
732.589	36163.79
732.93	36180.74
733.271	36179.39
733.612	36234.53
733.953	36136.45
734.294	36040.41
734.635	35862.56
734.976	36207.86
735.317	35815.1
735.658	36001.31
735.999	35825.72
736.339	35718.61
736.68	35765.84
737.021	35595.22
737.361	35606.97
737.702	35802.67
738.042	35550.93
738.383	35607.88
738.723	35537.6
739.063	35333.31
739.404	35517.48
739.744	35435.45
740.084	35252.86
740.424	35371.05
740.764	35194.33
741.104	35407.66
741.444	35040.43
741.784	34949.82
742.124	35042.69
742.464	35060.77
742.804	34886.54
743.143	34931.06
743.483	34753.21
743.823	34637.06
744.162	34689.26
744.502	34789.59
744.841	34511.63
745.181	34678.18
745.52	34578.98
745.86	34389.15
746.199	34405.2
746.538	34516.83
746.877	34472.31
747.216	34454.69
747.556	34182.6
747.895	34399.55
748.234	34106.9
748.573	33982.16
748.911	34140.8
749.25	34034.36
749.589	33842.05
749.928	33867.58
750.267	34112.55
750.605	33906.45
750.944	33742.62
751.283	33628.49
751.621	33782.16
751.96	33594.37
752.298	33592.56
752.636	33564.99
752.975	33300.82
753.313	33230.31
753.651	33360.48
753.989	33132.91
754.327	33172.01
754.666	33037.1
755.004	32974.73
755.342	32951.9
755.679	33044.78
756.017	32576.54
756.355	32875.75
756.693	32687.73
757.031	32724.56
757.368	32395.31
757.706	32436.21
758.044	32360.05
