Data from hue_210_FLMS001491_00088.txt Node
Date: Tue Feb 07 16:41:53 GMT 2017
User: dcchb
Spectrometer: FLMS00149
Trigger mode: 0
Integration Time (sec): 2.000000E-2
Scans to average: 10
Electric dark correction enabled: true
Nonlinearity correction enabled: false
Boxcar width: 0
XAxis mode: Wavelengths
Number of Pixels in Spectrum: 2048
>>>>>Begin Spectral Data<<<<<
341.393	-27.34
341.776	-27.34
342.16	-27.34
342.543	-64.18
342.927	-70.05
343.31	-85.87
343.693	-72.31
344.077	-61.92
344.46	-52.43
344.843	-62.15
345.226	-54.01
345.61	-20.56
345.993	-17.85
346.376	-2.26
346.759	14.69
347.142	23.5
347.525	43.16
347.908	57.85
348.291	76.16
348.674	97.4
349.057	116.61
349.44	128.13
349.823	137.85
350.206	135.59
350.588	196.38
350.971	197.51
351.354	216.27
351.737	230.05
352.119	245.19
352.502	268.69
352.884	259.2
353.267	275.7
353.65	291.07
354.032	293.33
354.414	300.33
354.797	291.07
355.179	312.99
355.562	315.47
355.944	314.57
356.326	328.13
356.709	331.74
357.091	326.09
357.473	345.98
357.855	338.75
358.238	323.16
358.62	326.09
359.002	320.22
359.384	332.42
359.766	313.21
360.148	328.58
360.53	353.89
360.912	314.79
361.294	334
361.676	315.92
362.057	328.58
362.439	336.71
362.821	331.74
363.203	317.05
363.584	312.31
363.966	319.99
364.348	317.96
364.729	337.17
365.111	312.53
365.493	321.35
365.874	316.38
366.256	301.91
366.637	305.08
367.019	298.98
367.4	299.43
367.781	322.7
368.163	316.38
368.544	322.7
368.925	317.73
369.306	295.13
369.688	308.47
370.069	322.03
370.45	300.11
370.831	283.16
371.212	332.42
371.593	298.75
371.974	322.48
372.355	304.4
372.736	324.74
373.117	322.03
373.498	326.32
373.879	314.57
374.26	310.73
374.641	303.72
375.021	301.69
375.402	338.52
375.783	329.03
376.163	328.35
376.544	315.92
376.925	324.51
377.305	308.01
377.686	321.57
378.066	330.84
378.447	314.12
378.827	334.68
379.208	302.14
379.588	326.09
379.968	328.8
380.349	323.38
380.729	344.62
381.109	329.03
381.489	323.83
381.87	344.85
382.25	330.39
382.63	356.37
383.01	346.43
383.39	357.05
383.77	353.89
384.15	350.05
384.53	337.39
384.91	344.17
385.29	332.42
385.67	350.5
386.049	365.64
386.429	367.22
386.809	355.24
387.189	330.61
387.568	348.01
387.948	359.76
388.328	365.87
388.707	369.93
389.087	363.61
389.466	364.74
389.846	366.77
390.225	357.96
390.605	374.45
390.984	356.37
391.363	370.61
391.743	349.6
392.122	378.75
392.501	369.03
392.881	372.42
393.26	380.55
393.639	378.52
394.018	386.2
394.397	377.84
394.776	382.14
395.155	393.21
395.534	389.14
395.913	390.95
396.292	397.05
396.671	384.4
397.05	382.36
397.429	389.59
397.808	385.98
398.186	399.76
398.565	403.61
398.944	418.07
399.323	411.97
399.701	410.61
400.08	411.06
400.458	402.7
400.837	417.62
401.215	404.06
401.594	442.25
401.972	416.94
402.351	408.12
402.729	430.95
403.107	421.46
403.486	442.93
403.864	431.4
404.242	445.64
404.62	446.54
404.999	450.61
405.377	465.3
405.755	462.81
406.133	479.08
406.511	448.35
406.889	484.28
407.267	491.96
407.645	476.6
408.023	506.2
408.401	511.62
408.779	517.5
409.156	510.72
409.534	514.79
409.912	518.86
410.29	529.25
410.667	525.86
411.045	546.65
411.422	565.18
411.8	563.38
412.178	566.09
412.555	584.39
412.933	587.33
413.31	603.83
413.687	602.92
414.065	612.19
414.442	623.94
414.819	616.03
415.197	648.57
415.574	645.86
415.951	662.13
416.328	637.27
416.705	655.8
417.082	660.77
417.46	714.78
417.837	676.37
418.214	692.64
418.591	689.02
418.967	716.37
419.344	725.4
419.721	737.61
420.098	749.58
420.475	767.66
420.852	746.65
421.228	772.18
421.605	791.39
421.982	826.87
422.358	836.36
422.735	826.64
423.111	844.5
423.488	863.71
423.864	861.9
424.241	891.95
424.617	899.19
424.994	925.4
425.37	911.84
425.746	946.42
426.123	954.1
426.499	978.96
426.875	959.75
427.251	1002.91
427.627	1004.72
428.003	1036.36
428.379	1008.79
428.756	1011.05
429.132	1059.18
429.507	1081.33
429.883	1047.2
430.259	1101.44
430.635	1093.08
431.011	1153.64
431.387	1140.53
431.763	1173.75
432.138	1174.43
432.514	1200.65
432.89	1221.66
433.265	1237.93
433.641	1261.66
434.016	1288.1
434.392	1263.7
434.767	1335.11
435.143	1354.54
435.518	1356.12
435.894	1377.82
436.269	1411.94
436.644	1426.63
437.02	1443.35
437.395	1491.49
437.77	1514.54
438.145	1493.97
438.52	1525.84
438.895	1564.03
439.271	1565.16
439.646	1635.21
440.021	1608.09
440.395	1640.41
440.77	1638.6
441.145	1675.21
441.52	1719.73
441.895	1711.37
442.27	1755.21
442.645	1775.55
443.019	1784.81
443.394	1755.66
443.769	1832.27
444.143	1811.03
444.518	1874.53
444.892	1836.56
445.267	1866.39
445.641	1892.61
446.016	1921.76
446.39	1936.45
446.764	1912.94
447.139	1929.44
447.513	1958.82
447.887	1967.63
448.262	1992.26
448.636	2016.22
449.01	2028.87
449.384	2058.7
449.758	2065.03
450.132	2110.9
450.506	2115.42
450.88	2116.55
451.254	2092.15
451.628	2141.64
452.002	2182.54
452.376	2188.64
452.75	2216.21
453.123	2255.31
453.497	2225.03
453.871	2258.7
454.244	2298.24
454.618	2354.06
454.992	2350.45
455.365	2368.98
455.739	2428.41
456.112	2465.7
456.486	2470.22
456.859	2477.45
457.232	2528.75
457.606	2528.97
457.979	2528.52
458.352	2601.51
458.725	2646.26
459.099	2640.16
459.472	2676.54
459.845	2716.99
460.218	2720.15
460.591	2764.22
460.964	2791.57
461.337	2829.08
461.71	2871.79
462.083	2900.04
462.456	2922.64
462.829	2912.92
463.201	2972.8
463.574	2973.93
463.947	3016.87
464.32	3085.34
464.692	3155.85
465.065	3099.13
465.438	3162.85
465.81	3235.85
466.183	3244.89
466.555	3334.83
466.928	3309.29
467.3	3307.26
467.672	3395.84
468.045	3468.38
468.417	3537.31
468.789	3487.59
469.161	3518.78
469.534	3612.79
469.906	3676.06
470.278	3669.73
470.65	3731.65
471.022	3802.61
471.394	3861.82
471.766	3862.5
472.138	3889.39
472.51	3970.29
472.882	4006.22
473.253	4117.63
473.625	4108.37
473.997	4211.64
474.369	4208.7
474.74	4256.16
475.112	4312.65
475.484	4424.06
475.855	4443.5
476.227	4521.69
476.598	4627.9
476.97	4650.05
477.341	4740.67
477.713	4804.17
478.084	4776.6
478.455	4946.99
478.827	4964.62
479.198	5133.2
479.569	5157.6
479.94	5192.18
480.311	5291.84
480.682	5361.44
481.053	5481.66
481.424	5553.53
481.795	5569.12
482.166	5617.03
482.537	5769.34
482.908	5810.69
483.279	5923.91
483.65	5979.5
484.021	6068.99
484.391	6176.11
484.762	6196.67
485.133	6281.64
485.503	6209.1
485.874	6401.41
486.244	6498.13
486.615	6556.21
486.985	6642.76
487.356	6779.26
487.726	6785.58
488.097	6896.54
488.467	6940.16
488.837	7079.81
489.207	7124.78
489.578	7263.76
489.948	7252.69
490.318	7325.91
490.688	7419.01
491.058	7442.06
491.428	7598.67
491.798	7618.1
492.168	7748.5
492.538	7778.1
492.908	7851.09
493.278	7941.03
493.648	7892
494.017	8072.78
494.387	8052.9
494.757	8108.04
495.126	8260.35
495.496	8227.35
495.866	8286.79
496.235	8371.31
496.605	8376.5
496.974	8412.66
497.344	8404.07
497.713	8525.65
498.082	8556.16
498.452	8679.32
498.821	8696.72
499.19	8664.86
499.559	8698.08
499.928	8741.92
500.298	8822.14
500.667	8821.24
501.036	8828.24
501.405	8961.8
501.774	8858.3
502.143	8921.8
502.512	8959.31
502.88	9047.67
503.249	9054.45
503.618	9139.42
503.987	9063.72
504.356	9108.46
504.724	9108.69
505.093	9173.54
505.462	9217.84
505.83	9265.07
506.199	9317.72
506.567	9372.18
506.936	9345.74
507.304	9418.51
507.672	9397.27
508.041	9441.79
508.409	9521.78
508.777	9573.08
509.145	9584.15
509.514	9592.74
509.882	9667.32
510.25	9675.9
510.618	9710.48
510.986	9689.46
511.354	9755.68
511.722	9756.13
512.09	9808.1
512.458	9793.64
512.826	9810.14
513.193	9809.23
513.561	9882.45
513.929	9850.36
514.297	9946.18
514.664	9986.18
515.032	10034.09
515.4	10043.35
515.767	9996.57
516.135	10052.17
516.502	9956.35
516.869	10097.14
517.237	10036.12
517.604	10078.61
517.972	10074.31
518.339	10101.66
518.706	10133.52
519.073	10137.36
519.44	10175.55
519.808	10188.88
520.175	10160.64
520.542	10198.38
520.909	10164.25
521.276	10214.42
521.643	10292.61
522.009	10273.85
522.376	10424.81
522.743	10266.4
523.11	10405.15
523.477	10465.04
523.843	10448.76
524.21	10486.28
524.577	10440.86
524.943	10429.56
525.31	10535.32
525.676	10557.46
526.043	10542.1
526.409	10523.34
526.776	10559.72
527.142	10567.41
527.508	10576.9
527.874	10630.23
528.241	10602.66
528.607	10616.67
528.973	10632.94
529.339	10626.39
529.705	10562.43
530.071	10630.68
530.437	10700.74
530.803	10646.27
531.169	10700.74
531.535	10646.27
531.901	10670.91
532.267	10635.2
532.632	10638.36
532.998	10627.52
533.364	10632.94
533.73	10609.21
534.095	10634.52
534.461	10620.29
534.826	10628.2
535.192	10561.76
535.557	10659.15
535.923	10581.19
536.288	10474.53
536.653	10548.2
537.019	10427.07
537.384	10457.13
537.749	10459.16
538.114	10503
538.479	10477.01
538.845	10483.79
539.21	10357.92
539.575	10333.74
539.94	10373.51
540.305	10376
540.67	10248.32
541.034	10281.54
541.399	10263.46
541.764	10275.44
542.129	10268.2
542.494	10192.05
542.858	10161.31
543.223	10176.68
543.587	10199.73
543.952	10089.9
544.316	10127.42
544.681	10088.77
545.045	10078.15
545.41	10127.19
545.774	10071.37
546.138	10064.14
546.503	10016.23
546.867	10008.78
547.231	9937.14
547.595	9960.64
547.959	9875.67
548.324	9892.85
548.688	9815.11
549.052	9833.87
549.416	9780.76
549.779	9820.08
550.143	9748.44
550.507	9791.15
550.871	9755.22
551.235	9687.88
551.599	9703.02
551.962	9673.64
552.326	9652.85
552.689	9639.07
553.053	9580.09
553.417	9619.63
553.78	9620.09
554.143	9568.34
554.507	9566.75
554.87	9518.39
555.234	9578.28
555.597	9512.29
555.96	9406.76
556.323	9523.59
556.686	9484.27
557.05	9476.36
557.413	9445.85
557.776	9385.29
558.139	9460.77
558.502	9492.41
558.865	9379.64
559.228	9510.94
559.59	9475.23
559.953	9448.34
560.316	9503.48
560.679	9507.09
561.041	9483.37
561.404	9461.45
561.767	9561.1
562.129	9421.9
562.492	9491.05
562.854	9461.67
563.217	9362.69
563.579	9402.24
563.941	9529.01
564.304	9458.06
564.666	9486.08
565.028	9502.8
565.39	9531.27
565.753	9562.91
566.115	9512.07
566.477	9529.92
566.839	9582.57
567.201	9642.46
567.563	9619.86
567.925	9623.93
568.287	9594.78
568.648	9607.43
569.01	9707.77
569.372	9700.31
569.734	9649.01
570.095	9684.04
570.457	9693.3
570.819	9697.15
571.18	9752.74
571.542	9708.22
571.903	9783.47
572.265	9753.19
572.626	9800.42
572.987	9750.48
573.349	9785.73
573.71	9805.62
574.071	9833.87
574.432	9852.62
574.794	9954.09
575.155	9877.71
575.516	9857.59
575.877	9933.3
576.238	9884.03
576.599	9927.87
576.96	9926.97
577.32	9925.16
577.681	9928.1
578.042	10041.32
578.403	9926.52
578.763	10017.36
579.124	9986.86
579.485	10091.71
579.845	10127.87
580.206	10099.4
580.566	10004.93
580.927	10033.86
581.287	10067.76
581.648	10088.77
582.008	10137.59
582.368	10044.71
582.728	10149.79
583.089	10126.97
583.449	10148.66
583.809	10145.5
584.169	10204.7
584.529	10118.6
584.889	10221.43
585.249	10152.73
585.609	10144.37
585.969	10223.69
586.329	10138.26
586.688	10223.46
587.048	10352.72
587.408	10190.92
587.768	10164.25
588.127	10200.64
588.487	10179.85
588.846	10263.91
589.206	10164.93
589.565	10218.04
589.925	10221.65
590.284	10218.71
590.643	10312.27
591.003	10284.02
591.362	10242.22
591.721	10196.34
592.08	10232.73
592.44	10284.93
592.799	10304.59
593.158	10281.54
593.517	10327.64
593.876	10345.26
594.235	10286.96
594.593	10286.06
594.952	10307.98
595.311	10299.84
595.67	10338.49
596.029	10370.8
596.387	10371.25
596.746	10491.93
597.104	10388.2
597.463	10299.39
597.822	10370.8
598.18	10304.59
598.538	10288.54
598.897	10379.16
599.255	10284.7
599.613	10379.39
599.972	10441.76
600.33	10386.62
600.688	10346.85
601.046	10387.75
601.404	10439.05
601.762	10417.58
602.12	10418.48
602.478	10425.26
602.836	10454.41
603.194	10324.7
603.552	10444.7
603.91	10391.82
604.268	10478.14
604.625	10433.17
604.983	10504.13
605.341	10372.38
605.698	10464.58
606.056	10414.87
606.413	10371.93
606.771	10411.48
607.128	10474.53
607.485	10416.68
607.843	10499.61
608.2	10491.93
608.557	10557.24
608.914	10436.79
609.272	10568.08
609.629	10545.71
609.986	10552.72
610.343	10486.96
610.7	10588.2
611.057	10584.13
611.414	10630
611.771	10580.51
612.127	10608.99
612.484	10624.35
612.841	10686.27
613.198	10623.22
613.554	10621.19
613.911	10704.35
614.267	10600.63
614.624	10623
614.98	10618.25
615.337	10754.29
615.693	10704.58
616.05	10732.83
616.406	10673.84
616.762	10647.18
617.118	10632.49
617.475	10684.46
617.831	10730.57
618.187	10721.98
618.543	10746.61
618.899	10747.29
619.255	10688.53
619.611	10769.21
619.967	10720.85
620.323	10730.57
620.678	10766.95
621.034	10745.03
621.39	10718.59
621.746	10733.05
622.101	10876.78
622.457	10787.29
622.812	10755.88
623.168	10813.5
623.523	10765.82
623.879	10815.08
624.234	10725.82
624.589	10786.84
624.945	10754.75
625.3	10801.52
625.655	10777.57
626.01	10751.13
626.365	10735.08
626.72	10793.61
627.075	10698.7
627.43	10773.73
627.785	10720.62
628.14	10717.23
628.495	10688.76
628.85	10797.91
629.205	10676.78
629.559	10796.78
629.914	10717.91
630.269	10670.23
630.623	10696.22
630.978	10625.48
631.332	10660.96
631.687	10640.85
632.041	10685.14
632.396	10602.66
632.75	10564.69
633.104	10632.94
633.459	10513.62
633.813	10509.78
634.167	10490.8
634.521	10557.46
634.875	10592.04
635.229	10560.63
635.583	10505.94
635.937	10513.4
636.291	10503
636.645	10463.68
636.999	10389.33
637.352	10431.59
637.706	10431.59
638.06	10418.26
638.413	10372.61
638.767	10419.61
639.121	10346.39
639.474	10329.67
639.828	10289.22
640.181	10396.79
640.534	10307.53
640.888	10281.31
641.241	10220.07
641.594	10295.77
641.947	10309.33
642.301	10277.92
642.654	10318.6
643.007	10256
643.36	10282.44
643.713	10192.05
644.066	10281.31
644.419	10240.63
644.771	10192.73
645.124	10091.71
645.477	10032.96
645.83	9973.3
646.182	9943.69
646.535	9910.25
646.888	9936.69
647.24	9849.91
647.593	9919.29
647.945	9902.11
648.298	9833.64
648.65	9856.01
649.002	9782.12
649.355	9850.36
649.707	9922.68
650.059	9891.94
650.411	10034.09
650.763	10067.76
651.115	10238.6
651.467	10036.12
651.819	10119.73
652.171	10098.27
652.523	9983.47
652.875	10027.76
653.227	10070.24
653.578	10072.5
653.93	10147.53
654.282	10067.53
654.633	9981.88
654.985	10030.92
655.337	10062.33
655.688	10087.87
656.039	10045.61
656.391	10006.74
656.742	10044.03
657.094	10077.25
657.445	10085.16
657.796	10074.09
658.147	10050.81
658.498	10073.18
658.849	10090.36
659.2	10011.49
659.551	9957.03
659.902	10093.29
660.253	10033.18
660.604	10160.64
660.955	10093.52
661.306	10089.45
661.656	10005.84
662.007	10088.55
662.358	10102.79
662.708	10076.8
663.059	10056.68
663.409	9993.41
663.76	10118.15
664.11	10086.74
664.461	10179.39
664.811	10131.03
665.161	10096.46
665.511	10074.76
665.862	10120.41
666.212	10102.79
666.562	10114.31
666.912	10068.21
667.262	10096.23
667.612	10114.08
667.962	10095.33
668.312	10063.46
668.662	10155.67
669.011	10095.1
669.361	10105.05
669.711	10098.49
670.06	10057.14
670.41	10025.73
670.76	10038.15
671.109	10077.25
671.459	10077.02
671.808	10066.63
672.157	10015.56
672.507	9922.45
672.856	10006.52
673.205	10077.93
673.554	10107.3
673.904	9963.35
674.253	10098.27
674.602	10034.99
674.951	9842
675.3	9798.16
675.649	9910.93
675.998	9943.24
676.346	9905.05
676.695	9927.42
677.044	9871.6
677.393	9921.55
677.741	9887.88
678.09	9883.58
678.438	9874.54
678.787	9865.96
679.135	9922.9
679.484	9801.55
679.832	9844.71
680.181	9799.29
680.529	9829.57
680.877	9783.92
681.225	9795.67
681.573	9763.81
681.922	9757.71
682.27	9718.39
682.618	9708.22
682.966	9694.43
683.314	9672.06
683.661	9680.42
684.009	9603.36
684.357	9609.24
684.705	9562.23
685.053	9578.51
685.4	9588
685.748	9512.07
686.095	9497.38
686.443	9481.78
686.79	9438.17
687.138	9448.79
687.485	9413.76
687.832	9402.24
688.18	9415.12
688.527	9348
688.874	9298.96
689.221	9329.47
689.568	9270.94
689.915	9246.08
690.262	9295.35
690.609	9245.63
690.956	9155.92
691.303	9125.18
691.65	9068.69
691.997	9105.07
692.344	9056.94
692.69	9016.49
693.037	9041.8
693.383	9009.71
693.73	8981.91
694.077	8923.83
694.423	8993.66
694.769	8934
695.116	8845.87
695.462	8892.87
695.808	8794.8
696.155	8743.27
696.501	8741.47
696.847	8772.2
697.193	8684.52
697.539	8680.22
697.885	8601.81
698.231	8613.33
698.577	8615.82
698.923	8537.63
699.269	8475.26
699.614	8423.73
699.96	8442.49
700.306	8302.15
700.651	8366.11
700.997	8335.15
701.342	8322.04
701.688	8306.45
702.033	8310.74
702.379	8233.23
702.724	8248.82
703.069	8237.75
703.415	8103.06
703.76	8148.71
704.105	8105.78
704.45	8032.56
704.795	8014.93
705.14	7989.39
705.485	7993.24
705.83	7984.87
706.175	7954.59
706.52	7915.05
706.865	7885.44
707.209	7933.58
707.554	7852.45
707.899	7854.48
708.243	7759.34
708.588	7779.68
708.932	7723.41
709.277	7747.37
709.621	7735.16
709.966	7675.28
710.31	7687.48
710.654	7687.48
710.998	7691.78
711.342	7606.58
711.687	7543.08
712.031	7571.55
712.375	7510.54
712.719	7558.67
713.063	7511.89
713.407	7564.55
713.75	7443.19
714.094	7478
714.438	7442.74
714.782	7485.45
715.125	7483.19
715.469	7460.14
715.812	7377.43
716.156	7349.19
716.499	7390.77
716.843	7326.36
717.186	7298.79
717.53	7324.55
717.873	7338.11
718.216	7272.13
718.559	7294.27
718.902	7272.8
719.246	7263.54
719.589	7207.27
719.932	7195.29
720.275	7203.88
720.617	7218.57
720.96	7229.19
721.303	7211.56
721.646	7192.81
721.989	7198
722.331	7216.99
722.674	7184.9
723.016	7188.96
723.359	7138.57
723.701	7168.63
724.044	7065.58
724.386	7133.6
724.729	7135.63
725.071	7117.55
725.413	7115.97
725.755	7151.68
726.097	7063.09
726.439	7047.05
726.782	7042.75
727.124	7096.76
727.465	7049.31
727.807	7048.18
728.149	7033.71
728.491	7034.17
728.833	7086.14
729.175	7069.87
729.516	7032.81
729.858	7016.99
730.199	6956.2
730.541	6996.65
730.882	7002.3
731.224	7042.3
731.565	6954.62
731.906	7007.5
732.248	6988.52
732.589	6986.26
732.93	7014.73
733.271	7001.4
733.612	6993.26
733.953	7009.99
734.294	6978.12
734.635	6987.39
734.976	7000.27
735.317	6993.49
735.658	6944.45
735.999	6997.33
736.339	6941.06
736.68	6997.1
737.021	6988.97
737.361	6946.48
737.702	7050.66
738.042	6981.29
738.383	6978.35
738.723	7014.96
739.063	7023.77
739.404	7039.36
739.744	7006.14
740.084	7057.67
740.424	7071.68
740.764	7066.48
741.104	7056.99
741.444	7092.69
741.784	7029.87
742.124	7088.85
742.464	7109.42
742.804	7056.31
743.143	7137.21
743.483	7209.75
743.823	7176.53
744.162	7165.01
744.502	7204.78
744.841	7267.83
745.181	7272.58
745.52	7302.18
745.86	7306.02
746.199	7371.33
746.538	7321.62
746.877	7432.35
747.216	7455.62
747.556	7480.71
747.895	7538.33
748.234	7527.49
748.573	7561.38
748.911	7702.85
749.25	7725.67
749.589	7747.14
749.928	7844.99
750.267	7883.18
750.605	7929.51
750.944	7988.26
751.283	8038.88
751.621	8159.33
751.96	8223.29
752.298	8241.37
752.636	8384.19
752.975	8421.47
753.313	8611.75
753.651	8603.62
753.989	8720
754.327	8854.91
754.666	8923.61
755.004	9025.07
755.342	9115.69
755.679	9310.72
756.017	9362.92
756.355	9501.9
756.693	9630.03
757.031	9817.82
757.368	9913.86
757.706	10072.96
758.044	10166.96
758.381	10322.21
758.719	10418.71
759.056	10596.33
759.394	10767.85
759.731	10912.48
760.068	11055.98
760.405	11158.12
760.743	11312.7
761.08	11515.63
761.417	11601.5
761.754	11819.12
762.091	11976.41
762.428	12196.52
