Data from hue_80_FLMS001491_94.txt Node
Date: Mon Feb 06 15:24:04 GMT 2017
User: dcchb
Spectrometer: FLMS00149
Trigger mode: 0
Integration Time (sec): 2.000000E-2
Scans to average: 10
Electric dark correction enabled: true
Nonlinearity correction enabled: false
Boxcar width: 0
XAxis mode: Wavelengths
Number of Pixels in Spectrum: 2048
>>>>>Begin Spectral Data<<<<<
341.393	-14.58
341.776	-14.58
342.16	-14.58
342.543	-61.81
342.927	-60.22
343.31	-76.72
343.693	-64.74
344.077	-80.79
344.46	-50.28
344.843	-70.17
345.226	-49.83
345.61	-46.44
345.993	-37.63
346.376	-3.73
346.759	23.84
347.142	17.51
347.525	53.67
347.908	78.3
348.291	81.92
348.674	93.22
349.057	131.86
349.44	125.31
349.823	144.52
350.206	144.06
350.588	181.8
350.971	205.98
351.354	220.45
351.737	209.37
352.119	243.5
352.502	253.89
352.884	279.65
353.267	286.66
353.65	294.12
354.032	318.07
354.414	312.42
354.797	303.38
355.179	315.81
355.562	316.49
355.944	339.09
356.326	329.82
356.709	329.82
357.091	347.9
357.473	343.38
357.855	348.13
358.238	330.73
358.62	351.74
359.002	335.47
359.384	338.64
359.766	328.24
360.148	330.95
360.53	342.7
360.912	334.57
361.294	342.93
361.676	318.52
362.057	335.02
362.439	352.19
362.821	334.57
363.203	327.56
363.584	353.1
363.966	326.43
364.348	321.46
364.729	325.53
365.111	328.01
365.493	332.08
365.874	325.98
366.256	323.95
366.637	328.69
367.019	340.22
367.4	315.13
367.781	326.21
368.163	322.82
368.544	325.53
368.925	306.55
369.306	321.01
369.688	336.15
370.069	323.49
370.45	320.1
370.831	328.01
371.212	313.55
371.593	327.11
371.974	321.46
372.355	309.71
372.736	313.1
373.117	321.91
373.498	309.48
373.879	323.95
374.26	316.49
374.641	315.58
375.021	319.88
375.402	321.69
375.783	327.56
376.163	351.06
376.544	351.97
376.925	335.47
377.305	324.85
377.686	318.75
378.066	318.97
378.447	335.25
378.827	348.58
379.208	342.7
379.588	300.67
379.968	333.89
380.349	324.85
380.729	350.61
381.109	353.55
381.489	348.58
381.87	347
382.25	341.35
382.63	353.1
383.01	360.1
383.39	337.73
383.77	366.43
384.15	328.01
384.53	367.56
384.91	349.93
385.29	353.32
385.67	362.14
386.049	355.58
386.429	355.13
386.809	345.41
387.189	356.71
387.568	353.32
387.948	382.25
388.328	350.61
388.707	363.27
389.087	363.72
389.466	370.95
389.846	368.69
390.225	371.63
390.605	365.75
390.984	376.15
391.363	367.56
391.743	383.83
392.122	400.33
392.501	383.38
392.881	397.84
393.26	370.5
393.639	374.79
394.018	365.75
394.397	387.22
394.776	391.52
395.155	371.18
395.534	403.49
395.913	411.85
396.292	391.29
396.671	375.47
397.05	401.01
397.429	385.19
397.808	377.96
398.186	396.49
398.565	395.81
398.944	403.49
399.323	415.24
399.701	403.72
400.08	377.5
400.458	392.19
400.837	424.96
401.215	408.24
401.594	414.11
401.972	426.32
402.351	396.94
402.729	401.46
403.107	440.78
403.486	425.86
403.864	409.14
404.242	426.32
404.62	439.2
404.999	415.02
405.377	434.45
405.755	431.06
406.133	442.81
406.511	453.89
406.889	449.14
407.267	445.98
407.645	466.77
408.023	435.58
408.401	445.53
408.779	451.63
409.156	422.7
409.534	460.21
409.912	442.81
410.29	471.06
410.667	465.64
411.045	466.99
411.422	447.11
411.8	458.86
412.178	465.64
412.555	470.61
412.933	490.27
413.31	496.82
413.687	491.4
414.065	527.56
414.442	505.64
414.819	500.44
415.197	504.05
415.574	523.04
415.951	514.22
416.328	504.96
416.705	506.77
417.082	552.64
417.46	521.91
417.837	529.59
418.214	528.23
418.591	530.27
418.967	521.68
419.344	536.37
419.721	551.96
420.098	550.61
420.475	538.4
420.852	556.93
421.228	574.79
421.605	558.29
421.982	571.85
422.358	550.38
422.735	577.5
423.111	579.53
423.488	567.78
423.864	570.27
424.241	572.53
424.617	599.87
424.994	607.55
425.37	580.44
425.746	610.04
426.123	607.78
426.499	591.74
426.875	624.5
427.251	619.98
427.627	612.98
428.003	612.53
428.379	638.29
428.756	626.76
429.132	645.52
429.507	624.5
429.883	633.77
430.259	658.63
430.635	655.46
431.011	662.47
431.387	664.95
431.763	681.45
432.138	657.27
432.514	685.07
432.89	702.47
433.265	712.64
433.641	676.93
434.016	710.38
434.392	728
434.767	739.53
435.143	711.96
435.518	735.91
435.894	732.75
436.269	749.7
436.644	761.9
437.02	762.8
437.395	778.4
437.77	779.98
438.145	770.94
438.52	782.92
438.895	791.28
439.271	782.69
439.646	796.02
440.021	811.62
440.395	826.08
440.77	827.44
441.145	824.27
441.52	818.85
441.895	845.74
442.27	866.76
442.645	819.07
443.019	863.14
443.394	859.98
443.769	855.91
444.143	859.3
444.518	876.7
444.892	879.86
445.267	837.38
445.641	877.6
446.016	899.98
446.39	896.81
446.764	893.65
447.139	901.78
447.513	910.37
447.887	922.12
448.262	911.28
448.636	899.98
449.01	938.62
449.384	932.07
449.758	942.01
450.132	948.56
450.506	975.45
450.88	957.6
451.254	972.06
451.628	982.23
452.002	981.1
452.376	1000.54
452.75	1006.64
453.123	984.04
453.497	1013.19
453.871	1045.51
454.244	1045.28
454.618	1045.28
454.992	1072.85
455.365	1049.12
455.739	1059.97
456.112	1111.5
456.486	1106.52
456.859	1131.83
457.232	1135.68
457.606	1156.24
457.979	1148.56
458.352	1165.28
458.725	1198.27
459.099	1182.23
459.472	1218.16
459.845	1222.23
460.218	1232.17
460.591	1251.61
460.964	1271.04
461.337	1287.54
461.71	1288.67
462.083	1324.37
462.456	1314.65
462.829	1323.02
463.201	1366.63
463.574	1371.15
463.947	1376.12
464.32	1414.09
464.692	1426.97
465.065	1421.54
465.438	1443.01
465.81	1489.79
466.183	1494.76
466.555	1515.78
466.928	1529.56
467.3	1550.58
467.672	1574.76
468.045	1625.83
468.417	1633.29
468.789	1647.08
469.161	1682.78
469.534	1713.74
469.906	1759.61
470.278	1751.93
470.65	1786.73
471.022	1836.9
471.394	1869.22
471.766	1872.61
472.138	1933.85
472.51	1958.48
472.882	1986.73
473.253	2015.65
473.625	2071.02
473.997	2089.1
474.369	2159.15
474.74	2200.73
475.112	2240.51
475.484	2270.11
475.855	2367.28
476.227	2407.28
476.598	2477.79
476.97	2468.75
477.341	2571.34
477.713	2634.62
478.084	2670.33
478.455	2792.81
478.827	2821.51
479.198	2935.63
479.569	2938.11
479.94	3122.74
480.311	3126.58
480.682	3220.14
481.053	3340.82
481.424	3415.62
481.795	3523.64
482.166	3571.77
482.537	3680.69
482.908	3788.94
483.279	3874.81
483.65	4025.54
484.021	4087.92
484.391	4146.9
484.762	4289.94
485.133	4372.2
485.503	4470.05
485.874	4589.82
486.244	4759.31
486.615	4846.54
486.985	4996.82
487.356	5110.49
487.726	5252.18
488.097	5330.37
488.467	5470.03
488.837	5680.87
489.207	5781.88
489.578	5912.5
489.948	6082.44
490.318	6175.77
490.688	6258.71
491.058	6470.9
491.428	6580.05
491.798	6708.64
492.168	6870.67
492.538	6982.08
492.908	7124.9
493.278	7355.4
493.648	7445.34
494.017	7596.07
494.387	7693.7
494.757	7822.73
495.126	7972.56
495.496	8109.28
495.866	8213.91
496.235	8426.11
496.605	8517.18
496.974	8678.53
497.344	8780.9
497.713	8931.86
498.082	9080.33
498.452	9206.42
498.821	9339.08
499.19	9419.3
499.559	9558.51
499.928	9761.44
500.298	9785.84
500.667	10020.87
501.036	10054.99
501.405	10154.2
501.774	10278.71
502.143	10384.25
502.512	10517.12
502.88	10605.03
503.249	10698.14
503.618	10893.16
503.987	10928.87
504.356	11114.62
504.724	11151.23
505.093	11309.65
505.462	11413.15
505.83	11487.95
506.199	11598
506.567	11746.92
506.936	11790.99
507.304	11985.79
507.672	11993.47
508.041	12128.38
508.409	12227.59
508.777	12307.59
509.145	12525.21
509.514	12447.7
509.882	12566.34
510.25	12675.71
510.618	12778.08
510.986	12876.16
511.354	13040.9
511.722	13183.04
512.09	13221.23
512.458	13296.71
512.826	13327.67
513.193	13337.39
513.561	13491.51
513.929	13621.45
514.297	13708.68
514.664	13803.37
515.032	13810.6
515.4	13951.38
515.767	14020.31
516.135	14163.58
516.502	14147.09
516.869	14341.43
517.237	14269.12
517.604	14338.27
517.972	14399.96
518.339	14491.03
518.706	14567.41
519.073	14601.54
519.44	14698.03
519.808	14795.2
520.175	14833.85
520.542	14899.16
520.909	15142.77
521.276	14999.04
521.643	15204.23
522.009	15293.27
522.376	15291.69
522.743	15405.36
523.11	15533.94
523.477	15621.85
523.843	15702.75
524.21	15841.05
524.577	15977.09
524.943	15930.77
525.31	16021.61
525.676	16106.36
526.043	16177.09
526.409	16145.23
526.776	16340.02
527.142	16373.92
527.508	16434.03
527.874	16466.57
528.241	16555.16
528.607	16664.99
528.973	16827.24
529.339	16643.52
529.705	16739.11
530.071	16899.56
530.437	16916.96
530.803	16897.75
531.169	16991.08
531.535	16907.01
531.901	16933.45
532.267	17045.77
532.632	17101.13
532.998	17090.06
533.364	17162.37
533.73	17257.96
534.095	17268.36
534.461	17244.18
534.826	17300.9
535.192	17292.99
535.557	17498.41
535.923	17329.37
536.288	17363.72
536.653	17429.26
537.019	17399.88
537.384	17443.5
537.749	17380.45
538.114	17384.97
538.479	17427.9
538.845	17455.47
539.21	17379.77
539.575	17378.64
539.94	17349.71
540.305	17485.75
540.67	17474.23
541.034	17462.93
541.399	17501.57
541.764	17521.01
542.129	17476.04
542.494	17529.14
542.858	17549.93
543.223	17427.23
543.587	17585.41
543.952	17603.72
544.316	17564.17
544.681	17474
545.045	17562.14
545.41	17504.06
545.774	17534.57
546.138	17562.14
546.503	17468.81
546.867	17405.31
547.231	17617.5
547.595	17520.56
547.959	17548.13
548.324	17545.19
548.688	17485.53
549.052	17570.95
549.416	17511.97
549.779	17470.61
550.143	17400.33
550.507	17553.1
550.871	17595.58
551.235	17539.09
551.599	17608.01
551.962	17570.27
552.326	17585.64
552.689	17575.02
553.053	17489.82
553.417	17464.96
553.78	17722.58
554.143	17542.7
554.507	17651.17
554.87	17714
555.234	17750.38
555.597	17503.61
555.96	17633.1
556.323	17698.63
556.686	17624.73
557.05	17755.8
557.413	17684.39
557.776	17719.87
558.139	17814.11
558.502	17741.12
558.865	17792.41
559.228	17789.93
559.59	17895.46
559.953	17899.3
560.316	18001.45
560.679	17904.27
561.041	18014.55
561.404	18020.88
561.767	18142.69
562.129	18052.07
562.492	18107.21
562.854	18150.14
563.217	18123.7
563.579	18148.56
563.941	18166.87
564.304	18268.79
564.666	18371.61
565.028	18429.23
565.39	18321.67
565.753	18517.37
566.115	18441.66
566.477	18561.21
566.839	18573.41
567.201	18663.8
567.563	18650.7
567.925	18690.47
568.287	18682.56
568.648	18750.58
569.01	18771.6
569.372	18793.29
569.734	18713.97
570.095	18847.98
570.457	18876.45
570.819	18975.21
571.18	18901.54
571.542	18980.63
571.903	18924.81
572.265	19012.49
572.626	19075.09
572.987	19156.9
573.349	19118.71
573.71	19160.51
574.071	19240.96
574.432	19230.34
574.794	19436.44
575.155	19319.61
575.516	19231.25
575.877	19311.24
576.238	19395.54
576.599	19360.51
576.96	19372.94
577.32	19434.18
577.681	19471.24
578.042	19461.3
578.403	19519.15
578.763	19456.78
579.124	19530.22
579.485	19584.46
579.845	19532.03
580.206	19466.49
580.566	19395.31
580.927	19473.27
581.287	19491.13
581.648	19483.89
582.008	19586.49
582.368	19526.83
582.728	19613.83
583.089	19511.92
583.449	19507.4
583.809	19397.12
584.169	19457.23
584.529	19474.4
584.889	19573.16
585.249	19509.88
585.609	19474.86
585.969	19526.15
586.329	19441.41
586.688	19595.98
587.048	19490
587.408	19457
587.768	19426.27
588.127	19395.31
588.487	19353.95
588.846	19564.8
589.206	19417.23
589.565	19417.46
589.925	19475.08
590.284	19439.6
590.643	19502.2
591.003	19454.06
591.362	19458.58
591.721	19437.57
592.08	19455.42
592.44	19472.6
592.799	19556.89
593.158	19402.77
593.517	19431.47
593.876	19389.43
594.235	19366.16
594.593	19386.72
594.952	19399.83
595.311	19380.17
595.67	19413.61
596.029	19429.88
596.387	19520.05
596.746	19494.06
597.104	19226.05
597.463	19291.58
597.822	19400.05
598.18	19378.81
598.538	19294.29
598.897	19448.42
599.255	19301.75
599.613	19503.33
599.972	19483.44
600.33	19440.05
600.688	19462.2
601.046	19562.31
601.404	19447.74
601.762	19457.91
602.12	19506.49
602.478	19529.99
602.836	19405.25
603.194	19365.03
603.552	19434.4
603.91	19449.32
604.268	19531.58
604.625	19373.61
604.983	19514.18
605.341	19360.28
605.698	19504.68
606.056	19459.94
606.413	19488.87
606.771	19540.84
607.128	19591.24
607.485	19408.19
607.843	19453.84
608.2	19597.34
608.557	19635.3
608.914	19556.89
609.272	19727.5
609.629	19576.77
609.986	19711.46
610.343	19631.69
610.7	19768.86
611.057	19800.27
611.414	19746.71
611.771	19775.19
612.127	19796.43
612.484	19879.59
612.841	19862.87
613.198	19702.19
613.554	19837.78
613.911	19940.38
614.267	19924.79
614.624	19937.67
614.98	19875.97
615.337	20096.08
615.693	19951
616.05	19871.45
616.406	19990.77
616.762	19962.53
617.118	20020.83
617.475	20001.62
617.831	20022.64
618.187	20124.33
618.543	20095.86
618.899	20257.43
619.255	20157.55
619.611	20271.22
619.967	20266.02
620.323	20242.74
620.678	20197.1
621.034	20092.01
621.39	20178.79
621.746	20319.8
622.101	20407.03
622.457	20270.31
622.812	20321.16
623.168	20264.89
623.523	20245.23
623.879	20349.86
624.234	20200.26
624.589	20255.63
624.945	20196.42
625.3	20371.1
625.655	20301.95
626.01	20341.73
626.365	20303.08
626.72	20272.8
627.075	20247.04
627.43	20272.57
627.785	20200.71
628.14	20209.98
628.495	20156.42
628.85	20267.6
629.205	20062.64
629.559	20266.47
629.914	20095.86
630.269	20160.71
630.623	20129.3
630.978	20130.43
631.332	20105.57
631.687	20181.5
632.041	20050.66
632.396	20169.07
632.75	20050.89
633.104	20071
633.459	20044.56
633.813	20027.83
634.167	19928.4
634.521	19999.36
634.875	20115.97
635.229	19937.44
635.583	19904.45
635.937	19908.29
636.291	19911.91
636.645	19854.96
636.999	19760.05
637.352	19786.94
637.706	19747.84
638.06	19813.83
638.413	19772.47
638.767	19705.58
639.121	19710.78
639.474	19614.74
639.828	19599.37
640.181	19735.87
640.534	19648.41
640.888	19610.44
641.241	19520.73
641.594	19676.88
641.947	19590.33
642.301	19624.91
642.654	19601.41
643.007	19573.84
643.36	19695.87
643.713	19517.57
644.066	19527.06
644.419	19479.6
644.771	19340.62
645.124	19160.06
645.477	19106.96
645.83	19031.48
646.182	18956.9
646.535	18883.91
646.888	18903.57
647.24	18843.91
647.593	18974.53
647.945	18811.6
648.298	18761.88
648.65	18690.47
649.002	18721.88
649.355	18827.19
649.707	18778.15
650.059	18863.57
650.411	19061.76
650.763	19105.83
651.115	19269.66
651.467	19218.82
651.819	19227.4
652.171	19181.3
652.523	19137.01
652.875	19211.81
653.227	19228.76
653.578	19277.35
653.93	19163.68
654.282	19129.33
654.633	19156.22
654.985	19178.82
655.337	19287.06
655.688	19272.6
656.039	19208.42
656.391	19172.26
656.742	19083.68
657.094	19073.28
657.445	19269.66
657.796	19235.54
658.147	19124.13
658.498	19147.63
658.849	19206.61
659.2	19224.69
659.551	19111.47
659.902	19281.64
660.253	19175.65
660.604	19221.53
660.955	19187.86
661.306	19176.33
661.656	19141.98
662.007	19232.15
662.358	19167.97
662.708	19174.07
663.059	19266.95
663.409	19145.15
663.76	19187.18
664.11	19149.44
664.461	19222.21
664.811	19300.85
665.161	19162.77
665.511	19241.19
665.862	19153.73
666.212	19182.89
666.562	19226.73
666.912	19200.29
667.262	19246.16
667.612	19343.33
667.962	19232.83
668.312	19155.09
668.662	19339.94
669.011	19183.56
669.361	19172.04
669.711	19165.26
670.06	19133.4
670.41	19131.81
670.76	19004.36
671.109	19279.38
671.459	19164.35
671.808	19134.98
672.157	19170.46
672.507	19013.17
672.856	19048.88
673.205	19106.05
673.554	19161.42
673.904	19045.26
674.253	19150.34
674.602	19119.16
674.951	18788.77
675.3	18701.09
675.649	18962.78
675.998	18997.35
676.346	18910.12
676.695	19014.75
677.044	18792.16
677.393	18848.66
677.741	18946.06
678.09	18892.27
678.438	18747.19
678.787	18788.32
679.135	18745.83
679.484	18702.45
679.832	18760.75
680.181	18631.26
680.529	18671.03
680.877	18648.44
681.225	18674.88
681.573	18760.3
681.922	18598.04
682.27	18529.57
682.618	18478.05
682.966	18446.63
683.314	18479.18
683.661	18499.74
684.009	18304.49
684.357	18293.87
684.705	18301.1
685.053	18286.64
685.4	18210.71
685.748	18158.51
686.095	18119.18
686.443	18032.18
686.79	18032.18
687.138	18081.9
687.485	18053.88
687.832	18030.6
688.18	17996.7
688.527	17851.17
688.874	17905.4
689.221	17840.77
689.568	17732.75
689.915	17828.57
690.262	17740.89
690.609	17627.67
690.956	17682.13
691.303	17504.74
691.65	17545.19
691.997	17470.39
692.344	17356.27
692.69	17325.99
693.037	17379.99
693.383	17237.4
693.73	17249.15
694.077	17125.54
694.423	17107.69
694.769	16951.76
695.116	16903.17
695.462	16931.87
695.808	16879.44
696.155	16934.58
696.501	16713.8
696.847	16660.92
697.193	16579.56
697.539	16636.96
697.885	16519.45
698.231	16468.61
698.577	16370.76
698.923	16437.42
699.269	16267.93
699.614	16216.86
699.96	16140.93
700.306	16136.19
700.651	16116.3
700.997	16030.43
701.342	16056.64
701.688	15909.75
702.033	15892.12
702.379	15906.14
702.724	15770.55
703.069	15902.97
703.415	15689.64
703.76	15574.62
704.105	15697.1
704.45	15585.47
704.795	15478.35
705.14	15344.34
705.485	15486.71
705.83	15396.09
706.175	15389.09
706.52	15269.09
706.865	15195.65
707.209	15202.65
707.554	15155.42
707.899	15154.29
708.243	15049.89
708.588	15090.11
708.932	14980.96
709.277	14892.83
709.621	14914.07
709.966	14763.57
710.31	14863.45
710.654	14730.12
710.998	14751.82
711.342	14729.9
711.687	14682.89
712.031	14644.93
712.375	14604.02
712.719	14484.48
713.063	14449.22
713.407	14595.89
713.75	14512.27
714.094	14404.03
714.438	14359.74
714.782	14363.35
715.125	14289.68
715.469	14273.41
715.812	14211.26
716.156	14236.8
716.499	14251.26
716.843	14207.88
717.186	14144.15
717.53	14176.92
717.873	14116.8
718.216	14123.13
718.559	14041.78
718.902	13985.96
719.246	14085.84
719.589	13956.13
719.932	13917.26
720.275	14055.79
720.617	13992.51
720.96	13850.14
721.303	13844.04
721.646	13946.41
721.989	13842.23
722.331	13894.66
722.674	13831.16
723.016	13786.87
723.359	13792.97
723.701	13833.87
724.044	13756.14
724.386	13664.61
724.729	13738.51
725.071	13743.71
725.413	13701.22
725.755	13722.46
726.097	13639.08
726.439	13621.22
726.782	13613.54
727.124	13731.96
727.465	13563.15
727.807	13632.52
728.149	13593.65
728.491	13534.45
728.833	13585.97
729.175	13530.6
729.516	13525.86
729.858	13559.98
730.199	13569.47
730.541	13581
730.882	13504.39
731.224	13532.86
731.565	13429.82
731.906	13479.08
732.248	13510.27
732.589	13360.89
732.93	13319.08
733.271	13444.96
733.612	13359.08
733.953	13457.84
734.294	13398.18
734.635	13390.72
734.976	13416.03
735.317	13365.19
735.658	13428.91
735.999	13347.78
736.339	13431.62
736.68	13418.29
737.021	13461
737.361	13312.98
737.702	13426.65
738.042	13347.11
738.383	13413.55
738.723	13367.9
739.063	13378.52
739.404	13379.65
739.744	13388.69
740.084	13317.5
740.424	13327.22
740.764	13395.24
741.104	13484.96
741.444	13428.01
741.784	13326.09
742.124	13462.81
742.464	13506.88
742.804	13542.81
743.143	13480.66
743.483	13488.57
743.823	13512.98
744.162	13498.29
744.502	13618.06
744.841	13546.65
745.181	13560.21
745.52	13643.14
745.86	13739.64
746.199	13647.21
746.538	13772.18
746.877	13817.15
747.216	13917.04
747.556	13808.11
747.895	13893.08
748.234	13919.97
748.573	13970.59
748.911	13990.71
749.25	14050.37
749.589	14094.21
749.928	14110.7
750.267	14278.38
750.605	14263.47
750.944	14346.63
751.283	14415.55
751.621	14528.09
751.96	14545.49
752.298	14602.89
752.636	14725.6
752.975	14765.15
753.313	14818.25
753.651	14998.81
753.989	14978.48
754.327	15152.03
754.666	15185.7
755.004	15347.73
755.342	15488.97
755.679	15515.41
756.017	15592.7
756.355	15674.73
