Data from hue_26_FLMS001491_00084.txt Node
Date: Tue Feb 07 17:14:41 GMT 2017
User: dcchb
Spectrometer: FLMS00149
Trigger mode: 0
Integration Time (sec): 2.000000E-2
Scans to average: 10
Electric dark correction enabled: true
Nonlinearity correction enabled: false
Boxcar width: 0
XAxis mode: Wavelengths
Number of Pixels in Spectrum: 2048
>>>>>Begin Spectral Data<<<<<
341.393	-7.54
341.776	-7.54
342.16	-7.54
342.543	-54.55
342.927	-77.82
343.31	-66.75
343.693	-76.47
344.077	-59.97
344.46	-58.39
344.843	-69.91
345.226	-42.57
345.61	-38.05
345.993	-7.32
346.376	13.02
346.759	10.99
347.142	15.96
347.525	20.71
347.908	66.81
348.291	83.75
348.674	95.05
349.057	113.13
349.44	137.31
349.823	121.95
350.206	154.26
350.588	192.68
350.971	200.59
351.354	217.76
351.737	230.19
352.119	238.33
352.502	244.2
352.884	273.58
353.267	281.26
353.65	307.03
354.032	299.12
354.414	316.07
354.797	319.91
355.179	334.14
355.562	340.47
355.944	331.66
356.326	323.75
356.709	328.04
357.091	326.91
357.473	323.75
357.855	346.8
358.238	350.87
358.62	357.87
359.002	331.88
359.384	350.19
359.766	314.71
360.148	337.08
360.53	329.62
360.912	346.8
361.294	324.88
361.676	347.93
362.057	326.69
362.439	324.65
362.821	346.57
363.203	327.36
363.584	325.1
363.966	323.52
364.348	338.44
364.729	310.42
365.111	328.72
365.493	330.53
365.874	313.58
366.256	296.18
366.637	306.35
367.019	309.74
367.4	328.95
367.781	319.68
368.163	311.09
368.544	303.86
368.925	302.96
369.306	309.06
369.688	314.94
370.069	315.61
370.45	311.09
370.831	308.38
371.212	326.69
371.593	297.08
371.974	313.13
372.355	322.62
372.736	297.53
373.117	316.97
373.498	316.52
373.879	325.1
374.26	333.47
374.641	309.51
375.021	319.23
375.402	322.39
375.783	304.31
376.163	320.58
376.544	326.23
376.925	321.49
377.305	308.61
377.686	302.05
378.066	319.23
378.447	327.14
378.827	325.1
379.208	331.43
379.588	345.89
379.968	354.71
380.349	344.54
380.729	360.58
381.109	332.11
381.489	352.67
381.87	357.19
382.25	346.57
382.63	332.34
383.01	348.61
383.39	339.79
383.77	355.39
384.15	344.54
384.53	331.21
384.91	350.87
385.29	351.54
385.67	359.45
386.049	364.43
386.429	356.06
386.809	353.8
387.189	359.23
387.568	329.85
387.948	335.95
388.328	365.78
388.707	369.62
389.087	359.91
389.466	376.85
389.846	355.16
390.225	358.1
390.605	371.88
390.984	337.53
391.363	377.76
391.743	362.39
392.122	359.68
392.501	372.33
392.881	389.51
393.26	392.22
393.639	371.2
394.018	348.15
394.397	372.33
394.776	375.5
395.155	393.35
395.534	404.2
395.913	379.11
396.292	373.01
396.671	365.33
397.05	385.89
397.429	398.1
397.808	375.72
398.186	380.92
398.565	377.76
398.944	379.57
399.323	370.08
399.701	392
400.08	368.27
400.458	400.81
400.837	403.52
401.215	386.8
401.594	390.87
401.972	388.38
402.351	396.97
402.729	423.41
403.107	422.73
403.486	415.72
403.864	406.46
404.242	426.57
404.62	424.31
404.999	425.21
405.377	420.24
405.755	420.02
406.133	431.99
406.511	428.38
406.889	435.61
407.267	416.4
407.645	439.23
408.023	444.88
408.401	434.25
408.779	441.49
409.156	444.42
409.534	444.2
409.912	437.42
410.29	432.67
410.667	447.59
411.045	450.07
411.422	449.17
411.8	444.88
412.178	467.47
412.555	464.31
412.933	467.25
413.31	452.11
413.687	465.89
414.065	467.02
414.442	486.68
414.819	471.32
415.197	478.32
415.574	481.03
415.951	479.9
416.328	469.28
416.705	462.95
417.082	482.61
417.46	488.94
417.837	491.65
418.214	501.6
418.591	509.73
418.967	495.95
419.344	494.82
419.721	519.9
420.098	511.09
420.475	494.14
420.852	509.51
421.228	501.37
421.605	513.35
421.982	519.9
422.358	529.84
422.735	547.92
423.111	542.73
423.488	530.97
423.864	537.08
424.241	524.65
424.617	542.27
424.994	532.78
425.37	540.47
425.746	533.46
426.123	561.48
426.499	554.48
426.875	549.05
427.251	566
427.627	563.06
428.003	566.91
428.379	584.98
428.756	573.69
429.132	603.29
429.507	572.33
429.883	602.16
430.259	605.55
430.635	587.47
431.011	608.49
431.387	592.22
431.763	614.36
432.138	616.4
432.514	625.89
432.89	639.45
433.265	639.22
433.641	627.7
434.016	649.62
434.392	625.21
434.767	648.49
435.143	658.65
435.518	656.17
435.894	662.5
436.269	648.71
436.644	658.88
437.02	671.76
437.395	684.42
437.77	688.26
438.145	685.55
438.52	681.48
438.895	716.05
439.271	710.86
439.646	739.1
440.021	705.66
440.395	729.61
440.77	724.19
441.145	729.16
441.52	714.7
441.895	728.94
442.27	742.27
442.645	742.04
443.019	735.72
443.394	754.7
443.769	730.97
444.143	733.91
444.518	766.9
444.892	747.92
445.267	743.17
445.641	784.98
446.016	738.43
446.39	775.71
446.764	774.36
447.139	764.87
447.513	784.53
447.887	788.37
448.262	767.8
448.636	786.11
449.01	805.77
449.384	803.51
449.758	815.71
450.132	821.36
450.506	824.3
450.88	820.46
451.254	864.98
451.628	868.37
452.002	856.62
452.376	870.85
452.75	852.32
453.123	866.56
453.497	876.5
453.871	869.04
454.244	876.73
454.618	886.22
454.992	904.98
455.365	897.29
455.739	920.34
456.112	921.92
456.486	949.72
456.859	952.88
457.232	963.28
457.606	952.21
457.979	982.71
458.352	966.9
458.725	991.53
459.099	988.59
459.472	1016.61
459.845	1007.57
460.218	1004.63
460.591	1014.13
460.964	1050.96
461.337	1043.96
461.71	1059.55
462.083	1058.87
462.456	1081.69
462.829	1066.33
463.201	1118.76
463.574	1117.85
463.947	1106.1
464.32	1149.49
464.692	1160.11
465.065	1157.85
465.438	1161.69
465.81	1194.69
466.183	1210.28
466.555	1222.03
466.928	1236.04
467.3	1260.9
467.672	1267.23
468.045	1241.24
468.417	1296.38
468.789	1299.99
469.161	1298.86
469.534	1323.27
469.906	1350.61
470.278	1362.82
470.65	1390.84
471.022	1390.61
471.394	1435.58
471.766	1425.87
472.138	1448.46
472.51	1500.44
472.882	1509.25
473.253	1539.08
473.625	1544.28
473.997	1577.95
474.369	1577.27
474.74	1617.27
475.112	1612.75
475.484	1639.65
475.855	1671.28
476.227	1731.62
476.598	1746.54
476.97	1800.32
477.341	1807.1
477.713	1867.66
478.084	1866.98
478.455	1911.05
478.827	1924.16
479.198	1981.56
479.569	1988.56
479.94	2076.47
480.311	2083.48
480.682	2128.9
481.053	2204.38
481.424	2221.1
481.795	2237.14
482.166	2287.76
482.537	2322.34
482.908	2397.82
483.279	2392.62
483.65	2453.18
484.021	2513.07
484.391	2591.94
484.762	2645.5
485.133	2644.59
485.503	2701.77
485.874	2730.24
486.244	2806.4
486.615	2830.12
486.985	2843.68
487.356	2913.96
487.726	2946.5
488.097	3053.85
488.467	3076.67
488.837	3161.64
489.207	3174.52
489.578	3235.31
489.948	3238.93
490.318	3327.96
490.688	3372.48
491.058	3417
491.428	3436.21
491.798	3518.69
492.168	3596.2
492.538	3612.02
492.908	3685.47
493.278	3704.68
493.648	3727.27
494.017	3800.27
494.387	3816.31
494.757	3882.75
495.126	3912.58
495.496	3960.49
495.866	3950.32
496.235	4018.79
496.605	4074.84
496.974	4141.73
497.344	4139.47
497.713	4191.44
498.082	4239.8
498.452	4283.87
498.821	4338.11
499.19	4340.14
499.559	4343.98
499.928	4400.48
500.298	4415.39
500.667	4484.32
501.036	4501.04
501.405	4550.3
501.774	4543.52
502.143	4604.54
502.512	4593.24
502.88	4656.52
503.249	4662.17
503.618	4748.72
503.987	4719.57
504.356	4744.65
504.724	4740.58
505.093	4782.39
505.462	4832.33
505.83	4870.3
506.199	4921.82
506.567	4934.7
506.936	4935.15
507.304	4982.84
507.672	5004.98
508.041	5044.75
508.409	5100.12
508.777	5124.07
509.145	5110.06
509.514	5175.15
509.882	5193.45
510.25	5180.8
510.618	5263.96
510.986	5270.74
511.354	5252.43
511.722	5311.87
512.09	5324.3
512.458	5356.38
512.826	5353.9
513.193	5369.72
513.561	5425.31
513.929	5497.17
514.297	5530.84
514.664	5581.46
515.032	5502.82
515.4	5546.89
515.767	5624.85
516.135	5649.71
516.502	5573.78
516.869	5694
517.237	5710.73
517.604	5651.29
517.972	5737.39
518.339	5777.62
518.706	5748.69
519.073	5820.33
519.44	5827.33
519.808	5877.73
520.175	5816.49
520.542	5865.07
520.909	5969.48
521.276	5966.54
521.643	6017.16
522.009	6032.3
522.376	6062.35
522.743	6052.86
523.11	6113.43
523.477	6132.41
523.843	6166.98
524.21	6215.8
524.577	6268.45
524.943	6352.74
525.31	6342.8
525.676	6353.87
526.043	6457.15
526.409	6417.37
526.776	6463.25
527.142	6477.26
527.508	6540.31
527.874	6576.69
528.241	6630.93
528.607	6616.92
528.973	6677.71
529.339	6679.97
529.705	6758.38
530.071	6825.95
530.437	6819.62
530.803	6828.66
531.169	6844.71
531.535	6886.51
531.901	6875.89
532.267	6884.03
532.632	6983.23
532.998	6985.04
533.364	7030.69
533.73	7062.33
534.095	7141.42
534.461	7123.8
534.826	7231.82
535.192	7238.82
535.557	7214.19
535.923	7255.32
536.288	7252.15
536.653	7348.65
537.019	7302.55
537.384	7376.22
537.749	7396.33
538.114	7379.61
538.479	7418.48
538.845	7455.31
539.21	7499.61
539.575	7510.68
539.94	7557.91
540.305	7611.47
540.67	7608.3
541.034	7657.79
541.399	7673.61
541.764	7695.53
542.129	7724.46
542.494	7762.42
542.858	7826.15
543.223	7815.53
543.587	7858.69
543.952	7839.26
544.316	7911.35
544.681	7947.5
545.045	7983.21
545.41	8049.2
545.774	8027.05
546.138	8036.09
546.503	8134.62
546.867	8091.68
547.231	8189.76
547.595	8140.27
547.959	8208.96
548.324	8198.34
548.688	8265.91
549.052	8312.92
549.416	8313.59
549.779	8375.74
550.143	8356.98
550.507	8437.43
550.871	8495.51
551.235	8436.08
551.599	8511.33
551.962	8547.49
552.326	8589.52
552.689	8620.48
553.053	8550.88
553.417	8613.93
553.78	8691.21
554.143	8689.4
554.507	8655.05
554.87	8731.89
555.234	8843.52
555.597	8810.76
555.96	8809.4
556.323	8829.97
556.686	8905.9
557.05	8917.65
557.413	8878.78
557.776	8996.74
558.139	9048.94
558.502	9050.98
558.865	9046.91
559.228	9148.6
559.59	9195.38
559.953	9089.39
560.316	9274.93
560.679	9259.11
561.041	9340.01
561.404	9356.05
561.767	9414.13
562.129	9318.77
562.492	9412.55
562.854	9385.43
563.217	9453.68
563.579	9463.4
563.941	9419.1
564.304	9535.03
564.666	9584.97
565.028	9622.04
565.39	9623.62
565.753	9643.96
566.115	9737.74
566.477	9842.82
566.839	9829.26
567.201	9865.64
567.563	9854.35
567.925	9970.73
568.287	9922.59
568.648	9966.66
569.01	9996.71
569.372	10069.48
569.734	10085.07
570.095	10116.26
570.457	10172.76
570.819	10280.1
571.18	10242.58
571.542	10365.07
571.903	10351.51
572.265	10349.93
572.626	10448
572.987	10473.31
573.349	10511.28
573.71	10596.92
574.071	10699.75
574.432	10694.78
574.794	10846.18
575.155	10810.48
575.516	10872.17
575.877	10930.25
576.238	10990.36
576.599	11156.91
576.96	11208.43
577.32	11256.57
577.681	11356.9
578.042	11475.55
578.403	11502.21
578.763	11626.05
579.124	11642.32
579.485	11860.17
579.845	12054.74
580.206	12053.61
580.566	12124.57
580.927	12253.38
581.287	12412.7
581.648	12505.12
582.008	12683.42
582.368	12789.18
582.728	12984.66
583.089	13139
583.449	13294.25
583.809	13374.03
584.169	13625.32
584.529	13765.43
584.889	14017.85
585.249	14173.55
585.609	14277.28
585.969	14595.24
586.329	14792.07
586.688	14995.91
587.048	15152.51
587.408	15459.85
587.768	15650.8
588.127	15826.84
588.487	16100.73
588.846	16459.82
589.206	16589.99
589.565	16865.01
589.925	17221.84
590.284	17340.02
590.643	17639.23
591.003	17923.96
591.362	18258.19
591.721	18449.37
592.08	18724.85
592.44	19107.44
592.799	19375
593.158	19594.88
593.517	19801.2
593.876	20273.96
594.235	20519.83
594.593	20794.4
594.952	21131.56
595.311	21227.15
595.67	21686.12
596.029	22154.81
596.387	22449.95
596.746	22777.17
597.104	22936.94
597.463	23271.62
597.822	23649.91
598.18	23784.83
598.538	24125.83
598.897	24527.86
599.255	24594.3
599.613	25213.49
599.972	25316.31
600.33	25753.81
600.688	25840.59
601.046	26277.19
601.404	26715.6
601.762	26859.77
602.12	27275.81
602.478	27593.99
602.836	27866.08
603.194	27950.82
603.552	28285.27
603.91	28471.93
604.268	28899.27
604.625	29081.64
604.983	29312.36
605.341	29497.44
605.698	29892.91
606.056	30215.17
606.413	30462.39
606.771	30590.98
607.128	30996.61
607.485	31070.96
607.843	31290.17
608.2	31856.03
608.557	32059.41
608.914	32149.58
609.272	32372.4
609.629	32639.96
609.986	33073.17
610.343	33078.59
610.7	33549.99
611.057	33588.86
611.414	33745.24
611.771	33871.79
612.127	34259.13
612.484	34336.64
612.841	34665.9
613.198	34709.29
613.554	34968.94
613.911	35211.42
614.267	35413.67
614.624	35554.91
614.98	35711.52
615.337	36099.53
615.693	36192.41
616.05	36121.68
616.406	36387.66
616.762	36540.65
617.118	36771.15
617.475	36832.17
617.831	37112.39
618.187	37177.47
618.543	37316.22
618.899	37703.33
619.255	37762.99
619.611	37758.92
619.967	38100.16
620.323	38169.08
620.678	38088.86
621.034	38056.77
621.39	38333.37
621.746	38247.05
622.101	38889.51
622.457	38641.84
622.812	38908.5
623.168	38971.77
623.523	39078.44
623.879	39268.71
624.234	39058.55
624.589	39431.42
624.945	39558.2
625.3	39631.19
625.655	39648.14
626.01	39736.72
626.365	39823.5
626.72	39755.93
627.075	39885.19
627.43	40026.66
627.785	39825.31
628.14	40023.95
628.495	40178.29
628.85	40164.28
629.205	39968.36
629.559	40358.18
629.914	40335.35
630.269	40319.08
630.623	40360.66
630.978	40290.83
631.332	40458.96
631.687	40575.57
632.041	40477.95
632.396	40577.38
632.75	40549.13
633.104	40576.02
633.459	40539.64
633.813	40487.89
634.167	40490.83
634.521	40583.93
634.875	40611.95
635.229	40576.7
635.583	40465.52
635.937	40435.01
636.291	40388.68
636.645	40548.91
636.999	40543.03
637.352	40604.5
637.706	40484.05
638.06	40624.38
638.413	40510.71
638.767	40483.6
639.121	40571.73
639.474	40250.38
639.828	40360.44
640.181	40572.86
640.534	40429.36
640.888	40412.86
641.241	40316.82
641.594	40508
641.947	40573.54
642.301	40472.52
642.654	40548.68
643.007	40454.44
643.36	40509.58
643.713	40396.82
644.066	40739.64
644.419	40234.11
644.771	40151.63
645.124	39686.78
645.477	39655.6
645.83	39499.44
646.182	39409.73
646.535	39318.66
646.888	39365.43
647.24	39050.19
647.593	39325.21
647.945	39364.08
648.298	39092.22
648.65	39079.57
649.002	39081.6
649.355	39173.57
649.707	39147.13
650.059	39388.03
650.411	39760.23
650.763	39793.9
651.115	40218.52
651.467	40073.44
651.819	40145.75
652.171	39995.02
652.523	39865.76
652.875	39974.23
653.227	39674.35
653.578	40109.6
653.93	39876.38
654.282	39837.29
654.633	39764.07
654.985	39901.01
655.337	39922.26
655.688	39905.76
656.039	39983.95
656.391	39678.19
656.742	39882.26
657.094	39806.33
657.445	40024.4
657.796	39822.15
658.147	39815.37
658.498	39776.04
658.849	39808.81
659.2	39574.92
659.551	39630.29
659.902	39873.44
660.253	39750.96
660.604	39771.3
660.955	39650.17
661.306	39809.26
661.656	39704.41
662.007	39684.52
662.358	39652.88
662.708	39647.01
663.059	39681.58
663.409	39511.87
663.76	39821.47
664.11	39815.82
664.461	39717.29
664.811	39597.07
665.161	39693.33
665.511	39728.14
665.862	39613.34
666.212	39643.39
666.562	39589.61
666.912	39695.59
667.262	39583.28
667.612	39650.85
667.962	39604.98
668.312	39483.62
668.662	39716.84
669.011	39625.54
669.361	39481.81
669.711	39428.94
670.06	39416.73
670.41	39435.71
670.76	39430.52
671.109	39589.83
671.459	39461.02
671.808	39410.86
672.157	39650.17
672.507	39200.01
672.856	39204.31
673.205	39224.19
673.554	39602.04
673.904	39294.93
674.253	39492.44
674.602	39400.46
674.951	38823.75
675.3	38776.07
675.649	39358.2
675.998	39182.39
676.346	39240.92
676.695	39422.83
677.044	39132.45
677.393	39250.41
677.741	39261.26
678.09	38975.16
678.438	39100.13
678.787	39019.45
679.135	39075.05
679.484	39023.75
679.832	38891.32
680.181	38800.48
680.529	38957.53
680.877	38670.31
681.225	38716.41
681.573	38993.92
681.922	38677.09
682.27	38479.81
682.618	38584.44
682.966	38583.31
683.314	38505.8
683.661	38429.41
684.009	38109.87
684.357	38322.07
684.705	38193.94
685.053	38232.13
685.4	38123.88
685.748	37838.02
686.095	38099.93
686.443	37844.8
686.79	37884.57
687.138	37910.78
687.485	37831.91
687.832	37807.96
688.18	37677.34
688.527	37588.98
688.874	37625.59
689.221	37525.48
689.568	37348.09
689.915	37379.95
690.262	37322.32
690.609	37241.2
690.956	36965.95
691.303	37119.39
691.65	36925.27
691.997	36964.59
692.344	36748.78
692.69	36704.26
693.037	36705.62
693.383	36464.72
693.73	36500.42
694.077	36303.82
694.423	36416.58
694.769	36172.75
695.116	36211.17
695.462	36055.24
695.808	35911.06
696.155	36062.47
696.501	35778.18
696.847	35918.97
697.193	35443.5
697.539	35639.43
697.885	35332.55
698.231	35279.21
698.577	35304.75
698.923	35173.23
699.269	35122.61
699.614	34844.2
699.96	34795.84
700.306	34876.29
700.651	34819.79
700.997	34658.21
701.342	34524.66
701.688	34534.15
702.033	34368.96
702.379	34448.73
702.724	34267.49
703.069	34476.97
703.415	33965.58
703.76	34066.82
704.105	34025.69
704.45	33930.55
704.795	33625.02
705.14	33671.8
705.485	33627.73
705.83	33470
706.175	33575.76
706.52	33507.06
706.865	33271.58
707.209	33271.81
707.554	33129.89
707.899	33240.62
708.243	33065.26
708.588	32853.06
708.932	32797.24
709.277	32750.24
709.621	32766.51
709.966	32572.17
710.31	32539.62
710.654	32290.14
710.998	32377.37
711.342	32504.82
711.687	32319.29
712.031	32223.02
712.375	32127.21
712.719	32144.61
713.063	32075.91
713.407	32181.22
713.75	31922.01
714.094	32025.29
714.438	31887.89
714.782	31870.94
715.125	31702.81
715.469	31814.9
715.812	31560.22
716.156	31451.52
716.499	31513.66
716.843	31493.32
717.186	31280.67
717.53	31496.94
717.873	31403.84
718.216	31366.32
718.559	31211.3
718.902	31007.01
719.246	31189.38
719.589	31067.35
719.932	30779.44
720.275	30851.31
720.617	30768.6
720.96	30703.97
721.303	30768.6
721.646	30693.35
721.989	30435.73
722.331	30619.22
722.674	30586
723.016	30553.01
723.359	30553.01
723.701	30591.65
724.044	30270.98
724.386	30187.6
724.729	30373.35
725.071	30174.49
725.413	30141.95
725.755	30113.7
726.097	30035.28
726.439	29891.11
726.782	29934.27
727.124	30022.4
727.465	29829.87
727.807	29760.49
728.149	29894.72
728.491	29709.87
728.833	29785.35
729.175	29578.12
729.516	29562.75
729.858	29681.17
730.199	29507.16
730.541	29529.31
730.882	29489.54
731.224	29572.25
731.565	29360.05
731.906	29289.77
732.248	29358.69
732.589	29224.23
732.93	29116.89
733.271	29204.8
733.612	29284.57
733.953	29165.7
734.294	29068.08
734.635	29020.4
734.976	29081.41
735.317	28847.29
735.658	28959.83
735.999	28851.36
736.339	28769.78
736.68	28898.36
737.021	28809.33
737.361	28700.86
737.702	28643.68
738.042	28624.7
738.383	28543.8
738.723	28703.79
739.063	28516
739.404	28517.58
739.744	28426.51
740.084	28293.18
740.424	28358.72
740.764	28325.27
741.104	28443.69
741.444	28191.26
741.784	28224.48
742.124	28098.84
742.464	28087.54
742.804	28160.76
743.143	28016.35
743.483	28083.24
743.823	27823.14
744.162	27876.24
744.502	28067.43
744.841	27692.97
745.181	27904.04
745.52	27826.3
745.86	27741.78
746.199	27761.9
746.538	27798.28
746.877	27850.03
747.216	27737.72
747.556	27572.07
747.895	27635.12
748.234	27490.72
748.573	27469.02
748.911	27383.38
749.25	27455.01
749.589	27334.34
749.928	27359.87
750.267	27408.01
750.605	27303.83
750.944	27296.6
751.283	27139.09
751.621	27149.03
751.96	27047.34
752.298	27150.39
752.636	26935.48
752.975	26841.02
753.313	26832.66
753.651	26789.95
753.989	26758.53
754.327	26715.82
754.666	26564.87
755.004	26670.63
755.342	26653.45
755.679	26529.61
756.017	26455.26
756.355	26346.34
756.693	26358.09
757.031	26416.85
757.368	26145.22
757.706	26153.35
758.044	26115.16
758.381	26123.97
758.719	25937.31
759.056	26108.38
759.394	25911.78
759.731	25840.59
760.068	25708.39
