Data from hue_300_FLMS001491_00059.txt Node
Date: Tue Feb 07 15:50:56 GMT 2017
User: dcchb
Spectrometer: FLMS00149
Trigger mode: 0
Integration Time (sec): 2.000000E-2
Scans to average: 10
Electric dark correction enabled: true
Nonlinearity correction enabled: false
Boxcar width: 0
XAxis mode: Wavelengths
Number of Pixels in Spectrum: 2048
>>>>>Begin Spectral Data<<<<<
341.393	-19.21
341.776	-19.21
342.16	-19.21
342.543	-83.84
342.927	-63.28
343.31	-57.4
343.693	-57.85
344.077	-66.66
344.46	-57.63
344.843	-47
345.226	-36.38
345.61	-46.55
345.993	-34.8
346.376	-16.72
346.759	-3.39
347.142	7.23
347.525	50.62
347.908	54.69
348.291	84.74
348.674	109.6
349.057	117.51
349.44	115.48
349.823	126.1
350.206	170.17
350.588	198.19
350.971	202.71
351.354	199.77
351.737	239.54
352.119	230.95
352.502	277.51
352.884	282.48
353.267	278.18
353.65	288.13
354.032	282.93
354.414	313.44
354.797	305.98
355.179	310.5
355.562	325.64
355.944	315.7
356.326	308.69
356.709	338.07
357.091	314.57
357.473	325.19
357.855	339.65
358.238	345.3
358.62	347.11
359.002	345.53
359.384	322.25
359.766	334.45
360.148	324.51
360.53	328.13
360.912	307.11
361.294	324.29
361.676	338.07
362.057	332.19
362.439	337.39
362.821	322.48
363.203	322.7
363.584	340.56
363.966	334.23
364.348	314.57
364.729	317.51
365.111	323.61
365.493	322.25
365.874	321.8
366.256	313.66
366.637	304.4
367.019	311.4
367.4	340.1
367.781	314.34
368.163	327.9
368.544	305.53
368.925	296.26
369.306	304.17
369.688	310.95
370.069	319.31
370.45	328.58
370.831	320.67
371.212	303.72
371.593	301.24
371.974	325.19
372.355	307.56
372.736	319.77
373.117	312.08
373.498	331.74
373.879	318.86
374.26	323.16
374.641	312.53
375.021	336.26
375.402	314.34
375.783	310.95
376.163	323.38
376.544	312.76
376.925	322.7
377.305	327.45
377.686	334.45
378.066	322.03
378.447	342.36
378.827	306.21
379.208	323.16
379.588	310.05
379.968	339.43
380.349	329.26
380.729	308.69
381.109	350.5
381.489	337.84
381.87	333.1
382.25	329.71
382.63	352.53
383.01	348.01
383.39	349.37
383.77	346.21
384.15	343.04
384.53	340.78
384.91	343.49
385.29	344.62
385.67	326.09
386.049	343.72
386.429	345.75
386.809	361.8
387.189	344.4
387.568	357.96
387.948	343.04
388.328	350.27
388.707	361.57
389.087	362.25
389.466	370.61
389.846	345.08
390.225	365.87
390.605	354.57
390.984	368.35
391.363	384.85
391.743	362.02
392.122	370.39
392.501	356.37
392.881	368.13
393.26	365.41
393.639	367.9
394.018	375.13
394.397	376.04
394.776	378.3
395.155	364.51
395.534	380.55
395.913	396.6
396.292	394.57
396.671	388.01
397.05	407.45
397.429	410.38
397.808	399.31
398.186	395.92
398.565	390.72
398.944	424.4
399.323	408.58
399.701	414.23
400.08	419.42
400.458	443.83
400.837	411.06
401.215	406.77
401.594	419.2
401.972	404.51
402.351	418.97
402.729	426.2
403.107	427.79
403.486	446.09
403.864	430.95
404.242	445.64
404.62	441.57
404.999	426.2
405.377	461.68
405.755	464.39
406.133	460.33
406.511	468.24
406.889	464.62
407.267	461
407.645	467.56
408.023	469.82
408.401	475.24
408.779	465.3
409.156	491.51
409.534	506.88
409.912	497.61
410.29	511.62
410.667	529.93
411.045	526.09
411.422	532.87
411.8	535.35
412.178	545.07
412.555	559.53
412.933	566.99
413.31	574
413.687	572.64
414.065	583.94
414.442	592.53
414.819	605.18
415.197	568.57
415.574	589.82
415.951	611.06
416.328	593.43
416.705	641.79
417.082	650.15
417.46	646.99
417.837	651.51
418.214	664.39
418.591	679.3
418.967	685.41
419.344	700.32
419.721	694.45
420.098	688.57
420.475	699.42
420.852	724.73
421.228	717.95
421.605	750.49
421.982	748.23
422.358	765.63
422.735	774.89
423.111	778.06
423.488	778.06
423.864	789.36
424.241	796.14
424.617	779.41
424.994	847.21
425.37	803.14
425.746	819.87
426.123	833.42
426.499	868.23
426.875	863.25
427.251	848.57
427.627	906.64
428.003	892.18
428.379	905.06
428.756	900.54
429.132	922.69
429.507	956.59
429.883	961.56
430.259	954.33
430.635	967.21
431.011	967.88
431.387	966.08
431.763	1006.98
432.138	1012.63
432.514	1013.08
432.89	1016.24
433.265	1035.68
433.641	1053.53
434.016	1073.87
434.392	1099.63
434.767	1113.42
435.143	1096.24
435.518	1101.44
435.894	1114.77
436.269	1122.91
436.644	1137.37
437.02	1133.98
437.395	1154.32
437.77	1139.63
438.145	1213.3
438.52	1215.56
438.895	1204.49
439.271	1231.38
439.646	1231.38
440.021	1237.71
440.395	1263.02
440.77	1237.71
441.145	1263.7
441.52	1267.09
441.895	1270.48
442.27	1259.18
442.645	1259.63
443.019	1288.1
443.394	1298.95
443.769	1313.64
444.143	1283.36
444.518	1308.67
444.892	1308.44
445.267	1312.51
445.641	1322.9
446.016	1320.87
446.39	1334.2
446.764	1309.34
447.139	1339.63
447.513	1369.23
447.887	1331.72
448.262	1365.39
448.636	1341.66
449.01	1362.9
449.384	1385.27
449.758	1379.62
450.132	1401.09
450.506	1385.05
450.88	1416.46
451.254	1368.33
451.628	1370.59
452.002	1421.43
452.376	1405.61
452.75	1434.99
453.123	1435.44
453.497	1462.56
453.871	1445.84
454.244	1437.7
454.618	1483.58
454.992	1492.62
455.365	1485.61
455.739	1504.59
456.112	1550.69
456.486	1518.83
456.859	1539.62
457.232	1543.24
457.606	1549.56
457.979	1563.12
458.352	1588.21
458.725	1590.47
459.099	1586.85
459.472	1602.67
459.845	1630.47
460.218	1638.15
460.591	1637.47
460.964	1639.28
461.337	1660.75
461.71	1696.45
462.083	1739.84
462.456	1729.9
462.829	1695.77
463.201	1726.51
463.574	1726.28
463.947	1721.54
464.32	1764.47
464.692	1787.52
465.065	1786.17
465.438	1803.79
465.81	1841.99
466.183	1828.43
466.555	1868.43
466.928	1838.14
467.3	1858.48
467.672	1881.76
468.045	1916.79
468.417	1933.06
468.789	1923.79
469.161	1930.8
469.534	1970.8
469.906	1982.32
470.278	1966.5
470.65	2009.66
471.022	2008.99
471.394	2066.84
471.766	2030.91
472.138	2061.64
472.51	2096.89
472.882	2120.17
473.253	2122.2
473.625	2142.99
473.997	2203.78
474.369	2196.1
474.74	2196.33
475.112	2218.7
475.484	2268.41
475.855	2275.65
476.227	2265.03
476.598	2313.39
476.97	2330.11
477.341	2386.15
477.713	2383.67
478.084	2371.46
478.455	2408.3
478.827	2429.09
479.198	2499.6
479.569	2493.72
479.94	2537.56
480.311	2534.17
480.682	2606.49
481.053	2627.28
481.424	2671.79
481.795	2651.91
482.166	2684.9
482.537	2727.16
482.908	2759.48
483.279	2757.67
483.65	2795.63
484.021	2852.35
484.391	2862.75
484.762	2883.09
485.133	2862.3
485.503	2925.35
485.874	2986.59
486.244	2968.06
486.615	3041.05
486.985	3021.39
487.356	3038.56
487.726	3108.39
488.097	3126.47
488.467	3149.75
488.837	3186.81
489.207	3233.36
489.578	3225.23
489.948	3240.59
490.318	3258.67
490.688	3303.87
491.058	3355.62
491.428	3324.88
491.798	3373.02
492.168	3420.02
492.538	3435.39
492.908	3463.86
493.278	3446.01
493.648	3497.31
494.017	3512
494.387	3510.64
494.757	3576.63
495.126	3594.26
495.496	3548.16
495.866	3622.28
496.235	3603.97
496.605	3658.43
496.974	3688.04
497.344	3691.2
497.713	3689.62
498.082	3741.14
498.452	3711.31
498.821	3712.22
499.19	3712.44
499.559	3729.17
499.928	3760.13
500.298	3779.34
500.667	3836.74
501.036	3804.87
501.405	3849.84
501.774	3810.75
502.143	3853.01
502.512	3809.84
502.88	3857.07
503.249	3880.35
503.618	3888.03
503.987	3916.96
504.356	3910.86
504.724	3991.08
505.093	3951.99
505.462	3964.42
505.83	4009.61
506.199	3960.12
506.567	3989.5
506.936	4031.31
507.304	4060.91
507.672	4066.33
508.041	4025.43
508.409	4076.05
508.777	4058.88
509.145	4078.76
509.514	4109.04
509.882	4111.98
510.25	4121.93
510.618	4136.39
510.986	4130.96
511.354	4160.79
511.722	4182.71
512.09	4219.55
512.458	4259.32
512.826	4232.43
513.193	4232.66
513.561	4244.41
513.929	4239.21
514.297	4251.87
514.664	4315.82
515.032	4296.61
515.4	4333.22
515.767	4315.14
516.135	4294.8
516.502	4307.23
516.869	4363.73
517.237	4328.25
517.604	4377.96
517.972	4403.5
518.339	4372.77
518.706	4390.39
519.073	4404.63
519.44	4397.4
519.808	4441.01
520.175	4400.56
520.542	4430.39
520.909	4434.91
521.276	4473.78
521.643	4455.25
522.009	4448.47
522.376	4542.25
522.743	4545.64
523.11	4589.94
523.477	4624.29
523.843	4621.35
524.21	4654.11
524.577	4655.7
524.943	4642.59
525.31	4676.26
525.676	4748.8
526.043	4721.46
526.409	4764.17
526.776	4794.45
527.142	4771.4
527.508	4815.24
527.874	4827.67
528.241	4875.13
528.607	4859.76
528.973	4881.68
529.339	4922.58
529.705	4979.53
530.071	4970.04
530.437	4991.51
530.803	4982.69
531.169	5038.74
531.535	5018.17
531.901	5014.56
532.267	5070.38
532.632	5109.02
532.998	5122.8
533.364	5133.2
533.73	5121.45
534.095	5179.98
534.461	5236.47
534.826	5221.78
535.192	5219.3
535.557	5291.84
535.923	5275.79
536.288	5306.08
536.653	5307.88
537.019	5311.95
537.384	5381.78
537.749	5336.13
538.114	5377.94
538.479	5457.48
538.845	5465.84
539.21	5389.91
539.575	5471.72
539.94	5477.82
540.305	5520.53
540.67	5511.49
541.034	5604.37
541.399	5564.37
541.764	5595.33
542.129	5635.56
542.494	5632.39
542.858	5697.25
543.223	5705.84
543.587	5717.82
543.952	5738.15
544.316	5788.55
544.681	5760.3
545.045	5815.21
545.41	5862.44
545.774	5867.87
546.138	5825.61
546.503	5862.44
546.867	5879.39
547.231	5909.9
547.595	5924.82
547.959	5948.32
548.324	5956.68
548.688	5983.35
549.052	6059.28
549.416	6044.36
549.779	6045.94
550.143	6080.52
550.507	6184.7
550.871	6120.07
551.235	6099.27
551.599	6178.14
551.962	6164.36
552.326	6150.12
552.689	6174.98
553.053	6228.99
553.417	6265.6
553.78	6325.94
554.143	6311.92
554.507	6317.8
554.87	6317.57
555.234	6357.35
555.597	6356.22
555.96	6342.88
556.323	6388.08
556.686	6412.49
557.05	6460.4
557.413	6447.06
557.776	6443.67
558.139	6457.46
558.502	6512.37
558.865	6468.76
559.228	6538.13
559.59	6539.49
559.953	6579.94
560.316	6661.52
560.679	6681.18
561.041	6646.83
561.404	6715.76
561.767	6689.77
562.129	6652.93
562.492	6748.3
562.854	6788.07
563.217	6733.83
563.579	6741.29
563.941	6790.1
564.304	6830.78
564.666	6895.19
565.028	6849.76
565.39	6930.44
565.753	6910.33
566.115	6953.94
566.477	6956.2
566.839	6962.98
567.201	6990.1
567.563	7064.45
567.925	7070.32
568.287	7110.55
568.648	7089.98
569.01	7145.8
569.372	7186.03
569.734	7191
570.095	7223.76
570.457	7337.89
570.819	7245.91
571.18	7310.77
571.542	7439.35
571.903	7410.88
572.265	7474.61
572.626	7480.48
572.987	7494.72
573.349	7577.2
573.71	7613.81
574.071	7659.91
574.432	7762.73
574.794	7825.78
575.155	7831.43
575.516	7906.23
575.877	7916.63
576.238	7934.25
576.599	8101.03
576.96	8149.62
577.32	8235.04
577.681	8309.84
578.042	8438.65
578.403	8488.59
578.763	8522.71
579.124	8717.51
579.485	8799.77
579.845	8909.82
580.206	8900.56
580.566	9082.02
580.927	9214.67
581.287	9370.38
581.648	9406.53
582.008	9654.44
582.368	9747.09
582.728	9958.83
583.089	10093.29
583.449	10245.61
583.809	10426.62
584.169	10630.23
584.529	10751.58
584.889	11034.74
585.249	11122.87
585.609	11352.24
585.969	11646.7
586.329	11822.29
586.688	12013.92
587.048	12319.9
587.408	12495.04
587.768	12707.46
588.127	12954.91
588.487	13149.48
588.846	13491.17
589.206	13746.53
589.565	13996.69
589.925	14220.42
590.284	14521.2
590.643	14694.08
591.003	15040.28
591.362	15364.79
591.721	15616.99
592.08	15924.33
592.44	16302.4
592.799	16601.6
593.158	16855.83
593.517	17195.25
593.876	17487.68
594.235	17747.78
594.593	18058.06
594.952	18414.43
595.311	18588.44
595.67	19013.29
596.029	19390.9
596.387	19665.25
596.746	20114.5
597.104	20201.05
597.463	20541.38
597.822	20933.23
598.18	21010.3
598.538	21467.23
598.897	21722.59
599.255	21884.17
599.613	22603.93
599.972	22711.95
600.33	23031.71
600.688	23248.2
601.046	23651.13
601.404	23916.66
601.762	24159.36
602.12	24583.76
602.478	24850.65
602.836	25055.16
603.194	25175.61
603.552	25604.3
603.91	25702.83
604.268	25976.72
604.625	26238.41
604.983	26732.86
605.341	26832.29
605.698	27118.38
606.056	27405.38
606.413	27611.93
606.771	27953.62
607.128	28176.43
607.485	28265.25
607.843	28501.17
608.2	28914.27
608.557	29110.2
608.914	29339.57
609.272	29586.79
609.629	29852.55
609.986	30094.58
610.343	30090.96
610.7	30649.36
611.057	30763.03
611.414	30881.9
611.771	30981.11
612.127	31478.04
612.484	31589.45
612.841	31671.71
613.198	31890.46
613.554	32119.16
613.911	32341.97
614.267	32574.28
614.624	32595.98
614.98	32812.92
615.337	33068.96
615.693	33210.43
616.05	33224.89
616.406	33534.94
616.762	33687.93
617.118	33819.9
617.475	33964.76
617.831	34169.95
618.187	34390.51
618.543	34486.55
618.899	34699.88
619.255	34839.08
619.611	34926.77
619.967	34919.08
620.323	35152.07
620.678	35192.07
621.034	35289.47
621.39	35398.62
621.746	35554.09
622.101	35930.13
622.457	35731.26
622.812	35788.21
623.168	36081.31
623.523	36168.99
623.879	36352.49
624.234	36134.87
624.589	36455.09
624.945	36485.37
625.3	36517.23
625.655	36702.31
626.01	36716.32
626.365	36759.71
626.72	36811.69
627.075	36931.91
627.43	36971.91
627.785	36907.28
628.14	37080.61
628.495	37162.19
628.85	37138.46
629.205	37125.8
629.559	37400.37
629.914	37397.89
630.269	37465.91
630.623	37245.8
630.978	37245.12
631.332	37425
631.687	37322.86
632.041	37502.29
632.396	37498.45
632.75	37430.65
633.104	37311.34
633.459	37390.88
633.813	37455.51
634.167	37457.09
634.521	37446.02
634.875	37490.77
635.229	37512.23
635.583	37383.88
635.937	37500.71
636.291	37405.34
636.645	37632.91
636.999	37448.73
637.352	37735.28
637.706	37412.58
638.06	37629.29
638.413	37579.8
638.767	37550.43
639.121	37595.4
639.474	37288.96
639.828	37500.26
640.181	37633.36
640.534	37590.42
640.888	37441.28
641.241	37258.46
641.594	37390.88
641.947	37561.5
642.301	37499.8
642.654	37476.3
643.007	37438.34
643.36	37355.85
643.713	37342.97
644.066	37533.48
644.419	37317.66
644.771	37038.35
645.124	36725.14
645.477	36775.08
645.83	36542.77
646.182	36463.45
646.535	36374.86
646.888	36520.85
647.24	36249.44
647.593	36580.96
647.945	36549.32
648.298	36359.5
648.65	36251.7
649.002	36178.03
649.355	36290.57
649.707	36439.95
650.059	36400.62
650.411	36917.22
650.763	37010.55
651.115	37193.15
651.467	37216.42
651.819	37302.52
652.171	36978.46
652.523	36970.55
652.875	37048.52
653.227	36884.91
653.578	37214.84
653.93	37167.61
654.282	36882.65
654.633	36902.98
654.985	37020.5
655.337	37018.01
655.688	36933.94
656.039	37125.35
656.391	36819.37
656.742	36960.38
657.094	36825.25
657.445	37052.59
657.796	36933.72
658.147	36855.53
658.498	36936.88
658.849	36960.38
659.2	36903.66
659.551	36690.79
659.902	36995.41
660.253	36820.5
660.604	36941.18
660.955	36732.37
661.306	36917.45
661.656	36841.97
662.007	36840.84
662.358	36856.21
662.708	36789.99
663.059	36865.92
663.409	36626.83
663.76	36816.89
664.11	36861.4
664.461	36921.97
664.811	36911.8
665.161	36903.21
665.511	36721.97
665.862	36755.87
666.212	36834.51
666.562	36847.62
666.912	36812.14
667.262	36741.18
667.612	36692.82
667.962	36773.95
668.312	36758.13
668.662	36989.99
669.011	36682.43
669.361	36682.88
669.711	36740.5
670.06	36547.29
670.41	36570.11
670.76	36660.73
671.109	36629.09
671.459	36620.96
671.808	36561.52
672.157	36566.04
672.507	36430.45
672.856	36452.37
673.205	36494.41
673.554	36656.89
673.904	36476.56
674.253	36694.85
674.602	36557.23
674.951	35996.34
675.3	35876.57
675.649	36422.55
675.998	36383.22
676.346	36319.05
676.695	36505.71
677.044	36218.26
677.393	36345.49
677.741	36381.19
678.09	36302.77
678.438	36297.8
678.787	36265.49
679.135	36222.78
679.484	36062.33
679.832	36164.02
680.181	35906.4
680.529	36098.49
680.877	36037.02
681.225	35861.43
681.573	36133.29
681.922	35851.71
682.27	35879.73
682.618	35829.11
682.966	35671.83
683.314	35851.49
683.661	35625.05
684.009	35474.55
684.357	35506.19
684.705	35504.83
685.053	35535.79
685.4	35437.26
685.748	35337.6
686.095	35172.41
686.443	35224.16
686.79	35061
687.138	35185.29
687.485	35102.35
687.832	34981.91
688.18	35072.3
688.527	34814.68
688.874	34745.3
689.221	34721.12
689.568	34674.57
689.915	34517.96
690.262	34537.62
690.609	34443.16
690.956	34410.85
691.303	34260.34
691.65	34105.32
691.997	34148.93
692.344	33958.2
692.69	34112.55
693.037	34092.21
693.383	33826.23
693.73	33870.07
694.077	33704.88
694.423	33747.59
694.769	33535.84
695.116	33520.02
695.462	33545.11
695.808	33412.68
696.155	33330.65
696.501	33063.54
696.847	33106.25
697.193	32962.07
697.539	33028.06
697.885	32789.42
698.231	32722.98
698.577	32778.12
698.923	32558.69
699.269	32459.71
699.614	32312.37
699.96	32277.57
700.306	32337.91
700.651	32172.71
700.997	32050.46
701.342	31954.41
701.688	31961.87
702.033	31898.14
702.379	31804.36
702.724	31611.15
703.069	31806.85
703.415	31449.57
703.76	31420.42
704.105	31487.99
704.45	31367.54
704.795	31172.06
705.14	31161.67
705.485	31090.48
705.83	31067.88
706.175	31007.32
706.52	30945.63
706.865	30827.66
707.209	30803.71
707.554	30788.12
707.899	30721.45
708.243	30561.23
708.588	30624.73
708.932	30340.9
709.277	30370.27
709.621	30431.06
709.966	30119.66
710.31	30179.77
710.654	30071.3
710.998	30046.44
711.342	29935.26
711.687	29971.64
712.031	29825.66
712.375	29751.53
712.719	29655.94
713.063	29734.13
713.407	29789.95
713.75	29539.56
714.094	29639.45
714.438	29416.18
714.782	29569.39
715.125	29362.39
715.469	29252.34
715.812	29240.36
716.156	29117.43
716.499	29079.24
716.843	29096.18
717.186	29073.13
717.53	28993.14
717.873	29094.83
718.216	29016.41
718.559	28796.76
718.902	28670.66
719.246	28612.58
719.589	28674.95
719.932	28516.76
720.275	28508.63
720.617	28502.75
720.96	28380.95
721.303	28479.7
721.646	28533.49
721.989	28253.04
722.331	28340.27
722.674	28178.02
723.016	28347.28
723.359	28240.84
723.701	28220.05
724.044	28010.34
724.386	27909.1
724.729	28103.44
725.071	27926.5
725.413	27831.81
725.755	27778.7
726.097	27732.15
726.439	27597.01
726.782	27708.2
727.124	27734.41
727.465	27686.05
727.807	27578.71
728.149	27481.99
728.491	27570.8
728.833	27496.9
729.175	27494.64
729.516	27434.08
729.858	27349.79
730.199	27324.93
730.541	27301.43
730.882	27191.38
731.224	27260.98
731.565	27140.08
731.906	27246.52
732.248	27020.98
732.589	26990.93
732.93	26910.7
733.271	26912.74
733.612	27020.53
733.953	27044.26
734.294	26898.5
734.635	26875
734.976	26857.82
735.317	26670.03
735.658	26691.73
735.999	26823.93
736.339	26738.96
736.68	26655.8
737.021	26649.24
737.361	26524.95
737.702	26581.9
738.042	26591.84
738.383	26541.22
738.723	26480.66
739.063	26422.13
739.404	26344.39
739.744	26383.26
740.084	26244.51
740.424	26317.73
740.764	26250.61
741.104	26221.23
741.444	26227.11
741.784	26082.48
742.124	26141.46
742.464	26145.75
742.804	26055.36
743.143	26007.45
743.483	26014.01
743.823	25855.14
744.162	25811.3
744.502	25874.57
744.841	25766.1
745.181	25892.2
745.52	25769.04
745.86	25851.3
746.199	25910.96
746.538	25693.79
746.877	25776.5
747.216	25699.21
747.556	25543.06
747.895	25721.13
748.234	25485.88
748.573	25527.92
748.911	25515.71
749.25	25385.77
749.589	25366.11
749.928	25547.58
750.267	25473
750.605	25437.07
750.944	25177.19
751.283	25267.36
751.621	25283.63
751.96	25173.12
752.298	25178.32
752.636	25089.28
752.975	25103.07
753.313	25045.22
753.651	25125.67
753.989	24975.16
754.327	25001.83
754.666	24757.32
755.004	24811.1
755.342	24848.61
755.679	24836.18
756.017	24656.53
756.355	24758.67
756.693	24653.36
757.031	24744.89
757.368	24543.54
757.706	24489.07
758.044	24371.56
758.381	24462.18
758.719	24409.53
759.056	24441.84
759.394	24348.96
759.731	24151.91
