Data from hue_36_FLMS001491_00099.txt Node
Date: Tue Feb 07 17:30:33 GMT 2017
User: dcchb
Spectrometer: FLMS00149
Trigger mode: 0
Integration Time (sec): 2.000000E-2
Scans to average: 10
Electric dark correction enabled: true
Nonlinearity correction enabled: false
Boxcar width: 0
XAxis mode: Wavelengths
Number of Pixels in Spectrum: 2048
>>>>>Begin Spectral Data<<<<<
341.393	-16.1
341.776	-16.1
342.16	-16.1
342.543	-58.81
342.927	-82.77
343.31	-75.08
343.693	-72.14
344.077	-62.43
344.46	-53.16
344.843	-48.64
345.226	-42.09
345.61	-33.05
345.993	-35.99
346.376	-2.54
346.759	15.08
347.142	41.3
347.525	47.85
347.908	55.08
348.291	79.26
348.674	86.72
349.057	99.83
349.44	129.88
349.823	145.93
350.206	165.36
350.588	192.25
350.971	215.31
351.354	218.69
351.737	251.91
352.119	256.43
352.502	269.77
352.884	288.52
353.267	269.77
353.65	286.49
354.032	300.73
354.414	295.98
354.797	302.99
355.179	326.04
355.562	325.81
355.944	338.24
356.326	330.1
356.709	350.67
357.091	339.37
357.473	342.53
357.855	340.73
358.238	352.48
358.62	351.57
359.002	355.64
359.384	358.58
359.766	321.29
360.148	336.21
360.53	345.25
360.912	343.44
361.294	338.92
361.676	345.02
362.057	343.89
362.439	338.92
362.821	321.74
363.203	323.32
363.584	339.37
363.966	306.38
364.348	327.62
364.729	326.71
365.111	324
365.493	327.84
365.874	346.83
366.256	318.13
366.637	317.68
367.019	323.1
367.4	326.26
367.781	330.1
368.163	282.87
368.544	291.01
368.925	312.48
369.306	312.25
369.688	328.07
370.069	321.97
370.45	286.94
370.831	304.57
371.212	322.87
371.593	308.41
371.974	316.77
372.355	313.61
372.736	320.61
373.117	316.32
373.498	319.94
373.879	309.31
374.26	307.05
374.641	325.36
375.021	342.76
375.402	313.83
375.783	324.45
376.163	320.16
376.544	310.9
376.925	338.47
377.305	320.39
377.686	318.13
378.066	313.16
378.447	316.77
378.827	307.28
379.208	342.99
379.588	335.3
379.968	312.03
380.349	331.23
380.729	332.82
381.109	335.3
381.489	329.88
381.87	338.47
382.25	354.74
382.63	334.17
383.01	328.52
383.39	333.04
383.77	362.87
384.15	344.34
384.53	349.31
384.91	332.82
385.29	348.86
385.67	354.06
386.049	359.26
386.429	351.57
386.809	350.22
387.189	357.45
387.568	349.31
387.948	343.44
388.328	351.35
388.707	372.36
389.087	365.36
389.466	379.82
389.846	366.04
390.225	359.03
390.605	350.22
390.984	369.88
391.363	361.97
391.743	366.94
392.122	371.69
392.501	368.3
392.881	384.11
393.26	372.14
393.639	374.62
394.018	376.66
394.397	372.59
394.776	385.47
395.155	378.01
395.534	385.92
395.913	380.05
396.292	385.02
396.671	382.98
397.05	382.31
397.429	376.2
397.808	358.35
398.186	384.11
398.565	372.36
398.944	378.01
399.323	385.24
399.701	385.7
400.08	399.03
400.458	396.77
400.837	399.03
401.215	391.8
401.594	401.29
401.972	395.41
402.351	396.09
402.729	397.22
403.107	388.18
403.486	405.36
403.864	405.58
404.242	401.29
404.62	423.21
404.999	417.33
405.377	412.59
405.755	425.02
406.133	424.57
406.511	425.24
406.889	422.31
407.267	422.76
407.645	432.25
408.023	443.55
408.401	431.34
408.779	434.96
409.156	444
409.534	421.18
409.912	436.54
410.29	454.17
410.667	458.46
411.045	446.49
411.422	427.95
411.8	459.82
412.178	455.3
412.555	448.29
412.933	448.97
413.31	485.35
413.687	464.11
414.065	485.81
414.442	476.32
414.819	456.88
415.197	486.26
415.574	487.61
415.951	501.85
416.328	494.85
416.705	473.15
417.082	494.39
417.46	506.6
417.837	492.81
418.214	497.78
418.591	491.91
418.967	522.19
419.344	513.83
419.721	508.4
420.098	519.7
420.475	496.43
420.852	516.54
421.228	527.39
421.605	520.38
421.982	501.63
422.358	520.38
422.735	528.29
423.111	539.59
423.488	521.96
423.864	532.81
424.241	532.58
424.617	544.11
424.994	548.63
425.37	530.33
425.746	530.55
426.123	536.65
426.499	566.48
426.875	557.89
427.251	566.26
427.627	562.41
428.003	561.06
428.379	582.75
428.756	592.24
429.132	595.18
429.507	585.24
429.883	607.84
430.259	598.8
430.635	609.42
431.011	613.49
431.387	602.41
431.763	615.75
432.138	636.76
432.514	647.38
432.89	637.67
433.265	642.64
433.641	643.54
434.016	661.62
434.392	650.1
434.767	679.7
435.143	659.59
435.518	655.97
435.894	687.84
436.269	688.74
436.644	699.36
437.02	698.68
437.395	702.07
437.77	702.52
438.145	712.47
438.52	691.9
438.895	721.51
439.271	721.51
439.646	719.47
440.021	714.95
440.395	723.31
440.77	714.28
441.145	715.63
441.52	783.2
441.895	751.79
442.27	745.23
442.645	762.18
443.019	735.29
443.394	747.72
443.769	774.16
444.143	756.99
444.518	821.84
444.892	774.61
445.267	791.79
445.641	790.66
446.016	789.53
446.39	805.12
446.764	783.43
447.139	792.24
447.513	826.59
447.887	803.99
448.262	817.32
448.636	820.26
449.01	808.74
449.384	829.98
449.758	843.09
450.132	832.92
450.506	829.53
450.88	833.59
451.254	859.36
451.628	843.54
452.002	855.74
452.376	876.76
452.75	871.78
453.123	884.44
453.497	888.96
453.871	888.51
454.244	919.24
454.618	911.33
454.992	930.54
455.365	947.26
455.739	969.18
456.112	947.04
456.486	952.91
456.859	972.57
457.232	981.39
457.606	999.24
457.979	992.69
458.352	995.85
458.725	1014.61
459.099	1040.37
459.472	1041.5
459.845	1029.97
460.218	1073.81
460.591	1073.59
460.964	1064.1
461.337	1082.63
461.71	1109.97
462.083	1113.59
462.456	1122.63
462.829	1152.23
463.201	1132.12
463.574	1155.62
463.947	1166.92
464.32	1194.26
464.692	1210.08
465.065	1220.02
465.438	1230.65
465.81	1233.58
466.183	1244.88
466.555	1286.24
466.928	1282.17
467.3	1330.76
467.672	1350.87
468.045	1339.57
468.417	1380.7
468.789	1359
469.161	1370.08
469.534	1423.41
469.906	1438.32
470.278	1444.65
470.65	1493.46
471.022	1488.94
471.394	1542.5
471.766	1586.34
472.138	1610.52
472.51	1619.11
472.882	1641.71
473.253	1673.8
473.625	1722.16
473.997	1721.48
474.369	1786.56
474.74	1809.16
475.112	1836.05
475.484	1885.54
475.855	1895.03
476.227	1994.02
476.598	1982.94
476.97	2053.22
477.341	2081.47
477.713	2137.51
478.084	2170.96
478.455	2245.31
478.827	2261.58
479.198	2329.37
479.569	2395.13
479.94	2449.37
480.311	2499.31
480.682	2547
481.053	2657.27
481.424	2692.75
481.795	2785.86
482.166	2816.37
482.537	2888.23
482.908	2953.76
483.279	3000.77
483.65	3127.54
484.021	3202.57
484.391	3278.28
484.762	3335.22
485.133	3335
485.503	3514.65
485.874	3562.79
486.244	3672.84
486.615	3726.63
486.985	3849.56
487.356	3924.59
487.726	4006.39
488.097	4157.35
488.467	4176.1
488.837	4242.54
489.207	4378.13
489.578	4474.4
489.948	4537.9
490.318	4679.14
490.688	4758.46
491.058	4838.01
491.428	4975.18
491.798	5068.96
492.168	5208.17
492.538	5256.3
492.908	5349.18
493.278	5462.85
493.648	5510.76
494.017	5622.62
494.387	5711.21
494.757	5735.39
495.126	5884.76
495.496	5934.7
495.866	6066.22
496.235	6119.56
496.605	6290.63
496.974	6319.55
497.344	6402.71
497.713	6444.07
498.082	6578.08
498.452	6637.51
498.821	6771.06
499.19	6781.23
499.559	6939.42
499.928	6926.77
500.298	7049.25
500.667	7116.14
501.036	7186.2
501.405	7287.21
501.774	7305.06
502.143	7408.56
502.512	7487.88
502.88	7518.84
503.249	7578.5
503.618	7738.72
503.987	7745.28
504.356	7849.45
504.724	7875.22
505.093	7947.53
505.462	8081.31
505.83	8077.25
506.199	8178.26
506.567	8237.24
506.936	8258.94
507.304	8397.69
507.672	8480.17
508.041	8492.15
508.409	8581.86
508.777	8696.66
509.145	8717.45
509.514	8733.5
509.882	8802.88
510.25	8858.92
510.618	8937.56
510.986	8992.7
511.354	9117.44
511.722	9150.89
512.09	9273.37
512.458	9292.58
512.826	9316.31
513.193	9356.31
513.561	9424.78
513.929	9505.23
514.297	9575.96
514.664	9654.38
515.032	9707.26
515.4	9786.13
515.767	9881.94
516.135	9851.89
516.502	9910.42
516.869	10072.9
517.237	10040.58
517.604	9996.29
517.972	10170.98
518.339	10219.34
518.706	10209.62
519.073	10342.27
519.44	10332.33
519.808	10451.19
520.175	10499.1
520.542	10522.38
520.909	10598.53
521.276	10612.77
521.643	10695.93
522.009	10864.29
522.376	10932.54
522.743	10992.2
523.11	11104.74
523.477	11123.72
523.843	11207.11
524.21	11298.63
524.577	11418.4
524.943	11379.76
525.31	11399.64
525.676	11544.95
526.043	11605.97
526.409	11661.78
526.776	11800.76
527.142	11806.64
527.508	11917.37
527.874	11938.39
528.241	12014.09
528.607	12028.33
528.973	12222.9
529.339	12215.89
529.705	12281.2
530.071	12333.63
530.437	12393.52
530.803	12548.99
531.169	12619.27
531.535	12579.5
531.901	12559.84
532.267	12722.32
532.632	12786.95
532.998	12780.17
533.364	12859.94
533.73	12897.68
534.095	13042.54
534.461	13048.19
534.826	13165.7
535.192	13218.58
535.557	13336.32
535.923	13256.77
536.288	13421.96
536.653	13390.55
537.019	13396.43
537.384	13505.8
537.749	13582.19
538.114	13567.95
538.479	13580.15
538.845	13657.21
539.21	13741.05
539.575	13796.87
539.94	13760.03
540.305	13825.57
540.67	13853.14
541.034	13933.36
541.399	14006.13
541.764	14145.56
542.129	14100.59
542.494	14187.82
542.858	14205.22
543.223	14315.73
543.587	14422.39
543.952	14468.04
544.316	14504.42
544.681	14493.57
545.045	14489.96
545.41	14700.8
545.774	14660.8
546.138	14685.89
546.503	14771.76
546.867	14823.06
547.231	14930.62
547.595	14900.57
547.959	14960.68
548.324	14952.77
548.688	15067.8
549.052	15073.67
549.416	15174.01
549.779	15163.84
550.143	15265.98
550.507	15277.28
550.871	15378.52
551.235	15369.93
551.599	15502.36
551.962	15516.15
552.326	15624.17
552.689	15596.6
553.053	15632.75
553.417	15663.49
553.78	15909.13
554.143	15831.17
554.507	15867.55
554.87	15893.76
555.234	16084.27
555.597	15998.17
555.96	16038.62
556.323	16211.04
556.686	16215.11
557.05	16300.98
557.413	16312.51
557.776	16419.17
558.139	16466.18
558.502	16533.97
558.865	16503.92
559.228	16627.3
559.59	16712.72
559.953	16760.41
560.316	16897.35
560.679	16896
561.041	17087.4
561.404	16987.52
561.767	17109.78
562.129	17194.07
562.492	17279.72
562.854	17241.07
563.217	17234.74
563.579	17395.19
563.941	17419.37
564.304	17523.78
564.666	17599.03
565.028	17602.42
565.39	17615.98
565.753	17842.41
566.115	17824.79
566.477	17864.33
566.839	18057.1
567.201	18085.12
567.563	18031.33
567.925	18224.78
568.287	18318.33
568.648	18222.97
569.01	18385.22
569.372	18514.03
569.734	18413.92
570.095	18596.97
570.457	18652.33
570.819	18801.94
571.18	18830.63
571.542	18989.05
571.903	18915.83
572.265	19142.27
572.626	19099.55
572.987	19245.54
573.349	19265.43
573.71	19405.31
574.071	19430.39
574.432	19530.05
574.794	19664.96
575.155	19698.41
575.516	19729.82
575.877	19946.54
576.238	19924.39
576.599	20146.76
576.96	20249.35
577.32	20377.26
577.681	20398.73
578.042	20566.41
578.403	20636.69
578.763	20838.49
579.124	21019.05
579.485	21083.23
579.845	21301.08
580.206	21315.77
580.566	21489.77
580.927	21628.53
581.287	21878.01
581.648	21896.09
582.008	22191
582.368	22223.77
582.728	22550.99
583.089	22607.71
583.449	22755.96
583.809	22998.21
584.169	23214.25
584.529	23181.48
584.889	23584.41
585.249	23633.22
585.609	23889.71
585.969	24146.88
586.329	24327.89
586.688	24512.29
587.048	24730.37
587.408	24925.39
587.768	25026.86
588.127	25310.24
588.487	25526.28
588.846	25818.25
589.206	25965.81
589.565	26148.41
589.925	26505.24
590.284	26580.94
590.643	26935.28
591.003	27109.74
591.362	27489.62
591.721	27660.91
592.08	27714.92
592.44	28050.51
592.799	28335.02
593.158	28537.5
593.517	28750.83
593.876	28859.98
594.235	29123.7
594.593	29384.26
594.952	29786.73
595.311	29891.59
595.67	30114.18
596.029	30544.68
596.387	30732.92
596.746	30929.3
597.104	31019.01
597.463	31289.74
597.822	31552.11
598.18	31571.09
598.538	31731.54
598.897	32137.18
599.255	32081.13
599.613	32731.06
599.972	32611.97
600.33	32980.77
600.688	33069.58
601.046	33356.81
601.404	33677.02
601.762	33714.99
602.12	34000.86
602.478	34126.73
602.836	34236.56
603.194	34338.48
603.552	34601.52
603.91	34655.76
604.268	34914.05
604.625	34954.73
604.983	35361.5
605.341	35262.29
605.698	35570.53
606.056	35780.92
606.413	35828.83
606.771	36104.53
607.128	36401.47
607.485	36377.07
607.843	36476.95
608.2	36763.95
608.557	36879.43
608.914	36902.02
609.272	37189.7
609.629	37555.57
609.986	37593.98
610.343	37673.08
610.7	37923.01
611.057	38096.12
611.414	38082.33
611.771	38229.67
612.127	38444.81
612.484	38566.84
612.841	38759.83
613.198	38794.18
613.554	38922.08
613.911	39174.96
614.267	39125.92
614.624	39273.71
614.98	39502.63
615.337	39632.35
615.693	39615.17
616.05	39771.55
616.406	39981.94
616.762	39901.04
617.118	39803.19
617.475	40017.42
617.831	40199.11
618.187	40218.77
618.543	40381.71
618.899	40772.66
619.255	40717.29
619.611	40640
619.967	40949.6
620.323	41047.9
620.678	40951.64
621.034	40930.39
621.39	41003.16
621.746	41068.92
622.101	41455.12
622.457	41186.21
622.812	41352.98
623.168	41532.18
623.523	41540.32
623.879	41798.17
624.234	41384.84
624.589	41698.96
624.945	41772.86
625.3	41790.71
625.655	41824.15
626.01	41967.88
626.365	42047.2
626.72	41946.86
627.075	42010.14
627.43	42102.57
627.785	42013.98
628.14	42195.22
628.495	42246.74
628.85	42148.67
629.205	42103.7
629.559	42314.99
629.914	42153.86
630.269	42196.8
630.623	42161.77
630.978	42077.26
631.332	42368.77
631.687	42340.98
632.041	42142.56
632.396	42308.44
632.75	42274.54
633.104	42340.53
633.459	42185.05
633.813	42272.05
634.167	42284.71
634.521	42197.03
634.875	42299.62
635.229	42239.51
635.583	42136.91
635.937	42183.92
636.291	42107.31
636.645	42111.83
636.999	42195.22
637.352	42194.09
637.706	41937.6
638.06	42284.03
638.413	41975.79
638.767	41956.58
639.121	41969.69
639.474	41841.78
639.828	42015.79
640.181	42059.18
640.534	42158.83
640.888	41828
641.241	41884.04
641.594	41828.67
641.947	42068.22
642.301	41807.43
642.654	41896.69
643.007	41988.9
643.36	41969.46
643.713	41753.87
644.066	41999.97
644.419	41721.56
644.771	41480.89
645.124	41006.32
645.477	40958.19
645.83	40931.52
646.182	40740.12
646.535	40707.12
646.888	40794.13
647.24	40554.58
647.593	40810.17
647.945	40703.96
648.298	40490.86
648.65	40485.88
649.002	40408.15
649.355	40610.18
649.707	40372.89
650.059	40698.76
650.411	41257.39
650.763	41128.13
651.115	41656.93
651.467	41454.22
651.819	41452.64
652.171	41339.65
652.523	41192.08
652.875	41135.36
653.227	41097.17
653.578	41338.29
653.93	41263.94
654.282	40995.25
654.633	41023.95
654.985	41074.34
655.337	41105.3
655.688	41092.42
656.039	41337.61
656.391	40927
656.742	41049.03
657.094	41052.88
657.445	41145.08
657.796	41067.34
658.147	41035.7
658.498	40924.52
658.849	41145.98
659.2	41020.56
659.551	40980.11
659.902	41046.1
660.253	41067.79
660.604	41019.43
660.955	40823.05
661.306	40994.35
661.656	40884.52
662.007	40970.84
662.358	40972.2
662.708	41020.56
663.059	40930.62
663.409	40798.64
663.76	40937.4
664.11	41042.25
664.461	40875.7
664.811	41037.06
665.161	40933.33
665.511	40734.47
665.862	40965.19
666.212	40912.31
666.562	41029.83
666.912	40791.41
667.262	40915.48
667.612	40633.45
667.962	40771.53
668.312	40731.08
668.662	40945.99
669.011	40827.57
669.361	40739.89
669.711	40600.91
670.06	40694.92
670.41	40506.9
670.76	40660.12
671.109	40755.48
671.459	40616.73
671.808	40527.24
672.157	40714.13
672.507	40363.4
672.856	40594.13
673.205	40541.93
673.554	40563.4
673.904	40644.98
674.253	40690.17
674.602	40571.31
674.951	39931.1
675.3	39820.82
675.649	40477.07
675.998	40412.89
676.346	40472.78
676.695	40442.72
677.044	40263.07
677.393	40195.72
677.741	40386
678.09	40216.97
678.438	40110.08
678.787	40268.26
679.135	40408.82
679.484	40033.69
679.832	40211.09
680.181	40023.98
680.529	40028.27
680.877	39934.26
681.225	39825.11
681.573	40066.91
681.922	39787.37
682.27	39679.58
682.618	39759.12
682.966	39650.2
683.314	39807.94
683.661	39631.9
684.009	39524.55
684.357	39466.93
684.705	39328.4
685.053	39574.5
685.4	39398.91
685.748	39336.76
686.095	39386.25
686.443	39042.31
686.79	38990.33
687.138	39037.11
687.485	39034.17
687.832	38948.3
688.18	38890.22
688.527	38853.84
688.874	38709.43
689.221	38739.49
689.568	38482.1
689.915	38562.55
690.262	38418.37
690.609	38416.33
690.956	38201.42
691.303	38178.6
691.65	38085.27
691.997	38103.12
692.344	37746.52
692.69	37855.45
693.037	37707.65
693.383	37528.67
693.73	37680.08
694.077	37421.33
694.423	37471.27
694.769	37215.01
695.116	37250.94
695.462	37286.19
695.808	37152.86
696.155	37166.88
696.501	36789.71
696.847	36827.68
697.193	36689.83
697.539	36837.84
697.885	36524.41
698.231	36347.69
698.577	36444.63
698.923	36372.09
699.269	36076.06
699.614	36044.42
699.96	35919.9
700.306	35973.91
700.651	35799.23
700.997	35854.37
701.342	35683.53
701.688	35623.19
702.033	35561.49
702.379	35573.25
702.724	35450.76
703.069	35556.75
703.415	35189.3
703.76	35124.44
704.105	35162.18
704.45	34969.65
704.795	34865.24
705.14	34761.29
705.485	34724.91
705.83	34497.57
706.175	34550.9
706.52	34544.12
706.865	34402.65
707.209	34284.47
707.554	34323.79
707.899	34203.34
708.243	34171.47
708.588	34133.74
708.932	33804.48
709.277	33852.39
709.621	33888.77
709.966	33633.86
710.31	33708.21
710.654	33423.02
710.998	33592.05
711.342	33610.36
711.687	33459.4
712.031	33284.04
712.375	33131.05
712.719	33224.38
713.063	33144.16
713.407	33209.69
713.75	33056.02
714.094	32959.08
714.438	32880.43
714.782	32961.11
715.125	32742.81
715.469	32757.5
715.812	32668.01
716.156	32468.92
716.499	32549.37
716.843	32468.24
717.186	32451.07
717.53	32567
717.873	32363.84
718.216	32283.61
718.559	32204.97
718.902	31994.36
719.246	32089.27
719.589	32048.14
719.932	31820.35
720.275	31849.05
720.617	31835.26
720.96	31809.73
721.303	31649.05
721.646	31846.11
721.989	31509.85
722.331	31866.68
722.674	31571.32
723.016	31619.45
723.359	31528.38
723.701	31460.81
724.044	31298.33
724.386	31224.89
724.729	31327.71
725.071	31185.56
725.413	31260.59
725.755	31093.59
726.097	30888.62
726.439	30921.39
726.782	30927.49
727.124	30914.84
727.465	30887.27
727.807	30859.92
728.149	30716.88
728.491	30870.77
728.833	30766.37
729.175	30654.05
729.516	30588.74
729.858	30471.23
730.199	30489.99
730.541	30419.71
730.882	30475.3
731.224	30548.97
731.565	30306.72
731.906	30357.34
732.248	30214.06
732.589	30184.69
732.93	29999.15
733.271	30156.89
733.612	30121.19
733.953	30200.96
734.294	29931.59
734.635	29910.12
734.976	29915.32
735.317	29814.07
735.658	29809.78
735.999	29710.12
736.339	29726.17
736.68	29794.87
737.021	29633.06
737.361	29503.8
737.702	29603.23
738.042	29415.22
738.383	29632.61
738.723	29488.21
739.063	29454.08
739.404	29473.97
739.744	29329.34
740.084	29140.87
740.424	29256.35
740.764	29167.76
741.104	29370.24
741.444	29123.47
741.784	29099.07
742.124	29157.59
742.464	29031.5
742.804	28932.52
743.143	28876.02
743.483	28946.53
743.823	28748.34
744.162	28713.76
744.502	28757.38
744.841	28603.94
745.181	28706.99
745.52	28598.06
745.86	28689.36
746.199	28539.08
746.538	28568.23
746.877	28508.57
747.216	28483.94
747.556	28325.53
747.895	28382.25
748.234	28252.08
748.573	28269.71
748.911	28211.18
749.25	28269.03
749.589	28092.09
749.928	28020.68
750.267	28053.67
750.605	28030.84
750.944	27928.7
751.283	27835.37
751.621	27893.45
751.96	27674.02
752.298	27765.77
752.636	27679.67
752.975	27504.53
753.313	27510.63
753.651	27641.93
753.989	27504.76
754.327	27413.01
754.666	27226.35
755.004	27476.28
755.342	27369.85
755.679	27248.94
756.017	27143.86
756.355	27270.86
756.693	27015.05
757.031	27109.74
757.368	26907.03
