Data from hue_00_FLMS001491_83.txt Node
Date: Mon Feb 06 15:30:22 GMT 2017
User: dcchb
Spectrometer: FLMS00149
Trigger mode: 0
Integration Time (sec): 2.000000E-2
Scans to average: 10
Electric dark correction enabled: true
Nonlinearity correction enabled: false
Boxcar width: 0
XAxis mode: Wavelengths
Number of Pixels in Spectrum: 2048
>>>>>Begin Spectral Data<<<<<
341.393	-35.56
341.776	-35.56
342.16	-35.56
342.543	-43.25
342.927	-59.52
343.31	-55.9
343.693	-59.74
344.077	-68.33
344.46	-60.2
344.843	-62
345.226	-34.43
345.61	-17.71
345.993	-16.58
346.376	-20.42
346.759	8.73
347.142	30.87
347.525	31.55
347.908	75.62
348.291	81.04
348.674	77.88
349.057	89.63
349.44	130.76
349.823	142.96
350.206	144.09
350.588	190.87
350.971	196.52
351.354	233.58
351.737	246.91
352.119	250.08
352.502	264.54
352.884	253.69
353.267	284.65
353.65	282.85
354.032	281.49
354.414	303.86
354.797	309.06
355.179	308.83
355.562	317.65
355.944	328.95
356.326	333.01
356.709	335.73
357.091	343.64
357.473	338.44
357.855	342.96
358.238	338.89
358.62	347.7
359.002	324.88
359.384	309.29
359.766	329.85
360.148	337.99
360.53	343.18
360.912	342.73
361.294	333.47
361.676	335.05
362.057	331.43
362.439	344.09
362.821	328.27
363.203	331.21
363.584	315.16
363.966	328.72
364.348	332.11
364.729	308.38
365.111	332.56
365.493	316.97
365.874	327.59
366.256	315.84
366.637	289.85
367.019	293.92
367.4	292.79
367.781	298.89
368.163	302.05
368.544	306.35
368.925	300.92
369.306	326.46
369.688	314.03
370.069	297.31
370.45	286.46
370.831	304.77
371.212	290.98
371.593	303.86
371.974	303.18
372.355	301.38
372.736	306.35
373.117	306.8
373.498	319.68
373.879	298.89
374.26	298.44
374.641	296.86
375.021	312.68
375.402	321.49
375.783	313.13
376.163	307.25
376.544	319.45
376.925	326.69
377.305	314.26
377.686	315.84
378.066	326.23
378.447	308.16
378.827	327.36
379.208	326.46
379.588	322.17
379.968	343.18
380.349	339.12
380.729	341.6
381.109	335.05
381.489	339.79
381.87	336.4
382.25	316.52
382.63	316.07
383.01	341.83
383.39	338.21
383.77	333.92
384.15	340.25
384.53	341.6
384.91	335.95
385.29	339.79
385.67	348.61
386.049	344.76
386.429	337.99
386.809	340.92
387.189	352.22
387.568	359.45
387.948	356.06
388.328	350.19
388.707	351.09
389.087	378.66
389.466	333.47
389.846	355.39
390.225	359
390.605	361.49
390.984	356.29
391.363	360.13
391.743	357.87
392.122	371.66
392.501	348.61
392.881	379.79
393.26	370.3
393.639	377.76
394.018	365.78
394.397	361.71
394.776	385.89
395.155	374.59
395.534	371.2
395.913	369.4
396.292	356.74
396.671	381.15
397.05	371.2
397.429	380.92
397.808	370.98
398.186	373.01
398.565	385.67
398.944	384.09
399.323	380.47
399.701	397.87
400.08	390.87
400.458	384.54
400.837	380.24
401.215	365.78
401.594	406.23
401.972	392.9
402.351	394.03
402.729	401.26
403.107	395.84
403.486	396.06
403.864	393.58
404.242	408.72
404.62	396.06
404.999	387.25
405.377	407.59
405.755	398.77
406.133	409.17
406.511	407.14
406.889	426.8
407.267	423.86
407.645	414.14
408.023	432.9
408.401	417.98
408.779	408.94
409.156	443.29
409.534	433.58
409.912	433.8
410.29	433.8
410.667	439.9
411.045	441.49
411.422	434.93
411.8	435.84
412.178	436.51
412.555	480.13
412.933	450.98
413.31	476.74
413.687	458.43
414.065	471.32
414.442	479.68
414.819	469.06
415.197	466.34
415.574	504.53
415.951	470.19
416.328	482.39
416.705	507.92
417.082	499.11
417.46	480.81
417.837	478.77
418.214	493.91
418.591	495.72
418.967	476.29
419.344	506.12
419.721	496.85
420.098	468.15
420.475	499.34
420.852	501.6
421.228	520.35
421.605	532.33
421.982	522.39
422.358	536.85
422.735	525.78
423.111	524.87
423.488	533.69
423.864	540.01
424.241	552.44
424.617	548.83
424.994	557.87
425.37	557.64
425.746	547.92
426.123	542.05
426.499	571.88
426.875	556.28
427.251	555.61
427.627	597.41
428.003	580.46
428.379	564.42
428.756	597.41
429.132	610.75
429.507	593.57
429.883	613.68
430.259	605.1
430.635	603.06
431.011	607.13
431.387	631.54
431.763	644.42
432.138	621.59
432.514	637.19
432.89	634.7
433.265	634.7
433.641	640.12
434.016	662.5
434.392	656.17
434.767	665.43
435.143	659.11
435.518	648.49
435.894	655.49
436.269	673.57
436.644	701.59
437.02	683.29
437.395	712.66
437.77	712.89
438.145	714.47
438.52	712.89
438.895	733.91
439.271	713.79
439.646	733.23
440.021	711.08
440.395	725.32
440.77	715.6
441.145	756.28
441.52	744.75
441.895	732.78
442.27	737.3
442.645	756.28
443.019	766
443.394	771.65
443.769	754.25
444.143	778.65
444.518	795.83
444.892	777.97
445.267	788.82
445.641	784.75
446.016	789.95
446.39	810.29
446.764	788.37
447.139	799.22
447.513	806.45
447.887	802.61
448.262	801.93
448.636	795.15
449.01	848.71
449.384	837.86
449.758	818.88
450.132	830.18
450.506	836.5
450.88	846.67
451.254	848.03
451.628	859.1
452.002	875.15
452.376	864.98
452.75	845.32
453.123	881.02
453.497	868.82
453.871	891.42
454.244	903.62
454.618	913.11
454.992	911.53
455.365	914.02
455.739	939.33
456.112	949.72
456.486	949.04
456.859	963.51
457.232	948.14
457.606	944.75
457.979	971.87
458.352	993.34
458.725	1004.18
459.099	1007.57
459.472	1037.4
459.845	1031.3
460.218	1035.37
460.591	1045.09
460.964	1047.8
461.337	1036.72
461.71	1067.23
462.083	1097.74
462.456	1113.56
462.829	1103.16
463.201	1117.4
463.574	1127.57
463.947	1141.13
464.32	1176.61
464.692	1165.76
465.065	1175.25
465.438	1209.15
465.81	1207.79
466.183	1215.48
466.555	1224.29
466.928	1244.85
467.3	1236.49
467.672	1252.54
468.045	1283.95
468.417	1290.95
468.789	1308.36
469.161	1314.91
469.534	1346.32
469.906	1370.73
470.278	1373.21
470.65	1387
471.022	1404.4
471.394	1424.28
471.766	1436.26
472.138	1457.05
472.51	1481.01
472.882	1508.35
473.253	1532.3
473.625	1521.23
473.997	1590.38
474.369	1572.76
474.74	1592.42
475.112	1645.97
475.484	1669.25
475.855	1691.4
476.227	1721.68
476.598	1752.41
476.97	1756.93
477.341	1811.62
477.713	1850.49
478.084	1856.59
478.455	1898.62
478.827	1900.43
479.198	1948.11
479.569	1972.29
479.94	2026.98
480.311	2038.96
480.682	2062.01
481.053	2115.34
481.424	2148.33
481.795	2179.29
482.166	2212.06
482.537	2250.48
482.908	2268.56
483.279	2318.5
483.65	2408.21
484.021	2405.28
484.391	2425.39
484.762	2478.95
485.133	2514.65
485.503	2538.61
485.874	2609.56
486.244	2633.29
486.615	2679.39
486.985	2706.51
487.356	2787.41
487.726	2783.57
488.097	2857.24
488.467	2845.94
488.837	2913.96
489.207	2981.76
489.578	2995.99
489.948	2987.18
490.318	3080.51
490.688	3090
491.058	3139.04
491.428	3158.48
491.798	3241.86
492.168	3238.93
492.538	3313.95
492.908	3331.13
493.278	3370.22
493.648	3402.09
494.017	3420.39
494.387	3431.01
494.757	3476.21
495.126	3504.68
495.496	3521.63
495.866	3592.36
496.235	3550.33
496.605	3633.94
496.974	3666.49
497.344	3711.23
497.713	3680.72
498.082	3777.9
498.452	3797.56
498.821	3844.79
499.19	3821.74
499.559	3838.23
499.928	3864.22
500.298	3909.42
500.667	3961.39
501.036	3916.42
501.405	3991.9
501.774	4002.97
502.143	4026.25
502.512	4020.37
502.88	4097.89
503.249	4118.45
503.618	4121.16
503.987	4152.12
504.356	4141.73
504.724	4183.08
505.093	4172.46
505.462	4218.11
505.83	4243.65
506.199	4263.98
506.567	4307.6
506.936	4317.54
507.304	4386.69
507.672	4313.93
508.041	4339.69
508.409	4440.93
508.777	4424.88
509.145	4453.36
509.514	4490.42
509.882	4482.06
510.25	4534.49
510.618	4489.74
510.986	4546.24
511.354	4550.3
511.722	4627.14
512.09	4612.68
512.458	4640.92
512.826	4671.43
513.193	4663.3
513.561	4696.74
513.929	4679.57
514.297	4720.92
514.664	4792.11
515.032	4757.53
515.4	4785.55
515.767	4807.47
516.135	4854.48
516.502	4770.86
516.869	4895.83
517.237	4889.05
517.604	4851.99
517.972	4937.41
518.339	4973.12
518.706	4972.21
519.073	4932.21
519.44	5001.37
519.808	5013.57
520.175	4995.49
520.542	5115.94
520.909	5080.01
521.276	5087.69
521.643	5142.15
522.009	5196.16
522.376	5142.6
522.743	5206.56
523.11	5232.55
523.477	5262.15
523.843	5329.49
524.21	5308.02
524.577	5327.01
524.943	5433.22
525.31	5402.03
525.676	5413.78
526.043	5479.55
526.409	5522.03
526.776	5540.11
527.142	5572.88
527.508	5627.56
527.874	5629.82
528.241	5644.96
528.607	5644.74
528.973	5681.12
529.339	5722.7
529.705	5762.93
530.071	5752.53
530.437	5786.2
530.803	5826.43
531.169	5837.73
531.535	5855.35
531.901	5861
532.267	5927.44
532.632	5990.94
532.998	5960.66
533.364	6018.29
533.73	6009.7
534.095	6061.45
534.461	6091.73
534.826	6156.36
535.192	6102.58
535.557	6142.35
535.923	6211.96
536.288	6202.46
536.653	6196.81
537.019	6245.85
537.384	6311.16
537.749	6307.32
538.114	6338.28
538.479	6290.15
538.845	6326.3
539.21	6410.82
539.575	6395.23
539.94	6447.43
540.305	6470.48
540.67	6500.99
541.034	6500.76
541.399	6511.38
541.764	6563.58
542.129	6587.76
542.494	6621.44
542.858	6611.49
543.223	6640.64
543.587	6720.64
543.952	6689.46
544.316	6733.75
544.681	6713.19
545.045	6732.39
545.41	6757.48
545.774	6862.79
546.138	6821.66
546.503	6870.02
546.867	6908.66
547.231	6956.34
547.595	6999.73
547.959	6991.37
548.324	6927.19
548.688	7051.48
549.052	7063.23
549.416	7072.95
549.779	7039.96
550.143	7096.45
550.507	7176.45
550.871	7188.43
551.235	7152.27
551.599	7240.18
551.962	7213.06
552.326	7255.32
552.689	7314.3
553.053	7270.68
553.417	7307.07
553.78	7363.79
554.143	7354.52
554.507	7377.8
554.87	7440.4
555.234	7507.51
555.597	7509.77
555.96	7503.45
556.323	7518.59
556.686	7517.68
557.05	7519.27
557.413	7629.32
557.776	7635.65
558.139	7688.53
558.502	7621.86
558.865	7665.02
559.228	7745.93
559.59	7766.04
559.953	7754.51
560.316	7852.82
560.679	7858.69
561.041	7893.72
561.404	7990.44
561.767	7969.65
562.129	7982.3
562.492	8036.99
562.854	8011.68
563.217	8011.23
563.579	8085.13
563.941	8130.55
564.304	8074.96
564.666	8145.01
565.028	8167.38
565.39	8224.78
565.753	8327.38
566.115	8260.26
566.477	8325.35
566.839	8335.97
567.201	8343.65
567.563	8299.36
567.925	8524.44
568.287	8423.42
568.648	8420.03
569.01	8535.74
569.372	8539.58
569.734	8561.27
570.095	8583.64
570.457	8707.03
570.819	8712.91
571.18	8637.88
571.542	8716.75
571.903	8790.64
572.265	8875.61
572.626	8883.98
572.987	8888.5
573.349	8973.46
573.71	8981.15
574.071	9057.53
574.432	9116.29
574.794	9205.55
575.155	9125.33
575.516	9229.28
575.877	9298.65
576.238	9390.18
576.599	9460.01
576.96	9491.19
577.32	9532.32
577.681	9619.78
578.042	9689.6
578.403	9743.61
578.763	9838.98
579.124	9955.81
579.485	10060.44
579.845	10159.2
580.206	10198.07
580.566	10303.83
580.927	10482.58
581.287	10651.16
581.648	10714.21
582.008	10755.79
582.368	10951.04
582.728	11045.27
583.089	11160.75
583.449	11324.82
583.809	11466.73
584.169	11618.59
584.529	11687.07
584.889	12045.25
585.249	12057.68
585.609	12206.83
585.969	12486.37
586.329	12529.08
586.688	12809.52
587.048	12931.55
587.408	13124.09
587.768	13330.41
588.127	13562.5
588.487	13592.1
588.846	13958.19
589.206	14146.21
589.565	14371.06
589.925	14641.56
590.284	14890.6
590.643	15027.54
591.003	15357.25
591.362	15645.61
591.721	15794.98
592.08	16079.94
592.44	16307.51
592.799	16540.95
593.158	16858.46
593.517	17049.41
593.876	17395.16
594.235	17555.16
594.593	17838.32
594.952	18121.47
595.311	18365.31
595.67	18645.07
596.029	19031.28
596.387	19252.97
596.746	19567.76
597.104	19661.55
597.463	19894.31
597.822	20244.81
598.18	20413.39
598.538	20721.4
598.897	21064.9
599.255	21141.28
599.613	21725.9
599.972	21788.72
600.33	22186.22
600.688	22266.67
601.046	22595.71
601.404	22838.86
601.762	23093.55
602.12	23400.2
602.478	23634.77
602.836	23909.34
603.194	24024.37
603.552	24430.01
603.91	24512.27
604.268	24821.86
604.625	24966.72
604.983	25311.57
605.341	25427.95
605.698	25782.29
606.056	26098.89
606.413	26152
606.771	26445.55
607.128	26728.48
607.485	26744.75
607.843	26945.87
608.2	27350.61
608.557	27680.32
608.914	27641.45
609.272	27988.33
609.629	28209.12
609.986	28524.81
610.343	28609.33
610.7	28986.27
611.057	29075.76
611.414	29108.08
611.771	29458.12
612.127	29670.77
612.484	29703.32
612.841	29957.77
613.198	30118.45
613.554	30267.37
613.911	30531.99
614.267	30673.46
614.624	30717.53
614.98	30910.74
615.337	31152.77
615.693	31286.32
616.05	31279.32
616.406	31704.84
616.762	31630.72
617.118	31765.41
617.475	31923.14
617.831	32214.89
618.187	32253.53
618.543	32456.24
618.899	32677.47
619.255	32776.23
619.611	32857.81
619.967	32957.01
620.323	33136.22
620.678	33048.31
621.034	33100.74
621.39	33237.46
621.746	33401.3
622.101	33837.67
622.457	33428.64
622.812	33628.41
623.168	33809.42
623.523	33925.12
623.879	34141.16
624.234	33975.29
624.589	34156.76
624.945	34251.44
625.3	34381.38
625.655	34428.16
626.01	34471.78
626.365	34519.91
626.72	34547.48
627.075	34622.51
627.43	34683.98
627.785	34665.9
628.14	34881.48
628.495	34973.23
628.85	34843.29
629.205	34730.3
629.559	35072.44
629.914	35016.62
630.269	35046.23
630.623	35050.07
630.978	35023.85
631.332	35299.1
631.687	35343.39
632.041	35142.49
632.396	35314.92
632.75	35108.14
633.104	35323.51
633.459	35172.55
633.813	35168.03
634.167	35231.31
634.521	35219.78
634.875	35291.87
635.229	35373.45
635.583	35133.45
635.937	35305.65
636.291	35181.36
636.645	35280.12
636.999	35201.93
637.352	35309.5
637.706	35080.35
638.06	35235.15
638.413	35243.51
638.767	35088.26
639.121	35274.24
639.474	35058.43
639.828	35053.23
640.181	35233.34
640.534	35306.33
640.888	34989.05
641.241	34999.67
641.594	35037.86
641.947	35277.63
642.301	35063.63
642.654	35106.79
643.007	35187.01
643.36	35175.49
643.713	35089.84
644.066	35154.7
644.419	35116.96
644.771	34748.15
645.124	34539.35
645.477	34483.53
645.83	34306.13
646.182	34179.36
646.535	34147.04
646.888	34093.26
647.24	34007.83
647.593	34147.04
647.945	34117.21
648.298	33997.44
648.65	33892.36
649.002	33909.98
649.355	33906.37
649.707	33867.27
650.059	34207.6
650.411	34573.7
650.763	34560.59
651.115	34898.21
651.467	34707.03
651.819	34750.41
652.171	34629.29
652.523	34681.49
652.875	34612.56
653.227	34501.38
653.578	34715.39
653.93	34680.81
654.282	34410.08
654.633	34390.88
654.985	34513.13
655.337	34527.37
655.688	34478.1
656.039	34576.18
656.391	34304.78
656.742	34587.71
657.094	34490.08
657.445	34511.78
657.796	34354.04
658.147	34442.63
658.498	34358.33
658.849	34582.96
659.2	34505.22
659.551	34331.22
659.902	34404.89
660.253	34466.13
660.604	34516.52
660.955	34276.08
661.306	34507.03
661.656	34386.36
662.007	34457.77
662.358	34354.72
662.708	34442.4
663.059	34270.43
663.409	34057.32
663.76	34476.52
664.11	34455.28
664.461	34327.37
664.811	34347.26
665.161	34327.6
665.511	34186.59
665.862	34352.46
666.212	34289.41
666.562	34326.47
666.912	34384.77
667.262	34297.77
667.612	34353.81
667.962	34307.94
668.312	34282.86
668.662	34428.39
669.011	34251.9
669.361	34178.9
669.711	34258.45
670.06	34159.92
670.41	34107.49
670.76	34157.44
671.109	34256.64
671.459	34317.43
671.808	34051.9
672.157	34233.37
672.507	34005.35
672.856	34093.71
673.205	33958.57
673.554	34107.72
673.904	34026.37
674.253	34185.46
674.602	34055.74
674.951	33535.98
675.3	33444.69
675.649	34037.89
675.998	33906.82
676.346	33978.23
676.695	34182.07
677.044	33777.56
677.393	33882.87
677.741	34094.16
678.09	33909.53
678.438	33742.53
678.787	33819.59
679.135	33954.5
679.484	33636.32
679.832	33781.4
680.181	33566.26
680.529	33637.67
680.877	33600.39
681.225	33616.88
681.573	33688.07
681.922	33534.4
682.27	33448.08
682.618	33422.31
682.966	33367.17
683.314	33377.34
683.661	33382.77
684.009	33128.76
684.357	33167.4
684.705	32940.07
685.053	33085.15
685.4	33018.93
685.748	33013.28
686.095	32932.61
686.443	32821.88
686.79	32799.28
687.138	32847.41
687.485	32971.93
687.832	32611.49
688.18	32606.97
688.527	32450.81
688.874	32589.79
689.221	32514.54
689.568	32385.5
689.915	32224.38
690.262	32317.26
690.609	32294.66
690.956	31986.19
691.303	31979.41
691.65	31799.98
691.997	31879.98
692.344	31746.65
692.69	31752.98
693.037	31682.92
693.383	31413.78
693.73	31523.38
694.077	31434.12
694.423	31414
694.769	31352.54
695.116	31164.75
695.462	31099.89
695.808	31169.72
696.155	31101.92
696.501	30800.91
696.847	30856.73
697.193	30733.34
697.539	30739.22
697.885	30639.34
698.231	30431.66
698.577	30532.45
698.923	30400.25
699.269	30266.46
699.614	30190.76
699.96	30156.86
700.306	30254.49
700.651	30050.65
700.997	29892.69
701.342	29856.31
701.688	29716.87
702.033	29769.75
702.379	29771.79
702.724	29659.25
703.069	29727.5
703.415	29311.01
703.76	29357.79
704.105	29298.81
704.45	29280.73
704.795	29183.55
705.14	28935.88
705.485	29042.32
705.83	28894.75
706.175	28865.37
706.52	28765.71
706.865	28765.94
707.209	28681.65
707.554	28612.72
707.899	28814.3
708.243	28519.39
708.588	28524.14
708.932	28297.93
709.277	28313.07
709.621	28327.76
709.966	28082.79
710.31	28118.27
710.654	27913.53
710.998	28019.74
711.342	27929.12
711.687	28006.64
712.031	27676.93
712.375	27691.16
712.719	27855.91
713.063	27651.39
713.407	27734.33
713.75	27586.99
714.094	27659.75
714.438	27525.07
714.782	27550.6
715.125	27352.64
715.469	27370.5
715.812	27266.09
716.156	27183.38
716.499	27031.29
716.843	27173.21
717.186	27027.68
717.53	27090.28
717.873	27186.55
718.216	27051.18
718.559	26860.9
718.902	26780.91
719.246	26804.18
719.589	26751.53
719.932	26665.2
720.275	26624.53
720.617	26682.83
720.96	26549.05
721.303	26580.01
721.646	26526.45
721.989	26277.64
722.331	26404.87
722.674	26398.54
723.016	26208.49
723.359	26158.55
723.701	26323.52
724.044	26117.87
724.386	25964.66
724.729	26067.25
725.071	25998.55
725.413	25946.13
725.755	26015.5
726.097	25790.2
726.439	25739.13
726.782	25707.04
727.124	25840.14
727.465	25723.53
727.807	25676.75
728.149	25580.71
728.491	25618.22
728.833	25603.08
729.175	25467.27
729.516	25662.74
729.858	25394.28
730.199	25434.73
730.541	25423.43
730.882	25413.03
731.224	25300.49
731.565	25221.17
731.906	25286.48
732.248	25298.69
732.589	25231.79
732.93	24995.87
733.271	25123.1
733.612	25111.57
733.953	25086.26
734.294	25015.98
734.635	24957.23
734.976	25007.39
735.317	24848.53
735.658	24867.06
735.999	24943.89
736.339	24821.41
736.68	24794.74
737.021	24625.03
737.361	24574.64
737.702	24674.97
738.042	24653.96
738.383	24606.5
738.723	24585.48
739.063	24648.98
739.404	24559.27
739.744	24482.89
740.084	24343
740.424	24375.77
740.764	24408.09
741.104	24416.9
741.444	24340.52
741.784	24229.79
742.124	24315.43
742.464	24144.14
742.804	24089.45
743.143	24153.63
743.483	24120.64
743.823	23955.44
744.162	23860.98
744.502	23995.44
744.841	23852.85
745.181	23996.12
745.52	23857.37
745.86	23794.32
746.199	23880.42
746.538	23788.22
746.877	23805.62
747.216	23754.32
747.556	23689.69
747.895	23712.29
748.234	23577.37
748.573	23534.89
748.911	23511.16
749.25	23589.58
749.589	23444.95
749.928	23438.62
750.267	23512.74
750.605	23352.52
750.944	23300.09
751.283	23273.2
751.621	23372.18
751.96	23227.78
752.298	23122.92
752.636	23164.05
752.975	23019.65
753.313	22917.96
753.651	23108.01
753.989	22850.39
754.327	22928.13
754.666	22851.74
755.004	22858.52
755.342	22803.16
755.679	22809.48
756.017	22597.97
756.355	22710.28
756.693	22638.87
757.031	22695.82
757.368	22555.93
757.706	22529.49
758.044	22471.87
758.381	22426.67
758.719	22351.87
759.056	22334.02
759.394	22231.2
759.731	22104.42
760.068	22079.11
760.405	21983.74
