Data from hue_38_FLMS001491_00055.txt Node
Date: Tue Feb 07 17:31:41 GMT 2017
User: dcchb
Spectrometer: FLMS00149
Trigger mode: 0
Integration Time (sec): 2.000000E-2
Scans to average: 10
Electric dark correction enabled: true
Nonlinearity correction enabled: false
Boxcar width: 0
XAxis mode: Wavelengths
Number of Pixels in Spectrum: 2048
>>>>>Begin Spectral Data<<<<<
341.393	-5.73
341.776	-5.73
342.16	-5.73
342.543	-36.24
342.927	-71.95
343.31	-67.65
343.693	-70.82
344.077	-55
344.46	-45.73
344.843	-65.39
345.226	-41.67
345.61	-37.15
345.993	-18.84
346.376	-10.25
346.759	1.27
347.142	19.35
347.525	47.15
347.908	60.48
348.291	92.34
348.674	89.63
349.057	102.29
349.44	141.83
349.823	161.27
350.206	152.91
350.588	213.24
350.971	224.09
351.354	241.49
351.737	264.99
352.119	246.24
352.502	264.77
352.884	273.81
353.267	301.6
353.65	317.2
354.032	311.55
354.414	319.68
354.797	335.27
355.179	319.68
355.562	320.81
355.944	320.13
356.326	331.88
356.709	360.13
357.091	359.91
357.473	341.15
357.855	342.96
358.238	338.89
358.62	324.2
359.002	339.57
359.384	352.22
359.766	354.03
360.148	344.76
360.53	360.36
360.912	324.88
361.294	349.28
361.676	342.96
362.057	348.15
362.439	355.16
362.821	339.57
363.203	353.13
363.584	334.14
363.966	351.09
364.348	356.97
364.729	337.31
365.111	314.71
365.493	335.5
365.874	311.77
366.256	328.72
366.637	311.77
367.019	319.91
367.4	331.21
367.781	328.04
368.163	324.65
368.544	322.17
368.925	314.26
369.306	328.04
369.688	346.8
370.069	320.36
370.45	327.14
370.831	310.64
371.212	333.01
371.593	313.35
371.974	323.52
372.355	325.33
372.736	352
373.117	335.5
373.498	314.03
373.879	328.95
374.26	304.99
374.641	307.03
375.021	333.01
375.402	330.98
375.783	337.08
376.163	340.92
376.544	313.58
376.925	328.27
377.305	326.23
377.686	354.71
378.066	332.56
378.447	338.44
378.827	345.44
379.208	357.19
379.588	353.13
379.968	350.64
380.349	343.86
380.729	350.41
381.109	346.12
381.489	337.99
381.87	335.95
382.25	361.26
382.63	350.64
383.01	349.74
383.39	370.3
383.77	343.41
384.15	369.62
384.53	353.35
384.91	349.74
385.29	365.56
385.67	354.71
386.049	354.48
386.429	360.13
386.809	359.45
387.189	388.15
387.568	348.83
387.948	366.01
388.328	342.96
388.707	371.43
389.087	373.46
389.466	377.53
389.846	367.59
390.225	409.62
390.605	383.63
390.984	368.95
391.363	376.4
391.743	387.02
392.122	377.53
392.501	386.57
392.881	385.89
393.26	384.76
393.639	405.1
394.018	390.64
394.397	375.05
394.776	388.38
395.155	392.67
395.534	398.1
395.913	390.19
396.292	379.11
396.671	408.27
397.05	416.4
397.429	417.53
397.808	420.24
398.186	404.42
398.565	395.61
398.944	419.34
399.323	395.61
399.701	407.14
400.08	409.4
400.458	411.88
400.837	418.89
401.215	403.97
401.594	422.28
401.972	429.96
402.351	420.24
402.729	414.37
403.107	435.84
403.486	439.23
403.864	429.96
404.242	406.91
404.62	417.31
404.999	415.72
405.377	435.38
405.755	440.36
406.133	452.33
406.511	450.07
406.889	440.13
407.267	439.45
407.645	444.2
408.023	473.12
408.401	448.04
408.779	454.82
409.156	457.98
409.534	462.95
409.912	462.5
410.29	455.95
410.667	472.9
411.045	459.11
411.422	506.34
411.8	480.58
412.178	484.42
412.555	493.24
412.933	514.25
413.31	490.75
413.687	513.57
414.065	520.81
414.442	493.24
414.819	504.31
415.197	494.82
415.574	491.65
415.951	517.64
416.328	528.49
416.705	516.74
417.082	515.16
417.46	509.28
417.837	523.97
418.214	547.02
418.591	541.37
418.967	548.38
419.344	531.43
419.721	514.25
420.098	546.57
420.475	567.81
420.852	541.14
421.228	545.44
421.605	555.15
421.982	584.98
422.358	568.94
422.735	563.06
423.111	582.5
423.488	568.49
423.864	582.95
424.241	577.98
424.617	587.92
424.994	576.62
425.37	610.52
425.746	590.63
426.123	577.75
426.499	581.14
426.875	604.42
427.251	621.14
427.627	627.7
428.003	635.15
428.379	608.03
428.756	624.08
429.132	657.53
429.507	643.06
429.883	641.03
430.259	666.34
430.635	654.59
431.011	652.1
431.387	679.67
431.763	664.08
432.138	664.98
432.514	686.22
432.89	673.12
433.265	699.33
433.641	709.73
434.016	702.04
434.392	705.89
434.767	701.14
435.143	720.8
435.518	717.86
435.894	753.57
436.269	727.81
436.644	747.69
437.02	739.56
437.395	739.33
437.77	762.38
438.145	762.83
438.52	769.61
438.895	780.46
439.271	784.53
439.646	783.62
440.021	793.79
440.395	804.87
440.77	816.16
441.145	810.97
441.52	801.48
441.895	811.42
442.27	817.75
442.645	820.23
443.019	843.96
443.394	836.5
443.769	847.8
444.143	848.03
444.518	875.82
444.892	838.99
445.267	863.4
445.641	867.24
446.016	866.33
446.39	885.32
446.764	888.25
447.139	873.34
447.513	897.29
447.887	858.88
448.262	895.71
448.636	867.01
449.01	877.86
449.384	934.81
449.758	920.12
450.132	917.41
450.506	924.41
450.88	938.2
451.254	918.08
451.628	937.29
452.002	948.82
452.376	958.76
452.75	976.84
453.123	981.58
453.497	994.47
453.871	1008.02
454.244	1000.57
454.618	1031.75
454.992	1020.45
455.365	1061.58
455.739	1075.14
456.112	1074.92
456.486	1075.59
456.859	1064.07
457.232	1107.91
457.606	1084.63
457.979	1117.63
458.352	1133.44
458.725	1136.38
459.099	1147.23
459.472	1161.47
459.845	1152.88
460.218	1178.64
460.591	1194.69
460.964	1170.96
461.337	1208.02
461.71	1257.96
462.083	1267
462.456	1286.89
462.829	1278.98
463.201	1288.02
463.574	1315.81
463.947	1337.96
464.32	1344.96
464.692	1339.32
465.065	1339.99
465.438	1379.09
465.81	1391.74
466.183	1450.27
466.555	1468.35
466.928	1482.36
467.3	1468.35
467.672	1487.56
468.045	1523.94
468.417	1514
468.789	1546.54
469.161	1547.22
469.534	1620.89
469.906	1663.83
470.278	1677.16
470.65	1698.4
471.022	1725.97
471.394	1784.28
471.766	1788.12
472.138	1792.41
472.51	1868.57
472.882	1888.45
473.253	1911.73
473.625	1974.1
473.997	1991.95
474.369	2017.72
474.74	2031.5
475.112	2087.09
475.484	2111.27
475.855	2192.85
476.227	2212.06
476.598	2293.87
476.97	2337.03
477.341	2369.12
477.713	2436.46
478.084	2441.88
478.455	2575.21
478.827	2592.39
479.198	2720.3
479.569	2743.12
479.94	2799.84
480.311	2867.41
480.682	2979.72
481.053	3042.32
481.424	3095.2
481.795	3170
482.166	3255.2
482.537	3335.42
482.908	3423.78
483.279	3442.08
483.65	3583.78
484.021	3690.44
484.391	3775.64
484.762	3812.02
485.133	3925.46
485.503	4022.86
485.874	4112.35
486.244	4190.77
486.615	4291.55
486.985	4367.48
487.356	4527.03
487.726	4566.57
488.097	4724.54
488.467	4802.95
488.837	4920.01
489.207	5007.69
489.578	5153.45
489.948	5226.67
490.318	5361.81
490.688	5473.67
491.058	5528.81
491.428	5664.85
491.798	5788.69
492.168	5906.88
492.538	5974.22
492.908	6089.02
493.278	6226.42
493.648	6275.23
494.017	6376.24
494.387	6542.34
494.757	6685.39
495.126	6794.31
495.496	6814.88
495.866	6897.81
496.235	6985.72
496.605	7185.26
496.974	7228.43
497.344	7328.54
497.713	7421.64
498.082	7562.2
498.452	7672.03
498.821	7781.86
499.19	7871.35
499.559	7877.67
499.928	8044.68
500.298	8111.79
500.667	8209.42
501.036	8259.59
501.405	8427.94
501.774	8421.61
502.143	8548.84
502.512	8643.53
502.88	8720.59
503.249	8768.72
503.618	8906.12
503.987	8912
504.356	9004.42
504.724	9116.06
505.093	9121.48
505.462	9294.59
505.83	9359.44
506.199	9345.21
506.567	9515.82
506.936	9601.24
507.304	9699.77
507.672	9779.32
508.041	9806.21
508.409	9938.86
508.777	10098.86
509.145	10096.82
509.514	10227.44
509.882	10245.97
510.25	10297.72
510.618	10376.37
510.986	10401
511.354	10518.06
511.722	10549.92
512.09	10669.01
512.458	10670.82
512.826	10860.19
513.193	10901.78
513.561	11014.99
513.929	11007.08
514.297	11099.06
514.664	11200.07
515.032	11317.81
515.4	11322.1
515.767	11416.34
516.135	11524.58
516.502	11503.57
516.869	11640.97
517.237	11678.48
517.604	11715.77
517.972	11837.8
518.339	11901.98
518.706	11789.44
519.073	12036.89
519.44	12070.56
519.808	12138.58
520.175	12181.06
520.542	12324.34
520.909	12308.29
521.276	12391.68
521.643	12534.27
522.009	12567.95
522.376	12692.46
522.743	12744.89
523.11	12842.97
523.477	12985.79
523.843	12991.21
524.21	13215.84
524.577	13177.87
524.943	13370.64
525.31	13341.94
525.676	13449.05
526.043	13603.17
526.409	13703.96
526.776	13794.13
527.142	13811.98
527.508	13908.93
527.874	13990.51
528.241	14036.38
528.607	14106.66
528.973	14228.24
529.339	14282.25
529.705	14404.51
530.071	14489.03
530.437	14520.21
530.803	14608.12
531.169	14751.17
531.535	14689.92
531.901	14745.97
532.267	14807.44
532.632	14935.79
532.998	15012.85
533.364	15074.1
533.73	15155.9
534.095	15174.21
534.461	15336.24
534.826	15464.82
535.192	15426.63
535.557	15555.21
535.923	15599.51
536.288	15692.61
536.653	15736.9
537.019	15705.94
537.384	15801.31
537.749	15921.98
538.114	15823
538.479	15978.25
538.845	16108.87
539.21	16115.42
539.575	16087.18
539.94	16151.13
540.305	16244.91
540.67	16231.13
541.034	16335.3
541.399	16519.03
541.764	16480.61
542.129	16539.37
542.494	16519.48
542.858	16701.85
543.223	16650.32
543.587	16826.14
543.952	16790.21
544.316	16886.7
544.681	16910.88
545.045	17067.49
545.41	17061.61
545.774	17108.17
546.138	17162.63
546.503	17215.73
546.867	17177.32
547.231	17487.14
547.595	17468.16
547.959	17514.48
548.324	17586.8
548.688	17622.95
549.052	17671.77
549.416	17760.35
549.779	17686.91
550.143	17867.02
550.507	17886.22
550.871	17916.28
551.235	17989.95
551.599	18078.54
551.962	18166.22
552.326	18177.29
552.689	18395.82
553.053	18241.24
553.417	18313.78
553.78	18505.19
554.143	18475.81
554.507	18613.44
554.87	18652.31
555.234	18778.4
555.597	18763.26
555.96	18713.77
556.323	18859.98
556.686	18896.14
557.05	19008.45
557.413	19042.8
557.776	19106.31
558.139	19203.25
558.502	19251.39
558.865	19378.39
559.228	19421.55
559.59	19552.85
559.953	19511.04
560.316	19722.33
560.679	19817.93
561.041	19798.04
561.404	19863.12
561.767	20022.67
562.129	19930.01
562.492	20187.63
562.854	20138.14
563.217	20113.28
563.579	20264.24
563.941	20283.9
564.304	20314.86
564.666	20561.86
565.028	20503.56
565.39	20660.61
565.753	20909.42
566.115	20928.86
566.477	20989.65
566.839	21059.93
567.201	21129.08
567.563	21154.84
567.925	21216.08
568.287	21253.59
568.648	21268.06
569.01	21403.42
569.372	21555.51
569.734	21603.64
570.095	21641.15
570.457	21859.91
570.819	21811.32
571.18	21841.6
571.542	22077.07
571.903	22032.78
572.265	22218.31
572.626	22196.39
572.987	22326.79
573.349	22352.55
573.71	22586.67
574.071	22631.41
574.432	22782.37
574.794	22947.33
575.155	22967.67
575.516	22997.28
575.877	23079.08
576.238	23228.68
576.599	23452.41
576.96	23500.77
577.32	23562.91
577.681	23817.59
578.042	23835.45
578.403	24002
578.763	24153.86
579.124	24352.72
579.485	24527.18
579.845	24688.31
580.206	24705.25
580.566	24835.19
580.927	25023.89
581.287	25240.61
581.648	25322.19
582.008	25623.42
582.368	25745
582.728	25806.02
583.089	25991.77
583.449	26099.12
583.809	26363.97
584.169	26555.6
584.529	26659.33
584.889	27116.72
585.249	27042.82
585.609	27171.86
585.969	27598.74
586.329	27643.03
586.688	28050.03
587.048	28200.76
587.408	28313.97
587.768	28634.64
588.127	28757.8
588.487	28966.84
588.846	29273.27
589.206	29236.66
589.565	29626.25
589.925	29928.17
590.284	30090.65
590.643	30230.98
591.003	30561.15
591.362	30858.76
591.721	30959.55
592.08	31065.77
592.44	31468.01
592.799	31620.78
593.158	31771.06
593.517	32082.91
593.876	32315
594.235	32330.59
594.593	32535.78
594.952	32931.7
595.311	33030.46
595.67	33376.66
596.029	33634.29
596.387	33869.76
596.746	34073.37
597.104	34231.78
597.463	34386.13
597.822	34837.64
598.18	34752.9
598.538	34940.69
598.897	35278.54
599.255	35298.42
599.613	36050.72
599.972	35902.7
600.33	35916.94
600.688	36129.81
601.046	36435.57
601.404	36740.19
601.762	36832.62
602.12	37057.7
602.478	37060.86
602.836	37320.52
603.194	37386.05
603.552	37553.73
603.91	37524.8
604.268	38064.68
604.625	37981.74
604.983	38300.6
605.341	38277.78
605.698	38543.76
606.056	38718.22
606.413	38811.32
606.771	39063.75
607.128	39340.12
607.485	39183.74
607.843	39410.18
608.2	39726.78
608.557	39856.27
608.914	39768.14
609.272	40271.85
609.629	40201.57
609.986	40462.13
610.343	40444.5
610.7	40750.93
611.057	40649.69
611.414	40840.42
611.771	40905.73
612.127	41101.66
612.484	41298.94
612.841	41408.54
613.198	41507.98
613.554	41624.58
613.911	41880.17
614.267	41913.84
614.624	42045.82
614.98	42078.58
615.337	42348.41
615.693	42333.27
616.05	42359.93
616.406	42613.71
616.762	42665.69
617.118	42707.27
617.475	42799.02
617.831	42920.37
618.187	43017.77
618.543	43035.17
618.899	43393.35
619.255	43396.97
619.611	43374.59
619.967	43614.81
620.323	43556.74
620.678	43580.69
621.034	43511.77
621.39	43604.64
621.746	43583.85
622.101	44233.55
622.457	43856.16
622.812	44057.29
623.168	44110.39
623.523	44168.47
623.879	44198.53
624.234	44021.58
624.589	44205.31
624.945	44380.22
625.3	44369.14
625.655	44449.37
626.01	44534.11
626.365	44448.01
626.72	44495.47
627.075	44558.97
627.43	44557.16
627.785	44668.35
628.14	44655.92
628.495	44634
628.85	44712.64
629.205	44499.76
629.559	44874.89
629.914	44710.38
630.269	44765.29
630.623	44702.47
630.978	44602.13
631.332	44842.8
631.687	44882.8
632.041	44656.37
632.396	44753.09
632.75	44655.24
633.104	44778.17
633.459	44568.46
633.813	44645.52
634.167	44652.75
634.521	44664.73
634.875	44833.31
635.229	44677.61
635.583	44683.03
635.937	44676.71
636.291	44536.37
636.645	44682.36
636.999	44533.89
637.352	44825.63
637.706	44399.88
638.06	44747.21
638.413	44707.44
638.767	44588.12
639.121	44642.81
639.474	44291.86
639.828	44540.89
640.181	44375.7
640.534	44455.7
640.888	44315.59
641.241	44188.13
641.594	44415.47
641.947	44481.91
642.301	44309.48
642.654	44333.21
643.007	44417.5
643.36	44307
643.713	44163.73
644.066	44322.82
644.419	44100
644.771	43964.63
645.124	43424.54
645.477	43274.03
645.83	43312
646.182	43110.19
646.535	43103.41
646.888	43104.09
647.24	42921.27
647.593	43139.57
647.945	42997.88
648.298	42889.18
648.65	42798.79
649.002	42645.8
649.355	43019.58
649.707	42901.16
650.059	43006.24
650.411	43371.66
650.763	43459.56
651.115	43888.48
651.467	43816.39
651.819	43679.22
652.171	43711.53
652.523	43759.22
652.875	43560.8
653.227	43459.56
653.578	43782.49
653.93	43620.92
654.282	43348.83
654.633	43395.16
654.985	43446.23
655.337	43420.92
655.688	43373.46
656.039	43571.42
656.391	43348.61
656.742	43357.65
657.094	43473.12
657.445	43599.67
657.796	43488.49
658.147	43424.99
658.498	43343.86
658.849	43343.63
659.2	43436.29
659.551	43215.28
659.902	43316.74
660.253	43357.42
660.604	43311.09
660.955	43224.99
661.306	43342.5
661.656	43149.29
662.007	43226.12
662.358	43238.33
662.708	43249.85
663.059	43357.42
663.409	42932.8
663.76	43209.85
664.11	43252.79
664.461	43200.36
664.811	43140.93
665.161	43273.35
665.511	43078.1
665.862	43054.6
666.212	43213.92
666.562	43206.91
666.912	43132.11
667.262	43133.7
667.612	43107.93
667.962	43192
668.312	43116.75
668.662	43306.12
669.011	43180.47
669.361	43053.47
669.711	43152.23
670.06	43018.45
670.41	42863.87
670.76	42908.62
671.109	43105.45
671.459	42994.04
671.808	42901.39
672.157	42901.16
672.507	42806.93
672.856	42841.27
673.205	42712.92
673.554	42916.53
673.904	42743.65
674.253	43042.17
674.602	42791.11
674.951	42431.79
675.3	42199.71
675.649	42673.6
675.998	42649.64
676.346	42796.08
676.695	42799.69
677.044	42456.43
677.393	42722.86
677.741	42749.98
678.09	42585.91
678.438	42428.4
678.787	42517.67
679.135	42663.43
679.484	42342.98
679.832	42415.75
680.181	42274.74
680.529	42190.22
680.877	42335.98
681.225	42100.05
681.573	42368.74
681.922	42059.37
682.27	41985.7
682.618	41980.05
682.966	41941.64
683.314	42077.68
683.661	41900.51
684.009	41647.63
684.357	41660.97
684.705	41685.15
685.053	41676.33
685.4	41637.46
685.748	41286.51
686.095	41455.55
686.443	41220.3
686.79	41324.03
687.138	41258.72
687.485	41333.97
687.832	41232.5
688.18	41198.15
688.527	40947.99
688.874	40897.37
689.221	40868.22
689.568	40812.18
689.915	40681.11
690.262	40773.76
690.609	40465.29
690.956	40477.5
691.303	40348.91
691.65	40025.53
691.997	40298.29
692.344	40062.14
692.69	39972.2
693.037	39973.78
693.383	39612.66
693.73	39733.11
694.077	39629.83
694.423	39530.4
694.769	39517.52
695.116	39389.61
695.462	39298.77
695.808	39170.18
696.155	39366.34
696.501	39058.78
696.847	39004.77
697.193	38668.28
697.539	38802.96
697.885	38588.51
698.231	38569.3
698.577	38485.23
698.923	38427.15
699.269	38390.09
699.614	38127.27
699.96	38160.27
700.306	37974.28
700.651	37875.3
700.997	37699.71
701.342	37773.16
701.688	37720.73
702.033	37591.47
702.379	37565.71
702.724	37336.33
703.069	37538.82
703.415	37064.25
703.76	37184.93
704.105	37105.61
704.45	37097.92
704.795	36823.81
705.14	36683.02
705.485	36664.49
705.83	36530.25
706.175	36497.26
706.52	36432.18
706.865	36410.26
707.209	36305.63
707.554	36136.37
707.899	36208
708.243	36012.08
708.588	35998.29
708.932	35721.69
709.277	35787.67
709.621	35716.49
709.966	35523.27
710.31	35604.4
710.654	35424.97
710.998	35525.31
711.342	35402.15
711.687	35424.52
712.031	35055.26
712.375	34994.93
712.719	35106.11
713.063	35093.46
713.407	35046.68
713.75	34970.52
714.094	34943.86
714.438	34674.71
714.782	34810.07
715.125	34467.71
715.469	34606.91
715.812	34428.39
716.156	34267.94
716.499	34285.34
716.843	34276.08
717.186	34144.1
717.53	34252.8
717.873	34271.1
718.216	34078.79
718.559	34014.84
718.902	33672.25
719.246	33959.93
719.589	33697.79
719.932	33648.07
720.275	33804.22
720.617	33570.56
720.96	33586.83
721.303	33559.94
721.646	33526.49
721.989	33396.78
722.331	33483.55
722.674	33409.21
723.016	33482.2
723.359	33304.8
723.701	33412.14
724.044	33211.7
724.386	32917.24
724.729	33063.23
725.071	32888.77
725.413	33013.06
725.755	32889.45
726.097	32717.7
726.439	32633.41
726.782	32716.57
727.124	32812.61
727.465	32572.17
727.807	32584.82
728.149	32481.77
728.491	32400.87
728.833	32468.67
729.175	32159.52
729.516	32225.96
729.858	32235.23
730.199	32303.7
730.541	32190.93
730.882	32142.8
731.224	32212.4
731.565	31922.24
731.906	31958.85
732.248	31832.52
732.589	31854.44
732.93	31764.28
733.271	31857.16
733.612	31851.73
733.953	31781.45
734.294	31695.35
734.635	31563.61
734.976	31624.39
735.317	31487.45
735.658	31404.51
735.999	31559.99
736.339	31413.55
736.68	31543.27
737.021	31287.45
737.361	31219.43
737.702	31447.45
738.042	31087.01
738.383	31184.18
738.723	31152.77
739.063	31115.48
739.404	30964.3
739.744	31113.22
740.084	30823.29
740.424	30784.64
740.764	30856.05
741.104	30970.63
741.444	30593.69
741.784	30629.39
742.124	30759.78
742.464	30732.21
742.804	30591.43
743.143	30435.5
743.483	30457.87
743.823	30277.09
744.162	30398.44
744.502	30370.42
744.841	30306.46
745.181	30334.71
745.52	30394.6
745.86	30215.84
746.199	30117.77
746.538	30111.44
746.877	30166.35
747.216	30202.51
747.556	30053.36
747.895	29968.39
748.234	29942.86
748.573	29921.61
748.911	29885.68
749.25	29789.87
749.589	29670.55
749.928	29694.05
750.267	29834.39
750.605	29743.31
750.944	29518.46
751.283	29433.27
751.621	29554.17
751.96	29387.17
752.298	29436.66
752.636	29345.36
752.975	29293.61
753.313	29078.02
753.651	29166.38
753.989	29086.61
754.327	28974.52
754.666	28875.54
755.004	28963.22
755.342	29003.22
755.679	28846.61
756.017	28615.21
756.355	28816.11
756.693	28573.63
