Data from hue_50_FLMS001491_91.txt Node
Date: Mon Feb 06 15:11:21 GMT 2017
User: dcchb
Spectrometer: FLMS00149
Trigger mode: 0
Integration Time (sec): 2.000000E-2
Scans to average: 10
Electric dark correction enabled: true
Nonlinearity correction enabled: false
Boxcar width: 0
XAxis mode: Wavelengths
Number of Pixels in Spectrum: 2048
>>>>>Begin Spectral Data<<<<<
341.393	-11.04
341.776	-11.04
342.16	-11.04
342.543	-78.61
342.927	-77.48
343.31	-64.83
343.693	-70.03
344.077	-42.46
344.46	-74.09
344.843	-72.74
345.226	-42.23
345.61	-28.9
345.993	-17.6
346.376	1.16
346.759	5.45
347.142	16.07
347.525	41.84
347.908	55.62
348.291	82.06
348.674	91.78
349.057	118.9
349.44	130.19
349.823	158.67
350.206	173.81
350.588	212
350.971	213.36
351.354	220.59
351.737	255.39
352.119	252.45
352.502	254.48
352.884	262.62
353.267	270.08
353.65	287.93
354.032	302.62
354.414	309.85
354.797	311.21
355.179	324.31
355.562	327.7
355.944	341.94
356.326	330.64
356.709	327.93
357.091	354.37
357.473	347.36
357.855	340.81
358.238	330.19
358.62	352.56
359.002	360.92
359.384	367.7
359.766	356.63
360.148	326.12
360.53	350.3
360.912	352.79
361.294	355.5
361.676	341.94
362.057	345.56
362.439	356.63
362.821	352.79
363.203	334.93
363.584	330.64
363.966	320.02
364.348	323.41
364.729	318.44
365.111	321.83
365.493	321.83
365.874	325.22
366.256	322.28
366.637	317.31
367.019	306.46
367.4	337.65
367.781	334.26
368.163	323.41
368.544	321.6
368.925	315.05
369.306	326.35
369.688	322.96
370.069	327.7
370.45	305.78
370.831	313.24
371.212	322.96
371.593	320.92
371.974	309.62
372.355	313.24
372.736	324.09
373.117	311.21
373.498	327.48
373.879	327.7
374.26	322.51
374.641	320.25
375.021	305.33
375.402	339.45
375.783	311.21
376.163	334.48
376.544	326.8
376.925	325.9
377.305	343.07
377.686	340.81
378.066	353.24
378.447	324.77
378.827	333.13
379.208	343.52
379.588	350.3
379.968	337.19
380.349	346.91
380.729	329.06
381.109	367.25
381.489	322.28
381.87	342.17
382.25	350.08
382.63	345.56
383.01	331.54
383.39	360.24
383.77	344.88
384.15	346.91
384.53	346.23
384.91	339.68
385.29	358.44
385.67	361.83
386.049	360.92
386.429	369.28
386.809	356.63
387.189	358.21
387.568	372
387.948	345.78
388.328	381.26
388.707	358.44
389.087	362.73
389.466	372.9
389.846	366.57
390.225	382.17
390.605	362.28
390.984	361.6
391.363	355.73
391.743	390.98
392.122	376.06
392.501	363.63
392.881	368.61
393.26	381.04
393.639	374.71
394.018	372.45
394.397	373.13
394.776	392.11
395.155	385.1
395.534	381.26
395.913	400.24
396.292	398.44
396.671	416.97
397.05	405.67
397.429	417.64
397.808	406.8
398.186	404.76
398.565	399.79
398.944	407.7
399.323	415.16
399.701	409.51
400.08	422.62
400.458	419.23
400.837	396.4
401.215	428.04
401.594	410.19
401.972	422.62
402.351	419
402.729	427.59
403.107	440.69
403.486	437.76
403.864	443.18
404.242	404.31
404.62	430.75
404.999	423.29
405.377	417.87
405.755	443.86
406.133	455.16
406.511	438.21
406.889	454.25
407.267	433.69
407.645	473.01
408.023	461.94
408.401	446.34
408.779	456.74
409.156	465.33
409.534	475.72
409.912	480.24
410.29	477.98
410.667	479.34
411.045	468.72
411.422	468.94
411.8	490.86
412.178	478.66
412.555	481.82
412.933	483.63
413.31	495.16
413.687	501.03
414.065	524.53
414.442	515.72
414.819	520.47
415.197	530.41
415.574	517.53
415.951	522.27
416.328	541.26
416.705	532.67
417.082	520.92
417.46	541.03
417.837	529.05
418.214	524.53
418.591	549.84
418.967	525.89
419.344	540.58
419.721	536.29
420.098	541.03
420.475	550.75
420.852	549.62
421.228	562.95
421.605	555.95
421.982	583.52
422.358	590.75
422.735	596.62
423.111	578.77
423.488	595.94
423.864	611.31
424.241	576.06
424.617	605.44
424.994	607.02
425.37	633.46
425.746	602.5
426.123	597.75
426.499	609.96
426.875	616.96
427.251	641.59
427.627	638.66
428.003	625.77
428.379	654.93
428.756	640.46
429.132	658.54
429.507	654.02
429.883	665.32
430.259	679.56
430.635	685.66
431.011	687.69
431.387	681.14
431.763	709.61
432.138	687.92
432.514	706.68
432.89	700.35
433.265	723.63
433.641	710.29
434.016	734.92
434.392	746.68
434.767	731.08
435.143	759.1
435.518	758.65
435.894	778.31
436.269	773.34
436.644	767.92
437.02	787.13
437.395	794.13
437.77	799.78
438.145	788.93
438.52	823.96
438.895	826.9
439.271	804.98
439.646	843.85
440.021	816.05
440.395	833.9
440.77	830.74
441.145	842.49
441.52	846.33
441.895	831.42
442.27	859.67
442.645	848.14
443.019	868.93
443.394	889.04
443.769	884.98
444.143	891.76
444.518	888.14
444.892	884.52
445.267	883.62
445.641	909.61
446.016	896.28
446.39	920.91
446.764	917.74
447.139	913.22
447.513	927.01
447.887	922.72
448.262	939.89
448.636	953.9
449.01	932.66
449.384	958.2
449.758	972.66
450.132	968.59
450.506	971.53
450.88	1004.97
451.254	983.28
451.628	1003.62
452.002	1005.65
452.376	1052.66
452.75	1018.08
453.123	1024.86
453.497	1062.37
453.871	1044.07
454.244	1072.77
454.618	1067.57
454.992	1081.36
455.365	1091.07
455.739	1115.03
456.112	1104.86
456.486	1134.24
456.859	1131.75
457.232	1143.28
457.606	1147.12
457.979	1170.62
458.352	1195.03
458.725	1193.67
459.099	1239.32
459.472	1223.95
459.845	1257.62
460.218	1258.3
460.591	1266.89
460.964	1285.19
461.337	1283.16
461.71	1315.25
462.083	1326.1
462.456	1356.15
462.829	1339.2
463.201	1363.16
463.574	1391.63
463.947	1410.84
464.32	1392.76
464.692	1410.16
465.065	1424.4
465.438	1448.35
465.81	1513.21
466.183	1495.81
466.555	1533.55
466.928	1552.3
467.3	1568.12
467.672	1605.64
468.045	1632.08
468.417	1648.12
468.789	1654
469.161	1645.41
469.534	1748
469.906	1753.43
470.278	1741.9
470.65	1800.66
471.022	1848.79
471.394	1841.11
471.766	1880.66
472.138	1917.27
472.51	1951.62
472.882	2029.13
473.253	2033.2
473.625	2063.48
473.997	2126.75
474.369	2128.11
474.74	2168.11
475.112	2235.45
475.484	2280.87
475.855	2349.8
476.227	2377.37
476.598	2419.63
476.97	2459.85
477.341	2534.2
477.713	2629.34
478.084	2651.94
478.455	2728.09
478.827	2808.09
479.198	2919.05
479.569	2928.31
479.94	3051.47
480.311	3124.47
480.682	3229.32
481.053	3298.47
481.424	3352.71
481.795	3453.95
482.166	3558.58
482.537	3616.43
482.908	3700.27
483.279	3780.72
483.65	3879.47
484.021	4039.02
484.391	4108.62
484.762	4188.17
485.133	4233.59
485.503	4408.73
485.874	4536.18
486.244	4596.74
486.615	4798.32
486.985	4850.97
487.356	5031.53
487.726	5101.59
488.097	5280.34
488.467	5331.87
488.837	5495.25
489.207	5613.89
489.578	5768.24
489.948	5909.25
490.318	6014.33
490.688	6082.13
491.058	6289.81
491.428	6372.29
491.798	6568.22
492.168	6729.34
492.538	6858.6
492.908	6963.23
493.278	7123
493.648	7249.78
494.017	7400.74
494.387	7539.72
494.757	7708.98
495.126	7871.91
495.496	7920.5
495.866	8093.15
496.235	8170.89
496.605	8314.84
496.974	8480.94
497.344	8677.99
497.713	8735.17
498.082	8898.55
498.452	9084.31
498.821	9106.68
499.19	9223.97
499.559	9398.88
499.928	9523.85
500.298	9633.67
500.667	9851.75
501.036	9858.98
501.405	10017.17
501.774	10064.4
502.143	10244.5
502.512	10324.5
502.88	10581.22
503.249	10582.8
503.618	10690.82
503.987	10806.75
504.356	10949.8
504.724	11005.39
505.093	11178.72
505.462	11258.72
505.83	11408.32
506.199	11498.26
506.567	11685.82
506.936	11734.63
507.304	11913.16
507.672	11994.52
508.041	12162.19
508.409	12233.38
508.777	12420.72
509.145	12523.99
509.514	12565.12
509.882	12668.17
510.25	12817.54
510.618	13011.44
510.986	13041.95
511.354	13163.07
511.722	13332.56
512.09	13475.61
512.458	13424.99
512.826	13612.1
513.193	13716.96
513.561	13737.07
513.929	13893.9
514.297	14028.36
514.664	14198.75
515.032	14265.64
515.4	14383.6
515.767	14437.39
516.135	14587.89
516.502	14581.79
516.869	14754.67
517.237	14876.93
517.604	14893.87
517.972	14991.27
518.339	15194.66
518.706	15248.89
519.073	15440.3
519.44	15547.64
519.808	15668.32
520.175	15672.84
520.542	15804.81
520.909	15976.11
521.276	16021.08
521.643	16183.11
522.009	16261.3
522.376	16470.78
522.743	16548.75
523.11	16676.65
523.477	16892.01
523.843	16971.11
524.21	17191.67
524.577	17295.39
524.943	17295.62
525.31	17382.62
525.676	17619.45
526.043	17781.71
526.409	17886.34
526.776	17976.96
527.142	18067.35
527.508	18205.88
527.874	18362.26
528.241	18468.24
528.607	18477.96
528.973	18748.24
529.339	18641.8
529.705	18949.36
530.071	19043.37
530.437	19075.91
530.803	19291.95
531.169	19379.63
531.535	19387.32
531.901	19524.49
532.267	19523.58
532.632	19635.22
532.998	19777.36
533.364	19885.16
533.73	19933.74
534.095	20130.12
534.461	20262.09
534.826	20302.09
535.192	20332.37
535.557	20445.37
535.923	20546.38
536.288	20672.25
536.653	20745.02
537.019	20624.34
537.384	20760.84
537.749	20956.09
538.114	21100.72
538.479	20995.18
538.845	21293.71
539.21	21154.95
539.575	21168.51
539.94	21243.76
540.305	21469.75
540.67	21431.78
541.034	21546.58
541.399	21776.86
541.764	21758.55
542.129	21826.35
542.494	21840.13
542.858	21956.29
543.223	22066.34
543.587	22221.36
543.952	22121.93
544.316	22264.53
544.681	22169.16
545.045	22442.83
545.41	22427.69
545.774	22537.51
546.138	22542.49
546.503	22605.08
546.867	22649.15
547.231	22907.22
547.595	22854.57
547.959	22982.02
548.324	22975.24
548.688	23093.66
549.052	23182.47
549.416	23267.67
549.779	23232.64
550.143	23318.06
550.507	23530.03
550.871	23613.42
551.235	23569.8
551.599	23747.2
551.962	23732.29
552.326	23914.88
552.689	24163.46
553.053	24068.32
553.417	24084.59
553.78	24506.73
554.143	24318.03
554.507	24314.42
554.87	24523.9
555.234	24728.64
555.597	24548.76
555.96	24718.47
556.323	24870.79
556.686	24842.54
557.05	25137.45
557.413	24981.74
557.776	25165.92
558.139	25351.45
558.502	25387.38
558.865	25536.53
559.228	25568.4
559.59	25626.93
559.953	25659.69
560.316	25891.32
560.679	25979.68
561.041	26153.01
561.404	26331.99
561.767	26506
562.129	26418.32
562.492	26698.54
562.854	26654.02
563.217	26703.05
563.579	26855.37
563.941	27028.47
564.304	27131.97
564.666	27340.1
565.028	27304.85
565.39	27392.75
565.753	27563.15
566.115	27687.89
566.477	27752.52
566.839	27792.52
567.201	28038.39
567.563	28019.4
567.925	28056.24
568.287	28088.33
568.648	28333.75
569.01	28341.88
569.372	28492.16
569.734	28574.64
570.095	28713.62
570.457	28879.95
570.819	28948.87
571.18	29006.05
571.542	29189.09
571.903	29236.77
572.265	29346.83
572.626	29361.52
572.987	29481.74
573.349	29636.99
573.71	29658.46
574.071	29826.14
574.432	30011.22
574.794	30076.98
575.155	30277.65
575.516	30087.82
575.877	30253.7
576.238	30405.56
576.599	30648.71
576.96	30624.08
577.32	30525.78
577.681	30811.2
578.042	30963.28
578.403	31048.93
578.763	31130.28
579.124	31220.22
579.485	31478.75
579.845	31486.43
580.206	31533.89
580.566	31691.85
580.927	31763.03
581.287	31872.86
581.648	31786.09
582.008	31980.88
582.368	32045.06
582.728	32221.33
583.089	32359.63
583.449	32443.92
583.809	32590.13
584.169	32573.86
584.529	32699.96
584.889	32912.16
585.249	32885.27
585.609	32987.64
585.969	33102.43
586.329	33211.36
586.688	33295.2
587.048	33336.55
587.408	33325.48
587.768	33559.6
588.127	33631.46
588.487	33695.87
588.846	34169.3
589.206	33812.25
589.565	34041.62
589.925	34253.82
590.284	34281.84
590.643	34456.3
591.003	34565.67
591.362	34733.58
591.721	34627.14
592.08	34732
592.44	34928.83
592.799	35028.71
593.158	35197.07
593.517	35130.86
593.876	35371.53
594.235	35333.79
594.593	35462.15
594.952	35525.2
595.311	35504.63
595.67	35656.72
596.029	35797.05
596.387	36123.37
596.746	36133.09
597.104	36062.13
597.463	36144.84
597.822	36340.99
598.18	36302.58
598.538	36333.08
598.897	36582.34
599.255	36409.01
599.613	36860.75
599.972	36785.28
600.33	36915.89
600.688	36759.74
601.046	37004.93
601.404	37098.49
601.762	37135.77
602.12	37468.87
602.478	37508.42
602.836	37645.37
603.194	37470.46
603.552	37557.91
603.91	37604.92
604.268	37777.79
604.625	37822.99
604.983	37886.04
605.341	37908.18
605.698	38070.21
606.056	38219.81
606.413	38166.26
606.771	38424.1
607.128	38417.55
607.485	38380.04
607.843	38490.09
608.2	38754.72
608.557	38873.13
608.914	38773.92
609.272	38878.33
609.629	39039.68
609.986	38986.57
610.343	38934.37
610.7	39394.25
611.057	39402.83
611.414	39358.54
611.771	39526.22
612.127	39476.28
612.484	39637.4
612.841	39725.31
613.198	39542.04
613.554	39679.66
613.911	40034.23
614.267	39902.03
614.624	39996.94
614.98	40098.86
615.337	40342.7
615.693	40268.12
616.05	40212.08
616.406	40442.58
616.762	40437.16
617.118	40453.2
617.475	40491.62
617.831	40617.27
618.187	40612.52
618.543	40615.46
618.899	41064.03
619.255	40929.57
619.611	40834.89
619.967	41059.29
620.323	41183.8
620.678	40965.28
621.034	40989.23
621.39	40971.15
621.746	40986.52
622.101	41473.74
622.457	41200.07
622.812	41232.62
623.168	41315.33
623.523	41353.29
623.879	41457.02
624.234	41294.99
624.589	41501.54
624.945	41461.08
625.3	41406.4
625.655	41420.41
626.01	41597.58
626.365	41462.67
626.72	41482.33
627.075	41600.29
627.43	41575.43
627.785	41537.02
628.14	41585.38
628.495	41623.34
628.85	41544.92
629.205	41504.02
629.559	41747.86
629.914	41551.25
630.269	41622.89
630.623	41672.15
630.978	41555.55
631.332	41617.24
631.687	41840.28
632.041	41651.59
632.396	41784.01
632.75	41551.25
633.104	41675.32
633.459	41469.22
633.813	41489.33
634.167	41551.03
634.521	41545.38
634.875	41561.2
635.229	41431.71
635.583	41309.9
635.937	41292.73
636.291	41313.97
636.645	41334.08
636.999	41352.39
637.352	41317.81
637.706	41166.18
638.06	41248.44
638.413	40989.68
638.767	41166.86
639.121	41260.41
639.474	40880.99
639.828	41049.8
640.181	41275.1
640.534	41093.19
640.888	40928.22
641.241	40885.73
641.594	40822.68
641.947	41144.94
642.301	40891.61
642.654	40984.04
643.007	41013.41
643.36	40795.11
643.713	40669.02
644.066	40935.9
644.419	40586.53
644.771	40471.05
645.124	40136.37
645.477	40188.35
645.83	39765.99
646.182	39679.21
646.535	39573.68
646.888	39686.67
647.24	39306.57
647.593	39733.45
647.945	39533.9
648.298	39371.2
648.65	39329.39
649.002	39208.04
649.355	39395.15
649.707	39288.03
650.059	39436.96
650.411	39825.2
650.763	39962.59
651.115	40309.48
651.467	40132.53
651.819	40182.93
652.171	40106.09
652.523	40042.14
652.875	40180.89
653.227	39996.49
653.578	40152.87
653.93	40062.25
654.282	39920.11
654.633	39638.31
654.985	39868.81
655.337	39981.8
655.688	39854.12
656.039	40005.98
656.391	39664.3
656.742	39900.67
657.094	39884.4
657.445	39965.98
657.796	39881.92
658.147	39866.55
658.498	39797.85
658.849	39762.6
659.2	39849.15
659.551	39621.13
659.902	39758.3
660.253	39825.2
660.604	39735.48
660.955	39550.17
661.306	39702.71
661.656	39701.13
662.007	39689.15
662.358	39673.11
662.708	39672.43
663.059	39511.31
663.409	39309.28
663.76	39702.94
664.11	39533
664.461	39622.72
664.811	39653.9
665.161	39592.66
665.511	39486.9
665.862	39476.96
666.212	39532.32
666.562	39676.5
666.912	39493.68
667.262	39468.59
667.612	39552.89
667.962	39509.72
668.312	39410.74
668.662	39643.73
669.011	39496.62
669.361	39353.34
669.711	39444.87
670.06	39316.96
670.41	39316.96
670.76	39306.11
671.109	39449.61
671.459	39372.55
671.808	39257.08
672.157	39251.88
672.507	39036.29
672.856	39094.82
673.205	39023.63
673.554	39238.77
673.904	38999.68
674.253	39236.51
674.602	39159
674.951	38594.04
675.3	38318.12
675.649	39021.38
675.998	38978.66
676.346	38952
676.695	39017.53
677.044	38900.02
677.393	38905.9
677.741	39043.52
678.09	38897.99
678.438	38809.18
678.787	38872.68
679.135	38884.66
679.484	38782.74
679.832	38814.83
680.181	38479.69
680.529	38669.97
680.877	38595.4
681.225	38526.25
681.573	38885.33
681.922	38429.07
682.27	38500.26
682.618	38428.4
682.966	38265.91
683.314	38487.15
683.661	38256.42
684.009	38069.54
684.357	37995.87
684.705	37999.26
685.053	38164.67
685.4	37973.27
685.748	37775.76
686.095	37737.57
686.443	37619.6
686.79	37694.4
687.138	37566.5
687.485	37672.03
687.832	37466.39
688.18	37373.51
688.527	37309.78
688.874	37284.7
689.221	37228.88
689.568	37179.84
689.915	37011.48
690.262	36967.42
690.609	36905.05
690.956	36869.34
691.303	36812.62
691.65	36725.39
691.997	36689.01
692.344	36416.92
692.69	36379.64
693.037	36404.27
693.383	36168.57
693.73	36352.74
694.077	36044.28
694.423	36024.62
694.769	35999.99
695.116	35823.95
695.462	35822.82
695.808	35646.77
696.155	35657.4
696.501	35533.33
696.847	35564.06
697.193	35273.23
697.539	35540.34
697.885	35265.09
698.231	35055.6
698.577	35097.41
698.923	35012.89
699.269	34832.56
699.614	34692.22
699.96	34661.72
700.306	34681.83
700.651	34412
700.997	34331.78
701.342	34252.23
701.688	34260.37
702.033	34221.5
702.379	34132.46
702.724	34084.1
703.069	34120.71
703.415	33686.37
703.76	33694.96
704.105	33816.99
704.45	33642.31
704.795	33395.99
705.14	33529.54
705.485	33291.81
705.83	33177.46
706.175	33354.41
706.52	32954.42
706.865	32970.46
707.209	33019.27
707.554	32914.19
707.899	32999.84
708.243	32741.99
708.588	32742.44
708.932	32408.67
709.277	32428.1
709.621	32538.61
709.966	32303.13
710.31	32352.4
710.654	32169.35
710.998	32178.39
711.342	32101.56
711.687	32013.42
712.031	31999.64
712.375	31774.56
712.719	31757.61
713.063	31936.36
713.407	31658.4
713.75	31677.84
714.094	31643.94
714.438	31477.84
714.782	31578.41
715.125	31532.53
715.469	31531.18
715.812	31267.45
716.156	31137.51
716.499	31239.66
716.843	31130.96
717.186	30936.39
717.53	31129.61
717.873	31098.42
718.216	31118.53
718.559	30861.82
718.902	30663.4
719.246	30767.81
719.589	30639.22
719.932	30461.6
720.275	30601.94
720.617	30540.02
720.96	30413.01
721.303	30315.16
721.646	30425.67
721.989	30106.36
722.331	30306.35
722.674	30128.5
723.016	30271.1
723.359	30245.79
723.701	30093.47
724.044	30026.13
724.386	29779.36
724.729	30024.32
725.071	29827.49
725.413	29871.11
725.755	29835.4
726.097	29679.7
726.439	29636.31
726.782	29516.31
727.124	29784.1
727.465	29416.66
727.807	29491.91
728.149	29241.29
728.491	29303.21
728.833	29234.97
729.175	29188.64
729.516	29239.49
729.858	29124.23
730.199	29248.98
730.541	29095.76
730.882	29020.51
731.224	29080.85
731.565	28948.65
731.906	28898.93
732.248	28922.88
732.589	28755.88
732.93	28686.51
733.271	28806.73
733.612	28727.63
733.953	28735.54
734.294	28653.51
734.635	28617.35
734.976	28595.66
735.317	28498.04
735.658	28571.71
735.999	28396.8
736.339	28340.07
736.68	28484.7
737.021	28355.67
737.361	28300.53
737.702	28364.48
738.042	28372.84
738.383	28163.36
738.723	28276.57
739.063	28039.97
739.404	28049.23
739.744	27989.8
740.084	27991.61
740.424	27930.82
740.764	27839.97
741.104	27899.41
741.444	27818.05
741.784	27682.24
742.124	27672.75
742.464	27592.52
742.804	27628
743.143	27595.01
743.483	27550.72
743.823	27583.48
744.162	27456.48
744.502	27493.77
744.841	27352.08
745.181	27472.07
745.52	27350.04
745.86	27214.68
746.199	27272.08
746.538	27189.82
746.877	27409.03
747.216	27376.94
747.556	27071.18
747.895	27202.7
748.234	27015.82
748.573	26924.74
748.911	26910.96
749.25	26926.1
749.589	26921.81
749.928	26891.3
750.267	26800
750.605	26641.81
750.944	26712.09
751.283	26584.64
751.621	26623.06
751.96	26449.28
752.298	26457.41
752.636	26410.63
752.975	26292.44
753.313	26248.6
753.651	26284.08
753.989	26173.8
754.327	26175.39
754.666	26088.16
755.004	26083.41
755.342	26071.66
755.679	25955.73
756.017	25857.2
756.355	25922.51
756.693	25704.66
