Data from hue_40_FLMS001491_7.txt Node
Date: Mon Feb 06 15:07:22 GMT 2017
User: dcchb
Spectrometer: FLMS00149
Trigger mode: 0
Integration Time (sec): 2.000000E-2
Scans to average: 10
Electric dark correction enabled: true
Nonlinearity correction enabled: false
Boxcar width: 0
XAxis mode: Wavelengths
Number of Pixels in Spectrum: 2048
>>>>>Begin Spectral Data<<<<<
341.393	-21.07
341.776	-21.07
342.16	-21.07
342.543	-57.23
342.927	-59.94
343.31	-63.56
343.693	-57.46
344.077	-75.99
344.46	-87.74
344.843	-55.65
345.226	-44.8
345.61	-24.46
345.993	-22.2
346.376	0.62
346.759	16.89
347.142	29.1
347.525	39.49
347.908	46.27
348.291	73.61
348.674	110.68
349.057	115.19
349.44	120.17
349.823	130.79
350.206	166.72
350.588	212.14
350.971	201.97
351.354	216.21
351.737	228.64
352.119	236.1
352.502	259.15
352.884	258.69
353.267	273.83
353.65	295.08
354.032	312.25
354.414	301.86
354.797	333.27
355.179	319.71
355.562	283.55
355.944	325.81
356.326	335.75
356.709	322.87
357.091	311.57
357.473	360.39
357.855	319.48
358.238	342.76
358.62	322.19
359.002	337.79
359.384	343.66
359.766	338.69
360.148	352.7
360.53	348.63
360.912	337.11
361.294	342.76
361.676	333.72
362.057	335.08
362.439	335.53
362.821	324.91
363.203	331.01
363.584	323.78
363.966	330.1
364.348	332.36
364.729	310.67
365.111	328.52
365.493	324.68
365.874	316.55
366.256	317.45
366.637	320.39
367.019	329.65
367.4	324.23
367.781	308.18
368.163	307.96
368.544	312.25
368.925	302.31
369.306	323.78
369.688	310.44
370.069	317.22
370.45	318.35
370.831	316.32
371.212	301.63
371.593	324.91
371.974	306.83
372.355	297.56
372.736	309.54
373.117	318.13
373.498	321.97
373.879	320.39
374.26	327.17
374.641	298.92
375.021	311.12
375.402	317.22
375.783	316.32
376.163	325.81
376.544	318.13
376.925	336.88
377.305	309.09
377.686	330.33
378.066	317.68
378.447	348.41
378.827	333.95
379.208	328.07
379.588	343.21
379.968	326.04
380.349	330.33
380.729	335.75
381.109	341.63
381.489	361.06
381.87	341.18
382.25	329.43
382.63	341.63
383.01	330.33
383.39	347.28
383.77	355.19
384.15	353.15
384.53	345.02
384.91	366.49
385.29	354.06
385.67	360.16
386.049	368.3
386.429	370.33
386.809	367.39
387.189	357.9
387.568	355.64
387.948	364.45
388.328	350.44
388.707	358.8
389.087	332.82
389.466	355.87
389.846	367.84
390.225	371.46
390.605	353.83
390.984	361.52
391.363	364.23
391.743	364.45
392.122	377.33
392.501	372.14
392.881	375.98
393.26	379.14
393.639	380.5
394.018	371.69
394.397	374.17
394.776	392.25
395.155	375.53
395.534	384.11
395.913	364.91
396.292	382.08
396.671	390.67
397.05	386.37
397.429	385.92
397.808	390.89
398.186	385.47
398.565	385.7
398.944	399.26
399.323	389.09
399.701	386.83
400.08	397
400.458	414.85
400.837	395.19
401.215	406.49
401.594	415.75
401.972	424.57
402.351	382.53
402.729	399.93
403.107	428.86
403.486	430.89
403.864	414.4
404.242	426.37
404.62	412.81
404.999	409.2
405.377	426.82
405.755	418.69
406.133	434.96
406.511	429.31
406.889	426.37
407.267	432.25
407.645	442.87
408.023	451.23
408.401	449.65
408.779	455.98
409.156	451.23
409.534	441.51
409.912	451.46
410.29	463.66
410.667	456.43
411.045	453.72
411.422	459.37
411.8	477.67
412.178	473.6
412.555	475.64
412.933	450.55
413.31	501.85
413.687	490.78
414.065	480.83
414.442	475.41
414.819	458.01
415.197	478.57
415.574	501.63
415.951	497.56
416.328	502.98
416.705	478.8
417.082	502.53
417.46	499.82
417.837	511.12
418.214	503.43
418.591	504.56
418.967	503.89
419.344	498.91
419.721	520.83
420.098	530.55
420.475	535.52
420.852	538.69
421.228	547.73
421.605	537.1
421.982	562.41
422.358	561.28
422.735	528.52
423.111	553.38
423.488	530.55
423.864	561.74
424.241	584.11
424.617	581.17
424.994	538.46
425.37	558.57
425.746	532.81
426.123	588.18
426.499	584.33
426.875	585.01
427.251	597.89
427.627	592.47
428.003	618.68
428.379	607.84
428.756	609.19
429.132	602.19
429.507	618.23
429.883	624.33
430.259	620.72
430.635	645.8
431.011	622.75
431.387	652.58
431.763	638.12
432.138	639.7
432.514	653.49
432.89	650.77
433.265	649.64
433.641	681.28
434.016	681.51
434.392	673.82
434.767	688.29
435.143	698.91
435.518	690.77
435.894	702.3
436.269	694.84
436.644	723.99
437.02	708.17
437.395	717.89
437.77	727.61
438.145	720.15
438.52	743.43
438.895	724.44
439.271	745.91
439.646	759.92
440.021	782.75
440.395	749.08
440.77	768.74
441.145	775.97
441.52	788.62
441.895	767.61
442.27	791.79
442.645	774.39
443.019	805.57
443.394	811
443.769	811.9
444.143	817.55
444.518	818
444.892	803.76
445.267	809.41
445.641	810.77
446.016	830.2
446.39	806.48
446.764	838.11
447.139	848.73
447.513	841.05
447.887	818.68
448.262	849.19
448.636	832.46
449.01	844.44
449.384	874.04
449.758	900.03
450.132	861.16
450.506	898
450.88	872.01
451.254	882.63
451.628	892.8
452.002	916.98
452.376	937.09
452.75	943.87
453.123	919.69
453.497	937.32
453.871	954.95
454.244	965.57
454.618	947.49
454.992	980.48
455.365	963.08
455.739	996.75
456.112	1014.15
456.486	1027.71
456.859	1031.78
457.232	1046.7
457.606	1039.01
457.979	1040.59
458.352	1081.05
458.725	1085.11
459.099	1090.99
459.472	1118.33
459.845	1113.81
460.218	1115.62
460.591	1141.83
460.964	1136.64
461.337	1150.2
461.71	1169.4
462.083	1213.24
462.456	1213.24
462.829	1233.13
463.201	1203.75
463.574	1240.36
463.947	1250.08
464.32	1267.48
464.692	1290.76
465.065	1314.03
465.438	1289.4
465.81	1350.87
466.183	1358.78
466.555	1379.34
466.928	1402.39
467.3	1414.82
467.672	1422.5
468.045	1436.06
468.417	1443.75
468.789	1481.49
469.161	1472.67
469.534	1523.29
469.906	1538.43
470.278	1569.39
470.65	1598.77
471.022	1596.29
471.394	1643.29
471.766	1669.96
472.138	1693.68
472.51	1723.74
472.882	1770.97
473.253	1770.07
473.625	1819.78
473.997	1831.31
474.369	1889.16
474.74	1925.77
475.112	1947.01
475.484	1982.26
475.855	2055.26
476.227	2052.54
476.598	2116.95
476.97	2158.76
477.341	2205.54
477.713	2265.19
478.084	2332.09
478.455	2401.24
478.827	2404.85
479.198	2498.86
479.569	2537.96
479.94	2595.36
480.311	2648.24
480.682	2717.61
481.053	2826.76
481.424	2879.87
481.795	2963.71
482.166	3004.84
482.537	3069.47
482.908	3149.01
483.279	3207.99
483.65	3299.29
484.021	3423.36
484.391	3486.63
484.762	3571.83
485.133	3656.8
485.503	3723.91
485.874	3791.48
486.244	3858.15
486.615	3988.09
486.985	4068.09
487.356	4162.55
487.726	4215.65
488.097	4360.73
488.467	4452.03
488.837	4575.87
489.207	4660.16
489.578	4727.73
489.948	4832.13
490.318	4996.87
490.688	5046.82
491.058	5140.15
491.428	5235.29
491.798	5311.67
492.168	5485
492.538	5562.96
492.908	5613.36
493.278	5799.34
493.648	5831.65
494.017	5922.05
494.387	6102.16
494.757	6192.55
495.126	6277.74
495.496	6312.77
495.866	6460.11
496.235	6545.53
496.605	6639.54
496.974	6759.09
497.344	6856.94
497.713	6941.68
498.082	7002.7
498.452	7137.83
498.821	7225.06
499.19	7286.76
499.559	7387.09
499.928	7496.7
500.298	7612.4
500.667	7705.05
501.036	7696.69
501.405	7795.67
501.774	7884.26
502.143	8066.17
502.512	8060.3
502.88	8220.97
503.249	8247.86
503.618	8364.47
503.987	8406.5
504.356	8445.15
504.724	8495.99
505.093	8586.16
505.462	8698.02
505.83	8768.75
506.199	8935.75
506.567	9052.13
506.936	9032.93
507.304	9180.49
507.672	9177.78
508.041	9255.29
508.409	9353.14
508.777	9450.77
509.145	9541.61
509.514	9619.8
509.882	9680.37
510.25	9659.58
510.618	9807.82
510.986	9884.43
511.354	9922.85
511.722	10029.96
512.09	10116.06
512.458	10130.52
512.826	10265.44
513.193	10295.94
513.561	10378.2
513.929	10449.61
514.297	10578.42
514.664	10599.21
515.032	10664.3
515.4	10779.55
515.767	10850.73
516.135	10869.71
516.502	10834.91
516.869	11039.2
517.237	11104.51
517.604	11075.36
517.972	11223.6
518.339	11358.74
518.706	11410.72
519.073	11380.21
519.44	11388.8
519.808	11572.29
520.175	11609.81
520.542	11827.66
520.909	11811.16
521.276	11817.03
521.643	11984.26
522.009	11972.28
522.376	12072.39
522.743	12202.56
523.11	12303.35
523.477	12386.96
523.843	12480.29
524.21	12558.48
524.577	12649.78
524.943	12714.19
525.31	12797.12
525.676	12897.68
526.043	12935.2
526.409	13071.46
526.776	13220.84
527.142	13230.1
527.508	13342.19
527.874	13359.37
528.241	13501.96
528.607	13533.15
528.973	13631.9
529.339	13643.2
529.705	13753.93
530.071	13853.36
530.437	13991.44
530.803	14018.11
531.169	14113.24
531.535	14053.81
531.901	14208.61
532.267	14219.46
532.632	14314.37
532.998	14259.23
533.364	14481.82
533.73	14515.95
534.095	14632.78
534.461	14683.85
534.826	14684.76
535.192	14774.92
535.557	14885.88
535.923	14989.61
536.288	15020.79
536.653	15019.89
537.019	15091.98
537.384	15126.1
537.749	15256.72
538.114	15254.68
538.479	15310.95
538.845	15409.48
539.21	15351.86
539.575	15485.19
539.94	15550.04
540.305	15643.83
540.67	15543.26
541.034	15693.09
541.399	15756.14
541.764	15781.68
542.129	15880.43
542.494	15923.59
542.858	15925.63
543.223	15990.26
543.587	16124.27
543.952	16178.73
544.316	16281.55
544.681	16281.32
545.045	16311.15
545.41	16416.69
545.774	16423.92
546.138	16492.17
546.503	16650.35
546.867	16596.57
547.231	16700.52
547.595	16762.21
547.959	16813.96
548.324	16851.93
548.688	16908.2
549.052	16974.19
549.416	16948.88
549.779	17060.06
550.143	17112.94
550.507	17216.89
550.871	17267.96
551.235	17257.34
551.599	17478.35
551.962	17416.89
552.326	17488.98
552.689	17642.19
553.053	17513.16
553.417	17620.72
553.78	17799.48
554.143	17695.52
554.507	17803.32
554.87	17901.39
555.234	18010.32
555.597	17929.19
555.96	17996.31
556.323	18212.35
556.686	18205.57
557.05	18315.17
557.413	18325.56
557.776	18387.26
558.139	18469.06
558.502	18578.44
558.865	18584.31
559.228	18630.64
559.59	18734.59
559.953	18773.01
560.316	18904.98
560.679	18924.42
561.041	19149.72
561.404	19263.84
561.767	19303.39
562.129	19184.75
562.492	19429.04
562.854	19408.02
563.217	19427
563.579	19522.37
563.941	19624.74
564.304	19730.05
564.666	19872.64
565.028	19850.95
565.39	19913.32
565.753	19964.62
566.115	20078.74
566.477	20158.28
566.839	20123.26
567.201	20241.9
567.563	20280.31
567.925	20453.87
568.287	20431.5
568.648	20563.47
569.01	20739.96
569.372	20793.52
569.734	20786.52
570.095	20807.31
570.457	20913.07
570.819	21055.89
571.18	21118.03
571.542	21231.7
571.903	21466.72
572.265	21432.83
572.626	21482.32
572.987	21537.23
573.349	21584.69
573.71	21753.72
574.071	21876.43
574.432	21835.75
574.794	22189.64
575.155	22179.7
575.516	22129.98
575.877	22299.7
576.238	22360.26
576.599	22426.25
576.96	22627.15
577.32	22661.95
577.681	22806.8
578.042	22940.36
578.403	23041.37
578.763	23078.66
579.124	23218.09
579.485	23435.71
579.845	23615.59
580.206	23632.99
580.566	23743.73
580.927	23971.29
581.287	24179.19
581.648	24206.09
582.008	24457.83
582.368	24478.62
582.728	24607.43
583.089	24742.34
583.449	24957.03
583.809	24973.07
584.169	25334.19
584.529	25341.88
584.889	25650.57
585.249	25725.14
585.609	25899.38
585.969	26123.55
586.329	26219.59
586.688	26525.12
587.048	26705
587.408	26627.72
587.768	26926.69
588.127	27088.95
588.487	27301.15
588.846	27606.45
589.206	27639.22
589.565	27805.77
589.925	28066.78
590.284	28286.43
590.643	28453.88
591.003	28757.83
591.362	28843.7
591.721	29117.82
592.08	29252.28
592.44	29428.1
592.799	29576.57
593.158	29829.67
593.517	29891.36
593.876	30097.01
594.235	30305.14
594.593	30452.7
594.952	30701.74
595.311	30770.66
595.67	30971.56
596.029	31362.96
596.387	31547.14
596.746	31679.56
597.104	31660.35
597.463	31861.03
597.822	32142.6
598.18	32256.72
598.538	32367
598.897	32597.5
599.255	32649.48
599.613	33262.8
599.972	33020.09
600.33	33354.55
600.688	33447.2
601.046	33665.72
601.404	33976.45
601.762	33820.75
602.12	34125.15
602.478	34298.25
602.836	34423.45
603.194	34348.87
603.552	34449.66
603.91	34710.44
604.268	34906.6
604.625	35080.38
604.983	35231.11
605.341	35260.26
605.698	35530.53
606.056	35657.99
606.413	35821.6
606.771	35917.42
607.128	36017.08
607.485	35901.82
607.843	36103.85
608.2	36465.88
608.557	36657.51
608.914	36641.47
609.272	36962.14
609.629	36982.7
609.986	37196.48
610.343	37120.32
610.7	37299.98
611.057	37519.86
611.414	37589.01
611.771	37580.88
612.127	37783.81
612.484	37855.9
612.841	37954.2
613.198	37941.32
613.554	38099.28
613.911	38513.06
614.267	38447.29
614.624	38464.47
614.98	38688.87
615.337	38941.07
615.693	38778.36
616.05	38762.31
616.406	39012.25
616.762	38927.06
617.118	39094.51
617.475	38983.55
617.831	39261.28
618.187	39363.43
618.543	39467.83
618.899	39743.76
619.255	39663.99
619.611	39680.48
619.967	39969.97
620.323	39919.57
620.678	39935.62
621.034	39957.08
621.39	40009.06
621.746	40035.28
622.101	40526.11
622.457	40234.82
622.812	40103.3
623.168	40341.26
623.523	40497.64
623.879	40496.28
624.234	40327.24
624.589	40508.26
624.945	40681.36
625.3	40698.76
625.655	40520.69
626.01	40847.68
626.365	40808.59
626.72	40761.13
627.075	40844.97
627.43	40857.85
627.785	40734.47
628.14	40886.78
628.495	40854.69
628.85	40922.03
629.205	40869.83
629.559	41046.32
629.914	40868.47
630.269	40972.2
630.623	40925.2
630.978	40896.04
631.332	41013.78
631.687	41026.44
632.041	40895.14
632.396	40853.78
632.75	40767.01
633.104	40985.08
633.459	40923.84
633.813	40577.86
634.167	40826.44
634.521	40905.53
634.875	40964.74
635.229	40942.14
635.583	40630.74
635.937	40735.82
636.291	40751.41
636.645	40824.63
636.999	40753.9
637.352	40816.95
637.706	40574.02
638.06	40651.76
638.413	40618.08
638.767	40610.85
639.121	40564.75
639.474	40360.01
639.828	40389.39
640.181	40549.39
640.534	40365.89
640.888	40377.64
641.241	40295.83
641.594	40428.03
641.947	40393.91
642.301	40317.3
642.654	40326.11
643.007	40256.96
643.36	40296.29
643.713	40296.51
644.066	40399.33
644.419	40167.47
644.771	39972.23
645.124	39749.41
645.477	39490.66
645.83	39343.54
646.182	39161.85
646.535	39121.4
646.888	39152.13
647.24	38964.79
647.593	39149.2
647.945	39082.31
648.298	38919.15
648.65	38933.16
649.002	38956.66
649.355	38915.76
649.707	38912.82
650.059	38936.09
650.411	39562.07
650.763	39494.5
651.115	39875.28
651.467	39805.22
651.819	39793.25
652.171	39715.96
652.523	39587.83
652.875	39562.29
653.227	39480.26
653.578	39668.96
653.93	39622.4
654.282	39480.49
654.633	39361.85
654.985	39357.55
655.337	39478.91
655.688	39506.48
656.039	39449.75
656.391	39288.85
656.742	39283.88
657.094	39215.86
657.445	39480.04
657.796	39371.34
658.147	39247.27
658.498	39273.49
658.849	39393.71
659.2	39318.23
659.551	39116.2
659.902	39435.52
660.253	39271.68
660.604	39364.78
660.955	39093.38
661.306	39287.72
661.656	39175.86
662.007	39169.76
662.358	39149.42
662.708	39216.99
663.059	39151.68
663.409	38871.24
663.76	39156.88
664.11	39164.34
664.461	39323.43
664.811	39140.84
665.161	39174.05
665.511	38958.69
665.862	39009.31
666.212	39216.09
666.562	39256.54
666.912	39289.31
667.262	39140.16
667.612	39093.83
667.962	39123.43
668.312	39124.79
668.662	39176.31
669.011	38951.46
669.361	38893.38
669.711	38948.07
670.06	38914.17
670.41	38882.08
670.76	38738.81
671.109	39075.3
671.459	38915.08
671.808	38748.3
672.157	38978.58
672.507	38659.04
672.856	38769.32
673.205	38854.52
673.554	38867.17
673.904	38716.67
674.253	38951.24
674.602	38679.83
674.951	38161.2
675.3	38085.72
675.649	38593.28
675.998	38600.96
676.346	38587.18
676.695	38832.14
677.044	38290.01
677.393	38467.63
677.741	38549.21
678.09	38558.03
678.438	38431.02
678.787	38421.31
679.135	38491.59
679.484	38208.2
679.832	38318.48
680.181	38170.01
680.529	38331.37
680.877	38019.51
681.225	38175.44
681.573	38256.79
681.922	38040.98
682.27	37864.48
682.618	37911.72
682.966	37919.4
683.314	38035.33
683.661	37797.37
684.009	37658.84
684.357	37626.75
684.705	37706.07
685.053	37681.89
685.4	37580.88
685.748	37318.74
686.095	37418.17
686.443	37243.71
686.79	37101.79
687.138	37183.6
687.485	37233.54
687.832	37107.89
688.18	37148.57
688.527	36965.53
688.874	36926.88
689.221	36804.4
689.568	36802.37
689.915	36641.69
690.262	36664.06
690.609	36680.11
690.956	36434.69
691.303	36452.32
691.65	36379.33
691.997	36155.83
692.344	36075.83
692.69	35939.79
693.037	36086.9
693.383	35712
693.73	35954.93
694.077	35692.56
694.423	35608.5
694.769	35559.23
695.116	35410.31
695.462	35364.21
695.808	35248.06
696.155	35356.75
696.501	35158.12
696.847	35143.65
697.193	34963.09
697.539	35037.21
697.885	34665.47
698.231	34622.54
698.577	34614.17
698.923	34613.04
699.269	34532.59
699.614	34324.01
699.96	34287.4
700.306	34330.11
700.651	34123.11
700.997	34019.84
701.342	33966.28
701.688	33907.98
702.033	33718.83
702.379	33725.84
702.724	33621.88
703.069	33683.8
703.415	33185.29
703.76	33350.71
704.105	33327.88
704.45	33156.13
704.795	33189.58
705.14	32901.45
705.485	32936.03
705.83	32796.6
706.175	32808.12
706.52	32765.64
706.865	32681.12
707.209	32570.39
707.554	32636.6
707.899	32531.07
708.243	32429.15
708.588	32306.44
708.932	32073.22
709.277	32065.54
709.621	32095.37
709.966	31873.91
710.31	32065.99
710.654	31730.41
710.998	31864.87
711.342	31760.46
711.687	31764.76
712.031	31627.81
712.375	31482.73
712.719	31529.74
713.063	31476.63
713.407	31565.44
713.75	31405.45
714.094	31240.25
714.438	31169.97
714.782	31249.29
715.125	31124.32
715.469	31154.38
715.812	30952.12
716.156	30869.41
716.499	31028.73
716.843	30886.59
717.186	30667.61
717.53	30727.72
717.873	30616.09
718.216	30671.91
718.559	30568.63
718.902	30251.35
719.246	30342.2
719.589	30196.44
719.932	30349.2
720.275	30256.32
720.617	30172.48
720.96	30095.42
721.303	30011.81
721.646	30107.63
721.989	29763.68
722.331	29994.41
722.674	29779.27
723.016	29893.17
723.359	29725.49
723.701	29902.89
724.044	29634.87
724.386	29562.56
724.729	29628.32
725.071	29610.01
725.413	29487.3
725.755	29467.87
726.097	29341.09
726.439	29284.15
726.782	29200.31
727.124	29351.26
727.465	29187.65
727.807	29101.55
728.149	28972.29
728.491	29046.19
728.833	29031.95
729.175	29096.81
729.516	28934.78
729.858	28907.88
730.199	28851.84
730.541	28708.57
730.882	28763.48
731.224	28821.56
731.565	28589.25
731.906	28713.09
732.248	28782.69
732.589	28505.41
732.93	28435.58
733.271	28501.34
733.612	28430.83
733.953	28426.54
734.294	28200.78
734.635	28186.1
734.976	28268.35
735.317	28093.89
735.658	28152.65
735.999	28191.29
736.339	28005.99
736.68	28171.63
737.021	27995.37
737.361	27871.98
737.702	28065.19
738.042	28043.73
738.383	27843.51
738.723	27969.83
739.063	27825.2
739.404	27830.85
739.744	27852.77
740.084	27693.9
740.424	27691.87
740.764	27581.37
741.104	27802.15
741.444	27522.84
741.784	27352.44
742.124	27336.4
742.464	27506.11
742.804	27298.89
743.143	27338.89
743.483	27377.53
743.823	27136.63
744.162	27157.65
744.502	27246.46
744.841	27197.65
745.181	27307.02
745.52	27108.38
745.86	27111.1
746.199	27012.57
746.538	26889.41
746.877	26912.23
747.216	26934.38
747.556	26859.58
747.895	26844.66
748.234	26627.27
748.573	26648.06
748.911	26721.5
749.25	26578.91
749.589	26367.39
749.928	26455.29
750.267	26528.29
750.605	26468.17
750.944	26324.9
751.283	26323.77
751.621	26288.52
751.96	26186.37
752.298	26123.55
752.636	26203.32
752.975	26072.25
753.313	25981.41
753.651	26030.22
753.989	25946.61
754.327	25777.34
754.666	25691.02
755.004	25729.44
755.342	25774.41
755.679	25668.65
756.017	25546.39
756.355	25647.4
756.693	25404.47
757.031	25535.09
