Data from hue_220_FLMS001491_00089.txt Node
Date: Tue Feb 07 16:40:04 GMT 2017
User: dcchb
Spectrometer: FLMS00149
Trigger mode: 0
Integration Time (sec): 2.000000E-2
Scans to average: 10
Electric dark correction enabled: true
Nonlinearity correction enabled: false
Boxcar width: 0
XAxis mode: Wavelengths
Number of Pixels in Spectrum: 2048
>>>>>Begin Spectral Data<<<<<
341.393	-20.72
341.776	-20.72
342.16	-20.72
342.543	-56.2
342.927	-71.79
343.31	-70.66
343.693	-66.82
344.077	-48.52
344.46	-49.65
344.843	-48.29
345.226	-33.6
345.61	-19.82
345.993	-11
346.376	-29.08
346.759	-2.19
347.142	17.47
347.525	36.91
347.908	38.49
348.291	79.39
348.674	92.5
349.057	114.87
349.44	125.72
349.823	152.38
350.206	163.91
350.588	181.31
350.971	212.27
351.354	218.14
351.737	231.93
352.119	232.15
352.502	252.49
352.884	254.75
353.267	247.3
353.65	279.84
354.032	295.66
354.414	285.03
354.797	310.57
355.179	306.96
355.562	310.12
355.944	303.79
356.326	320.06
356.709	330.01
357.091	334.53
357.473	335.43
357.855	323.45
358.238	345.15
358.62	339.72
359.002	332.27
359.384	330.23
359.766	330.46
360.148	325.03
360.53	346.73
360.912	320.06
361.294	320.74
361.676	337.91
362.057	317.12
362.439	311.7
362.821	329.78
363.203	310.12
363.584	291.59
363.966	307.63
364.348	306.5
364.729	310.12
365.111	305.6
365.493	318.25
365.874	313.28
366.256	312.6
366.637	311.25
367.019	298.59
367.4	311.7
367.781	311.47
368.163	321.19
368.544	303.34
368.925	317.58
369.306	302.44
369.688	300.4
370.069	310.34
370.45	328.88
370.831	297.92
371.212	293.85
371.593	308.09
371.974	292.27
372.355	305.15
372.736	309.22
373.117	314.64
373.498	306.28
373.879	313.28
374.26	300.18
374.641	294.07
375.021	305.83
375.402	292.72
375.783	303.79
376.163	313.96
376.544	315.99
376.925	291.81
377.305	308.09
377.686	300.4
378.066	296.79
378.447	327.75
378.827	337.46
379.208	322.55
379.588	330.68
379.968	315.54
380.349	335.2
380.729	343.56
381.109	325.26
381.489	334.3
381.87	324.81
382.25	324.13
382.63	320.06
383.01	321.87
383.39	343.79
383.77	329.33
384.15	324.81
384.53	337.24
384.91	350.12
385.29	338.82
385.67	330.91
386.049	364.13
386.429	322.77
386.809	346.5
387.189	353.96
387.568	345.37
387.948	332.49
388.328	343.79
388.707	357.58
389.087	337.46
389.466	351.02
389.846	339.04
390.225	350.12
390.605	350.12
390.984	362.32
391.363	341.08
391.743	380.4
392.122	352.38
392.501	364.13
392.881	343.79
393.26	370.23
393.639	367.97
394.018	371.59
394.397	361.19
394.776	362.32
395.155	378.59
395.534	393.05
395.913	370.23
396.292	358.03
396.671	385.37
397.05	368.87
397.429	377.01
397.808	390.57
398.186	366.16
398.565	400.51
398.944	415.43
399.323	406.61
399.701	391.47
400.08	404.58
400.458	399.61
400.837	406.84
401.215	411.81
401.594	393.51
401.972	406.61
402.351	410.68
402.729	424.01
403.107	425.6
403.486	421.98
403.864	417.01
404.242	405.26
404.62	431.02
404.999	452.49
405.377	421.75
405.755	455.2
406.133	448.19
406.511	423.56
406.889	477.8
407.267	470.57
407.645	445.03
408.023	471.02
408.401	490.45
408.779	483.45
409.156	476.89
409.534	486.39
409.912	478.02
410.29	500.62
410.667	528.19
411.045	534.07
411.422	526.16
411.8	536.55
412.178	539.04
412.555	535.2
412.933	563.22
413.31	577.91
413.687	575.65
414.065	574.74
414.442	596.44
414.819	578.59
415.197	606.61
415.574	613.16
415.951	632.6
416.328	616.1
416.705	634.63
417.082	645.48
417.46	647.29
417.837	674.4
418.214	652.26
418.591	666.49
418.967	680.96
419.344	678.02
419.721	693.61
420.098	702.2
420.475	713.72
420.852	729.99
421.228	732.25
421.605	757.56
421.982	770.9
422.358	760.5
422.735	796.89
423.111	787.17
423.488	817.9
423.864	799.15
424.241	833.27
424.617	841.63
424.994	876.66
425.37	853.61
425.746	883.21
426.123	904.91
426.499	909.88
426.875	925.47
427.251	923.21
427.627	955.07
428.003	954.62
428.379	983.1
428.756	974.51
429.132	977.9
429.507	981.06
429.883	1024.22
430.259	1034.85
430.635	1040.72
431.011	1053.15
431.387	1073.04
431.763	1096.99
432.138	1092.47
432.514	1116.43
432.89	1100.83
433.265	1147.39
433.641	1174.73
434.016	1172.92
434.392	1218.8
434.767	1201.17
435.143	1232.35
435.518	1287.04
435.894	1296.31
436.269	1291.11
436.644	1319.13
437.02	1301.28
437.395	1344.44
437.77	1365.23
438.145	1382.18
438.52	1420.6
438.895	1433.71
439.271	1431.9
439.646	1496.3
440.021	1505.34
440.395	1528.17
440.77	1497.88
441.145	1557.77
441.52	1588.96
441.895	1603.19
442.27	1605.68
442.645	1625.79
443.019	1663.08
443.394	1644.1
443.769	1684.09
444.143	1700.59
444.518	1728.84
444.892	1719.35
445.267	1729.29
445.641	1755.05
446.016	1755.5
446.39	1791.66
446.764	1800.48
447.139	1784.66
447.513	1788.05
447.887	1808.16
448.262	1849.29
448.636	1826.01
449.01	1875.05
449.384	1877.08
449.758	1869.63
450.132	1908.72
450.506	1915.05
450.88	1932
451.254	1927.48
451.628	1975.61
452.002	1968.83
452.376	2004.54
452.75	1994.37
453.123	2024.42
453.497	2038.66
453.871	2062.39
454.244	2104.87
454.618	2098.09
454.992	2128.6
455.365	2109.17
455.739	2196.62
456.112	2190.75
456.486	2226.45
456.859	2240.46
457.232	2276.17
457.606	2273.68
457.979	2316.62
458.352	2353.23
458.725	2405.43
459.099	2392.32
459.472	2453.57
459.845	2446.11
460.218	2488.82
460.591	2500.57
460.964	2523.17
461.337	2564.52
461.71	2591.87
462.083	2611.75
462.456	2623.28
462.829	2671.86
463.201	2678.64
463.574	2692.2
463.947	2720.45
464.32	2792.54
464.692	2802.03
465.065	2771.52
465.438	2876.38
465.81	2863.95
466.183	2898.3
466.555	2991.4
466.928	2985.08
467.3	2962.93
467.672	3033.66
468.045	3086.54
468.417	3114.34
468.789	3138.97
469.161	3158.18
469.534	3207.9
469.906	3238.4
470.278	3258.29
470.65	3306.65
471.022	3369.47
471.394	3370.38
471.766	3455.12
472.138	3441.11
472.51	3542.12
472.882	3579.19
473.253	3630.71
473.625	3658.51
473.997	3687.21
474.369	3746.19
474.74	3762.01
475.112	3830.93
475.484	3908.22
475.855	3950.02
476.227	3987.54
476.598	4089
476.97	4109.79
477.341	4175.55
477.713	4222.78
478.084	4258.94
478.455	4335.55
478.827	4372.16
479.198	4495.77
479.569	4452.83
479.94	4585.03
480.311	4620.29
480.682	4703.68
481.053	4790.23
481.424	4854.86
481.795	4898.25
482.166	5007.85
482.537	4999.49
482.908	5085.59
483.279	5129.43
483.65	5203.32
484.021	5310.67
484.391	5389.08
484.762	5421.4
485.133	5443.77
485.503	5459.36
485.874	5613.03
486.244	5660.49
486.615	5787.94
486.985	5780.94
487.356	5893.25
487.726	5898.45
488.097	6035.17
488.467	6052.57
488.837	6085.79
489.207	6230.42
489.578	6202.39
489.948	6326.01
490.318	6380.24
490.688	6350.19
491.058	6486
491.428	6520.58
491.798	6529.16
492.168	6712.66
492.538	6649.61
492.908	6768.03
493.278	6814.13
493.648	6871.53
494.017	6869.95
494.387	6898.65
494.757	7033.56
495.126	7027.46
495.496	7141.13
495.866	7052.31
496.235	7135.02
496.605	7181.58
496.974	7243.5
497.344	7236.49
497.713	7309.48
498.082	7324.85
498.452	7392.19
498.821	7481.91
499.19	7457.05
499.559	7490.27
499.928	7564.17
500.298	7599.64
500.667	7624.5
501.036	7609.14
501.405	7612.75
501.774	7645.52
502.143	7717.61
502.512	7696.59
502.88	7747.44
503.249	7667.89
503.618	7765.52
503.987	7779.08
504.356	7869.24
504.724	7865.4
505.093	7909.92
505.462	7892.52
505.83	7911.73
506.199	7959.64
506.567	8116.24
506.936	8001.44
507.304	8131.16
507.672	8108.33
508.041	8115.11
508.409	8153.75
508.777	8203.7
509.145	8196.24
509.514	8219.97
509.882	8248.22
510.25	8221.78
510.618	8230.14
510.986	8218.39
511.354	8260.19
511.722	8291.6
512.09	8403.92
512.458	8319.17
512.826	8377.25
513.193	8391.94
513.561	8384.26
513.929	8417.7
514.297	8406.18
514.664	8371.38
515.032	8377.93
515.4	8506.29
515.767	8435.33
516.135	8551.94
516.502	8441.43
516.869	8557.13
517.237	8512.62
517.604	8481.43
517.972	8553.29
518.339	8556.91
518.706	8560.98
519.073	8524.59
519.44	8588.77
519.808	8602.78
520.175	8562.78
520.542	8624.25
520.909	8607.53
521.276	8597.13
521.643	8679.62
522.009	8669
522.376	8678.94
522.743	8714.64
523.11	8748.77
523.477	8791.03
523.843	8796
524.21	8780.4
524.577	8779.73
524.943	8778.37
525.31	8783.57
525.676	8856.56
526.043	8868.31
526.409	8797.13
526.776	8870.8
527.142	8794.64
527.508	8795.09
527.874	8867.41
528.241	8865.6
528.607	8836.67
528.973	8938.82
529.339	8861.76
529.705	8913.51
530.071	8934.07
530.437	8926.84
530.803	8862.89
531.169	8927.07
531.535	8829.22
531.901	8867.63
532.267	8778.14
532.632	8814.3
532.998	8897.92
533.364	8854.53
533.73	8839.16
534.095	8882.1
534.461	8837.8
534.826	8830.8
535.192	8909.67
535.557	8869.67
535.923	8804.13
536.288	8804.81
536.653	8758.26
537.019	8734.76
537.384	8722.33
537.749	8689.11
538.114	8703.34
538.479	8678.26
538.845	8713.06
539.21	8638.26
539.575	8711.25
539.94	8609.34
540.305	8612.5
540.67	8567.08
541.034	8555.33
541.399	8560.75
541.764	8515.55
542.129	8501.09
542.494	8483.46
542.858	8509.45
543.223	8458.61
543.587	8451.15
543.952	8435.56
544.316	8415.22
544.681	8382.45
545.045	8347.2
545.41	8376.57
545.774	8344.26
546.138	8357.59
546.503	8325.95
546.867	8247.09
547.231	8338.83
547.595	8244.83
547.959	8258.16
548.324	8167.09
548.688	8195.56
549.052	8151.49
549.416	8168.67
549.779	8144.94
550.143	8075.79
550.507	8101.1
550.871	8124.38
551.235	8017.03
551.599	8043.02
551.962	8020.88
552.326	8039.18
552.689	7979.52
553.053	7978.39
553.417	7990.14
553.78	8047.54
554.143	7935.68
554.507	7952.4
554.87	7939.75
555.234	8007.77
555.597	7907.89
555.96	7858.62
556.323	7918.05
556.686	7904.5
557.05	7902.24
557.413	7905.17
557.776	7830.83
558.139	7904.27
558.502	7841.45
558.865	7770.94
559.228	7906.3
559.59	7850.03
559.953	7862.91
560.316	7867.89
560.679	7832.86
561.041	7843.03
561.404	7843.25
561.767	7891.61
562.129	7792.63
562.492	7855.01
562.854	7883.93
563.217	7848.23
563.579	7858.17
563.941	7859.07
564.304	7908.79
564.666	7917.38
565.028	7905.63
565.39	7956.25
565.753	7883.71
566.115	7949.01
566.477	7931.16
566.839	7971.61
567.201	8015.45
567.563	7974.55
567.925	7964.83
568.287	7971.39
568.648	8007.54
569.01	8016.13
569.372	8010.93
569.734	8013.87
570.095	8104.04
570.457	8028.33
570.819	8036.92
571.18	8107.88
571.542	8087.99
571.903	8102.91
572.265	8116.92
572.626	8134.55
572.987	8090.71
573.349	8176.58
573.71	8162.34
574.071	8160.31
574.432	8139.29
574.794	8283.02
575.155	8207.76
575.516	8174.77
575.877	8195.56
576.238	8235.56
576.599	8291.83
576.96	8223.36
577.32	8227.42
577.681	8305.84
578.042	8295.67
578.403	8348.1
578.763	8296.35
579.124	8358.95
579.485	8450.47
579.845	8445.95
580.206	8416.57
580.566	8451.37
580.927	8398.04
581.287	8504.71
581.648	8459.28
582.008	8522.33
582.368	8513.07
582.728	8492.5
583.089	8514.2
583.449	8523.01
583.809	8565.95
584.169	8541.09
584.529	8550.35
584.889	8659.96
585.249	8622.67
585.609	8572.95
585.969	8651.14
586.329	8598.26
586.688	8633.06
587.048	8624.02
587.408	8602.56
587.768	8703.57
588.127	8688.43
588.487	8725.72
588.846	8764.13
589.206	8711.25
589.565	8745.83
589.925	8697.7
590.284	8745.38
590.643	8746.73
591.003	8839.16
591.362	8847.3
591.721	8832.61
592.08	8842.1
592.44	8846.62
592.799	8835.09
593.158	8857.01
593.517	8853.17
593.876	8853.85
594.235	8880.29
594.593	8924.13
594.952	8881.19
595.311	8857.46
595.67	8950.8
596.029	8998.03
596.387	8984.47
596.746	8991.47
597.104	8897.24
597.463	8935.65
597.822	8927.75
598.18	8894.53
598.538	8919.61
598.897	8991.47
599.255	8966.39
599.613	9033.51
599.972	8987.63
600.33	9021.98
600.688	8979.04
601.046	9075.54
601.404	9049.55
601.762	9015.2
602.12	9068.98
602.478	9061.53
602.836	9043.22
603.194	9025.14
603.552	9085.48
603.91	9035.09
604.268	9052.49
604.625	9031.25
604.983	9127.97
605.341	9057.01
605.698	9093.16
606.056	9118.47
606.413	9069.89
606.771	9075.99
607.128	9122.09
607.485	9132.94
607.843	9133.16
608.2	9146.95
608.557	9140.85
608.914	9156.21
609.272	9124.35
609.629	9186.27
609.986	9255.19
610.343	9184.24
610.7	9262.65
611.057	9180.85
611.414	9196.66
611.771	9254.52
612.127	9210.45
612.484	9270.79
612.841	9295.42
613.198	9268.53
613.554	9271.24
613.911	9323.67
614.267	9307.17
614.624	9274.4
614.98	9298.81
615.337	9318.47
615.693	9351.01
616.05	9312.82
616.406	9319.83
616.762	9273.95
617.118	9311.01
617.475	9313.05
617.831	9301.52
618.187	9357.34
618.543	9326.38
618.899	9445.47
619.255	9442.76
619.611	9387.85
619.967	9384
620.323	9403.67
620.678	9403.89
621.034	9340.16
621.39	9411.8
621.746	9320.73
622.101	9420.61
622.457	9386.04
622.812	9380.61
623.168	9369.32
623.523	9490.22
623.879	9467.84
624.234	9375.19
624.589	9381.74
624.945	9419.94
625.3	9464.23
625.655	9416.32
626.01	9410.22
626.365	9399.37
626.72	9415.19
627.075	9448.86
627.43	9357.56
627.785	9364.8
628.14	9395.76
628.495	9462.65
628.85	9384.68
629.205	9342.2
629.559	9422.2
629.914	9356.66
630.269	9340.39
630.623	9380.39
630.978	9274.18
631.332	9349.2
631.687	9308.3
632.041	9284.35
632.396	9328.19
632.75	9281.63
633.104	9252.26
633.459	9274.18
633.813	9199.6
634.167	9256.55
634.521	9276.44
634.875	9261.97
635.229	9256.55
635.583	9200.51
635.937	9186.5
636.291	9176.55
636.645	9162.77
636.999	9172.94
637.352	9153.5
637.706	9120.73
638.06	9176.33
638.413	9197.79
638.767	9128.19
639.121	9085.71
639.474	9053.17
639.828	9015.2
640.181	9051.36
640.534	9033.51
640.888	9138.81
641.241	9029.21
641.594	9035.99
641.947	9023.34
642.301	9059.27
642.654	9010.91
643.007	9058.82
643.36	9020.4
643.713	8971.13
644.066	9037.12
644.419	9014.75
644.771	8872.15
645.124	8799.84
645.477	8859.5
645.83	8703.34
646.182	8760.97
646.535	8652.72
646.888	8777.92
647.24	8695.89
647.593	8734.76
647.945	8696.34
648.298	8652.27
648.65	8635.55
649.002	8672.84
649.355	8658.15
649.707	8679.84
650.059	8753.51
650.411	8825.38
650.763	8853.85
651.115	8873.51
651.467	8903.34
651.819	8874.87
652.171	8924.81
652.523	8792.61
652.875	8811.59
653.227	8797.35
653.578	8883.68
653.93	8855.43
654.282	8842.55
654.633	8797.58
654.985	8858.59
655.337	8885.94
655.688	8830.35
656.039	8883.23
656.391	8909.44
656.742	8830.12
657.094	8826.51
657.445	8859.5
657.796	8864.24
658.147	8877.13
658.498	8863.57
658.849	8905.37
659.2	8869.22
659.551	8877.8
659.902	8902.21
660.253	8933.17
660.604	8906.05
660.955	8887.97
661.306	8928.88
661.656	8917.8
662.007	8926.84
662.358	8930.23
662.708	8907.86
663.059	8938.59
663.409	8890.01
663.76	8949.67
664.11	8892.49
664.461	8967.29
664.811	8962.77
665.161	8885.03
665.511	8896.79
665.862	8972.94
666.212	8961.64
666.562	8963
666.912	8937.01
667.262	8930.68
667.612	8934.98
667.962	8991.7
668.312	8921.19
668.662	8956.9
669.011	8890.01
669.361	8897.46
669.711	8885.71
670.06	8941.3
670.41	8931.36
670.76	8873.06
671.109	8904.24
671.459	8937.01
671.808	8911.02
672.157	8971.13
672.507	8830.57
672.856	8879.16
673.205	8892.49
673.554	8942.89
673.904	8841.65
674.253	8932.04
674.602	8854.3
674.951	8730.46
675.3	8661.54
675.649	8847.75
675.998	8783.57
676.346	8810.91
676.695	8843.23
677.044	8779.27
677.393	8807.3
677.741	8794.19
678.09	8817.92
678.438	8737.92
678.787	8778.14
679.135	8700.18
679.484	8652.05
679.832	8665.15
680.181	8632.84
680.529	8680.29
680.877	8631.71
681.225	8648.66
681.573	8729.33
681.922	8628.77
682.27	8595.1
682.618	8563.91
682.966	8541.54
683.314	8564.14
683.661	8492.73
684.009	8485.95
684.357	8504.25
684.705	8425.39
685.053	8462.67
685.4	8452.5
685.748	8468.77
686.095	8419.96
686.443	8384.26
686.79	8367.99
687.138	8371.83
687.485	8350.59
687.832	8340.19
688.18	8349.91
688.527	8274.2
688.874	8224.04
689.221	8245.5
689.568	8217.93
689.915	8173.64
690.262	8153.53
690.609	8130.93
690.956	8109.01
691.303	8072.85
691.65	8078.05
691.997	8052.06
692.344	7987.21
692.69	8018.62
693.037	7946.3
693.383	7883.71
693.73	7938.62
694.077	7833.99
694.423	7810.49
694.769	7821.56
695.116	7813.88
695.462	7848.23
695.808	7761.9
696.155	7747.21
696.501	7692.98
696.847	7651.85
697.193	7603.26
697.539	7648.01
697.885	7566.65
698.231	7567.56
698.577	7568.69
698.923	7500.21
699.269	7497.73
699.614	7425.41
699.96	7444.17
700.306	7433.32
700.651	7356.71
700.997	7377.5
701.342	7394.23
701.688	7337.96
702.033	7274.46
702.379	7259.99
702.724	7228.58
703.069	7243.95
703.415	7161.01
703.76	7174.8
704.105	7158.07
704.45	7149.49
704.795	7092.54
705.14	7041.92
705.485	7050.51
705.83	7048.92
706.175	7037.4
706.52	6931.41
706.865	6984.52
707.209	6954.92
707.554	6898.42
707.899	6878.76
708.243	6817.07
708.588	6825.88
708.932	6797.41
709.277	6771.19
709.621	6769.16
709.966	6819.33
710.31	6750.63
710.654	6710.63
710.998	6710.4
711.342	6725.32
711.687	6717.18
712.031	6628.82
712.375	6662.04
712.719	6658.43
713.063	6619.56
713.407	6671.31
713.75	6601.48
714.094	6617.98
714.438	6574.14
714.782	6601.7
715.125	6558.99
715.469	6515.15
715.812	6562.61
716.156	6481.93
716.499	6475.83
716.843	6520.8
717.186	6475.15
717.53	6496.4
717.873	6488.26
718.216	6491.43
718.559	6444.19
718.902	6423.86
719.246	6465.66
719.589	6387.47
719.932	6358.77
720.275	6402.16
720.617	6387.93
720.96	6354.48
721.303	6366
721.646	6404.65
721.989	6318.55
722.331	6362.16
722.674	6351.32
723.016	6309.28
723.359	6304.31
723.701	6298.89
724.044	6271.09
724.386	6252.34
724.729	6281.94
725.071	6293.01
725.413	6254.37
725.755	6259.79
726.097	6251.43
726.439	6228.38
726.782	6200.59
727.124	6271.77
727.465	6216.86
727.807	6236.06
728.149	6219.12
728.491	6242.84
728.833	6244.88
729.175	6153.58
729.516	6203.52
729.858	6227.93
730.199	6196.07
730.541	6181.38
730.882	6188.83
731.224	6212.34
731.565	6164.65
731.906	6149.06
732.248	6254.14
732.589	6209.85
732.93	6156.52
733.271	6131.43
733.612	6215.05
733.953	6237.87
734.294	6192
734.635	6205.56
734.976	6228.83
735.317	6150.19
735.658	6171.43
735.999	6229.74
736.339	6160.59
736.68	6218.66
737.021	6228.61
737.361	6189.06
737.702	6253.92
738.042	6247.14
738.383	6234.71
738.723	6262.05
739.063	6275.61
739.404	6267.48
739.744	6314.25
740.084	6328.94
740.424	6279
740.764	6343.18
741.104	6329.62
741.444	6361.03
741.784	6336.63
742.124	6381.37
742.464	6346.57
742.804	6363.97
743.143	6373.91
743.483	6455.49
743.823	6446
744.162	6469.73
744.502	6508.15
744.841	6540.46
745.181	6559.45
745.52	6593.8
745.86	6582.95
746.199	6647.13
746.538	6667.92
746.877	6670.86
747.216	6776.16
747.556	6771.87
747.895	6790.63
748.234	6839.21
748.573	6917.63
748.911	6990.4
749.25	6996.27
749.589	7077.17
749.928	7119.88
750.267	7206.89
750.605	7219.99
750.944	7317.39
751.283	7379.99
751.621	7488.24
751.96	7518.74
752.298	7581.34
752.636	7688.68
752.975	7773.65
753.313	7856.14
753.651	7969.58
753.989	8045.51
754.327	8153.3
754.666	8316.01
755.004	8364.6
755.342	8519.17
755.679	8617.47
756.017	8695.21
756.355	8923.23
756.693	8949.67
757.031	9209.77
757.368	9220.85
757.706	9403.21
758.044	9544.68
758.381	9698.8
758.719	9834.84
759.056	10041.16
759.394	10104.44
759.731	10251.78
760.068	10429.85
760.405	10581.94
760.743	10712.11
761.08	10912.1
761.417	11125.88
761.754	11257.85
762.091	11461.69
762.428	11519.77
762.765	11672.31
763.102	11912.53
763.438	12026.65
763.775	12223.93
764.112	12389.35
764.449	12586.63
764.785	12681.55
765.122	12877.25
765.458	12903.23
765.795	13115.88
766.131	13359.72
766.467	13525.82
766.804	13615.76
767.14	13627.96
767.476	13921.96
767.812	14020.27
768.148	14158.57
768.485	14302.97
768.821	14418.45
