Data from hue_300_FLMS001491_00073.txt Node
Date: Tue Feb 07 15:51:11 GMT 2017
User: dcchb
Spectrometer: FLMS00149
Trigger mode: 0
Integration Time (sec): 2.000000E-2
Scans to average: 10
Electric dark correction enabled: true
Nonlinearity correction enabled: false
Boxcar width: 0
XAxis mode: Wavelengths
Number of Pixels in Spectrum: 2048
>>>>>Begin Spectral Data<<<<<
341.393	-1.44
341.776	-1.44
342.16	-1.44
342.543	-65.39
342.927	-39.41
343.31	-60.42
343.693	-74.89
344.077	-64.94
344.46	-74.21
344.843	-44.83
345.226	-43.25
345.61	-31.95
345.993	-33.76
346.376	5.56
346.759	-2.12
347.142	35.62
347.525	55.06
347.908	59.57
348.291	87.6
348.674	88.05
349.057	98.9
349.44	140.25
349.823	161.04
350.206	163.98
350.588	196.52
350.971	220.47
351.354	228.61
351.737	237.42
352.119	245.11
352.502	262.06
352.884	263.41
353.267	283.75
353.65	283.07
354.032	305.9
354.414	309.96
354.797	307.03
355.179	312.9
355.562	324.43
355.944	316.29
356.326	338.44
356.709	332.79
357.091	332.34
357.473	345.44
357.855	334.82
358.238	331.21
358.62	340.02
359.002	351.54
359.384	339.79
359.766	355.84
360.148	348.83
360.53	344.76
360.912	335.95
361.294	341.6
361.676	332.56
362.057	343.41
362.439	347.7
362.821	317.87
363.203	343.64
363.584	330.3
363.966	330.53
364.348	319.45
364.729	316.29
365.111	330.3
365.493	312.68
365.874	299.57
366.256	305.9
366.637	303.64
367.019	315.16
367.4	296.18
367.781	320.13
368.163	321.49
368.544	330.53
368.925	323.3
369.306	324.2
369.688	312.45
370.069	318.78
370.45	300.92
370.831	322.62
371.212	325.78
371.593	303.64
371.974	316.29
372.355	286.24
372.736	317.65
373.117	319.23
373.498	339.34
373.879	308.38
374.26	311.55
374.641	327.82
375.021	306.57
375.402	308.61
375.783	325.33
376.163	327.59
376.544	324.2
376.925	337.76
377.305	333.69
377.686	332.34
378.066	336.86
378.447	317.42
378.827	326.23
379.208	342.05
379.588	352
379.968	332.79
380.349	325.1
380.729	338.89
381.109	343.64
381.489	328.49
381.87	333.47
382.25	341.15
382.63	350.41
383.01	332.11
383.39	353.58
383.77	325.33
384.15	356.97
384.53	356.97
384.91	339.34
385.29	372.33
385.67	363.3
386.049	333.69
386.429	364.43
386.809	345.89
387.189	359.68
387.568	345.67
387.948	371.43
388.328	362.84
388.707	337.08
389.087	355.84
389.466	366.69
389.846	392.67
390.225	371.66
390.605	357.87
390.984	352
391.363	364.88
391.743	374.59
392.122	360.58
392.501	368.95
392.881	369.17
393.26	372.56
393.639	392.45
394.018	383.41
394.397	390.87
394.776	388.15
395.155	389.06
395.534	394.93
395.913	403.52
396.292	422.05
396.671	412.79
397.05	386.57
397.429	382.73
397.808	407.14
398.186	387.02
398.565	386.12
398.944	413.46
399.323	379.34
399.701	401.94
400.08	395.61
400.458	391.54
400.837	420.02
401.215	421.37
401.594	427.02
401.972	408.27
402.351	432.45
402.729	427.47
403.107	441.49
403.486	427.93
403.864	440.81
404.242	441.26
404.62	449.85
404.999	437.87
405.377	451.88
405.755	472.45
406.133	449.62
406.511	459.34
406.889	450.52
407.267	483.29
407.645	494.59
408.023	507.7
408.401	474.93
408.779	504.99
409.156	493.69
409.534	507.25
409.912	532.78
410.29	509.51
410.667	515.16
411.045	537.53
411.422	539.56
411.8	520.81
412.178	548.15
412.555	541.82
412.933	569.84
413.31	589.73
413.687	590.63
414.065	591.31
414.442	583.18
414.819	616.85
415.197	621.37
415.574	625.89
415.951	624.76
416.328	634.02
416.705	656.17
417.082	642.38
417.46	671.76
417.837	681.93
418.214	665.21
418.591	691.2
418.967	687.35
419.344	714.02
419.721	705.43
420.098	688.71
420.475	727.58
420.852	749.5
421.228	772.32
421.605	771.19
421.982	777.52
422.358	761.03
422.735	767.35
423.111	792.44
423.488	795.83
423.864	812.55
424.241	804.87
424.617	818.65
424.994	846.67
425.37	831.31
425.746	858.65
426.123	883.73
426.499	862.27
426.875	866.11
427.251	898.2
427.627	909.04
428.003	918.76
428.379	932.09
428.756	919.44
429.132	937.29
429.507	966.9
429.883	993.79
430.259	968.7
430.635	970.96
431.011	985.2
431.387	1002.6
431.763	1034.24
432.138	1038.76
432.514	1052.99
432.89	1049.83
433.265	1093.67
433.641	1078.3
434.016	1109.94
434.392	1092.54
434.767	1143.39
435.143	1142.94
435.518	1141.81
435.894	1141.13
436.269	1163.73
436.644	1185.65
437.02	1182.03
437.395	1170.28
437.77	1215.93
438.145	1250.05
438.52	1232.88
438.895	1216.38
439.271	1247.57
439.646	1248.47
440.021	1256.15
440.395	1268.58
440.77	1259.54
441.145	1276.72
441.52	1285.31
441.895	1311.29
442.27	1308.13
442.645	1313.33
443.019	1323.04
443.394	1342.03
443.769	1333.89
444.143	1326.21
444.518	1341.12
444.892	1354.23
445.267	1368.01
445.641	1386.55
446.016	1351.07
446.39	1393.32
446.764	1387
447.139	1379.99
447.513	1417.73
447.887	1396.94
448.262	1370.95
448.636	1420.44
449.01	1404.17
449.384	1429.93
449.758	1419.76
450.132	1426.77
450.506	1447.56
450.88	1423.83
451.254	1428.8
451.628	1431.52
452.002	1476.49
452.376	1457.73
452.75	1475.81
453.123	1495.7
453.497	1518.97
453.871	1525.3
454.244	1560.33
454.618	1536.37
454.992	1549.48
455.365	1552.64
455.739	1584.73
456.112	1586.09
456.486	1614.56
456.859	1624.05
457.232	1629.48
457.606	1620.66
457.979	1626.09
458.352	1639.42
458.725	1668.35
459.099	1670.61
459.472	1662.24
459.845	1700.21
460.218	1726.42
460.591	1730.72
460.964	1743.82
461.337	1759.87
461.71	1753.99
462.083	1798.74
462.456	1803.03
462.829	1804.16
463.201	1780.21
463.574	1816.14
463.947	1801.22
464.32	1865.4
464.692	1877.61
465.065	1883.03
465.438	1885.74
465.81	1928
466.183	1944.27
466.555	1962.12
466.928	1970.03
467.3	1975.46
467.672	1997.6
468.045	2022.46
468.417	2055
468.789	2047.77
469.161	2050.93
469.534	2063.82
469.906	2108.79
470.278	2100.65
470.65	2118.73
471.022	2142.46
471.394	2178.62
471.766	2177.26
472.138	2203.7
472.51	2238.5
472.882	2262.68
473.253	2280.31
473.625	2296.13
473.997	2352.85
474.369	2346.52
474.74	2368.89
475.112	2400.53
475.484	2419.96
475.855	2428.78
476.227	2455.67
476.598	2508.55
476.97	2492.28
477.341	2552.39
477.713	2549.45
478.084	2613.86
478.455	2614.31
478.827	2647.53
479.198	2700.41
479.569	2675.55
479.94	2702.67
480.311	2763.23
480.682	2852.27
481.053	2830.35
481.424	2888.88
481.795	2888.43
482.166	2910.57
482.537	2905.6
482.908	2988.99
483.279	2995.09
483.65	3021.3
484.021	3099.95
484.391	3086.16
484.762	3131.36
485.133	3105.82
485.503	3181.53
485.874	3194.41
486.244	3200.06
486.615	3278.25
486.985	3331.13
487.356	3347.62
487.726	3343.1
488.097	3438.24
488.467	3390.79
488.837	3478.02
489.207	3465.59
489.578	3508.3
489.948	3562.53
490.318	3546.94
490.688	3588.75
491.058	3639.59
491.428	3617.22
491.798	3711.23
492.168	3724.11
492.538	3706.94
492.908	3758.46
493.278	3803.43
493.648	3801.62
494.017	3832.13
494.387	3836.65
494.757	3854.96
495.126	3911.22
495.496	3924.78
495.866	3897.21
496.235	3977.44
496.605	3986.7
496.974	3992.13
497.344	3961.39
497.713	4005.01
498.082	4059.24
498.452	4080.49
498.821	4118.45
499.19	4121.84
499.559	4138.11
499.928	4148.73
500.298	4120.26
500.667	4201.84
501.036	4181.95
501.405	4245.68
501.774	4209.07
502.143	4210.65
502.512	4305.34
502.88	4257.2
503.249	4288.39
503.618	4296.07
503.987	4354.6
504.356	4356.86
504.724	4358.9
505.093	4388.73
505.462	4389.86
505.83	4402.96
506.199	4425.11
506.567	4491.1
506.936	4427.14
507.304	4506.92
507.672	4503.75
508.041	4506.69
508.409	4536.75
508.777	4533.81
509.145	4539.91
509.514	4516.86
509.882	4561.83
510.25	4571.09
510.618	4577.65
510.986	4618.55
511.354	4658.1
511.722	4656.06
512.09	4678.66
512.458	4703.52
512.826	4735.38
513.193	4755.04
513.561	4734.03
513.929	4751.88
514.297	4802.05
514.664	4784.65
515.032	4795.27
515.4	4866.45
515.767	4810.86
516.135	4823.52
516.502	4810.86
516.869	4843.18
517.237	4851.77
517.604	4840.24
517.972	4913.91
518.339	4929.28
518.706	4905.1
519.073	4916.4
519.44	4963.4
519.808	4928.15
520.175	4955.94
520.542	4986.9
520.909	5000.01
521.276	5007.92
521.643	5012.21
522.009	5084.08
522.376	5112.32
522.743	5158.42
523.11	5146.67
523.477	5198.42
523.843	5247.01
524.21	5238.2
524.577	5236.16
524.943	5266.67
525.31	5244.52
525.676	5348.25
526.043	5312.32
526.409	5363.84
526.776	5426.67
527.142	5421.24
527.508	5418.53
527.874	5468.92
528.241	5460.11
528.607	5480.22
528.973	5558.87
529.339	5563.84
529.705	5590.95
530.071	5619.43
530.437	5639.77
530.803	5687.9
531.169	5665.75
531.535	5687.45
531.901	5695.36
532.267	5720.44
532.632	5743.04
532.998	5815.81
533.364	5821.01
533.73	5798.86
534.095	5879.31
534.461	5886.09
534.826	5892.64
535.192	5952.53
535.557	5911.85
535.923	5973.54
536.288	5993.2
536.653	5991.62
537.019	5986.42
537.384	6047.21
537.749	6046.54
538.114	6067.33
538.479	6101.22
538.845	6098.29
539.21	6159.75
539.575	6156.59
539.94	6189.13
540.305	6198.4
540.67	6238.62
541.034	6204.5
541.399	6345.06
541.764	6273.65
542.129	6340.54
542.494	6315
542.858	6359.07
543.223	6436.58
543.587	6463.7
543.952	6432.06
544.316	6531.95
544.681	6463.47
545.045	6535.79
545.41	6543.02
545.774	6583.24
546.138	6582.12
546.503	6618.5
546.867	6603.13
547.231	6725.16
547.595	6627.09
547.959	6732.17
548.324	6726.07
548.688	6744.14
549.052	6780.08
549.416	6758.61
549.779	6790.7
550.143	6842.45
550.507	6882.9
550.871	6823.01
551.235	6889.23
551.599	6920.19
551.962	6926.74
552.326	6985.72
552.689	7009.9
553.053	7002.67
553.417	7052.84
553.78	7095.1
554.143	7031.14
554.507	7097.36
554.87	7087.41
555.234	7172.16
555.597	7150.69
555.96	7178.48
556.323	7131.25
556.686	7208.09
557.05	7209.44
557.413	7249.67
557.776	7311.59
558.139	7316.56
558.502	7311.59
558.865	7313.62
559.228	7387.29
559.59	7443.79
559.953	7404.47
560.316	7476.33
560.679	7458.7
561.041	7444.01
561.404	7546.38
561.767	7582.09
562.129	7472.04
562.492	7612.82
562.854	7567.4
563.217	7554.74
563.579	7633.39
563.941	7706.38
564.304	7669.77
564.666	7725.14
565.028	7761.52
565.39	7785.7
565.753	7740.05
566.115	7817.34
566.477	7848.97
566.839	7852.82
567.201	7892.14
567.563	7918.35
567.925	8004.45
568.287	7980.04
568.648	7982.3
569.01	8062.53
569.372	8077.22
569.734	8024.34
570.095	8124.22
570.457	8126.03
570.819	8244.67
571.18	8247.61
571.542	8251.45
571.903	8258.68
572.265	8382.97
572.626	8392.24
572.987	8440.6
573.349	8403.76
573.71	8561.27
574.071	8543.87
574.432	8615.51
574.794	8701.16
575.155	8765.33
575.516	8734.15
575.877	8862.06
576.238	8934.37
576.599	8993.13
576.96	9065.89
577.32	9139.79
577.681	9245.55
578.042	9313.57
578.403	9326.9
578.763	9507.01
579.124	9529.38
579.485	9691.41
579.845	9831.3
580.206	9857.74
580.566	10054.79
580.927	10167.33
581.287	10297.72
581.648	10358.74
582.008	10609.35
582.368	10686.64
582.728	10864.26
583.089	11015.44
583.449	11175.67
583.809	11391.03
584.169	11578.59
584.529	11760.28
584.889	11970
585.249	12077.79
585.609	12310.1
585.969	12555.29
586.329	12805.23
586.688	12973.13
587.048	13164.31
587.408	13314.37
587.768	13586.9
588.127	13869.83
588.487	14166.55
588.846	14474.11
589.206	14570.38
589.565	14893.08
589.925	15277.03
590.284	15375.33
590.643	15686.28
591.003	16015.31
591.362	16282.65
591.721	16594.28
592.08	16854.84
592.44	17154.27
592.799	17520.58
593.158	17622.05
593.517	17998.54
593.876	18315.59
594.235	18549.94
594.593	18955.58
594.952	19249.58
595.311	19354.89
595.67	19738.83
596.029	20061.08
596.387	20421.98
596.746	20810.89
597.104	21005.24
597.463	21316.42
597.822	21683.86
598.18	21862.17
598.538	22097.64
598.897	22537.18
599.255	22678.64
599.613	23327.44
599.972	23456.47
600.33	23657.6
600.688	23973.07
601.046	24216.23
601.404	24740.28
601.762	24729.43
602.12	25274.5
602.478	25524.67
602.836	25830.65
603.194	25880.14
603.552	26325.32
603.91	26358.09
604.268	26737.97
604.625	26912.88
604.983	27300.67
605.341	27306.09
605.698	27782.69
606.056	28129.57
606.413	28213.86
606.771	28643.46
607.128	28812.72
607.485	28878.93
607.843	29120.28
608.2	29393.27
608.557	29659.25
608.914	29830.32
609.272	30182.17
609.629	30428.95
609.986	30703.29
610.343	30624.65
610.7	31210.85
611.057	31325.87
611.414	31443.61
611.771	31630.95
612.127	31990.26
612.484	32092.86
612.841	32337.14
613.198	32378.05
613.554	32700.07
613.911	32946.17
614.267	32977.58
614.624	33195.88
614.98	33329.21
615.337	33610.78
615.693	33600.61
616.05	33835.41
616.406	34165.8
616.762	34138
617.118	34295.96
617.475	34333.25
617.831	34598.33
618.187	34738.66
618.543	34856.17
618.899	35145.66
619.255	35104.75
619.611	35258.65
619.967	35476.27
620.323	35612.09
620.678	35610.28
621.034	35667.9
621.39	35727.79
621.746	35785.64
622.101	36383.59
622.457	36162.35
622.812	36280.09
623.168	36478.73
623.523	36549.01
623.879	36739.97
624.234	36539.29
624.589	36738.16
624.945	36891.83
625.3	36993.29
625.655	37059.73
626.01	37159.62
626.365	37185.15
626.72	37288.2
627.075	37274.64
627.43	37311.93
627.785	37260.4
628.14	37347.18
628.495	37506.95
628.85	37509.21
629.205	37497.91
629.559	37759.6
629.914	37589.44
630.269	37611.58
630.623	37581.98
630.978	37564.58
631.332	37864.23
631.687	37922.08
632.041	37716.21
632.396	37812.25
632.75	37773.16
633.104	37695.65
633.459	37727.28
633.813	37974.06
634.167	37731.35
634.521	37805.02
634.875	37869.65
635.229	37925.25
635.583	37702.43
635.937	37732.71
636.291	37820.84
636.645	37854.74
636.999	37749.88
637.352	37946.26
637.706	37635.99
638.06	37872.82
638.413	37807.96
638.767	37756.89
639.121	37780.39
639.474	37755.76
639.828	37752.59
640.181	37727.96
640.534	37761.18
640.888	37544.69
641.241	37604.12
641.594	37678.47
641.947	37806.15
642.301	37658.36
642.654	37810.67
643.007	37782.2
643.36	37741.07
643.713	37795.31
644.066	37849.09
644.419	37629.43
644.771	37337.46
645.124	37078.71
645.477	37081.65
645.83	36896.35
646.182	36766.18
646.535	36622.68
646.888	36756.01
647.24	36488.45
647.593	36755.56
647.945	36507.66
648.298	36637.82
648.65	36486.41
649.002	36335.46
649.355	36487.77
649.707	36561.21
650.059	36788.78
650.411	37017.7
650.763	37088.43
651.115	37505.14
651.467	37489.32
651.819	37394.41
652.171	37284.58
652.523	37392.15
652.875	37400.06
653.227	37144.02
653.578	37387.18
653.93	37293.4
654.282	37114.42
654.633	37112.16
654.985	37219.28
655.337	37351.48
655.688	37205.26
656.039	37453.39
656.391	37096.79
656.742	37127.75
657.094	37097.92
657.445	37326.84
657.796	37184.25
658.147	37120.3
658.498	37087.3
658.849	37167.07
659.2	37147.41
659.551	36919.4
659.902	37237.13
660.253	37074.42
660.604	37174.98
660.955	37035.1
661.306	37116
661.656	37032.84
662.007	37102.67
662.358	37161.88
662.708	37116.91
663.059	37129.79
663.409	36777.93
663.76	37221.31
664.11	37086.85
664.461	37052.95
664.811	37047.98
665.161	37084.36
665.511	36862.9
665.862	36937.7
666.212	37172.05
666.562	37204.59
666.912	36950.13
667.262	36920.98
667.612	36832.62
667.962	37004.14
668.312	36878.49
668.662	37313.51
669.011	36956.91
669.361	36936.8
669.711	37009.11
670.06	36944.48
670.41	36949.68
670.76	36869.68
671.109	37005.5
671.459	36838.04
671.808	36892.73
672.157	36892.96
672.507	36606.86
672.856	36679.18
673.205	36817.93
673.554	36807.31
673.904	36667.65
674.253	36831.26
674.602	36752.4
674.951	36274.67
675.3	36143.82
675.649	36646.64
675.998	36786.97
676.346	36584.94
676.695	36750.59
677.044	36445.74
677.393	36560.31
677.741	36670.14
678.09	36482.12
678.438	36438.73
678.787	36343.59
679.135	36480.09
679.484	36268.11
679.832	36440.76
680.181	36264.72
680.529	36448.22
680.877	36150.15
681.225	36169.36
681.573	36403.03
681.922	36091.62
682.27	36139.08
682.618	35863.83
682.966	35856.37
683.314	36076.48
683.661	35873.77
684.009	35808.47
684.357	35684.17
684.705	35627.23
685.053	35802.82
685.4	35550.84
685.748	35447.57
686.095	35544.52
686.443	35380.68
686.79	35262.26
687.138	35354.47
687.485	35292.32
687.832	35258.65
688.18	35153.34
688.527	34950.18
688.874	35101.14
689.221	35008.49
689.568	34866.34
689.915	34698.44
690.262	34809.17
690.609	34743.86
690.956	34563.53
691.303	34571.89
691.65	34257.77
691.997	34350.42
692.344	34341.16
692.69	34121.96
693.037	34073.37
693.383	33862.08
693.73	34102.52
694.077	33810.1
694.423	33914.28
694.769	33661.86
695.116	33720.61
695.462	33545.93
695.808	33500.73
696.155	33607.85
696.501	33274.97
696.847	33212.6
697.193	33016
697.539	33209.66
697.885	32917.69
698.231	32869.79
698.577	32776
698.923	32794.76
699.269	32569
699.614	32444.26
699.96	32306.41
700.306	32494.43
700.651	32215.79
700.997	32126.75
701.342	32143.93
701.688	32036.59
702.033	32032.52
702.379	31951.84
702.724	31694.22
703.069	31854.67
703.415	31504.62
703.76	31429.6
704.105	31632.08
704.45	31429.6
704.795	31260.56
705.14	31040.91
705.485	31209.04
705.83	31008.37
706.175	31115.03
706.52	31028.03
706.865	30920.68
707.209	30800.24
707.554	30725.44
707.899	30657.41
708.243	30642.73
708.588	30713.68
708.932	30388.72
709.277	30423.52
709.621	30382.85
709.966	30211.78
710.31	30338.1
710.654	30094.04
710.998	30052.46
711.342	30150.99
711.687	29984.66
712.031	29927.49
712.375	29791
712.719	29863.76
713.063	29814.5
713.407	29830.77
713.75	29664.9
714.094	29730.21
714.438	29461.06
714.782	29464.45
715.125	29494.73
715.469	29407.05
715.812	29334.74
716.156	29224.68
716.499	29120.51
716.843	29199.83
717.186	29011.81
717.53	29208.19
717.873	29178.13
718.216	28953.96
718.559	28991.7
718.902	28667.86
719.246	28805.71
719.589	28615.21
719.932	28509.9
720.275	28630.12
720.617	28560.29
720.96	28431.48
721.303	28534.53
721.646	28490.01
721.989	28377.25
722.331	28299.74
722.674	28373.18
723.016	28358.94
723.359	28190.13
723.701	28226.97
724.044	28096.58
724.386	27823.36
724.729	28111.49
725.071	28023.36
725.413	27943.36
725.755	28129.12
726.097	27766.19
726.439	27732.75
726.782	27696.59
727.124	27988.11
727.465	27625.4
727.807	27673.76
728.149	27631.28
728.491	27583.82
728.833	27635.8
729.175	27479.87
729.516	27577.72
729.858	27537.27
730.199	27456.82
730.541	27351.96
730.882	27436.48
731.224	27414.34
731.565	27269.25
731.906	27275.13
732.248	27259.31
732.589	27161.01
732.93	27145.42
733.271	27090.05
733.612	27102.25
733.953	27118.07
734.294	26958.08
734.635	26940.9
734.976	27043.72
735.317	26842.15
735.658	26848.02
735.999	26877.17
736.339	26742.49
736.68	26723.96
737.021	26707.91
737.361	26566.67
737.702	26789.49
738.042	26713.34
738.383	26646.67
738.723	26730.74
739.063	26550.4
739.404	26661.59
739.744	26583.4
740.084	26406.9
740.424	26548.14
740.764	26452.1
741.104	26463.17
741.444	26282.61
741.784	26175.72
742.124	26289.62
742.464	26188.61
742.804	26242.84
743.143	26176.4
743.483	26184.54
743.823	26012.79
744.162	26057.99
744.502	26072.9
744.841	25828.61
745.181	25968.27
745.52	25910.87
745.86	25944.77
746.199	25896.41
746.538	25931.44
746.877	25960.59
747.216	25834.04
747.556	25877.2
747.895	25831.78
748.234	25661.16
748.573	25649.86
748.911	25775.06
749.25	25687.83
749.589	25625.68
749.928	25580.49
750.267	25716.3
750.605	25554.05
750.944	25611.22
751.283	25458.45
751.621	25617.09
751.96	25371.23
752.298	25319.48
752.636	25484.89
752.975	25263.43
753.313	25189.08
753.651	25351.79
753.989	25270.21
754.327	25189.08
754.666	25050.33
755.004	25141.63
755.342	25048.52
755.679	25126.94
756.017	24899.37
756.355	24951.58
756.693	24901.63
757.031	24956.1
757.368	24816.44
757.706	24837.45
758.044	24847.17
758.381	24852.37
758.719	24587.74
759.056	24788.42
759.394	24729.89
