Data from hue_32_FLMS001491_00034.txt Node
Date: Tue Feb 07 17:23:17 GMT 2017
User: dcchb
Spectrometer: FLMS00149
Trigger mode: 0
Integration Time (sec): 2.000000E-2
Scans to average: 10
Electric dark correction enabled: true
Nonlinearity correction enabled: false
Boxcar width: 0
XAxis mode: Wavelengths
Number of Pixels in Spectrum: 2048
>>>>>Begin Spectral Data<<<<<
341.393	-30.9
341.776	-30.9
342.16	-30.9
342.543	-58.93
342.927	-73.84
343.31	-77.68
343.693	-78.81
344.077	-74.29
344.46	-51.69
344.843	-53.95
345.226	-25.25
345.61	-36.33
345.993	-29.32
346.376	-3.79
346.759	17.01
347.142	27.85
347.525	52.71
347.908	51.35
348.291	82.54
348.674	77.57
349.057	122.09
349.44	132.26
349.823	138.36
350.206	165.93
350.588	203.21
350.971	219.71
351.354	217.45
351.737	239.6
352.119	263.1
352.502	256.77
352.884	282.31
353.267	285.7
353.65	292.7
354.032	304.23
354.414	329.77
354.797	319.37
355.179	311.91
355.562	327.05
355.944	334.96
356.326	329.54
356.709	330.44
357.091	344.91
357.473	337
357.855	337.22
358.238	332.03
358.62	338.13
359.002	345.81
359.384	321.4
359.766	332.25
360.148	350.56
360.53	333.61
360.912	343.55
361.294	349.2
361.676	338.58
362.057	349.2
362.439	336.09
362.821	329.77
363.203	320.05
363.584	330.9
363.966	340.39
364.348	345.58
364.729	330.44
365.111	318.01
365.493	331.35
365.874	343.32
366.256	329.09
366.637	300.84
367.019	313.49
367.4	306.94
367.781	307.17
368.163	314.62
368.544	327.51
368.925	332.25
369.306	306.94
369.688	339.03
370.069	318.24
370.45	308.52
370.831	330.44
371.212	302.2
371.593	321.18
371.974	332.93
372.355	320.73
372.736	319.37
373.117	302.87
373.498	322.08
373.879	318.92
374.26	307.17
374.641	319.37
375.021	315.75
375.402	329.09
375.783	345.81
376.163	332.25
376.544	348.3
376.925	328.41
377.305	340.16
377.686	349.43
378.066	346.04
378.447	333.16
378.827	336.54
379.208	333.61
379.588	322.99
379.968	322.76
380.349	323.89
380.729	344.45
381.109	318.69
381.489	323.44
381.87	325.47
382.25	338.58
382.63	364.57
383.01	333.61
383.39	330.44
383.77	352.36
384.15	324.79
384.53	353.27
384.91	327.96
385.29	345.13
385.67	337.45
386.049	356.43
386.429	348.07
386.809	354.62
387.189	347.84
387.568	347.39
387.948	360.5
388.328	354.17
388.707	357.34
389.087	359.6
389.466	377.9
389.846	363.44
390.225	372.93
390.605	359.37
390.984	356.66
391.363	357.56
391.743	379.26
392.122	362.08
392.501	368.63
392.881	405.24
393.26	386.49
393.639	364.79
394.018	359.82
394.397	364.34
394.776	364.57
395.155	392.36
395.534	377.9
395.913	410.22
396.292	386.04
396.671	400.95
397.05	395.98
397.429	373.38
397.808	379.48
398.186	377.67
398.565	399.37
398.944	406.37
399.323	384.23
399.701	405.47
400.08	395.98
400.458	402.31
400.837	381.74
401.215	405.24
401.594	402.76
401.972	403.89
402.351	402.08
402.729	411.8
403.107	406.15
403.486	428.07
403.864	436.2
404.242	412.7
404.62	413.15
404.999	424.9
405.377	416.09
405.755	409.54
406.133	414.73
406.511	432.81
406.889	421.06
407.267	432.36
407.645	432.81
408.023	431.91
408.401	442.98
408.779	409.54
409.156	435.07
409.534	427.39
409.912	432.59
410.29	450.67
410.667	460.61
411.045	460.61
411.422	471.91
411.8	462.64
412.178	456.54
412.555	449.54
412.933	448.86
413.31	486.37
413.687	483.43
414.065	459.71
414.442	484.79
414.819	491.79
415.197	492.92
415.574	480.5
415.951	512.13
416.328	490.44
416.705	496.99
417.082	492.92
417.46	495.41
417.837	490.67
418.214	512.59
418.591	488.86
418.967	501.96
419.344	505.35
419.721	503.55
420.098	498.8
420.475	511.68
420.852	539.93
421.228	501.96
421.605	510.78
421.982	530.66
422.358	550.1
422.735	550.32
423.111	546.71
423.488	559.82
423.864	551.23
424.241	565.01
424.617	552.58
424.994	552.13
425.37	558.91
425.746	556.88
426.123	552.36
426.499	560.27
426.875	596.88
427.251	588.97
427.627	583.09
428.003	575.63
428.379	601.17
428.756	593.04
429.132	615.41
429.507	598.91
429.883	601.17
430.259	585.58
430.635	631.68
431.011	609.53
431.387	617.22
431.763	621.28
432.138	632.36
432.514	637.55
432.89	644.11
433.265	654.5
433.641	632.13
434.016	661.51
434.392	618.57
434.767	689.3
435.143	661.51
435.518	680.26
435.894	689.98
436.269	713.26
436.644	693.37
437.02	689.76
437.395	701.96
437.77	743.54
438.145	718.23
438.52	709.19
438.895	731.56
439.271	733.37
439.646	719.59
440.021	760.26
440.395	765.46
440.77	738.12
441.145	762.3
441.52	768.85
441.895	751.22
442.27	761.39
442.645	779.47
443.019	760.49
443.394	763.88
443.769	747.83
444.143	786.7
444.518	768.62
444.892	771.56
445.267	798.45
445.641	798.23
446.016	787.38
446.39	808.17
446.764	790.54
447.139	824.67
447.513	805.69
447.887	801.84
448.262	816.53
448.636	831.67
449.01	843.42
449.384	834.61
449.758	835.51
450.132	837.55
450.506	862.86
450.88	870.32
451.254	852.24
451.628	856.31
452.002	852.46
452.376	885
452.75	891.56
453.123	902.86
453.497	891.33
453.871	921.39
454.244	921.16
454.618	932.24
454.992	936.53
455.365	935.4
455.739	967.49
456.112	947.83
456.486	953.25
456.859	973.82
457.232	995.28
457.606	978.11
457.979	991.44
458.352	1022.4
458.725	1023.98
459.099	1060.82
459.472	1026.7
459.845	1055.62
460.218	1057.43
460.591	1068.28
460.964	1063.98
461.337	1103.53
461.71	1114.15
462.083	1112.8
462.456	1115.28
462.829	1144.66
463.201	1160.93
463.574	1179.91
463.947	1165.68
464.32	1187.82
464.692	1212
465.065	1214.49
465.438	1226.69
465.81	1235.73
466.183	1247.48
466.555	1294.94
466.928	1323.64
467.3	1290.64
467.672	1315.95
468.045	1371.77
468.417	1349.85
468.789	1375.39
469.161	1371.09
469.534	1420.13
469.906	1450.19
470.278	1438.21
470.65	1485.67
471.022	1489.06
471.394	1526.57
471.766	1572.9
472.138	1536.06
472.51	1606.12
472.882	1618.55
473.253	1651.99
473.625	1676.4
473.997	1707.36
474.369	1723.85
474.74	1769.5
475.112	1804.98
475.484	1851.53
475.855	1881.36
476.227	1897.63
476.598	1967.01
476.97	1965.43
477.341	2022.38
477.713	2057.63
478.084	2084.3
478.455	2131.75
478.827	2207.91
479.198	2230.51
479.569	2257.4
479.94	2350.28
480.311	2378.75
480.682	2463.27
481.053	2537.84
481.424	2536.71
481.795	2611.29
482.166	2656.48
482.537	2742.58
482.908	2840.21
483.279	2849.7
483.65	2946.19
484.021	3023.03
484.391	3067.09
484.762	3116.58
485.133	3196.81
485.503	3237.03
485.874	3343.47
486.244	3392.06
486.615	3479.74
486.985	3591.15
487.356	3653.52
487.726	3725.61
488.097	3775.32
488.467	3874.76
488.837	3943.68
489.207	3999.05
489.578	4167.4
489.948	4202.21
490.318	4261.87
490.688	4353.61
491.058	4403.33
491.428	4492.37
491.798	4611.23
492.168	4678.58
492.538	4718.58
492.908	4822.08
493.278	4919.48
493.648	4938.23
494.017	5045.8
494.387	5099.13
494.757	5193.14
495.126	5285.79
495.496	5293.25
495.866	5405.11
496.235	5469.52
496.605	5566.24
496.974	5612.34
497.344	5684.43
497.713	5750.64
498.082	5792.45
498.452	5892.56
498.821	5924.42
499.19	5975.94
499.559	6070.41
499.928	6124.64
500.298	6220.46
500.667	6272.21
501.036	6305.65
501.405	6331.19
501.774	6438.31
502.143	6463.62
502.512	6549.26
502.88	6587
503.249	6612.31
503.618	6730.05
503.987	6769.14
504.356	6784.28
504.724	6852.76
505.093	6889.14
505.462	6965.52
505.83	6981.12
506.199	7100.66
506.567	7165.29
506.936	7161.68
507.304	7306.08
507.672	7326.64
508.041	7342.69
508.409	7403.25
508.777	7499.29
509.145	7535
509.514	7542.46
509.882	7631.27
510.25	7596.01
510.618	7684.15
510.986	7713.3
511.354	7821.77
511.722	7887.76
512.09	7994.42
512.458	7973.86
512.826	8065.16
513.193	8024.93
513.561	8050.47
513.929	8147.64
514.297	8275.55
514.664	8302.21
515.032	8332.72
515.4	8338.59
515.767	8401.64
516.135	8471.47
516.502	8439.16
516.869	8539.04
517.237	8576.78
517.604	8584.69
517.972	8636.21
518.339	8702.2
518.706	8680.28
519.073	8745.82
519.44	8802.31
519.808	8850.67
520.175	8908.75
520.542	8991.68
520.909	9012.93
521.276	8957.34
521.643	9072.13
522.009	9128.18
522.376	9186.03
522.743	9237.33
523.11	9300.38
523.477	9366.82
523.843	9444.33
524.21	9566.36
524.577	9534.04
524.943	9634.15
525.31	9681.16
525.676	9772
526.043	9813.58
526.409	9756.86
526.776	9942.17
527.142	9903.75
527.508	9968.38
527.874	9988.49
528.241	10070.07
528.607	10116.4
528.973	10220.8
529.339	10210.64
529.705	10381.25
530.071	10406.11
530.437	10412.44
530.803	10504.87
531.169	10521.81
531.535	10534.02
531.901	10608.59
532.267	10662.6
532.632	10739.21
532.998	10703.96
533.364	10883.84
533.73	10782.82
534.095	10897.4
534.461	10961.35
534.826	11067.11
535.192	11070.73
535.557	11086.32
535.923	11063.95
536.288	11118.86
536.653	11237.5
537.019	11265.75
537.384	11294.67
537.749	11380.1
538.114	11386.42
538.479	11423.71
538.845	11433.2
539.21	11525.18
539.575	11529.7
539.94	11586.87
540.305	11704.83
540.67	11714.1
541.034	11724.95
541.399	11810.59
541.764	11792.97
542.129	11896.24
542.494	11863.47
542.858	11977.59
543.223	11913.19
543.587	12029.34
543.952	11972.17
544.316	12060.08
544.681	12100.76
545.045	12228.66
545.41	12226.18
545.774	12273.41
546.138	12362.22
546.503	12386.85
546.867	12441.09
547.231	12537.58
547.595	12524.25
547.959	12670.46
548.324	12664.36
548.688	12702.1
549.052	12698.25
549.416	12731.93
549.779	12808.08
550.143	12805.6
550.507	12887.4
550.871	12888.08
551.235	12898.93
551.599	13059.15
551.962	13075.42
552.326	13084.01
552.689	13115.64
553.053	13133.5
553.417	13084.68
553.78	13373.72
554.143	13308.41
554.507	13360.84
554.87	13361.97
555.234	13483.54
555.597	13385.92
555.96	13549.3
556.323	13532.13
556.686	13590.89
557.05	13668.62
557.413	13697.1
557.776	13694.84
558.139	13808.28
558.502	13809.86
558.865	13885.79
559.228	13942.97
559.59	13949.97
559.953	14010.76
560.316	14108.84
560.679	14132.57
561.041	14172.11
561.404	14267.48
561.767	14369.85
562.129	14270.87
562.492	14396.06
562.854	14475.16
563.217	14388.15
563.579	14474.48
563.941	14509.28
564.304	14626.79
564.666	14765.54
565.028	14782.04
565.39	14826.79
565.753	14929.83
566.115	14952.43
566.477	14946.78
566.839	15008.7
567.201	15206.89
567.563	15078.98
567.925	15223.39
568.287	15239.43
568.648	15238.53
569.01	15368.69
569.372	15507.9
569.734	15445.98
570.095	15540.21
570.457	15631.51
570.819	15674.22
571.18	15733.2
571.542	15845.29
571.903	15797.38
572.265	15923.71
572.626	15972.52
572.987	16030.6
573.349	16180.2
573.71	16132.29
574.071	16339.06
574.432	16300.87
574.794	16540.86
575.155	16575.44
575.516	16535.89
575.877	16698.37
576.238	16823.57
576.599	16915.32
576.96	17061.98
577.32	17052.26
577.681	17231.69
578.042	17445.25
578.403	17381.52
578.763	17603.21
579.124	17567.5
579.485	17834.16
579.845	18024.22
580.206	18040.49
580.566	18217.66
580.927	18318.67
581.287	18638.44
581.648	18750.07
582.008	18997.3
582.368	18989.39
582.728	19262.37
583.089	19358.64
583.449	19598.19
583.809	19806.32
584.169	20035.24
584.529	20160.66
584.889	20496.47
585.249	20553.64
585.609	20777.82
585.969	21164.25
586.329	21288.31
586.688	21566.95
587.048	21682.88
587.408	21880.84
587.768	22128.51
588.127	22301.17
588.487	22465.68
588.846	23006.68
589.206	23092.33
589.565	23290.74
589.925	23648.47
590.284	23853.21
590.643	24270.38
591.003	24499.53
591.362	24756.47
591.721	24997.14
592.08	25287.53
592.44	25515.54
592.799	25800.51
593.158	26020.62
593.517	26281.17
593.876	26456.08
594.235	26705.12
594.593	27214.26
594.952	27397.08
595.311	27563.63
595.67	27957.06
596.029	28363.6
596.387	28628.91
596.746	28923.14
597.104	29022.34
597.463	29260.53
597.822	29674.76
598.18	29711.59
598.538	29982.32
598.897	30419.14
599.255	30448.75
599.613	31174.38
599.972	31175.51
600.33	31404.2
600.688	31466.57
601.046	31972.55
601.404	32308.81
601.762	32321.69
602.12	32713.09
602.478	32821.11
602.836	33026.53
603.194	33181.78
603.552	33337.26
603.91	33520.76
604.268	33860.86
604.625	34084.81
604.983	34317.12
605.341	34396.21
605.698	34738.58
606.056	35080.26
606.413	35120.49
606.771	35279.58
607.128	35642.96
607.485	35528.84
607.843	35928.83
608.2	36224.19
608.557	36536.27
608.914	36558.42
609.272	36755.93
609.629	37074.34
609.986	37296.02
610.343	37203.37
610.7	37630.93
611.057	37680.42
611.414	37844.49
611.771	37918.38
612.127	38230.69
612.484	38413.51
612.841	38589.78
613.198	38453.06
613.554	38618.48
613.911	38964.68
614.267	39116.54
614.624	39221.17
614.98	39242.41
615.337	39526.47
615.693	39565.8
616.05	39690.76
616.406	39900.48
616.762	39806.47
617.118	40050.75
617.475	40132.11
617.831	40317.64
618.187	40462.27
618.543	40509.5
618.899	40774.8
619.255	40927.57
619.611	40972.54
619.967	41161.23
620.323	41283.49
620.678	41281
621.034	41237.84
621.39	41290.5
621.746	41421.11
622.101	41873.31
622.457	41591.05
622.812	41812.06
623.168	41743.59
623.523	41952.17
623.879	42027.88
624.234	41855.91
624.589	42189.46
624.945	42170.02
625.3	42240.08
625.655	42277.81
626.01	42346.74
626.365	42366.4
626.72	42440.3
627.075	42430.35
627.43	42400.07
627.785	42306.29
628.14	42579.05
628.495	42650.91
628.85	42521.65
629.205	42511.71
629.559	42745.6
629.914	42465.38
630.269	42644.81
630.623	42636.22
630.978	42499.73
631.332	42792.6
631.687	42771.14
632.041	42760.74
632.396	42746.05
632.75	42686.62
633.104	42755.54
633.459	42674.41
633.813	42732.94
634.167	42683.45
634.521	42763.9
634.875	42818.82
635.229	42758.48
635.583	42612.95
635.937	42733.4
636.291	42675.54
636.645	42595.77
636.999	42525.04
637.352	42767.07
637.706	42487.3
638.06	42748.99
638.413	42586.06
638.767	42502.89
639.121	42750.57
639.474	42405.95
639.828	42498.6
640.181	42544.93
640.534	42606.85
640.888	42460.63
641.241	42314.65
641.594	42325.5
641.947	42579.95
642.301	42271.04
642.654	42451.82
643.007	42330.69
643.36	42365.04
643.713	42412.95
644.066	42530.24
644.419	42318.94
644.771	41963.7
645.124	41653.88
645.477	41622.46
645.83	41361.45
646.182	41223.61
646.535	41195.58
646.888	41152.19
647.24	41110.16
647.593	41173.89
647.945	41186.32
648.298	41013.89
648.65	41016.83
649.002	40787.01
649.355	41000.79
649.707	41035.36
650.059	41183.83
650.411	41599.64
650.763	41623.59
651.115	41913.98
651.467	41743.59
651.819	41912.4
652.171	41815
652.523	41659.98
652.875	41722.8
653.227	41595.8
653.578	41902.91
653.93	41824.04
654.282	41558.51
654.633	41528.46
654.985	41660.43
655.337	41536.59
655.688	41573.43
656.039	41848.45
656.391	41480.77
656.742	41646.19
657.094	41575.01
657.445	41716.93
657.796	41669.47
658.147	41498.17
658.498	41450.94
658.849	41561.22
659.2	41480.77
659.551	41305.64
659.902	41649.13
660.253	41497.72
660.604	41539.98
660.955	41337.73
661.306	41422.92
661.656	41373.43
662.007	41342.02
662.358	41392.19
662.708	41331.85
663.059	41360.55
663.409	41199.2
663.76	41427.67
664.11	41404.84
664.461	41456.59
664.811	41387.89
665.161	41365.97
665.511	41282.36
665.862	41381.57
666.212	41460.89
666.562	41441
666.912	41275.13
667.262	41183.83
667.612	41230.38
667.962	41271.97
668.312	41225.87
668.662	41329.59
669.011	41200.56
669.361	41272.87
669.711	41143.61
670.06	41153.32
670.41	41047.11
670.76	40997.85
671.109	41338.18
671.459	41221.57
671.808	41040.33
672.157	41204.62
672.507	40900.22
672.856	41035.36
673.205	41081.24
673.554	41045.76
673.904	40958.08
674.253	41206.2
674.602	40951.52
674.951	40439.22
675.3	40347.02
675.649	40984.74
675.998	40908.81
676.346	40962.82
676.695	41015.48
677.044	40636.28
677.393	40772.09
677.741	40918.98
678.09	40867.91
678.438	40673.11
678.787	40672.89
679.135	40723.96
679.484	40364.19
679.832	40546.11
680.181	40495.26
680.529	40551.76
680.877	40419.33
681.225	40501.59
681.573	40624.53
681.922	40359.9
682.27	40184.99
682.618	40182.05
682.966	40072.22
683.314	40163.75
683.661	39993.58
684.009	39892.11
684.357	39956.07
684.705	39820.93
685.053	39903.19
685.4	39808.05
685.748	39650.77
686.095	39575.51
686.443	39482.63
686.79	39452.35
687.138	39551.33
687.485	39338.46
687.832	39331
688.18	39386.14
688.527	39027.5
688.874	39035.41
689.221	39070.22
689.568	38893.72
689.915	38823.22
690.262	38838.81
690.609	38710.23
690.956	38656.22
691.303	38509.33
691.65	38342.33
691.997	38463
692.344	38190.24
692.69	38152.5
693.037	38209.45
693.383	37804.49
693.73	37971.94
694.077	37815.11
694.423	37915.44
694.769	37785.5
695.116	37606.75
695.462	37684.72
695.808	37430.71
696.155	37544.83
696.501	37291.28
696.847	37243.82
697.193	36980.78
697.539	37092.64
697.885	36928.8
698.231	36789.15
698.577	36921.35
698.923	36700.11
699.269	36588.47
699.614	36551.64
699.96	36270.74
700.306	36354.35
700.651	36270.29
700.997	36106.9
701.342	36037.75
701.688	35969.05
702.033	35926.12
702.379	35843.41
702.724	35628.05
703.069	35819.91
703.415	35314.83
703.76	35264.21
704.105	35366.58
704.45	35429.86
704.795	35041.85
705.14	35033.49
705.485	35029.64
705.83	34780.61
706.175	34882.3
706.52	34874.62
706.865	34666.72
707.209	34554.18
707.554	34414.97
707.899	34417.23
708.243	34360.06
708.588	34293.17
708.932	34107.41
709.277	34191.02
709.621	34210.23
709.966	33964.81
710.31	34004.81
710.654	33624.48
710.998	33726.85
711.342	33706.74
711.687	33639.85
712.031	33457.93
712.375	33451.38
712.719	33378.16
713.063	33351.27
713.407	33351.5
713.75	33396.47
714.094	33225.4
714.438	33047.32
714.782	33276.47
715.125	32933.43
715.469	33046.87
715.812	32809.36
716.156	32705.41
716.499	32715.35
716.843	32796.03
717.186	32548.58
717.53	32761.91
717.873	32652.31
718.216	32551.07
718.559	32422.48
718.902	32243.95
719.246	32239.66
719.589	32214.8
719.932	32064.75
720.275	32170.06
720.617	32118.53
720.96	31961.7
721.303	32020.23
721.646	31929.39
721.989	31657.98
722.331	31708.83
722.674	31695.04
723.016	31803.51
723.359	31648.26
723.701	31772.55
724.044	31527.14
724.386	31313.36
724.729	31449.63
725.071	31435.61
725.413	31293.7
725.755	31368.5
726.097	31194.72
726.439	30961.28
726.782	31076.75
727.124	31239.69
727.465	31064.78
727.807	30989.98
728.149	30950.66
728.491	30792.92
728.833	31009.64
729.175	30811.68
729.516	30905.01
729.858	30731.9
730.199	30657.1
730.541	30557.9
730.882	30604
731.224	30657.56
731.565	30406.26
731.906	30413.72
732.248	30468.63
732.589	30375.53
732.93	30162.65
733.271	30284.23
733.612	30262.31
733.953	30317.68
734.294	30073.16
734.635	30069.55
734.976	30197.68
735.317	29999.27
735.658	30011.7
735.999	29881.53
736.339	29853.96
736.68	30038.81
737.021	29804.47
737.361	29786.62
737.702	29874.07
738.042	29695.09
738.383	29715.43
738.723	29700.97
739.063	29657.81
739.404	29641.76
739.744	29525.16
740.084	29494.87
740.424	29601.76
740.764	29517.02
741.104	29539.84
741.444	29343.01
741.784	29343.92
742.124	29331.49
742.464	29170.14
742.804	29114.55
743.143	29072.29
743.483	29185.96
743.823	28982.57
744.162	28883.36
744.502	29072.96
744.841	28937.15
745.181	28986.64
745.52	28769.47
745.86	28978.96
746.199	28836.81
746.538	28719.98
746.877	28769.02
747.216	28844.04
747.556	28657.16
747.895	28641.79
748.234	28538.52
748.573	28526.09
748.911	28423.94
749.25	28425.52
749.589	28382.14
749.928	28393.21
750.267	28389.14
750.605	28331.29
750.944	28272.76
751.283	28129.94
751.621	28169.71
751.96	28073.44
752.298	27993.67
752.636	28041.58
752.975	27792.55
753.313	27800.23
753.651	27918.64
753.989	27745.54
754.327	27698.99
754.666	27574.02
755.004	27740.8
755.342	27619.44
755.679	27520.24
756.017	27530.63
756.355	27566.79
756.693	27324.54
757.031	27354.14
757.368	27222.84
757.706	27281.37
758.044	27085.67
