Data from hue_10_FLMS001491_1.txt Node
Date: Mon Feb 06 15:31:18 GMT 2017
User: dcchb
Spectrometer: FLMS00149
Trigger mode: 0
Integration Time (sec): 2.000000E-2
Scans to average: 10
Electric dark correction enabled: true
Nonlinearity correction enabled: false
Boxcar width: 0
XAxis mode: Wavelengths
Number of Pixels in Spectrum: 2048
>>>>>Begin Spectral Data<<<<<
341.393	-40.59
341.776	-40.59
342.16	-40.59
342.543	-74.49
342.927	-50.99
343.31	-58.67
343.693	-72.91
344.077	-71.33
344.46	-69.97
344.843	-45.11
345.226	-28.39
345.61	-42.4
345.993	-27.03
346.376	-13.93
346.759	32.63
347.142	31.27
347.525	49.12
347.908	40.54
348.291	81.44
348.674	102.91
349.057	91.83
349.44	111.72
349.823	132.74
350.206	156.46
350.588	176.58
350.971	201.21
351.354	198.72
351.737	218.84
352.119	250.25
352.502	235.56
352.884	250.02
353.267	293.64
353.65	298.83
354.032	304.71
354.414	305.16
354.797	292.96
355.179	323.24
355.562	317.82
355.944	312.17
356.326	323.92
356.709	319.62
357.091	329.12
357.473	318.95
357.855	333.64
358.238	336.35
358.62	332.28
359.002	330.7
359.384	344.26
359.766	333.41
360.148	346.06
360.53	345.61
360.912	348.32
361.294	335.44
361.676	326.86
362.057	325.05
362.439	333.64
362.821	330.7
363.203	315.56
363.584	317.82
363.966	311.04
364.348	316.23
364.729	312.17
365.111	308.78
365.493	309.46
365.874	330.47
366.256	316.91
366.637	300.19
367.019	312.62
367.4	296.35
367.781	305.84
368.163	327.53
368.544	289.79
368.925	292.05
369.306	298.38
369.688	312.17
370.069	299.51
370.45	303.58
370.831	312.84
371.212	337.93
371.593	318.27
371.974	327.31
372.355	298.16
372.736	287.76
373.117	315.78
373.498	316.91
373.879	320.53
374.26	322.56
374.641	306.07
375.021	304.03
375.402	307.65
375.783	306.74
376.163	310.36
376.544	316.01
376.925	342.9
377.305	323.47
377.686	332.51
378.066	309.46
378.447	318.49
378.827	325.27
379.208	328.44
379.588	316.46
379.968	326.63
380.349	313.75
380.729	318.27
381.109	328.89
381.489	318.04
381.87	313.97
382.25	338.83
382.63	355.78
383.01	335.9
383.39	346.06
383.77	341.77
384.15	323.92
384.53	343.58
384.91	347.42
385.29	348.55
385.67	330.47
386.049	350.58
386.429	335.9
386.809	334.09
387.189	360.3
387.568	357.14
387.948	345.16
388.328	347.19
388.707	356.01
389.087	343.13
389.466	347.65
389.846	363.69
390.225	360.98
390.605	360.75
390.984	367.31
391.363	365.95
391.743	334.54
392.122	350.81
392.501	336.12
392.881	342.45
393.26	372.73
393.639	360.08
394.018	349.91
394.397	388.32
394.776	350.36
395.155	375.22
395.534	379.06
395.913	372.05
396.292	356.01
396.671	387.42
397.05	354.2
397.429	371.83
397.808	372.96
398.186	381.54
398.565	381.77
398.944	362.11
399.323	382.45
399.701	375.67
400.08	397.36
400.458	378.61
400.837	391.49
401.215	392.16
401.594	385.84
401.972	415.44
402.351	380.41
402.729	389.45
403.107	380.41
403.486	384.71
403.864	379.96
404.242	402.33
404.62	407.98
404.999	396.68
405.377	412.96
405.755	398.72
406.133	401.88
406.511	399.85
406.889	400.07
407.267	415.44
407.645	427.19
408.023	443.24
408.401	415.89
408.779	412.96
409.156	411.83
409.534	435.1
409.912	420.86
410.29	440.75
410.667	430.81
411.045	446.63
411.422	431.03
411.8	424.71
412.178	436.68
412.555	428.77
412.933	436.46
413.31	443.46
413.687	455.44
414.065	459.51
414.442	445.95
414.819	462.45
415.197	442.56
415.574	446.17
415.951	464.03
416.328	475.33
416.705	455.21
417.082	473.52
417.46	480.75
417.837	468.55
418.214	477.13
418.591	483.24
418.967	484.82
419.344	466.06
419.721	501.09
420.098	463.58
420.475	464.25
420.852	506.29
421.228	503.12
421.605	480.52
421.982	499.05
422.358	505.38
422.735	498.38
423.111	523.69
423.488	497.92
423.864	524.59
424.241	549
424.617	524.59
424.994	551.48
425.37	518.94
425.746	532.5
426.123	534.53
426.499	524.82
426.875	524.59
427.251	523.91
427.627	549.45
428.003	563.01
428.379	539.73
428.756	549.22
429.132	562.1
429.507	553.06
429.883	560.97
430.259	582.22
430.635	559.17
431.011	571.14
431.387	573.4
431.763	574.76
432.138	607.98
432.514	602.55
432.89	593.97
433.265	603.23
433.641	607.75
434.016	593.74
434.392	600.52
434.767	623.8
435.143	625.83
435.518	628.09
435.894	629.45
436.269	640.07
436.644	647.3
437.02	657.92
437.395	651.37
437.77	671.93
438.145	660.86
438.52	663.34
438.895	653.4
439.271	684.59
439.646	680.07
440.021	661.54
440.395	686.39
440.77	688.65
441.145	692.72
441.52	692.27
441.895	690.91
442.27	707.18
442.645	695.66
443.019	722.1
443.394	722.78
443.769	724.13
444.143	718.48
444.518	737.47
444.892	704.47
445.267	726.85
445.641	744.02
446.016	719.39
446.39	732.04
446.764	744.7
447.139	735.88
447.513	728.43
447.887	758.93
448.262	758.03
448.636	766.62
449.01	773.4
449.384	753.51
449.758	764.36
450.132	778.82
450.506	786.05
450.88	779.5
451.254	777.01
451.628	816.56
452.002	808.2
452.376	824.02
452.75	818.37
453.123	806.62
453.497	847.29
453.871	826.05
454.244	833.06
454.618	831.93
454.992	858.59
455.365	838.71
455.739	870.57
456.112	890.23
456.486	866.05
456.859	871.7
457.232	905.82
457.606	914.86
457.979	890.91
458.352	920.74
458.725	958.25
459.099	952.6
459.472	951.02
459.845	931.81
460.218	991.02
460.591	950.12
460.964	981.75
461.337	988.76
461.71	1000.96
462.083	1006.61
462.456	1001.41
462.829	991.25
463.201	1009.78
463.574	1034.86
463.947	1071.02
464.32	1041.41
464.692	1042.54
465.065	1107.17
465.438	1096.78
465.81	1129.09
466.183	1094.97
466.555	1116.44
466.928	1128.64
467.3	1147.85
467.672	1170.68
468.045	1174.07
468.417	1195.08
468.789	1173.39
469.161	1194.4
469.534	1229.88
469.906	1246.38
470.278	1271.01
470.65	1261.07
471.022	1268.07
471.394	1310.78
471.766	1326.15
472.138	1338.13
472.51	1364.12
472.882	1379.94
473.253	1354.17
473.625	1419.48
473.997	1473.27
474.369	1444.57
474.74	1475.98
475.112	1504.68
475.484	1526.82
475.855	1546.71
476.227	1559.59
476.598	1643.66
476.97	1625.8
477.341	1649.76
477.713	1707.16
478.084	1683.88
478.455	1729.08
478.827	1746.03
479.198	1795.29
479.569	1795.74
479.94	1852.69
480.311	1878.45
480.682	1910.99
481.053	1965.68
481.424	1992.57
481.795	1996.64
482.166	2053.59
482.537	2107.6
482.908	2124.77
483.279	2137.66
483.65	2195.28
484.021	2235.28
484.391	2268.73
484.762	2290.42
485.133	2306.01
485.503	2335.62
485.874	2402.06
486.244	2440.92
486.615	2463.52
486.985	2535.16
487.356	2505.56
487.726	2625.33
488.097	2636.4
488.467	2644.99
488.837	2725.44
489.207	2759.33
489.578	2778.54
489.948	2868.03
490.318	2896.51
490.688	2891.99
491.058	2903.74
491.428	2954.13
491.798	3010.63
492.168	3039.78
492.538	3076.61
492.908	3125.65
493.278	3227.34
493.648	3192.77
494.017	3238.87
494.387	3273.45
494.757	3262.82
495.126	3308.25
495.496	3366.32
495.866	3368.58
496.235	3437.73
496.605	3472.31
496.974	3469.6
497.344	3536.71
497.713	3520.67
498.082	3598.41
498.452	3587.11
498.821	3619.42
499.19	3609.03
499.559	3657.16
499.928	3681.57
500.298	3720.66
500.667	3722.47
501.036	3709.14
501.405	3778.06
501.774	3809.7
502.143	3805.41
502.512	3848.12
502.88	3900.1
503.249	3918.85
503.618	3926.08
503.987	3951.17
504.356	3937.83
504.724	3968.57
505.093	3985.74
505.462	3997.27
505.83	4026.19
506.199	4061.45
506.567	4114.55
506.936	4138.06
507.304	4175.12
507.672	4159.52
508.041	4185.96
508.409	4203.82
508.777	4228.45
509.145	4306.86
509.514	4313.64
509.882	4266.64
510.25	4348.44
510.618	4347.54
510.986	4363.81
511.354	4392.29
511.722	4404.26
512.09	4436.58
512.458	4444.26
512.826	4473.64
513.193	4471.15
513.561	4460.76
513.929	4524.49
514.297	4543.92
514.664	4574.2
515.032	4534.43
515.4	4625.73
515.767	4611.26
516.135	4654.43
516.502	4599.51
516.869	4726.97
517.237	4703.46
517.604	4660.3
517.972	4747.3
518.339	4732.62
518.706	4766.06
519.073	4792.73
519.44	4770.13
519.808	4838.6
520.175	4837.92
520.542	4903.91
520.909	4893.29
521.276	4872.05
521.643	4907.75
522.009	4941.65
522.376	4957.24
522.743	4990.69
523.11	5044.02
523.477	5036.34
523.843	5100.97
524.21	5089.44
524.577	5124.02
524.943	5158.82
525.31	5181.64
525.676	5210.57
526.043	5320.62
526.409	5266.16
526.776	5345.48
527.142	5340.28
527.508	5294.86
527.874	5390.9
528.241	5394.29
528.607	5421.86
528.973	5522.2
529.339	5500.73
529.705	5495.76
530.071	5552.93
530.437	5558.58
530.803	5590.22
531.169	5672.03
531.535	5655.53
531.901	5726.49
532.267	5676.09
532.632	5681.74
532.998	5731.01
533.364	5763.1
533.73	5799.03
534.095	5825.92
534.461	5842.64
534.826	5879.48
535.192	5883.55
535.557	5933.71
535.923	5993.83
536.288	5949.53
536.653	6008.97
537.019	5991.57
537.384	6007.38
537.749	6078.34
538.114	6081.28
538.479	6120.6
538.845	6155.4
539.21	6160.6
539.575	6150.21
539.94	6214.84
540.305	6184.78
540.67	6171.22
541.034	6291.44
541.399	6306.59
541.764	6298.45
542.129	6359.69
542.494	6349.75
542.858	6346.58
543.223	6414.61
543.587	6408.73
543.952	6399.01
544.316	6435.17
544.681	6471.1
545.045	6510.65
545.41	6611.44
545.774	6558.33
546.138	6591.32
546.503	6599.01
546.867	6636.97
547.231	6688.04
547.595	6705.22
547.959	6748.61
548.324	6735.95
548.688	6759
549.052	6764.43
549.416	6743.64
549.779	6857.08
550.143	6855.05
550.507	6901.37
550.871	6931.65
551.235	6914.03
551.599	6952.9
551.962	6948.6
552.326	7022.05
552.689	7017.3
553.053	7037.19
553.417	7043.52
553.78	7122.61
554.143	7110.63
554.507	7191.53
554.87	7121.71
555.234	7230.18
555.597	7163.74
555.96	7203.06
556.323	7273.11
556.686	7263.17
557.05	7322.38
557.413	7339.1
557.776	7311.53
558.139	7434.24
558.502	7405.54
558.865	7367.57
559.228	7436.05
559.59	7429.95
559.953	7531.86
560.316	7543.39
560.679	7532.77
561.041	7602.6
561.404	7610.96
561.767	7692.09
562.129	7632.2
562.492	7703.61
562.854	7699.32
563.217	7710.39
563.579	7770.5
563.941	7831.29
564.304	7826.32
564.666	7901.35
565.028	7881.91
565.39	7891.85
565.753	8001.68
566.115	7984.73
566.477	7950.16
566.839	8047.33
567.201	8041.46
567.563	8118.29
567.925	8129.36
568.287	8170.94
568.648	8150.15
569.01	8187.67
569.372	8257.27
569.734	8270.83
570.095	8306.08
570.457	8318.06
570.819	8337.04
571.18	8395.8
571.542	8498.84
571.903	8462.24
572.265	8547.43
572.626	8551.95
572.987	8597.82
573.349	8690.48
573.71	8714.43
574.071	8701.1
574.432	8818.84
574.794	8834.2
575.155	8890.92
575.516	8909.23
575.877	8965.5
576.238	9059.06
576.599	9078.49
576.96	9169.56
577.32	9203.46
577.681	9348.09
578.042	9434.86
578.403	9442.77
578.763	9487.97
579.124	9586.95
579.485	9750.34
579.845	9778.81
580.206	9884.8
580.566	10013.61
580.927	10056.32
581.287	10226.48
581.648	10273.94
582.008	10405.46
582.368	10522.75
582.728	10702.18
583.089	10718
583.449	10933.13
583.809	11040.47
584.169	11253.12
584.529	11351.88
584.889	11571.98
585.249	11753.67
585.609	11780.34
585.969	12015.14
586.329	12192.53
586.688	12420.78
587.048	12637.27
587.408	12774.21
587.768	12947.77
588.127	13159.96
588.487	13340.98
588.846	13712.72
589.206	13706.39
589.565	14053.05
589.925	14354.28
590.284	14550.44
590.643	14800.83
591.003	15061.61
591.362	15309.06
591.721	15504.08
592.08	15806.67
592.44	16041.92
592.799	16435.36
593.158	16583.83
593.517	16907.21
593.876	17212.51
594.235	17527.76
594.593	17707.64
594.952	18157.57
595.311	18208.42
595.67	18556.43
596.029	18943.99
596.387	19220.82
596.746	19559.57
597.104	19698.1
597.463	19962.72
597.822	20334.69
598.18	20609.49
598.538	20786.2
598.897	21271.84
599.255	21329.47
599.613	21971.94
599.972	22124.02
600.33	22428.2
600.688	22605.37
601.046	22984.57
601.404	23276.53
601.762	23667.03
602.12	23885.33
602.478	24149.05
602.836	24288.71
603.194	24590.17
603.552	24905.64
603.91	25071.52
604.268	25288.91
604.625	25476.25
604.983	25910.14
605.341	26099.06
605.698	26496.11
606.056	26834.86
606.413	26952.6
606.771	27277.79
607.128	27523.88
607.485	27630.77
607.843	27701.73
608.2	28178.78
608.557	28539.67
608.914	28610.86
609.272	28881.59
609.629	29275.25
609.986	29490.38
610.343	29710.26
610.7	30026.64
611.057	30234.09
611.414	30345.95
611.771	30498.72
612.127	30772.16
612.484	30980.29
612.841	31281.75
613.198	31298.02
613.554	31564.23
613.911	31822.98
614.267	31980.03
614.624	32094.38
614.98	32215.96
615.337	32657.98
615.693	32656.85
616.05	32950.63
616.406	33157.63
616.762	33241.92
617.118	33320.34
617.475	33387.91
617.831	33765.98
618.187	33853.43
618.543	33969.59
618.899	34361.89
619.255	34342.46
619.611	34467.2
619.967	34651.15
620.323	34897.47
620.678	34806.63
621.034	34821.54
621.39	34957.36
621.746	35108.54
622.101	35384.47
622.457	35235.77
622.812	35498.59
623.168	35731.57
623.523	35809.99
623.879	35940.61
624.234	35707.85
624.589	35940.16
624.945	36031.68
625.3	36082.53
625.655	36192.35
626.01	36324.78
626.365	36472.35
626.72	36565.23
627.075	36526.13
627.43	36578.11
627.785	36610.2
628.14	36750.3
628.495	36793.69
628.85	36823.98
629.205	36825.56
629.559	37050.86
629.914	36989.62
630.269	36901.71
630.623	36902.17
630.978	36905.78
631.332	37177.64
631.687	37302.61
632.041	37115.27
632.396	37278.65
632.75	37136.96
633.104	37194.14
633.459	37256.96
633.813	37141.03
634.167	37361.14
634.521	37249.73
634.875	37332.66
635.229	37318.43
635.583	37130.18
635.937	37162.95
636.291	37255.15
636.645	37366.33
636.999	37246.79
637.352	37373.11
637.706	37344.87
638.06	37270.29
638.413	37314.81
638.767	37191.2
639.121	37263.96
639.474	37030.07
639.828	37254.02
640.181	37250.86
640.534	37225.09
640.888	37346.67
641.241	37040.47
641.594	37082.05
641.947	37360.23
642.301	37228.03
642.654	37138.09
643.007	37265.32
643.36	37212.89
643.713	37200.69
644.066	37359.55
644.419	37066.45
644.771	36881.15
645.124	36683.41
645.477	36515.06
645.83	36274.39
646.182	36127.5
646.535	36094.05
646.888	36163.65
647.24	35969.76
647.593	36334.04
647.945	36064.22
648.298	36044.56
648.65	35967.05
649.002	35860.16
649.355	36106.48
649.707	35882.98
650.059	36146.48
650.411	36529.75
650.763	36604.77
651.115	36942.62
651.467	36836.4
651.819	36821.04
652.171	36711.89
652.523	36607.94
652.875	36794.6
653.227	36541.95
653.578	36813.81
653.93	36547.37
654.282	36513.7
654.633	36621.49
654.985	36630.53
655.337	36594.83
655.688	36601.61
656.039	36831.43
656.391	36355.29
656.742	36491.55
657.094	36553.25
657.445	36661.27
657.796	36649.29
658.147	36480.26
658.498	36487.71
658.849	36505.57
659.2	36454.49
659.551	36315.74
659.902	36613.59
660.253	36502.85
660.604	36492.91
660.955	36231
661.306	36516.86
661.656	36376.08
662.007	36411.56
662.358	36419.69
662.708	36402.74
663.059	36307.15
663.409	36186.25
663.76	36466.7
664.11	36335.85
664.461	36369.98
664.811	36447.26
665.161	36435.28
665.511	36335.85
665.862	36330.2
666.212	36348.96
666.562	36560.48
666.912	36390.09
667.262	36318.45
667.612	36268.06
667.962	36414.95
668.312	36328.17
668.662	36327.94
669.011	36330.43
669.361	36337.43
669.711	36206.82
670.06	36223.31
670.41	36061.96
670.76	36157.33
671.109	36310.77
671.459	36123.65
671.808	36196.87
672.157	36301.28
672.507	36037.1
672.856	35953.04
673.205	36098.34
673.554	36100.38
673.904	36096.31
674.253	36296.53
674.602	36163.43
674.951	35579.04
675.3	35408.42
675.649	35989.65
675.998	35891.34
676.346	36014.28
676.695	36039.82
677.044	35599.83
677.393	36014.51
677.741	35950.78
678.09	35841.63
678.438	35726.38
678.787	35798.69
679.135	35739.48
679.484	35594.4
679.832	35634.4
680.181	35474.63
680.529	35515.76
680.877	35570.67
681.225	35491.13
681.573	35522.77
681.922	35388.76
682.27	35301.98
682.618	35289.78
682.966	35213.17
683.314	35326.84
683.661	35163
684.009	34931.82
684.357	34935.66
684.705	35018.37
685.053	34929.56
685.4	34989.45
685.748	34663.13
686.095	34855.89
686.443	34614.09
686.79	34681.21
687.138	34741.32
687.485	34569.8
687.832	34533.41
688.18	34612.96
688.527	34393.3
688.874	34286.41
689.221	34424.26
689.568	34232.18
689.915	34171.16
690.262	34185.17
690.609	34085.29
690.956	34021.79
691.303	33961
691.65	33723.72
691.997	33728.69
692.344	33547.68
692.69	33525.53
693.037	33631.74
693.383	33290.06
693.73	33328.93
694.077	33166.9
694.423	33259.32
694.769	33078.76
695.116	33058.2
695.462	32952.89
695.808	32839.9
696.155	32828.37
696.501	32568.04
696.847	32655.72
697.193	32278.33
697.539	32633.35
697.885	32394.26
698.231	32301.61
698.577	32300.03
698.923	32268.61
699.269	32124.89
699.614	31830.43
699.96	31911.79
700.306	31783.88
700.651	31743.66
700.997	31662.08
701.342	31491.69
701.688	31559.71
702.033	31502.53
702.379	31468.41
702.724	31293.5
703.069	31293.27
703.415	30977.12
703.76	31141.19
704.105	30975.32
704.45	30953.62
704.795	30775.32
705.14	30784.59
705.485	30736.23
705.83	30629.11
706.175	30736.23
706.52	30541.65
706.865	30388.89
707.209	30331.49
707.554	30297.37
707.899	30209.23
708.243	30127.65
708.588	30177.14
708.932	29991.39
709.277	29896.25
709.621	29995.23
709.966	29792.52
710.31	29804.95
710.654	29534.68
710.998	29608.8
711.342	29673.43
711.687	29439.99
712.031	29333.1
712.375	29345.98
712.719	29377.39
713.063	29344.85
713.407	29388.01
713.75	29126.1
714.094	29176.04
714.438	28945.09
714.782	29109.6
715.125	28929.27
715.469	29015.14
715.812	28737.41
716.156	28762.72
716.499	28715.26
716.843	28730.18
717.186	28433.91
717.53	28719.33
717.873	28707.58
718.216	28560.69
718.559	28348.49
718.902	28323.86
719.246	28283.86
719.589	28190.98
719.932	28061.95
720.275	28122.96
720.617	28031.89
720.96	27985.79
721.303	27964.1
721.646	28028.5
721.989	27877.77
722.331	27896.98
722.674	27892.68
723.016	27792.35
723.359	27848.17
723.701	27859.92
724.044	27535.86
724.386	27513.94
724.729	27674.16
725.071	27482.75
725.413	27470.55
725.755	27562.98
726.097	27360.04
726.439	27260.38
726.782	27407.95
727.124	27225.36
727.465	27108.3
727.807	27259.48
728.149	27086.83
728.491	27071.69
728.833	27119.15
729.175	27068.98
729.516	26884.35
729.858	26837.12
730.199	26944.24
730.541	26763.67
730.882	26768.19
731.224	26908.53
731.565	26749.44
731.906	26709.66
732.248	26755.54
732.589	26594.87
732.93	26440.52
733.271	26505.15
733.612	26560.97
733.953	26483
734.294	26429.22
734.635	26414.76
734.976	26393.29
735.317	26184.03
735.658	26246.4
735.999	26160.75
736.339	26080.53
736.68	26223.8
737.021	26157.36
737.361	26072.62
737.702	26134.99
738.042	26123.24
738.383	26016.8
738.723	26103.35
739.063	25922.79
739.404	26069.68
739.744	25839.63
740.084	25636.47
740.424	25698.17
740.764	25726.41
741.104	25870.14
741.444	25652.74
741.784	25622.46
742.124	25686.87
742.464	25707.66
742.804	25602.35
743.143	25456.82
743.483	25539.53
743.823	25356.71
744.162	25351.28
744.502	25520.09
744.841	25300.89
745.181	25337.05
745.52	25301.79
745.86	25288.23
746.199	25219.76
746.538	25090.27
746.877	25222.92
747.216	25043.72
747.556	25035.13
747.895	25161.91
748.234	25002.14
748.573	24918.75
748.911	25001.69
749.25	24832.88
749.589	24833.1
749.928	24792.43
750.267	24862.93
750.605	24777.29
750.944	24542.72
751.283	24556.5
751.621	24664.52
751.96	24572.55
752.298	24601.7
752.636	24529.84
752.975	24424.3
753.313	24333.91
753.651	24515.82
753.989	24300.01
754.327	24269.5
754.666	24164.2
755.004	24284.19
755.342	24196.96
755.679	24150.86
756.017	24048.94
756.355	24094.59
756.693	23991.09
757.031	23935.05
757.368	23886.01
757.706	23835.16
758.044	23695.51
758.381	23744.32
758.719	23671.33
759.056	23703.19
759.394	23550.65
759.731	23359.47
760.068	23394.72
760.405	23371.22
