Data from hue_350_FLMS001491_93.txt Node
Date: Mon Feb 06 15:38:46 GMT 2017
User: dcchb
Spectrometer: FLMS00149
Trigger mode: 0
Integration Time (sec): 2.000000E-2
Scans to average: 10
Electric dark correction enabled: true
Nonlinearity correction enabled: false
Boxcar width: 0
XAxis mode: Wavelengths
Number of Pixels in Spectrum: 2048
>>>>>Begin Spectral Data<<<<<
341.393	-2.25
341.776	-2.25
342.16	-2.25
342.543	-72.07
342.927	-70.04
343.31	-64.16
343.693	-70.72
344.077	-71.17
344.46	-74.79
344.843	-65.52
345.226	-36.14
345.61	-20.78
345.993	-5.41
346.376	-12.19
346.759	12.44
347.142	31.43
347.525	55.15
347.908	63.29
348.291	59.45
348.674	93.12
349.057	106
349.44	144.19
349.823	137.86
350.206	159.33
350.588	186.68
350.971	204.98
351.354	205.21
351.737	217.64
352.119	253.11
352.502	267.35
352.884	275.94
353.267	282.72
353.65	281.36
354.032	299.44
354.414	300.57
354.797	306.9
355.179	321.14
355.562	314.81
355.944	325.88
356.326	335.6
356.709	319.1
357.091	336.28
357.473	340.57
357.855	343.73
358.238	342.15
358.62	334.47
359.002	329.95
359.384	345.54
359.766	311.19
360.148	329.72
360.53	337.86
360.912	319.33
361.294	329.05
361.676	320.23
362.057	327.69
362.439	324.07
362.821	331.98
363.203	327.92
363.584	323.17
363.966	340.12
364.348	334.47
364.729	324.98
365.111	308.48
365.493	328.59
365.874	321.36
366.256	317.97
366.637	313.68
367.019	323.4
367.4	309.84
367.781	345.09
368.163	316.16
368.544	308.48
368.925	317.75
369.306	336.73
369.688	336.5
370.069	328.14
370.45	320.23
370.831	312.32
371.212	307.8
371.593	317.07
371.974	320.01
372.355	319.1
372.736	307.12
373.117	300.12
373.498	305.54
373.879	312.32
374.26	296.96
374.641	305.54
375.021	292.89
375.402	311.64
375.783	315.49
376.163	332.89
376.544	316.39
376.925	334.47
377.305	311.64
377.686	317.97
378.066	340.34
378.447	315.49
378.827	315.71
379.208	314.36
379.588	315.49
379.968	312.32
380.349	321.81
380.729	329.5
381.109	326.33
381.489	345.77
381.87	338.08
382.25	333.79
382.63	336.28
383.01	327.69
383.39	344.41
383.77	346.9
384.15	315.94
384.53	334.69
384.91	331.08
385.29	343.51
385.67	339.44
386.049	343.28
386.429	347.58
386.809	352.77
387.189	333.56
387.568	350.51
387.948	347.58
388.328	347.35
388.707	343.73
389.087	335.82
389.466	355.71
389.846	361.13
390.225	354.36
390.605	346.45
390.984	347.12
391.363	350.74
391.743	364.98
392.122	358.2
392.501	363.39
392.881	359.1
393.26	383.28
393.639	382.38
394.018	373.56
394.397	360.23
394.776	365.65
395.155	394.35
395.534	358.65
395.913	368.14
396.292	391.19
396.671	361.81
397.05	376.95
397.429	375.15
397.808	390.29
398.186	390.29
398.565	377.41
398.944	382.15
399.323	399.55
399.701	381.92
400.08	390.51
400.458	369.95
400.837	390.06
401.215	386.44
401.594	393.45
401.972	405.88
402.351	383.73
402.729	407.69
403.107	395.03
403.486	399.55
403.864	398.42
404.242	406.56
404.62	399.1
404.999	404.52
405.377	416.95
405.755	415.6
406.133	425.31
406.511	402.49
406.889	416.73
407.267	419.89
407.645	423.73
408.023	417.18
408.401	428.25
408.779	417.86
409.156	432.09
409.534	424.86
409.912	429.38
410.29	439.32
410.667	423.96
411.045	478.42
411.422	451.98
411.8	455.6
412.178	448.59
412.555	448.14
412.933	458.31
413.31	465.76
413.687	477.74
414.065	462.6
414.442	468.7
414.819	462.37
415.197	479.78
415.574	465.54
415.951	482.26
416.328	492.2
416.705	483.39
417.082	505.31
417.46	494.01
417.837	491.07
418.214	502.83
418.591	510.28
418.967	495.37
419.344	515.03
419.721	515.71
420.098	507.57
420.475	509.83
420.852	522.26
421.228	538.31
421.605	529.27
421.982	528.59
422.358	547.12
422.735	545.76
423.111	530.62
423.488	552.32
423.864	545.54
424.241	561.36
424.617	556.16
424.994	563.39
425.37	587.12
425.746	555.03
426.123	563.16
426.499	567
426.875	572.2
427.251	593.22
427.627	589.38
428.003	605.2
428.379	608.81
428.756	600.45
429.132	615.82
429.507	597.96
429.883	607.91
430.259	599.32
430.635	634.35
431.011	646.1
431.387	617.17
431.763	646.55
432.138	634.8
432.514	644.97
432.89	654.69
433.265	662.37
433.641	671.63
434.016	681.35
434.392	703.95
434.767	698.98
435.143	680.22
435.518	683.61
435.894	706.21
436.269	687.45
436.644	722.03
437.02	726.1
437.395	701.69
437.77	719.09
438.145	728.81
438.52	729.71
438.895	740.11
439.271	736.04
439.646	750.5
440.021	748.92
440.395	761.12
440.77	741.01
441.145	753.89
441.52	781.91
441.895	790.95
442.27	777.39
442.645	790.5
443.019	792.08
443.394	788.47
443.769	790.05
444.143	778.3
444.518	795.47
444.892	799.99
445.267	808.58
445.641	825.98
446.016	802.93
446.39	825.76
446.764	803.16
447.139	830.95
447.513	821.69
447.887	822.59
448.262	829.6
448.636	845.87
449.01	865.98
449.384	853.33
449.758	861.01
450.132	838.18
450.506	844.74
450.88	857.84
451.254	852.65
451.628	858.97
452.002	870.5
452.376	896.94
452.75	886.54
453.123	895.81
453.497	897.62
453.871	948.46
454.244	912.76
454.618	932.87
454.992	957.5
455.365	936.94
455.739	947.79
456.112	940.55
456.486	968.12
456.859	973.32
457.232	987.11
457.606	976.49
457.979	984.17
458.352	1007.22
458.725	1002.02
459.099	1007.45
459.472	1048.57
459.845	1058.74
460.218	1042.7
460.591	1071.17
460.964	1066.65
461.337	1067.56
461.71	1062.81
462.083	1113.21
462.456	1110.27
462.829	1111.4
463.201	1124.96
463.574	1143.71
463.947	1138.52
464.32	1178.06
464.692	1159.31
465.065	1188.01
465.438	1212.64
465.81	1225.52
466.183	1213.99
466.555	1228.23
466.928	1230.94
467.3	1243.6
467.672	1282.47
468.045	1299.19
468.417	1311.62
468.789	1298.51
469.161	1330.83
469.534	1332.86
469.906	1352.97
470.278	1382.58
470.65	1416.7
471.022	1400.43
471.394	1467.09
471.766	1460.77
472.138	1468
472.51	1498.51
472.882	1514.32
473.253	1543.7
473.625	1557.71
473.997	1575.79
474.369	1580.31
474.74	1616.47
475.112	1613.98
475.484	1672.51
475.855	1712.96
476.227	1704.38
476.598	1785.5
476.97	1775.11
477.341	1780.76
477.713	1825.5
478.084	1842.9
478.455	1908.44
478.827	1901.21
479.198	1932.62
479.569	1948.44
479.94	2003.35
480.311	2005.61
480.682	2061.2
481.053	2118.6
481.424	2145.27
481.795	2164.93
482.166	2224.14
482.537	2240.41
482.908	2271.14
483.279	2330.12
483.65	2324.02
484.021	2390.69
484.391	2423
484.762	2482.21
485.133	2470.68
485.503	2544.13
485.874	2531.25
486.244	2578.03
486.615	2619.38
486.985	2664.12
487.356	2718.81
487.726	2723.78
488.097	2814.4
488.467	2813.73
488.837	2872.93
489.207	2892.59
489.578	2941.86
489.948	2949.32
490.318	2989.09
490.688	2957.45
491.058	3066.15
491.428	3112.02
491.798	3142.53
492.168	3222.3
492.538	3211.46
492.908	3225.69
493.278	3313.83
493.648	3315.63
494.017	3317.67
494.387	3390.43
494.757	3402.18
495.126	3419.59
495.496	3437.44
495.866	3466.14
496.235	3523.31
496.605	3538.45
496.974	3573.25
497.344	3616.19
497.713	3639.47
498.082	3662.29
498.452	3708.17
498.821	3716.75
499.19	3702.29
499.559	3741.38
499.928	3804.43
500.298	3818.9
500.667	3817.31
501.036	3856.64
501.405	3917.88
501.774	3846.01
502.143	3893.92
502.512	3935.5
502.88	3956.29
503.249	3951.77
503.618	3960.59
503.987	4005.56
504.356	4010.98
504.724	4047.14
505.093	4032.9
505.462	4096.4
505.83	4170.53
506.199	4107.02
506.567	4184.54
506.936	4210.52
507.304	4219.79
507.672	4208.04
508.041	4245.33
508.409	4267.02
508.777	4245.78
509.145	4327.81
509.514	4326.68
509.882	4319.67
510.25	4359.45
510.618	4378.2
510.986	4389.05
511.354	4431.54
511.722	4413.68
512.09	4505.21
512.458	4479.44
512.826	4529.84
513.193	4514.02
513.561	4523.74
513.929	4510.63
514.297	4592.89
514.664	4593.79
515.032	4619.78
515.4	4668.14
515.767	4617.29
516.135	4672.43
516.502	4599.44
516.869	4715.14
517.237	4705.2
517.604	4733
517.972	4778.87
518.339	4778.65
518.706	4737.06
519.073	4810.51
519.44	4764.86
519.808	4839.89
520.175	4779.1
520.542	4885.31
520.909	4921.92
521.276	4855.25
521.643	4964.4
522.009	4913.56
522.376	4985.87
522.743	4998.3
523.11	5069.49
523.477	5064.06
523.843	5124.4
524.21	5107
524.577	5161.01
524.943	5151.29
525.31	5175.25
525.676	5242.59
526.043	5194
526.409	5257.95
526.776	5276.26
527.142	5323.26
527.508	5336.15
527.874	5371.4
528.241	5360.55
528.607	5408.01
528.973	5470.38
529.339	5444.16
529.705	5537.04
530.071	5511.96
530.437	5609.36
530.803	5637.83
531.169	5626.98
531.535	5643.71
531.901	5629.7
532.267	5647.78
532.632	5761.44
532.998	5709.02
533.364	5792.4
533.73	5766.42
534.095	5813.42
534.461	5810.03
534.826	5845.96
535.192	5845.28
535.557	5943.36
535.923	5923.25
536.288	5957.15
536.653	5960.08
537.019	6015.68
537.384	6020.65
537.749	6007.31
538.114	6034.66
538.479	6050.7
538.845	6072.17
539.21	6122.57
539.575	6096.58
539.94	6182
540.305	6218.16
540.67	6193.98
541.034	6195.33
541.399	6281.88
541.764	6297.25
542.129	6257.93
542.494	6347.87
542.858	6388.09
543.223	6405.95
543.587	6436
543.952	6453.18
544.316	6464.25
544.681	6485.72
545.045	6465.61
545.41	6556.45
545.774	6593.97
546.138	6566.17
546.503	6573.63
546.867	6577.69
547.231	6631.03
547.595	6651.82
547.959	6684.13
548.324	6659.5
548.688	6739.5
549.052	6793.73
549.416	6774.98
549.779	6844.35
550.143	6794.64
550.507	6878.48
550.871	6909.66
551.235	6866.05
551.599	6939.94
551.962	6936.33
552.326	6971.13
552.689	7031.69
553.053	6988.53
553.417	7032.15
553.78	7131.35
554.143	7082.54
554.507	7064.69
554.87	7148.75
555.234	7167.96
555.597	7174.51
555.96	7163.44
556.323	7229.2
556.686	7243.67
557.05	7229.43
557.413	7279.6
557.776	7282.99
558.139	7282.08
558.502	7339.93
558.865	7365.47
559.228	7395.53
559.59	7399.14
559.953	7425.81
560.316	7514.17
560.679	7501.29
561.041	7552.13
561.404	7658.57
561.767	7693.15
562.129	7592.13
562.492	7688.4
562.854	7688.63
563.217	7758.45
563.579	7679.36
563.941	7762.3
564.304	7793.03
564.666	7797.32
565.028	7862.41
565.39	7836.87
565.753	7906.25
566.115	7944.89
566.477	7958
566.839	7910.09
567.201	8008.39
567.563	8048.16
567.925	8085.9
568.287	8100.82
568.648	8151.66
569.01	8188.5
569.372	8173.58
569.734	8132.46
570.095	8246.8
570.457	8220.36
570.819	8308.5
571.18	8331.09
571.542	8371.77
571.903	8401.15
572.265	8474.14
572.626	8472.56
572.987	8562.27
573.349	8587.36
573.71	8647.47
574.071	8681.59
574.432	8708.49
574.794	8867.35
575.155	8872.32
575.516	8865.09
575.877	8893.79
576.238	8997.52
576.599	9079.1
576.96	9095.82
577.32	9128.81
577.681	9247.91
578.042	9375.59
578.403	9447.68
578.763	9521.35
579.124	9701.68
579.485	9709.59
579.845	9771.51
580.206	9849.92
580.566	9983.48
580.927	10065.06
581.287	10194.77
581.648	10322
582.008	10506.86
582.368	10520.42
582.728	10767.41
583.089	10850.35
583.449	11012.83
583.809	11146.16
584.169	11333.05
584.529	11420.5
584.889	11601.97
585.249	11773.49
585.609	11934.39
585.969	12171.45
586.329	12309.07
586.688	12516.75
587.048	12719.91
587.408	12888.04
587.768	13159.22
588.127	13285.09
588.487	13506.1
588.846	13838.52
589.206	13984.28
589.565	14132.98
589.925	14384.95
590.284	14676.01
590.643	14951.71
591.003	15288.2
591.362	15496.33
591.721	15676.44
592.08	16025.81
592.44	16251.34
592.799	16575.62
593.158	16774.04
593.517	17112.33
593.876	17366.34
594.235	17588.25
594.593	17991.18
594.952	18204.96
595.311	18388.23
595.67	18839.97
596.029	19119.74
596.387	19400.41
596.746	19801.98
597.104	19909.55
597.463	20211.01
597.822	20561.73
598.18	20684.44
598.538	21032
598.897	21396.74
599.255	21489.62
599.613	22082.82
599.972	22189.26
600.33	22479.2
600.688	22681.68
601.046	23071.72
601.404	23406.86
601.762	23669.67
602.12	24029.44
602.478	24200.73
602.836	24542.42
603.194	24594.62
603.552	25027.6
603.91	25199.8
604.268	25525.44
604.625	25621.26
604.983	26103.51
605.341	26173.11
605.698	26686.77
606.056	26824.39
606.413	26996.14
606.771	27306.64
607.128	27496.47
607.485	27649
607.843	27937.58
608.2	28290.57
608.557	28607.17
608.914	28627.28
609.272	28999.25
609.629	29353.82
609.986	29554.49
610.343	29571.89
610.7	29985.67
611.057	30172.55
611.414	30376.39
611.771	30638.53
612.127	30814.35
612.484	31066.54
612.841	31306.08
613.198	31237.16
613.554	31424.95
613.911	31630.82
614.267	32038.95
614.624	32035.56
614.98	32337.69
615.337	32436.45
615.693	32577.69
616.05	32795.08
616.406	33139.03
616.762	32971.35
617.118	33203.21
617.475	33357.33
617.831	33612.92
618.187	33699.47
618.543	33880.25
618.899	34059.01
619.255	34195.73
619.611	34191.43
619.967	34444.31
620.323	34662.15
620.678	34728.14
621.034	34556.17
621.39	34734.92
621.746	34949.38
622.101	35357.28
622.457	35186.89
622.812	35347.79
623.168	35463.26
623.523	35607.44
623.879	35713.43
624.234	35663.03
624.589	35764.5
624.945	35963.81
625.3	36136.47
625.655	35930.59
626.01	36286.52
626.365	36340.3
626.72	36192.51
627.075	36261.66
627.43	36428.66
627.785	36392.96
628.14	36353.41
628.495	36607.19
628.85	36622.1
629.205	36646.28
629.559	36886.95
629.914	36689.44
630.269	36858.25
630.623	36883.79
630.978	36699.39
631.332	36939.38
631.687	37014.63
632.041	36838.82
632.396	37004.92
632.75	36892.15
633.104	36920.4
633.459	36973.73
633.813	37022.77
634.167	37015.54
634.521	37031.13
634.875	37127.17
635.229	37010.79
635.583	36963.79
635.937	36917.01
636.291	36920.63
636.645	36927.4
636.999	36913.85
637.352	37034.07
637.706	36862.32
638.06	37149.77
638.413	37042.66
638.767	36992.94
639.121	37015.76
639.474	36865.71
639.828	36956.56
640.181	37063.9
640.534	36962.21
640.888	36992.26
641.241	36752.49
641.594	36945.03
641.947	36898.7
642.301	36972.6
642.654	37010.11
643.007	36975.99
643.36	36948.2
643.713	36886.28
644.066	36777.58
644.419	36697.58
644.771	36526.96
645.124	36184.37
645.477	36263.92
645.83	35969.69
646.182	35956.13
646.535	35688.57
646.888	35879.52
647.24	35712.75
647.593	35822.58
647.945	35795.01
648.298	35705.06
648.65	35666.87
649.002	35599.98
649.355	35690.38
649.707	35622.58
650.059	35822.8
650.411	36151.38
650.763	36272.96
651.115	36611.03
651.467	36411.26
651.819	36669.33
652.171	36570.58
652.523	36462.33
652.875	36345.95
653.227	36356.8
653.578	36628.2
653.93	36484.93
654.282	36430.24
654.633	36107.77
654.985	36313.41
655.337	36426.4
655.688	36338.95
656.039	36511.14
656.391	36179.63
656.742	36149.35
657.094	36179.18
657.445	36344.82
657.796	36280.64
658.147	36168.55
658.498	36186.63
658.849	36234.09
659.2	36145.96
659.551	36154.54
659.902	36338.72
660.253	36223.24
660.604	36255.11
660.955	36102.12
661.306	36183.47
661.656	36186.41
662.007	36075.22
662.358	36052.63
662.708	36018.28
663.059	36101.44
663.409	35947.77
663.76	36160.65
664.11	36126.07
664.461	36258.27
664.811	36093.3
665.161	36082.46
665.511	35961.33
665.862	36017.37
666.212	36124.26
666.562	36155.9
666.912	36051.5
667.262	35961.1
667.612	36021.44
667.962	36013.53
668.312	36021.44
668.662	36218.95
669.011	36041.55
669.361	36004.04
669.711	36011.5
670.06	35955
670.41	35954.77
670.76	35796.14
671.109	36005.85
671.459	35895.57
671.808	35830.71
672.157	35934.89
672.507	35688.12
672.856	35761.56
673.205	35717.95
673.554	35830.94
673.904	35776.02
674.253	35842.91
674.602	35831.61
674.951	35152.08
675.3	35113.89
675.649	35769.02
675.998	35583.94
676.346	35690.83
676.695	35790.71
677.044	35456.93
677.393	35520.89
677.741	35608.34
678.09	35322.93
678.438	35425.3
678.787	35444.73
679.135	35565.18
679.484	35186.66
679.832	35512.75
680.181	35313.44
680.529	35441.79
680.877	35303.04
681.225	35184.63
681.573	35389.37
681.922	35145.53
682.27	35140.56
682.618	35000
682.966	35018.75
683.314	35035.25
683.661	34931.75
684.009	34708.48
684.357	34732.66
684.705	34687.01
685.053	34871.87
685.4	34609.95
685.748	34554.36
686.095	34499.22
686.443	34311.88
686.79	34301.94
687.138	34385.55
687.485	34453.12
687.832	34196.63
688.18	34096.07
688.527	34159.12
688.874	34184.88
689.221	33896.07
689.568	33955.05
689.915	33834.83
690.262	33807.26
690.609	33771.56
690.956	33593.26
691.303	33759.58
691.65	33511.68
691.997	33551
692.344	33211.12
692.69	33268.97
693.037	33168.18
693.383	33040.28
693.73	33210.67
694.077	32886.16
694.423	32958.02
694.769	32949.88
695.116	32796.21
695.462	32673.51
695.808	32628.08
696.155	32701.3
696.501	32466.05
696.847	32529.55
697.193	32111.03
697.539	32307.64
697.885	32135.44
698.231	31968.89
698.577	32029.23
698.923	32050.47
699.269	31768.22
699.614	31697.94
699.96	31589.01
700.306	31631.27
700.651	31480.77
700.997	31422.01
701.342	31315.35
701.688	31260.66
702.033	31247.1
702.379	31179.31
702.724	31028.35
703.069	31142.92
703.415	30610.28
703.76	30781.13
704.105	30730.96
704.45	30696.61
704.795	30562.37
705.14	30510.62
705.485	30530.28
705.83	30304.08
706.175	30364.87
706.52	30373
706.865	30034.03
707.209	30218.43
707.554	29914.71
707.899	30014.14
708.243	29856.63
708.588	29820.02
708.932	29771.89
709.277	29558.11
709.621	29717.65
709.966	29418
710.31	29551.33
710.654	29348.62
710.998	29415.29
711.342	29388.17
711.687	29216.65
712.031	29197.44
712.375	28997.67
712.719	29232.92
713.063	29029.76
713.407	29143.43
713.75	28879.93
714.094	28839.03
714.438	28825.7
714.782	28786.6
715.125	28608.08
715.469	28663.67
715.812	28507.06
716.156	28443.33
716.499	28446.27
716.843	28548.64
717.186	28264.36
717.53	28481.53
717.873	28366.27
718.216	28277.01
718.559	28236.11
718.902	27841.99
719.246	28059.39
719.589	28013.74
719.932	27830.69
720.275	27898.04
720.617	27864.59
720.96	27879.28
721.303	27653.07
721.646	27834.76
721.989	27625.95
722.331	27681.77
722.674	27568.1
723.016	27559.74
723.359	27524.94
723.701	27528.56
724.044	27376.47
724.386	27188.9
724.729	27329.47
725.071	27289.69
725.413	27211.28
725.755	27255.79
726.097	26983.26
726.439	26972.41
726.782	27032.75
727.124	27079.53
727.465	26973.32
727.807	26997.27
728.149	26930.83
728.491	26844.28
728.833	26878.4
729.175	26684.51
729.516	26712.31
729.858	26751.63
730.199	26709.82
730.541	26679.31
730.882	26598.18
731.224	26660.78
731.565	26461.01
731.906	26537.4
732.248	26417.62
732.589	26360
732.93	26331.3
733.271	26298.98
733.612	26321.58
733.953	26399.55
734.294	26319.55
734.635	26147.12
734.976	26163.39
735.317	25972.89
735.658	26029.61
735.999	25978.77
736.339	25881.82
736.68	26124.52
737.021	26028.26
737.361	25884.76
737.702	25908.03
738.042	25867.36
738.383	25678.66
738.723	25794.82
739.063	25586.69
739.404	25688.15
739.744	25583.97
740.084	25609.51
740.424	25566.35
740.764	25493.36
741.104	25590.3
741.444	25513.02
741.784	25355.51
742.124	25354.38
742.464	25378.1
742.804	25179.47
743.143	25275.28
743.483	25275.51
743.823	25125.46
744.162	25248.16
744.502	25168.84
744.841	25113.25
745.181	25202.06
745.52	24962.52
745.86	24981.96
746.199	24983.09
746.538	24896.53
746.877	25066.02
747.216	25031.9
747.556	24800.04
747.895	24932.01
748.234	24819.93
748.573	24766.59
748.911	24733.38
749.25	24789.42
749.589	24596.43
749.928	24640.04
750.267	24687.95
750.605	24486.6
750.944	24483.44
751.283	24530.22
751.621	24518.24
751.96	24322.09
752.298	24361.86
752.636	24365.02
752.975	24086.84
753.313	24076.44
753.651	24192.15
753.989	24108.31
754.327	24000.74
754.666	23873.28
755.004	23979.72
755.342	23982.89
755.679	23920.74
756.017	23835.32
756.355	23804.36
756.693	23675.1
757.031	23659.73
757.368	23661.99
757.706	23483.46
758.044	23508.1
758.381	23524.59
758.719	23466.97
759.056	23458.83
759.394	23373.41
759.731	23248.44
760.068	23191.27
760.405	23122.8
760.743	23019.3
761.08	23034.66
761.417	22924.84
