Data from hue_130_FLMS001491_00052.txt Node
Date: Tue Feb 07 16:57:47 GMT 2017
User: dcchb
Spectrometer: FLMS00149
Trigger mode: 0
Integration Time (sec): 2.000000E-2
Scans to average: 10
Electric dark correction enabled: true
Nonlinearity correction enabled: false
Boxcar width: 0
XAxis mode: Wavelengths
Number of Pixels in Spectrum: 2048
>>>>>Begin Spectral Data<<<<<
341.393	-19.83
341.776	-19.83
342.16	-19.83
342.543	-57.57
342.927	-84.01
343.31	-46.72
343.693	-49.43
344.077	-67.96
344.46	-36.78
344.843	-58.47
345.226	-57.12
345.61	-30.45
345.993	-39.49
346.376	-6.5
346.759	10
347.142	21.3
347.525	32.82
347.908	47.96
348.291	63.33
348.674	89.77
349.057	127.74
349.44	104.46
349.823	141.75
350.206	148.98
350.588	188.75
350.971	194.4
351.354	228.98
351.737	233.27
352.119	257.9
352.502	244.57
352.884	260.16
353.267	274.17
353.65	287.28
354.032	317.56
354.414	318.47
354.797	306.26
355.179	311.01
355.562	292.03
355.944	318.92
356.326	344.23
356.709	329.77
357.091	336.54
357.473	332.7
357.855	326.15
358.238	337.9
358.62	328.41
359.002	324.57
359.384	339.03
359.766	326.6
360.148	323.21
360.53	323.21
360.912	318.24
361.294	316.88
361.676	318.92
362.057	322.76
362.439	324.79
362.821	320.27
363.203	317.56
363.584	332.7
363.966	309.2
364.348	327.96
364.729	325.02
365.111	296.55
365.493	328.41
365.874	298.81
366.256	319.37
366.637	308.52
367.019	319.6
367.4	333.61
367.781	296.09
368.163	317.11
368.544	307.17
368.925	324.34
369.306	328.18
369.688	313.95
370.069	319.6
370.45	304.91
370.831	333.61
371.212	306.26
371.593	292.03
371.974	292.48
372.355	314.17
372.736	301.74
373.117	333.83
373.498	317.56
373.879	318.92
374.26	300.39
374.641	325.02
375.021	326.6
375.402	332.93
375.783	327.73
376.163	325.47
376.544	328.64
376.925	339.48
377.305	327.73
377.686	342.19
378.066	311.69
378.447	320.95
378.827	345.36
379.208	339.03
379.588	333.61
379.968	334.06
380.349	342.42
380.729	340.84
381.109	338.13
381.489	354.85
381.87	356.66
382.25	351.91
382.63	322.08
383.01	324.57
383.39	352.36
383.77	350.1
384.15	340.16
384.53	355.75
384.91	338.58
385.29	337.45
385.67	343.78
386.049	339.71
386.429	347.62
386.809	347.39
387.189	360.05
387.568	348.07
387.948	369.54
388.328	375.87
388.707	347.62
389.087	344.23
389.466	342.42
389.846	351.23
390.225	378.58
390.605	369.76
390.984	383.32
391.363	368.63
391.743	384.91
392.122	376.32
392.501	397.33
392.881	379.26
393.26	351.69
393.639	364.57
394.018	379.26
394.397	364.79
394.776	376.54
395.155	401.63
395.534	385.36
395.913	396.2
396.292	398.92
396.671	376.32
397.05	392.14
397.429	391.68
397.808	398.01
398.186	391.23
398.565	388.52
398.944	392.36
399.323	419.71
399.701	409.76
400.08	403.21
400.458	421.74
400.837	425.81
401.215	431.68
401.594	410.44
401.972	414.96
402.351	408.86
402.729	411.12
403.107	427.16
403.486	413.15
403.864	434.4
404.242	402.31
404.62	438.69
404.999	425.13
405.377	440.04
405.755	439.14
406.133	434.62
406.511	444.11
406.889	429.65
407.267	443.89
407.645	451.8
408.023	439.59
408.401	445.47
408.779	466.03
409.156	431.68
409.534	475.75
409.912	486.15
410.29	464
410.667	480.5
411.045	474.62
411.422	459.48
411.8	469.2
412.178	467.84
412.555	495.64
412.933	494.05
413.31	511.68
413.687	505.35
414.065	510.55
414.442	523.66
414.819	519.59
415.197	532.25
415.574	524.79
415.951	497.9
416.328	521.4
416.705	509.87
417.082	547.84
417.46	518.46
417.837	560.72
418.214	521.17
418.591	539.25
418.967	541.06
419.344	545.13
419.721	537.67
420.098	540.38
420.475	576.54
420.852	548.97
421.228	557.56
421.605	544
421.982	549.19
422.358	563.66
422.735	574.5
423.111	564.56
423.488	576.99
423.864	589.87
424.241	593.26
424.617	578.35
424.994	603.66
425.37	598.46
425.746	597.1
426.123	599.36
426.499	627.16
426.875	614.5
427.251	616.09
427.627	639.36
428.003	639.59
428.379	617.44
428.756	631.45
429.132	659.25
429.507	651.11
429.883	659.25
430.259	676.2
430.635	671.23
431.011	663.09
431.387	680.49
431.763	698.34
432.138	696.31
432.514	713.26
432.89	721.62
433.265	722.3
433.641	761.17
434.016	721.39
434.392	749.42
434.767	739.47
435.143	735.86
435.518	760.94
435.894	746.03
436.269	767.95
436.644	783.09
437.02	776.99
437.395	781.05
437.77	807.27
438.145	808.17
438.52	786.02
438.895	800.94
439.271	811.33
439.646	832.13
440.021	821.5
440.395	847.49
440.77	829.87
441.145	825.8
441.52	848.4
441.895	869.41
442.27	881.84
442.645	871.67
443.019	846.36
443.394	859.92
443.769	885.91
444.143	866.47
444.518	874.84
444.892	914.61
445.267	899.92
445.641	898.79
446.016	897.21
446.39	914.61
446.764	895.17
447.139	921.84
447.513	907.83
447.887	927.26
448.262	932.01
448.636	951.67
449.01	970.2
449.384	978.56
449.758	943.53
450.132	998.9
450.506	963.42
450.88	984.89
451.254	997.32
451.628	1023.76
452.002	1036.87
452.376	1026.02
452.75	1010.88
453.123	1036.87
453.497	1032.12
453.871	1049.29
454.244	1099.24
454.618	1054.94
454.992	1089.07
455.365	1119.58
455.739	1099.91
456.112	1137.88
456.486	1139.01
456.859	1134.72
457.232	1170.42
457.606	1191.66
457.979	1191.66
458.352	1195.05
458.725	1238.44
459.099	1222.17
459.472	1251.55
459.845	1254.71
460.218	1258.55
460.591	1295.84
460.964	1296.75
461.337	1315.05
461.71	1314.37
462.083	1345.78
462.456	1357.53
462.829	1380.36
463.201	1411.77
463.574	1402.28
463.947	1396.63
464.32	1471.88
464.692	1495.84
465.065	1502.62
465.438	1490.86
465.81	1557.98
466.183	1575.38
466.555	1577.42
466.928	1605.89
467.3	1629.39
467.672	1646.79
468.045	1701.03
468.417	1664.19
468.789	1725.89
469.161	1756.17
469.534	1791.42
469.906	1794.59
470.278	1796.62
470.65	1854.25
471.022	1920.23
471.394	1963.62
471.766	1982.6
472.138	1971.3
472.51	2028.25
472.882	2109.61
473.253	2103.5
473.625	2193.22
473.997	2250.84
474.369	2217.63
474.74	2323.16
475.112	2364.97
475.484	2418.52
475.855	2472.31
476.227	2569.48
476.598	2594.56
476.97	2654.22
477.341	2735.13
477.713	2769.7
478.084	2821.45
478.455	2916.14
478.827	2977.83
479.198	3082.24
479.569	3133.53
479.94	3280.2
480.311	3310.93
480.682	3434.32
481.053	3504.82
481.424	3669.56
481.795	3696.46
482.166	3745.49
482.537	3867.53
482.908	4001.31
483.279	4077.24
483.65	4220.96
484.021	4345.03
484.391	4444.23
484.762	4558.58
485.133	4601.07
485.503	4715.86
485.874	4928.29
486.244	5014.84
486.615	5137.55
486.985	5245.57
487.356	5420.25
487.726	5526.92
488.097	5751.09
488.467	5836.06
488.837	5991.76
489.207	6106.34
489.578	6243.06
489.948	6396.5
490.318	6534.57
490.688	6635.14
491.058	6831.06
491.428	6947.9
491.798	7062.7
492.168	7301.56
492.538	7408.9
492.908	7511.95
493.278	7733.19
493.648	7759.17
494.017	8031.26
494.387	8098.37
494.757	8228.31
495.126	8380.63
495.496	8466.5
495.866	8580.62
496.235	8803.89
496.605	8924.79
496.974	9050.67
497.344	9173.37
497.713	9282.52
498.082	9425.8
498.452	9565
498.821	9672.12
499.19	9757.09
499.559	9871.44
499.928	10009.51
500.298	10041.6
500.667	10281.14
501.036	10282.5
501.405	10437.52
501.774	10489.05
502.143	10660.34
502.512	10767.91
502.88	10962.71
503.249	10895.82
503.618	10999.54
503.987	11067.34
504.356	11258.52
504.724	11321.11
505.093	11305.3
505.462	11441.11
505.83	11543.71
506.199	11657.83
506.567	11740.76
506.936	11790.25
507.304	11943.47
507.672	11998.61
508.041	12024.6
508.409	12211.26
508.777	12290.81
509.145	12373.29
509.514	12363.35
509.882	12413.52
510.25	12509.33
510.618	12503
510.986	12688.76
511.354	12693.28
511.722	12863
512.09	12893.28
512.458	12910.9
512.826	13102.99
513.193	13051.46
513.561	13116.77
513.929	13185.25
514.297	13215.75
514.664	13311.12
515.032	13351.12
515.4	13435.86
515.767	13472.7
516.135	13497.1
516.502	13422.53
516.869	13657.1
517.237	13637.21
517.604	13614.16
517.972	13724.89
518.339	13787.04
518.706	13767.15
519.073	13799.69
519.44	13830.43
519.808	13924.66
520.175	13887.15
520.542	14048.95
520.909	14094.83
521.276	14116.52
521.643	14182.73
522.009	14198.33
522.376	14194.94
522.743	14206.46
523.11	14349.28
523.477	14475.38
523.843	14533.01
524.21	14642.16
524.577	14658.2
524.943	14610.97
525.31	14625.89
525.676	14743.85
526.043	14711.31
526.409	14734.58
526.776	14782.49
527.142	14790.18
527.508	14905.65
527.874	14893.22
528.241	14916.27
528.607	14821.81
528.973	15014.8
529.339	14903.62
529.705	15003.73
530.071	14989.27
530.437	14987.69
530.803	15096.16
531.169	15063.84
531.535	14989.49
531.901	15003.5
532.267	15121.24
532.632	15032.43
532.998	14990.85
533.364	15074.69
533.73	15027.46
534.095	15104.52
534.461	15092.99
534.826	15112.88
535.192	15128.7
535.557	15181.13
535.923	15057.06
536.288	15062.49
536.653	15124.18
537.019	14949.49
537.384	14909.72
537.749	14861.59
538.114	14958.76
538.479	14980.68
538.845	14993.56
539.21	14794.47
539.575	14840.12
539.94	14858.65
540.305	14910.62
540.67	14652.55
541.034	14731.19
541.399	14794.92
541.764	14700.46
542.129	14730.06
542.494	14600.8
542.858	14643.97
543.223	14630.18
543.587	14679.67
543.952	14534.36
544.316	14511.77
544.681	14529.62
545.045	14425.67
545.41	14532.33
545.774	14436.51
546.138	14382.96
546.503	14338.44
546.867	14345.67
547.231	14425.89
547.595	14356.52
547.959	14276.29
548.324	14213.69
548.688	14215.95
549.052	14192
549.416	14091.21
549.779	14110.65
550.143	14093.25
550.507	14183.64
550.871	14079.01
551.235	13983.64
551.599	14086.92
551.962	13953.59
552.326	14014.38
552.689	14011.21
553.053	13854.16
553.417	13884.89
553.78	14001.27
554.143	13828.85
554.507	13864.78
554.87	13928.96
555.234	14022.51
555.597	13827.26
555.96	13877.66
556.323	13786.36
556.686	13735.97
557.05	13883.08
557.413	13870.65
557.776	13790.2
558.139	13837.88
558.502	13796.76
558.865	13683.09
559.228	13790.43
559.59	13799.69
559.953	13799.02
560.316	13879.24
560.679	13828.39
561.041	13888.28
561.404	13875.4
561.767	13956.07
562.129	13810.09
562.492	14016.86
562.854	13837.66
563.217	13837.43
563.579	13864.78
563.941	13934.61
564.304	13907.94
564.666	14017.99
565.028	13985.45
565.39	14049.86
565.753	14030.65
566.115	13963.31
566.477	14055.28
566.839	14059.57
567.201	14083.08
567.563	14046.69
567.925	14117.65
568.287	14136.63
568.648	14117.2
569.01	14123.98
569.372	14260.92
569.734	14113.58
570.095	14195.62
570.457	14179.34
570.819	14211.43
571.18	14220.7
571.542	14221.6
571.903	14294.37
572.265	14312.22
572.626	14315.84
572.987	14293.47
573.349	14327.59
573.71	14420.24
574.071	14368.72
574.432	14325.78
574.794	14501.6
575.155	14422.95
575.516	14387.7
575.877	14527.13
576.238	14383.86
576.599	14495.27
576.96	14446
577.32	14410.75
577.681	14453.69
578.042	14420.47
578.403	14569.16
578.763	14462.5
579.124	14474.7
579.485	14483.74
579.845	14535.27
580.206	14463.86
580.566	14439.45
580.927	14509.73
581.287	14499.79
581.648	14549.5
582.008	14585.89
582.368	14535.95
582.728	14537.3
583.089	14503.86
583.449	14470.41
583.809	14487.36
584.169	14547.47
584.529	14452.78
584.889	14548.83
585.249	14419.11
585.609	14408.04
585.969	14493.23
586.329	14424.08
586.688	14432.22
587.048	14455.04
587.408	14375.05
587.768	14392.22
588.127	14366.46
588.487	14258.44
588.846	14434.93
589.206	14330.53
589.565	14344.54
589.925	14313.35
590.284	14352
590.643	14333.01
591.003	14331.43
591.362	14332.11
591.721	14346.35
592.08	14324.2
592.44	14318.55
592.799	14290.98
593.158	14279.68
593.517	14332.11
593.876	14293.69
594.235	14223.64
594.593	14236.97
594.952	14270.87
595.311	14257.76
595.67	14316.06
596.029	14312.22
596.387	14308.15
596.746	14280.36
597.104	14195.84
597.463	14220.25
597.822	14200.14
598.18	14130.76
598.538	14166.01
598.897	14226.35
599.255	14074.94
599.613	14271.77
599.972	14200.59
600.33	14304.09
600.688	14241.49
601.046	14361.26
601.404	14274.26
601.762	14220.93
602.12	14257.08
602.478	14340.47
602.836	14283.52
603.194	14184.99
603.552	14248.04
603.91	14249.17
604.268	14201.72
604.625	14209.63
604.983	14272.22
605.341	14231.55
605.698	14329.17
606.056	14298.66
606.413	14270.19
606.771	14191.55
607.128	14303.41
607.485	14200.14
607.843	14239.91
608.2	14347.48
608.557	14400.81
608.914	14281.26
609.272	14413.01
609.629	14374.37
609.986	14436.29
610.343	14327.36
610.7	14444.42
611.057	14423.63
611.414	14411.43
611.771	14373.69
612.127	14441.03
612.484	14427.02
612.841	14477.19
613.198	14477.64
613.554	14466.12
613.911	14489.62
614.267	14436.74
614.624	14537.53
614.98	14525.78
615.337	14626.79
615.693	14554.48
616.05	14557.87
616.406	14695.49
616.762	14554.7
617.118	14503.86
617.475	14538.43
617.831	14647.58
618.187	14586.79
618.543	14629.05
618.899	14622.27
619.255	14638.09
619.611	14635.15
619.967	14730.97
620.323	14721.93
620.678	14632.21
621.034	14675.15
621.39	14735.94
621.746	14591.76
622.101	14813.23
622.457	14648.03
622.812	14682.83
623.168	14711.08
623.523	14701.59
623.879	14672.44
624.234	14655.26
624.589	14730.97
624.945	14711.99
625.3	14703.4
625.655	14654.59
626.01	14648.71
626.365	14661.82
626.72	14752.89
627.075	14682.16
627.43	14669.05
627.785	14672.21
628.14	14758.09
628.495	14792.44
628.85	14669.95
629.205	14587.02
629.559	14740.46
629.914	14572.78
630.269	14666.79
630.623	14506.34
630.978	14615.94
631.332	14610.75
631.687	14644.87
632.041	14530.75
632.396	14543.63
632.75	14533.46
633.104	14558.77
633.459	14459.56
633.813	14499.34
634.167	14525.1
634.521	14474.25
634.875	14501.14
635.229	14486.68
635.583	14320.58
635.937	14463.63
636.291	14423.86
636.645	14353.8
636.999	14324.2
637.352	14408.04
637.706	14172.11
638.06	14320.13
638.413	14308.61
638.767	14179.57
639.121	14297.31
639.474	14170.08
639.828	14214.82
640.181	14288.49
640.534	14221.6
640.888	14262.05
641.241	14144.54
641.594	14128.95
641.947	14171.89
642.301	14102.74
642.654	14149.97
643.007	14195.16
643.36	14132.79
643.713	14109.29
644.066	14095.28
644.419	14091.89
644.771	13882.18
645.124	13813.25
645.477	13821.39
645.83	13759.47
646.182	13640.6
646.535	13667.04
646.888	13664.78
647.24	13558.57
647.593	13655.97
647.945	13578.91
648.298	13546.14
648.65	13573.03
649.002	13521.06
649.355	13564.67
649.707	13568.51
650.059	13619.13
650.411	13869.07
650.763	13782.74
651.115	13927.83
651.467	13918.11
651.819	13851.67
652.171	13846.92
652.523	13903.42
652.875	13848.05
653.227	13782.29
653.578	13993.36
653.93	13817.32
654.282	13871.33
654.633	13868.17
654.985	13866.36
655.337	13830.2
655.688	13833.59
656.039	13962.63
656.391	13864.55
656.742	13878.34
657.094	13919.01
657.445	13915.85
657.796	13940.71
658.147	13890.76
658.498	13886.02
658.849	13908.17
659.2	13910.2
659.551	13813.93
659.902	13942.06
660.253	13875.85
660.604	13912.23
660.955	13860.26
661.306	13924.44
661.656	13900.03
662.007	14013.02
662.358	13870.65
662.708	13962.18
663.059	13859.81
663.409	13700.94
663.76	13971.44
664.11	13905.45
664.461	13926.24
664.811	13973.93
665.161	13948.16
665.511	13885.12
665.862	13882.18
666.212	13954.72
666.562	13949.75
666.912	13875.62
667.262	14021.38
667.612	13931.22
667.962	13944.32
668.312	13950.88
668.662	13957.88
669.011	13913.36
669.361	13945.68
669.711	13948.84
670.06	13917.2
670.41	13854.16
670.76	13820.03
671.109	13908.84
671.459	13852.35
671.808	13883.76
672.157	13880.37
672.507	13808.96
672.856	13791.33
673.205	13809.64
673.554	13818.22
673.904	13813.48
674.253	13768.96
674.602	13749.3
674.951	13563.54
675.3	13480.15
675.649	13699.36
675.998	13744.1
676.346	13655.97
676.695	13703.65
677.044	13605.57
677.393	13706.14
677.741	13658.91
678.09	13755.63
678.438	13643.77
678.787	13555.41
679.135	13627.04
679.484	13581.85
679.832	13600.38
680.181	13475.63
680.529	13562.19
680.877	13431.57
681.225	13441.96
681.573	13468.4
681.922	13393.83
682.27	13386.82
682.618	13477.44
682.966	13439.03
683.314	13418.91
683.661	13310.89
684.009	13227.51
684.357	13297.33
684.705	13170.33
685.053	13180.95
685.4	13170.56
685.748	13103.67
686.095	13090.11
686.443	13015.53
686.79	12993.16
687.138	13075.19
687.485	13008.08
687.832	12976.21
688.18	12962.43
688.527	12934.86
688.874	12873.39
689.221	12887.4
689.568	12808.31
689.915	12747.52
690.262	12713.17
690.609	12812.15
690.956	12634.98
691.303	12726.95
691.65	12586.62
691.997	12585.71
692.344	12511.14
692.69	12381.88
693.037	12470.24
693.383	12379.84
693.73	12397.7
694.077	12302.33
694.423	12264.14
694.769	12215.55
695.116	12213.07
695.462	12224.37
695.808	12205.39
696.155	12180.75
696.501	12021.89
696.847	11985.05
697.193	11971.95
697.539	12049.01
697.885	11946.86
698.231	11856.92
698.577	11895.56
698.923	11795
699.269	11809.69
699.614	11673.2
699.96	11604.72
700.306	11672.29
700.651	11639.98
700.997	11509.36
701.342	11545.29
701.688	11486.31
702.033	11437.72
702.379	11420.1
702.724	11315.01
703.069	11374.45
703.415	11294.67
703.76	11265.75
704.105	11233.89
704.45	11232.76
704.795	11165.64
705.14	11073.44
705.485	11131.06
705.83	11032.08
706.175	11039.31
706.52	10971.29
706.865	10995.47
707.209	10993.44
707.554	10900.33
707.899	10961.35
708.243	10870.28
708.588	10808.13
708.932	10697.85
709.277	10758.87
709.621	10709.38
709.966	10674.8
710.31	10698.31
710.654	10607.46
710.998	10591.42
711.342	10583.06
711.687	10547.35
712.031	10531.08
712.375	10472.55
712.719	10458.76
713.063	10447.47
713.407	10468.93
713.75	10449.05
714.094	10444.53
714.438	10345.77
714.782	10408.37
715.125	10394.59
715.469	10332.44
715.812	10227.13
716.156	10224.19
716.499	10252.22
716.843	10230.75
717.186	10165.21
717.53	10288.83
717.873	10236.85
718.216	10198.66
718.559	10128.15
718.902	10153.69
719.246	10131.99
719.589	10143.52
719.932	10021.04
720.275	10155.5
720.617	10039.79
720.96	9985.56
721.303	10036.4
721.646	10019.68
721.989	10042.28
722.331	10070.07
722.674	9967.25
723.016	9969.51
723.359	9996.4
723.701	10005.44
724.044	9857.42
724.386	9841.38
724.729	9875.96
725.071	9894.26
725.413	9869.18
725.755	9938.55
726.097	9857.88
726.439	9804.77
726.782	9800.02
727.124	9877.08
727.465	9845.22
727.807	9805.67
728.149	9829.4
728.491	9705.56
728.833	9746.24
729.175	9739.01
729.516	9770.65
729.858	9804.54
730.199	9768.61
730.541	9734.72
730.882	9778.1
731.224	9728.61
731.565	9697.65
731.906	9699.01
732.248	9717.77
732.589	9688.39
732.93	9666.24
733.271	9745.34
733.612	9659.92
733.953	9685.68
734.294	9720.03
734.635	9700.14
734.976	9678.45
735.317	9678.45
735.658	9697.88
735.999	9674.6
736.339	9692.46
736.68	9748.73
737.021	9691.33
737.361	9698.56
737.702	9748.95
738.042	9669.86
738.383	9632.35
738.723	9710.54
739.063	9749.63
739.404	9775.39
739.744	9771.32
740.084	9689.29
740.424	9812.23
740.764	9753.7
741.104	9872.11
741.444	9859.91
741.784	9807.48
742.124	9836.86
742.464	9864.43
742.804	9831.89
743.143	9894.26
743.483	9916.18
743.823	9872.57
744.162	9902.17
744.502	10081.37
744.841	9926.12
745.181	10021.49
745.52	10031.43
745.86	9996.18
746.199	10094.03
746.538	10158.43
746.877	10236.17
747.216	10235.27
747.556	10275.49
747.895	10356.39
748.234	10391.87
748.573	10422.38
748.911	10490.63
749.25	10515.26
749.589	10525.66
749.928	10678.87
750.267	10757.97
750.605	10750.28
750.944	10921.35
751.283	10853.78
751.621	10972.88
751.96	11126.54
752.298	11213.77
752.636	11325.63
752.975	11383.71
753.313	11423.71
753.651	11582.12
753.989	11649.69
754.327	11792.06
754.666	11813.08
755.004	11948.89
755.342	12138.27
755.679	12248.77
756.017	12313.18
756.355	12601.53
756.693	12686.95
757.031	12855.31
