Data from hue_160_FLMS001491_00025.txt Node
Date: Tue Feb 07 16:50:58 GMT 2017
User: dcchb
Spectrometer: FLMS00149
Trigger mode: 0
Integration Time (sec): 2.000000E-2
Scans to average: 10
Electric dark correction enabled: true
Nonlinearity correction enabled: false
Boxcar width: 0
XAxis mode: Wavelengths
Number of Pixels in Spectrum: 2048
>>>>>Begin Spectral Data<<<<<
341.393	-14.49
341.776	-14.49
342.16	-14.49
342.543	-76.41
342.927	-60.82
343.31	-55.39
343.693	-71.66
344.077	-49.52
344.46	-75.28
344.843	-51.55
345.226	-46.13
345.61	-38.67
345.993	-20.37
346.376	-9.97
346.759	11.04
347.142	30.93
347.525	41.55
347.908	69.57
348.291	83.36
348.674	70.48
349.057	111.61
349.44	135.56
349.823	129.23
350.206	169.23
350.588	203.58
350.971	219.63
351.354	233.64
351.737	246.97
352.119	246.52
352.502	277.03
352.884	286.52
353.267	263.24
353.65	310.7
354.032	288.78
354.414	297.82
354.797	329.91
355.179	313.64
355.562	316.57
355.944	328.55
356.326	340.53
356.709	306.4
357.091	326.29
357.473	343.01
357.855	322
358.238	348.89
358.62	348.66
359.002	332.84
359.384	343.92
359.766	366.29
360.148	350.25
360.53	335.1
360.912	315.9
361.294	331.94
361.676	330.36
362.057	308.44
362.439	335.78
362.821	315.22
363.203	303.47
363.584	320.87
363.966	331.94
364.348	336.23
364.729	316.12
365.111	322.45
365.493	324.03
365.874	317.48
366.256	328.32
366.637	327.65
367.019	326.06
367.4	314.99
367.781	311.38
368.163	284.71
368.544	320.19
368.925	298.04
369.306	338.27
369.688	308.44
370.069	332.84
370.45	290.36
370.831	324.71
371.212	309.79
371.593	305.05
371.974	314.09
372.355	297.37
372.736	309.34
373.117	305.27
373.498	308.66
373.879	323.58
374.26	316.8
374.641	328.1
375.021	317.7
375.402	308.21
375.783	337.36
376.163	321.77
376.544	330.13
376.925	326.97
377.305	311.6
377.686	323.35
378.066	319.06
378.447	349.79
378.827	310.47
379.208	333.97
379.588	338.95
379.968	322.9
380.349	340.08
380.729	338.72
381.109	349.12
381.489	328.32
381.87	329.45
382.25	337.82
382.63	345.95
383.01	333.07
383.39	335.78
383.77	340.75
384.15	340.53
384.53	340.3
384.91	347.31
385.29	359.74
385.67	335.56
386.049	353.86
386.429	352.73
386.809	344.14
387.189	352.73
387.568	356.12
387.948	363.35
388.328	357.25
388.707	347.76
389.087	345.95
389.466	350.7
389.846	366.52
390.225	361.32
390.605	365.16
390.984	362.45
391.363	370.58
391.743	373.52
392.122	359.51
392.501	357.7
392.881	354.76
393.26	348.21
393.639	351.37
394.018	371.26
394.397	377.14
394.776	387.53
395.155	377.81
395.534	357.25
395.913	368.1
396.292	388.89
396.671	390.47
397.05	404.71
397.429	383.01
397.808	399.28
398.186	375.78
398.565	389.57
398.944	379.62
399.323	400.41
399.701	401.09
400.08	370.81
400.458	385.72
400.837	399.74
401.215	430.92
401.594	393.18
401.972	411.71
402.351	389.79
402.729	401.32
403.107	393.63
403.486	397.48
403.864	408.55
404.242	427.08
404.62	411.94
404.999	419.17
405.377	391.83
405.755	404.48
406.133	435.44
406.511	437.47
406.889	429.56
407.267	435.89
407.645	420.98
408.023	423.24
408.401	411.94
408.779	446.29
409.156	456.46
409.534	454.2
409.912	411.03
410.29	448.1
410.667	482.67
411.045	443.8
411.422	457.36
411.8	470.02
412.178	467.76
412.555	474.08
412.933	480.41
413.31	466.63
413.687	461.88
414.065	472.95
414.442	495.33
414.819	504.37
415.197	493.29
415.574	490.81
415.951	492.84
416.328	488.09
416.705	496.68
417.082	500.3
417.46	490.13
417.837	521.77
418.214	521.54
418.591	529
418.967	526.06
419.344	521.77
419.721	547.53
420.098	534.19
420.475	572.16
420.852	525.61
421.228	541.43
421.605	545.72
421.982	543.23
422.358	561.54
422.735	575.1
423.111	543.23
423.488	558.6
423.864	557.7
424.241	575.55
424.617	601.31
424.994	578.94
425.37	577.81
425.746	603.57
426.123	599.05
426.499	610.13
426.875	619.62
427.251	616.68
427.627	606.28
428.003	579.39
428.379	644.02
428.756	627.07
429.132	620.75
429.507	644.47
429.883	627.98
430.259	646.73
430.635	646.51
431.011	687.41
431.387	668.43
431.763	664.59
432.138	680.41
432.514	677.69
432.89	695.32
433.265	707.3
433.641	721.31
434.016	718.6
434.392	730.57
434.767	748.2
435.143	720.18
435.518	733.06
435.894	724.7
436.269	750.23
436.644	762.66
437.02	760.63
437.395	761.31
437.77	770.12
438.145	798.14
438.52	786.62
438.895	809.67
439.271	793.4
439.646	819.39
440.021	830.68
440.395	831.36
440.77	796.11
441.145	816.67
441.52	852.6
441.895	857.58
442.27	867.07
442.645	856.67
443.019	859.84
443.394	868.88
443.769	885.15
444.143	883.11
444.518	874.75
444.892	889.21
445.267	895.54
445.641	896.45
446.016	907.74
446.39	877.24
446.764	929.66
447.139	935.77
447.513	917.24
447.887	951.59
448.262	943.9
448.636	962.66
449.01	943.45
449.384	978.03
449.758	959.95
450.132	981.64
450.506	966.95
450.88	972.15
451.254	997.01
451.628	993.84
452.002	1019.61
452.376	999.95
452.75	1043.56
453.123	1044.92
453.497	1048.76
453.871	1069.32
454.244	1067.06
454.618	1089.89
454.992	1099.83
455.365	1097.34
455.739	1139.6
456.112	1137.79
456.486	1164.23
456.859	1181.18
457.232	1175.99
457.606	1206.04
457.979	1235.19
458.352	1233.61
458.725	1229.09
459.099	1222.99
459.472	1256.44
459.845	1274.29
460.218	1296.66
460.591	1311.8
460.964	1318.81
461.337	1330.56
461.71	1378.01
462.083	1364.91
462.456	1394.29
462.829	1392.03
463.201	1436.54
463.574	1401.06
463.947	1452.59
464.32	1481.06
464.692	1502.76
465.065	1492.36
465.438	1537.33
465.81	1548.63
466.183	1564.45
466.555	1580.27
466.928	1609.42
467.3	1676.31
467.672	1662.07
468.045	1711.11
468.417	1714.28
468.789	1723.54
469.161	1779.13
469.534	1781.17
469.906	1841.96
470.278	1863.43
470.65	1908.62
471.022	1917.21
471.394	1963.08
471.766	2003.99
472.138	2032.46
472.51	2078.79
472.882	2127.37
473.253	2165.79
473.625	2177.32
473.997	2285.34
474.369	2296.18
474.74	2378.21
475.112	2375.28
475.484	2408.72
475.855	2525.1
476.227	2574.37
476.598	2616.85
476.97	2704.99
477.341	2772.1
477.713	2837.86
478.084	2814.81
478.455	2940.23
478.827	2986.56
479.198	3124.18
479.569	3111.98
479.94	3273.56
480.311	3326.89
480.682	3453.44
481.053	3565.53
481.424	3650.05
481.795	3702.47
482.166	3819.76
482.537	3848.68
482.908	4010.04
483.279	4076.25
483.65	4193.31
484.021	4290.48
484.391	4377.03
484.762	4494.54
485.133	4592.39
485.503	4718.27
485.874	4807.08
486.244	4914.19
486.615	5035.32
486.985	5167.29
487.356	5334.29
487.726	5391.02
488.097	5522.54
488.467	5658.35
488.837	5863.55
489.207	5886.82
489.578	6081.17
489.948	6187.83
490.318	6278.9
490.688	6379.24
491.058	6491.78
491.428	6630.08
491.798	6819
492.168	6970.41
492.538	6976.29
492.908	7138.99
493.278	7293.34
493.648	7413.56
494.017	7541.69
494.387	7663.95
494.757	7761.35
495.126	7926.99
495.496	8012.19
495.866	8151.17
496.235	8222.13
496.605	8362.24
496.974	8379.64
497.344	8550.26
497.713	8617.37
498.082	8760.19
498.452	8893.98
498.821	8973.52
499.19	9077.47
499.559	9106.17
499.928	9170.35
500.298	9320.86
500.667	9516.11
501.036	9484.47
501.405	9579.61
501.774	9693.5
502.143	9747.96
502.512	9782.77
502.88	9885.14
503.249	9892.82
503.618	10080.84
503.987	10086.71
504.356	10167.39
504.724	10231.34
505.093	10277.89
505.462	10383.88
505.83	10455.52
506.199	10546.59
506.567	10643.53
506.936	10630.65
507.304	10735.06
507.672	10819.8
508.041	10902.06
508.409	10922.4
508.777	11049.17
509.145	11049.62
509.514	11048.95
509.882	11141.15
510.25	11154.93
510.618	11283.52
510.986	11319
511.354	11397.41
511.722	11468.37
512.09	11455.04
512.458	11498.2
512.826	11580.23
513.193	11604.19
513.561	11672.89
513.929	11589.27
514.297	11701.58
514.664	11808.7
515.032	11771.64
515.4	11879.43
515.767	11964.4
516.135	11936.16
516.502	11831.75
516.869	12003.95
517.237	11973.67
517.604	11928.25
517.972	12050.05
518.339	12157.39
518.706	12127.56
519.073	12102.93
519.44	12137.73
519.808	12271.74
520.175	12220.22
520.542	12326.43
520.909	12427.89
521.276	12276.71
521.643	12481.68
522.009	12453.43
522.376	12488
522.743	12437.38
523.11	12557.61
523.477	12615.46
523.843	12624.5
524.21	12628.34
524.577	12698.17
524.943	12773.65
525.31	12628.79
525.676	12853.65
526.043	12882.8
526.409	12774.1
526.776	12886.86
527.142	12904.04
527.508	12921.44
527.874	12900.42
528.241	12922.34
528.607	12907.88
528.973	12907.88
529.339	12852.06
529.705	12952.63
530.071	13021.32
530.437	12905.17
530.803	12981.78
531.169	13013.64
531.535	12925.73
531.901	12942.46
532.267	12927.77
532.632	12902.68
532.998	12903.14
533.364	12963.25
533.73	12858.84
534.095	12936.35
534.461	12872.18
534.826	12949.91
535.192	12904.49
535.557	12922.12
535.923	12800.09
536.288	12821.56
536.653	12839.41
537.019	12708.11
537.384	12798.96
537.749	12726.42
538.114	12692.52
538.479	12609.58
538.845	12607.32
539.21	12640.09
539.575	12529.13
539.94	12499.08
540.305	12539.3
540.67	12486.88
541.034	12498.17
541.399	12396.26
541.764	12410.94
542.129	12386.76
542.494	12370.04
542.858	12370.04
543.223	12337.5
543.587	12249.37
543.952	12263.83
544.316	12244.85
544.681	12230.61
545.045	12181.12
545.41	12170.95
545.774	12126.66
546.138	12106.55
546.503	12082.82
546.867	12014.8
547.231	12013.67
547.595	12024.06
547.959	11920.79
548.324	11822.94
548.688	11828.59
549.052	11829.72
549.416	11807.34
549.779	11665.2
550.143	11723.28
550.507	11722.15
550.871	11639.67
551.235	11641.25
551.599	11603.28
551.962	11693.68
552.326	11565.77
552.689	11620.68
553.053	11499.33
553.417	11514.47
553.78	11553.11
554.143	11524.64
554.507	11478.54
554.87	11454.81
555.234	11532.55
555.597	11399.9
555.96	11455.94
556.323	11415.26
556.686	11348.6
557.05	11413.68
557.413	11351.76
557.776	11424.98
558.139	11292.1
558.502	11356.28
558.865	11295.27
559.228	11347.24
559.59	11294.14
559.953	11395.15
560.316	11381.37
560.679	11405.55
561.041	11320.8
561.404	11405.1
561.767	11350.86
562.129	11302.73
562.492	11399.67
562.854	11377.53
563.217	11242.84
563.579	11305.89
563.941	11346.79
564.304	11372.55
564.666	11401.03
565.028	11443.06
565.39	11394.7
565.753	11437.86
566.115	11414.36
566.477	11469.5
566.839	11432.44
567.201	11459.11
567.563	11420.91
567.925	11544.53
568.287	11413.23
568.648	11453
569.01	11414.13
569.372	11519.44
569.734	11469.95
570.095	11569.39
570.457	11577.52
570.819	11477.64
571.18	11580.46
571.542	11576.84
571.903	11622.27
572.265	11659.78
572.626	11609.84
572.987	11580.68
573.349	11591.98
573.71	11698.42
574.071	11635.6
574.432	11602.6
574.794	11643.51
575.155	11674.69
575.516	11596.73
575.877	11602.83
576.238	11707.46
576.599	11649.38
576.96	11657.29
577.32	11762.83
577.681	11750.4
578.042	11704.3
578.403	11684.41
578.763	11687.8
579.124	11655.03
579.485	11639.67
579.845	11738.42
580.206	11776.16
580.566	11762.83
580.927	11756.5
581.287	11828.81
581.648	11644.86
582.008	11721.47
582.368	11664.52
582.728	11701.58
583.089	11669.04
583.449	11673.79
583.809	11672.89
584.169	11727.35
584.529	11687.12
584.889	11735.03
585.249	11623.85
585.609	11592.66
585.969	11656.16
586.329	11594.02
586.688	11617.52
587.048	11569.84
587.408	11586.56
587.768	11583.85
588.127	11516.05
588.487	11478.31
588.846	11638.08
589.206	11570.06
589.565	11589.27
589.925	11611.64
590.284	11499.1
590.643	11524.87
591.003	11587.01
591.362	11578.65
591.721	11556.05
592.08	11515.6
592.44	11500.01
592.799	11502.72
593.158	11498.43
593.517	11460.01
593.876	11486.9
594.235	11460.91
594.593	11408.03
594.952	11476.28
595.311	11443.51
595.67	11413.68
596.029	11479.44
596.387	11454.36
596.746	11483.96
597.104	11420.46
597.463	11441.7
597.822	11457.52
598.18	11372.33
598.538	11476.05
598.897	11483.29
599.255	11365.1
599.613	11606.45
599.972	11392.21
600.33	11462.27
600.688	11408.49
601.046	11472.66
601.404	11466.11
601.762	11438.77
602.12	11509.73
602.478	11446.9
602.836	11448.94
603.194	11416.85
603.552	11423.63
603.91	11376.4
604.268	11423.85
604.625	11433.12
604.983	11475.15
605.341	11328.04
605.698	11432.67
606.056	11444.42
606.413	11449.61
606.771	11485.77
607.128	11446.9
607.485	11488.71
607.843	11407.81
608.2	11494.36
608.557	11509.27
608.914	11447.35
609.272	11468.37
609.629	11519.22
609.986	11521.48
610.343	11427.24
610.7	11516.73
611.057	11531.65
611.414	11530.74
611.771	11568.26
612.127	11555.15
612.484	11533.68
612.841	11539.78
613.198	11464.08
613.554	11505.21
613.911	11537.75
614.267	11585.2
614.624	11636.5
614.98	11623.39
615.337	11664.52
615.693	11684.41
616.05	11652.55
616.406	11699.33
616.762	11591.76
617.118	11595.37
617.475	11684.18
617.831	11710.85
618.187	11719.44
618.543	11712.88
618.899	11813.22
619.255	11724.41
619.611	11748.82
619.967	11772.77
620.323	11771.19
620.678	11688.7
621.034	11663.62
621.39	11744.75
621.746	11716.5
622.101	11919.66
622.457	11730.96
622.812	11738.19
623.168	11781.58
623.523	11755.14
623.879	11729.15
624.234	11711.75
624.589	11708.14
624.945	11742.71
625.3	11714.69
625.655	11797.85
626.01	11755.37
626.365	11728.25
626.72	11709.27
627.075	11723.51
627.43	11787.01
627.785	11733.22
628.14	11744.52
628.495	11773.22
628.85	11720.57
629.205	11694.35
629.559	11799.21
629.914	11694.35
630.269	11650.06
630.623	11709.95
630.978	11614.36
631.332	11713.34
631.687	11673.79
632.041	11650.51
632.396	11666.11
632.75	11650.29
633.104	11644.19
633.459	11586.79
633.813	11611.42
634.167	11673.79
634.521	11567.58
634.875	11554.7
635.229	11568.48
635.583	11506.11
635.937	11542.95
636.291	11532.55
636.645	11493
636.999	11445.09
637.352	11460.24
637.706	11358.32
638.06	11390.41
638.413	11481.93
638.767	11329.84
639.121	11397.64
639.474	11342.95
639.828	11278.32
640.181	11362.61
640.534	11301.82
640.888	11308.6
641.241	11238.77
641.594	11262.95
641.947	11278.55
642.301	11285.78
642.654	11233.35
643.007	11263.4
643.36	11293.69
643.713	11281.03
644.066	11224.31
644.419	11256.17
644.771	11098.21
645.124	11104.31
645.477	11013.47
645.83	11008.95
646.182	10923.53
646.535	10882.85
646.888	10932.57
647.24	10903.41
647.593	10923.07
647.945	10853.25
648.298	10806.02
648.65	10820.48
649.002	10795.62
649.355	10895.96
649.707	10891.21
650.059	10910.42
650.411	10957.2
650.763	11015.5
651.115	11145.22
651.467	11103.63
651.819	11115.84
652.171	11163.52
652.523	11129.4
652.875	11103.63
653.227	11048.27
653.578	11184.08
653.93	11099.79
654.282	11060.02
654.633	11057.76
654.985	11115.39
655.337	11098.89
655.688	11192.67
656.039	11148.38
656.391	11046.46
656.742	11101.37
657.094	11106.12
657.445	11208.49
657.796	11024.31
658.147	11109.96
658.498	11079
658.849	11117.19
659.2	11095.73
659.551	11082.62
659.902	11120.36
660.253	11110.19
660.604	11116.52
660.955	11079.91
661.306	11106.57
661.656	11132.56
662.007	11160.36
662.358	11100.92
662.708	11150.19
663.059	11168.49
663.409	11090.53
663.76	11188.38
664.11	11137.76
664.461	11196.97
664.811	11146.57
665.161	11219.79
665.511	11126.23
665.862	11200.36
666.212	11255.95
666.562	11236.96
666.912	11167.81
667.262	11169.4
667.612	11151.77
667.962	11265.66
668.312	11181.6
668.662	11231.54
669.011	11175.72
669.361	11119.91
669.711	11154.48
670.06	11113.58
670.41	11026.57
670.76	11113.35
671.109	11177.53
671.459	11088.27
671.808	11079
672.157	11171.88
672.507	11065.22
672.856	11057.08
673.205	11044.43
673.554	11107.93
673.904	11021.15
674.253	11135.5
674.602	11074.48
674.951	10933.7
675.3	10900.25
675.649	11082.84
675.998	11018.44
676.346	11080.13
676.695	11070.42
677.044	10932.79
677.393	10988.84
677.741	11009.63
678.09	10977.08
678.438	10932.57
678.787	10995.16
679.135	10932.34
679.484	10863.41
679.832	10883.53
680.181	10845.34
680.529	10844.21
680.877	10824.55
681.225	10848.27
681.573	10950.42
681.922	10821.16
682.27	10796.07
682.618	10780.03
682.966	10719.92
683.314	10754.27
683.661	10729.86
684.009	10701.61
684.357	10702.74
684.705	10632.69
685.053	10594.95
685.4	10553.59
685.748	10510.43
686.095	10610.99
686.443	10526.25
686.79	10437.66
687.138	10495.51
687.485	10455.74
687.832	10445.57
688.18	10447.38
688.527	10385.01
688.874	10368.29
689.221	10354.95
689.568	10324.9
689.915	10232.7
690.262	10212.13
690.609	10253.26
690.956	10142.76
691.303	10241.96
691.65	10121.97
691.997	10174.17
692.344	10032.7
692.69	10036.32
693.037	10025.47
693.383	9857.57
693.73	10023.89
694.077	9920.39
694.423	9974.4
694.769	9894.17
695.116	9808.98
695.462	9880.62
695.808	9719.72
696.155	9760.39
696.501	9689.66
696.847	9650.11
697.193	9555.88
697.539	9628.65
697.885	9564.01
698.231	9487.41
698.577	9550.91
698.923	9554.52
699.269	9458.03
699.614	9421.42
699.96	9338.03
700.306	9444.92
700.651	9281.99
700.997	9283.57
701.342	9190.92
701.688	9202.22
702.033	9159.28
702.379	9162.67
702.724	9081.54
703.069	9150.69
703.415	8984.59
703.76	9035.89
704.105	9001.09
704.45	9026.63
704.795	8940.08
705.14	8943.01
705.485	8899.4
705.83	8846.97
706.175	8811.94
706.52	8804.26
706.865	8793.41
707.209	8782.34
707.554	8740.98
707.899	8788.44
708.243	8692.85
708.588	8704.15
708.932	8695.34
709.277	8553.65
709.621	8644.26
709.966	8593.87
710.31	8603.59
710.654	8477.94
710.998	8510.03
711.342	8487.43
711.687	8425.96
712.031	8459.41
712.375	8419.64
712.719	8361.56
713.063	8438.39
713.407	8443.59
713.75	8347.77
714.094	8358.4
714.438	8319.98
714.782	8305.97
715.125	8268.68
715.469	8289.47
715.812	8273.65
716.156	8188.91
716.499	8217.16
716.843	8251.96
717.186	8209.7
717.53	8155.46
717.873	8212.41
718.216	8216.7
718.559	8200.21
718.902	8118.18
719.246	8158.4
719.589	8115.01
719.932	8101.91
720.275	8081.34
720.617	8157.72
720.96	8079.76
721.303	8122.47
721.646	8077.95
721.989	7982.81
722.331	8084.96
722.674	8024.39
723.016	8084.96
723.359	7993.21
723.701	8080.89
724.044	7992.08
724.386	7974
724.729	8021
725.071	7972.42
725.413	8003.15
725.755	8019.42
726.097	7977.62
726.439	7979.2
726.782	7939.2
727.124	7970.16
727.465	7925.19
727.807	7878.86
728.149	7911.4
728.491	7935.58
728.833	7942.81
729.175	7841.35
729.516	7865.75
729.858	7918.86
730.199	7812.42
730.541	7829.37
730.882	7873.21
731.224	7870.05
731.565	7854.91
731.906	7870.73
732.248	7891.06
732.589	7793.89
732.93	7812.87
733.271	7838.18
733.612	7827.79
733.953	7857.39
734.294	7863.95
734.635	7869.37
734.976	7878.86
735.317	7816.94
735.658	7825.75
735.999	7851.52
736.339	7843.61
736.68	7900.33
737.021	7913.66
737.361	7861.01
737.702	7871.4
738.042	7930.84
738.383	7797.73
738.723	7934.45
739.063	7899.65
739.404	7935.81
739.744	7945.75
740.084	7852.42
740.424	7988.01
740.764	7915.7
741.104	8013.77
741.444	7966.09
741.784	7990.27
742.124	7984.39
742.464	8023.49
742.804	8034.56
743.143	8041.12
743.483	8067.33
743.823	8072.98
744.162	8035.92
744.502	8154.56
744.841	8094.45
745.181	8166.08
745.52	8226.65
745.86	8252.41
746.199	8296.02
746.538	8310.71
746.877	8363.82
747.216	8387.1
747.556	8405.85
747.895	8450.6
748.234	8487.66
748.573	8540.76
748.911	8625.06
749.25	8719.74
749.589	8744.15
749.928	8820.53
750.267	8875.67
750.605	8966.29
750.944	8979.62
751.283	8937.14
751.621	9126.29
751.96	9216
752.298	9287.19
752.636	9346.62
752.975	9456.22
753.313	9459.38
753.651	9656.44
753.989	9649.89
754.327	9815.53
754.666	9881.97
755.004	10063.66
755.342	10188.18
755.679	10227.27
756.017	10339.81
756.355	10532.58
756.693	10640.82
757.031	10809.18
757.368	10856.41
757.706	11058.21
758.044	11143.86
758.381	11316.28
758.719	11382.27
759.056	11622.27
759.394	11695.94
759.731	11860.22
