Data from hue_150_FLMS001491_00086.txt Node
Date: Tue Feb 07 16:54:39 GMT 2017
User: dcchb
Spectrometer: FLMS00149
Trigger mode: 0
Integration Time (sec): 2.000000E-2
Scans to average: 10
Electric dark correction enabled: true
Nonlinearity correction enabled: false
Boxcar width: 0
XAxis mode: Wavelengths
Number of Pixels in Spectrum: 2048
>>>>>Begin Spectral Data<<<<<
341.393	-17.44
341.776	-17.44
342.16	-17.44
342.543	-63.32
342.927	-56.31
343.31	-55.86
343.693	-62.87
344.077	-88.85
344.46	-65.35
344.843	-52.24
345.226	-52.92
345.61	-26.71
345.993	-38.01
346.376	10.58
346.759	8.77
347.142	20.52
347.525	41.31
347.908	70.46
348.291	70.01
348.674	93.97
349.057	127.19
349.44	132.84
349.823	132.38
350.206	160.18
350.588	190.46
350.971	210.35
351.354	218.26
351.737	236.79
352.119	252.61
352.502	255.77
352.884	266.17
353.267	288.99
353.65	281.76
354.032	291.7
354.414	298.48
354.797	327.41
355.179	332.83
355.562	300.29
355.944	332.6
356.326	325.15
356.709	332.38
357.091	335.09
357.473	344.58
357.855	335.77
358.238	334.41
358.62	336.67
359.002	352.26
359.384	332.83
359.766	315.66
360.148	350.91
360.53	348.65
360.912	333.96
361.294	325.82
361.676	322.44
362.057	329.67
362.439	356.78
362.821	342.55
363.203	329.44
363.584	322.66
363.966	315.43
364.348	311.59
364.729	326.28
365.111	315.43
365.493	315.66
365.874	314.53
366.256	330.57
366.637	305.26
367.019	304.81
367.4	304.81
367.781	301.64
368.163	317.46
368.544	308.2
368.925	319.5
369.306	321.53
369.688	301.19
370.069	307.75
370.45	314.75
370.831	323.34
371.212	313.4
371.593	304.36
371.974	321.98
372.355	321.76
372.736	307.97
373.117	321.76
373.498	310.91
373.879	328.54
374.26	331.25
374.641	320.63
375.021	305.03
375.402	310.68
375.783	315.43
376.163	317.24
376.544	313.17
376.925	344.13
377.305	321.08
377.686	330.34
378.066	337.8
378.447	344.36
378.827	352.04
379.208	330.8
379.588	333.28
379.968	319.05
380.349	347.97
380.729	330.12
381.109	368.31
381.489	324.69
381.87	342.55
382.25	348.2
382.63	341.19
383.01	341.42
383.39	342.1
383.77	348.65
384.15	336.45
384.53	332.15
384.91	368.08
385.29	352.72
385.67	339.61
386.049	347.97
386.429	366.05
386.809	362.66
387.189	363.79
387.568	353.62
387.948	361.3
388.328	361.53
388.707	374.64
389.087	343.9
389.466	359.72
389.846	365.37
390.225	383
390.605	372.15
390.984	361.3
391.363	371.7
391.743	380.74
392.122	368.08
392.501	386.84
392.881	376.9
393.26	369.67
393.639	386.39
394.018	368.08
394.397	359.95
394.776	401.53
395.155	386.84
395.534	384.58
395.913	399.27
396.292	401.3
396.671	393.62
397.05	375.77
397.429	392.49
397.808	379.61
398.186	394.3
398.565	392.04
398.944	421.42
399.323	394.07
399.701	404.92
400.08	411.25
400.458	390
400.837	420.96
401.215	425.03
401.594	432.26
401.972	406.73
402.351	414.18
402.729	394.75
403.107	411.92
403.486	426.84
403.864	428.65
404.242	443.34
404.62	455.54
404.999	436.1
405.377	428.42
405.755	436.78
406.133	441.98
406.511	459.15
406.889	422.55
407.267	453.51
407.645	455.76
408.023	444.92
408.401	453.96
408.779	446.5
409.156	462.09
409.534	448.08
409.912	473.84
410.29	487.4
410.667	449.21
411.045	479.04
411.422	484.24
411.8	486.27
412.178	493.5
412.555	485.59
412.933	507.74
413.31	498.25
413.687	515.2
414.065	510
414.442	508.42
414.819	499.83
415.197	535.31
415.574	515.88
415.951	520.85
416.328	541.64
416.705	505.71
417.082	525.37
417.46	530.57
417.837	545.48
418.214	551.58
418.591	531.92
418.967	530.79
419.344	519.04
419.721	551.81
420.098	547.29
420.475	582.09
420.852	554.52
421.228	571.02
421.605	557.91
421.982	571.02
422.358	585.7
422.735	559.26
423.111	613.73
423.488	598.81
423.864	575.54
424.241	592.71
424.617	597.91
424.994	614.4
425.37	618.7
425.746	600.39
426.123	621.86
426.499	628.64
426.875	620.05
427.251	621.18
427.627	629.55
428.003	634.97
428.379	634.74
428.756	646.04
429.132	678.81
429.507	667.74
429.883	683.1
430.259	667.28
430.635	670.45
431.011	700.96
431.387	685.36
431.763	706.38
432.138	703.67
432.514	731.01
432.89	697.79
433.265	737.11
433.641	737.79
434.016	725.59
434.392	723.78
434.767	740.28
435.143	761.75
435.518	753.61
435.894	763.78
436.269	776.43
436.644	787.73
437.02	784.8
437.395	787.28
437.77	804.46
438.145	814.85
438.52	806.94
438.895	825.7
439.271	838.13
439.646	835.19
440.021	863.44
440.395	865.47
440.77	851.01
441.145	848.3
441.52	879.93
441.895	877.67
442.27	881.97
442.645	867.05
443.019	902.31
443.394	895.3
443.769	912.48
444.143	922.87
444.518	932.14
444.892	933.49
445.267	929.42
445.641	933.27
446.016	931.46
446.39	922.19
446.764	936.2
447.139	966.26
447.513	966.03
447.887	967.84
448.262	975.53
448.636	978.24
449.01	975.75
449.384	992.25
449.758	1004.23
450.132	999.71
450.506	1031.57
450.88	1005.81
451.254	1019.37
451.628	1011.68
452.002	1051
452.376	1043.32
452.75	1078.57
453.123	1053.72
453.497	1093.04
453.871	1109.76
454.244	1088.97
454.618	1155.18
454.992	1125.58
455.365	1125.8
455.739	1160.15
456.112	1161.51
456.486	1206.03
456.859	1187.72
457.232	1196.54
457.606	1224.78
457.979	1199.25
458.352	1270.88
458.725	1269.53
459.099	1270.66
459.472	1265.24
459.845	1323.31
460.218	1340.04
460.591	1350.43
460.964	1363.54
461.337	1373.03
461.71	1389.75
462.083	1384.78
462.456	1417.77
462.829	1419.36
463.201	1466.59
463.574	1467.26
463.947	1509.97
464.32	1535.96
464.692	1540.48
465.065	1572.35
465.438	1592.01
465.81	1591.1
466.183	1625.9
466.555	1638.11
466.928	1633.36
467.3	1688.05
467.672	1711.78
468.045	1731.89
468.417	1742.06
468.789	1784.54
469.161	1813.7
469.534	1858.44
469.906	1876.52
470.278	1907.7
470.65	1946.57
471.022	1964.43
471.394	2026.12
471.766	2067.02
472.138	2088.72
472.51	2128.04
472.882	2181.14
473.253	2208.71
473.625	2257.98
473.997	2306.34
474.369	2323.29
474.74	2360.57
475.112	2454.36
475.484	2484.64
475.855	2530.96
476.227	2583.84
476.598	2669.49
476.97	2742.94
477.341	2775.48
477.713	2868.36
478.084	2875.14
478.455	2970.28
478.827	3062.48
479.198	3128.69
479.569	3153.32
479.94	3275.13
480.311	3374.78
480.682	3454.56
481.053	3584.72
481.424	3663.82
481.795	3761.44
482.166	3815.45
482.537	3937.71
482.908	4059.51
483.279	4109.45
483.65	4248.43
484.021	4320.75
484.391	4429.9
484.762	4512.83
485.133	4614.98
485.503	4762.32
485.874	4855.42
486.244	4988.98
486.615	5126.6
486.985	5211.8
487.356	5369.76
487.726	5486.37
488.097	5634.39
488.467	5635.29
488.837	5867.6
489.207	5970.87
489.578	6177.2
489.948	6289.06
490.318	6425.78
490.688	6462.16
491.058	6605.21
491.428	6794.13
491.798	6881.36
492.168	7143.27
492.538	7154.12
492.908	7321.35
493.278	7475.02
493.648	7524.05
494.017	7728.57
494.387	7896.47
494.757	7974.89
495.126	8063.7
495.496	8188.89
495.866	8296.24
496.235	8387.53
496.605	8521.99
496.974	8591.14
497.344	8798.6
497.713	8878.37
498.082	9008.31
498.452	9054.86
498.821	9169.21
499.19	9232.03
499.559	9407.17
499.928	9483.32
500.298	9611.23
500.667	9676.31
501.036	9798.34
501.405	9971.22
501.774	9970.99
502.143	10087.83
502.512	10142.74
502.88	10249.86
503.249	10280.14
503.618	10458.44
503.987	10447.59
504.356	10579.34
504.724	10677.64
505.093	10697.76
505.462	10669.28
505.83	10839.67
506.199	10917.64
506.567	11078.08
506.936	11088.25
507.304	11210.51
507.672	11269.49
508.041	11253
508.409	11447.79
508.777	11520.33
509.145	11554.46
509.514	11563.72
509.882	11683.72
510.25	11615.25
510.618	11763.94
510.986	11761.91
511.354	11847.1
511.722	11980.43
512.09	12108.79
512.458	12096.36
512.826	12176.81
513.193	12176.59
513.561	12113.99
513.929	12262.46
514.297	12393.98
514.664	12484.83
515.032	12452.06
515.4	12500.87
515.767	12502
516.135	12551.27
516.502	12433.98
516.869	12729.11
517.237	12700.19
517.604	12670.13
517.972	12767.31
518.339	12878.04
518.706	12831.26
519.073	12772.96
519.44	12849.79
519.808	12975.89
520.175	12969.33
520.542	13090.01
520.909	13057.47
521.276	13098.82
521.643	13069.44
522.009	13226.5
522.376	13299.95
522.743	13223.34
523.11	13326.84
523.477	13385.14
523.843	13420.62
524.21	13451.13
524.577	13543.56
524.943	13597.11
525.31	13551.47
525.676	13616.55
526.043	13640.95
526.409	13647.28
526.776	13806.83
527.142	13734.96
527.508	13760.27
527.874	13867.16
528.241	13890.89
528.607	13757.11
528.973	13951.46
529.339	13917.11
529.705	13914.39
530.071	13909.2
530.437	13948.07
530.803	13972.25
531.169	13852.7
531.535	13878.24
531.901	13895.41
532.267	13955.75
532.632	13857.45
532.998	13952.36
533.364	14027.61
533.73	13978.12
534.095	14011.34
534.461	13897.45
534.826	13938.57
535.192	13922.3
535.557	14030.32
535.923	13931.57
536.288	13899.71
536.653	13885.69
537.019	13757.56
537.384	13828.75
537.749	13864.45
538.114	13837.56
538.479	13740.84
538.845	13773.15
539.21	13715.3
539.575	13725.92
539.94	13647.96
540.305	13737.9
540.67	13590.11
541.034	13642.08
541.399	13641.63
541.764	13599.15
542.129	13584.01
542.494	13499.72
542.858	13506.72
543.223	13450.9
543.587	13508.75
543.952	13476.89
544.316	13433.28
544.681	13392.6
545.045	13437.34
545.41	13413.84
545.774	13361.41
546.138	13343.34
546.503	13268.54
546.867	13166.62
547.231	13284.81
547.595	13161.65
547.959	13173.4
548.324	13144.92
548.688	13082.78
549.052	13052.27
549.416	13026.51
549.779	13014.76
550.143	13013.17
550.507	13093.4
550.871	13049.78
551.235	13005.04
551.599	12946.96
551.962	12956.91
552.326	12987.64
552.689	13026.96
553.053	12854.99
553.417	12928.88
553.78	12987.19
554.143	12859.28
554.507	12829.68
554.87	12876.91
555.234	12878.04
555.597	12735.22
555.96	12819.96
556.323	12796.68
556.686	12814.76
557.05	12823.58
557.413	12767.53
557.776	12791.71
558.139	12777.25
558.502	12773.86
558.865	12736.12
559.228	12808.66
559.59	12876.91
559.953	12774.54
560.316	12843.69
560.679	12832.16
561.041	12815.67
561.404	12807.76
561.767	12857.47
562.129	12728.44
562.492	12927.75
562.854	12862.44
563.217	12879.84
563.579	12822.67
563.941	12986.28
564.304	12943.8
564.666	12996.23
565.028	13016.11
565.39	12902.9
565.753	13110.12
566.115	12991.03
566.477	12999.84
566.839	13087.98
567.201	13054.3
567.563	13007.53
567.925	13102.44
568.287	13002.33
568.648	13035.55
569.01	13054.08
569.372	13141.53
569.734	13097.01
570.095	13145.83
570.457	13112.16
570.819	13238.03
571.18	13083.91
571.542	13211.14
571.903	13217.69
572.265	13295.65
572.626	13253.85
572.987	13258.82
573.349	13270.34
573.71	13335.2
574.071	13358.48
574.432	13316.9
574.794	13395.76
575.155	13410.23
575.516	13358.25
575.877	13403
576.238	13375.43
576.599	13402.54
576.96	13353.73
577.32	13362.32
577.681	13370.45
578.042	13438.25
578.403	13459.94
578.763	13414.75
579.124	13398.93
579.485	13501.98
579.845	13484.8
580.206	13432.6
580.566	13394.63
580.927	13480.73
581.287	13475.31
581.648	13406.61
582.008	13559.15
582.368	13473.5
582.728	13461.75
583.089	13495.87
583.449	13428.08
583.809	13435.99
584.169	13445.03
584.529	13280.06
584.889	13507.85
585.249	13377.23
585.609	13375.88
585.969	13380.4
586.329	13429.21
586.688	13384.92
587.048	13340.17
587.408	13409.32
587.768	13332.94
588.127	13310.12
588.487	13259.04
588.846	13365.48
589.206	13306.95
589.565	13270.34
589.925	13346.73
590.284	13266.5
590.643	13227.18
591.003	13288.65
591.362	13380.62
591.721	13295.88
592.08	13308.76
592.44	13278.03
592.799	13255.2
593.158	13191.93
593.517	13282.77
593.876	13278.25
594.235	13156.22
594.593	13297.69
594.952	13212.72
595.311	13258.82
595.67	13195.54
596.029	13332.71
596.387	13331.81
596.746	13350.12
597.104	13200.06
597.463	13197.35
597.822	13274.41
598.18	13247.29
598.538	13217.46
598.897	13246.39
599.255	13145.15
599.613	13306.73
599.972	13206.62
600.33	13213.62
600.688	13135.88
601.046	13175.88
601.404	13255.43
601.762	13168.42
602.12	13243.45
602.478	13308.53
602.836	13336.56
603.194	13157.13
603.552	13110.12
603.91	13205.26
604.268	13206.16
604.625	13148.09
604.983	13214.75
605.341	13141.53
605.698	13298.37
606.056	13253.17
606.413	13290.23
606.771	13239.38
607.128	13259.72
607.485	13233.28
607.843	13217.69
608.2	13268.08
608.557	13264.24
608.914	13335.65
609.272	13350.79
609.629	13297.69
609.986	13400.51
610.343	13287.52
610.7	13388.98
611.057	13373.62
611.414	13381.75
611.771	13350.79
612.127	13421.75
612.484	13422.43
612.841	13421.53
613.198	13300.4
613.554	13406.38
613.911	13483.44
614.267	13452.26
614.624	13379.27
614.98	13449.77
615.337	13550.79
615.693	13468.98
616.05	13506.27
616.406	13605.7
616.762	13540.39
617.118	13501.07
617.475	13508.75
617.831	13578.58
618.187	13568.41
618.543	13581.97
618.899	13591.69
619.255	13648.19
619.611	13644.57
619.967	13654.97
620.323	13659.71
620.678	13630.56
621.034	13540.62
621.39	13666.72
621.746	13537.23
622.101	13741.07
622.457	13557.57
622.812	13641.86
623.168	13662.88
623.523	13628.3
623.879	13659.26
624.234	13618.81
624.589	13667.85
624.945	13675.3
625.3	13709.65
625.655	13582.2
626.01	13649.32
626.365	13656.1
626.72	13590.11
627.075	13604.35
627.43	13640.05
627.785	13625.36
628.14	13621.07
628.495	13673.27
628.85	13525.03
629.205	13529.32
629.559	13634.18
629.914	13518.02
630.269	13592.14
630.623	13569.54
630.978	13495.2
631.332	13640.5
631.687	13602.54
632.041	13555.08
632.396	13498.59
632.75	13467.85
633.104	13480.73
633.459	13358.48
633.813	13515.31
634.167	13428.98
634.521	13410.9
634.875	13412.26
635.229	13350.34
635.583	13356.44
635.937	13363.22
636.291	13317.8
636.645	13316.67
636.999	13280.51
637.352	13287.07
637.706	13303.79
638.06	13269.67
638.413	13191.48
638.767	13207.07
639.121	13219.95
639.474	13075.77
639.828	13113.51
640.181	13138.14
640.534	13215.88
640.888	13147.41
641.241	13062.21
641.594	13166.17
641.947	13162.78
642.301	13084.81
642.654	13060.86
643.007	13152.15
643.36	13071.93
643.713	13085.49
644.066	13164.36
644.419	13097.47
644.771	12895.44
645.124	12892.27
645.477	12864.48
645.83	12759.4
646.182	12698.15
646.535	12614.77
646.888	12633.3
647.24	12584.49
647.593	12594.43
647.945	12638.72
648.298	12570.02
648.65	12611.15
649.002	12535.67
649.355	12656.8
649.707	12569.57
650.059	12685.73
650.411	12820.41
650.763	12727.53
651.115	12959.84
651.467	12909.22
651.819	12951.03
652.171	12887.98
652.523	12750.13
652.875	12835.33
653.227	12810.24
653.578	12886.4
653.93	12826.51
654.282	12704.03
654.633	12757.14
654.985	12846.85
655.337	12761.2
655.688	12794.2
656.039	12874.2
656.391	12714.65
656.742	12819.96
657.094	12746.29
657.445	12789.68
657.796	12751.71
658.147	12791.49
658.498	12829.68
658.849	12814.31
659.2	12802.11
659.551	12748.77
659.902	12825.84
660.253	12771.6
660.604	12877.81
660.955	12769.79
661.306	12843.69
661.656	12774.54
662.007	12859.73
662.358	12881.43
662.708	12797.81
663.059	12807.08
663.409	12753.07
663.76	12859.05
664.11	12899.51
664.461	12819.06
664.811	12847.08
665.161	12843.91
665.511	12835.33
665.862	12856.12
666.212	12930.01
666.562	12791.26
666.912	12892.95
667.262	12804.59
667.612	12806.63
667.962	12903.8
668.312	12775.44
668.662	12918.04
669.011	12890.24
669.361	12753.75
669.711	12846.17
670.06	12888.88
670.41	12801.2
670.76	12765.95
671.109	12803.69
671.459	12698.61
671.808	12776.34
672.157	12822.22
672.507	12722.11
672.856	12763.92
673.205	12772.96
673.554	12748.55
673.904	12732.05
674.253	12770.92
674.602	12836
674.951	12487.09
675.3	12514.43
675.649	12650.02
675.998	12737.93
676.346	12636.24
676.695	12733.63
677.044	12554.66
677.393	12605.73
677.741	12727.31
678.09	12564.15
678.438	12550.36
678.787	12585.16
679.135	12610.25
679.484	12499.06
679.832	12549.68
680.181	12490.48
680.529	12530.93
680.877	12412.74
681.225	12462.23
681.573	12502.91
681.922	12400.31
682.27	12441.89
682.618	12414.55
682.966	12362.8
683.314	12435.56
683.661	12299.3
684.009	12266.53
684.357	12212.07
684.705	12207.32
685.053	12209.58
685.4	12212.52
685.748	12152.41
686.095	12102.46
686.443	12109.7
686.79	12036.7
687.138	12091.62
687.485	11982.69
687.832	12059.3
688.18	11980.89
688.527	11969.36
688.874	11899.53
689.221	11854.56
689.568	11829.48
689.915	11830.16
690.262	11849.82
690.609	11777.73
690.956	11812.08
691.303	11757.84
691.65	11644.4
691.997	11584.96
692.344	11520.33
692.69	11568.02
693.037	11465.42
693.383	11475.59
693.73	11470.84
694.077	11476.94
694.423	11320.34
694.769	11339.77
695.116	11308.13
695.462	11259.32
695.808	11230.4
696.155	11249.61
696.501	11197.63
696.847	11158.76
697.193	11061.59
697.539	11130.29
697.885	10987.01
698.231	11020.01
698.577	10953.79
698.923	10924.64
699.269	10904.53
699.614	10812.55
699.96	10822.5
700.306	10767.58
700.651	10792.67
700.997	10687.59
701.342	10624.76
701.688	10615.95
702.033	10549.96
702.379	10561.04
702.724	10531.88
703.069	10539.79
703.415	10387.93
703.76	10452.79
704.105	10429.74
704.45	10390.87
704.795	10341.83
705.14	10288.05
705.485	10266.81
705.83	10202.18
706.175	10185.68
706.52	10120.82
706.865	10060.94
707.209	10102.52
707.554	10115.4
707.899	9992.01
708.243	10044.89
708.588	9996.76
708.932	9985.23
709.277	9916.08
709.621	9989.07
709.966	9893.93
710.31	9893.03
710.654	9787.5
710.998	9888.96
711.342	9829.3
711.687	9801.96
712.031	9769.87
712.375	9747.27
712.719	9700.27
713.063	9646.94
713.407	9700.95
713.75	9682.19
714.094	9591.57
714.438	9626.15
714.782	9585.69
715.125	9545.47
715.469	9592.25
715.812	9524
716.156	9493.72
716.499	9531.01
716.843	9492.14
717.186	9430.67
717.53	9458.24
717.873	9473.61
718.216	9480.39
718.559	9426.15
718.902	9322.65
719.246	9409.43
719.589	9343.67
719.932	9287.62
720.275	9296.89
720.617	9272.93
720.96	9250.56
721.303	9231.81
721.646	9285.36
721.989	9205.37
722.331	9247.85
722.674	9262.54
723.016	9233.61
723.359	9185.93
723.701	9246.95
724.044	9140.73
724.386	9108.19
724.729	9143.45
725.071	9135.54
725.413	9138.7
725.755	9088.08
726.097	9117.46
726.439	8964.24
726.782	9051.47
727.124	9117.23
727.465	8985.71
727.807	9071.36
728.149	8986.61
728.491	9037.91
728.833	9024.81
729.175	8961.76
729.516	8996.33
729.858	9015.09
730.199	8996.56
730.541	9032.71
730.882	8984.58
731.224	9046.27
731.565	8938.71
731.906	8969.67
732.248	9007.63
732.589	8922.43
732.93	8988.87
733.271	8955.43
733.612	8947.07
733.953	8969.67
734.294	8902.77
734.635	8944.58
734.976	9015.99
735.317	8951.59
735.658	8964.24
735.999	9015.54
736.339	8956.56
736.68	9013.05
737.021	8996.78
737.361	8927.41
737.702	9030.23
738.042	8999.72
738.383	9051.25
738.723	8968.76
739.063	8947.97
739.404	9017.57
739.744	8985.26
740.084	8981.87
740.424	9007.86
740.764	8993.85
741.104	9067.52
741.444	8990.68
741.784	9004.24
742.124	9108.64
742.464	9051.25
742.804	9049.66
743.143	9082.43
743.483	9129.66
743.823	9127.85
744.162	9198.36
744.502	9125.37
744.841	9110
745.181	9225.03
745.52	9257.79
745.86	9271.13
746.199	9244.91
746.538	9325.14
746.877	9445.81
747.216	9405.59
747.556	9446.49
747.895	9451.69
748.234	9507.05
748.573	9558.8
748.911	9588.41
749.25	9679.7
749.589	9688.74
749.928	9815.74
750.267	9847.16
750.605	9826.14
750.944	9908.62
751.283	9993.82
751.621	10182.06
751.96	10174.38
752.298	10265.22
752.636	10376.63
752.975	10394.71
753.313	10487.14
753.651	10641.49
753.989	10707.47
754.327	10787.7
754.666	10840.58
755.004	11001.48
755.342	11172.55
755.679	11176.39
756.017	11264.07
756.355	11448.92
756.693	11586.55
757.031	11649.14
757.368	11822.02
757.706	11994.44
758.044	12012.75
758.381	12244.38
