Data from hue_70_FLMS001491_32.txt Node
Date: Mon Feb 06 15:20:45 GMT 2017
User: dcchb
Spectrometer: FLMS00149
Trigger mode: 0
Integration Time (sec): 2.000000E-2
Scans to average: 10
Electric dark correction enabled: true
Nonlinearity correction enabled: false
Boxcar width: 0
XAxis mode: Wavelengths
Number of Pixels in Spectrum: 2048
>>>>>Begin Spectral Data<<<<<
341.393	5.56
341.776	5.56
342.16	5.56
342.543	-37.15
342.927	-65.39
343.31	-72.17
343.693	-64.04
344.077	-72.63
344.46	-57.26
344.843	-70.59
345.226	-49.57
345.61	-40.54
345.993	-18.84
346.376	-10.25
346.759	26.13
347.142	30.87
347.525	46.24
347.908	56.64
348.291	79.46
348.674	92.79
349.057	123.75
349.44	119.91
349.823	125.34
350.206	189.51
350.588	205.33
350.971	202.17
351.354	241.26
351.737	246.69
352.119	250.08
352.502	258.44
352.884	284.2
353.267	292.56
353.65	293.69
354.032	303.64
354.414	322.39
354.797	303.64
355.179	304.31
355.562	319.91
355.944	333.47
356.326	330.53
356.709	347.7
357.091	337.08
357.473	344.54
357.855	331.88
358.238	349.28
358.62	339.12
359.002	348.38
359.384	333.01
359.766	340.47
360.148	363.52
360.53	340.25
360.912	330.3
361.294	324.43
361.676	330.3
362.057	351.54
362.439	331.21
362.821	339.79
363.203	334.82
363.584	324.2
363.966	313.35
364.348	319.45
364.729	317.65
365.111	309.74
365.493	328.49
365.874	317.2
366.256	319
366.637	337.99
367.019	331.21
367.4	336.86
367.781	323.52
368.163	333.01
368.544	318.32
368.925	318.55
369.306	320.58
369.688	314.71
370.069	300.47
370.45	309.96
370.831	315.39
371.212	314.94
371.593	317.65
371.974	319.23
372.355	296.18
372.736	322.62
373.117	306.12
373.498	312.68
373.879	309.96
374.26	310.87
374.641	308.38
375.021	286.46
375.402	323.97
375.783	322.39
376.163	329.85
376.544	315.39
376.925	337.08
377.305	318.1
377.686	312.45
378.066	331.66
378.447	314.03
378.827	323.3
379.208	326.46
379.588	330.75
379.968	333.47
380.349	340.47
380.729	327.82
381.109	326.23
381.489	353.8
381.87	343.18
382.25	345.22
382.63	332.79
383.01	343.18
383.39	361.94
383.77	346.12
384.15	351.54
384.53	355.16
384.91	340.7
385.29	362.17
385.67	342.51
386.049	320.13
386.429	359.23
386.809	340.25
387.189	354.26
387.568	363.97
387.948	352.45
388.328	359.45
388.707	360.58
389.087	353.58
389.466	363.3
389.846	352.22
390.225	390.41
390.605	348.83
390.984	362.17
391.363	359.23
391.743	359.23
392.122	346.35
392.501	362.17
392.881	361.94
393.26	369.62
393.639	360.36
394.018	361.49
394.397	350.41
394.776	372.11
395.155	371.43
395.534	373.92
395.913	348.15
396.292	356.97
396.671	386.57
397.05	380.7
397.429	356.29
397.808	377.53
398.186	363.97
398.565	373.46
398.944	392.22
399.323	395.39
399.701	367.82
400.08	379.57
400.458	386.8
400.837	392
401.215	388.61
401.594	379.34
401.972	398.55
402.351	394.03
402.729	395.16
403.107	397.64
403.486	386.8
403.864	395.84
404.242	383.18
404.62	410.75
404.999	401.71
405.377	396.74
405.755	421.37
406.133	423.41
406.511	409.85
406.889	424.76
407.267	422.73
407.645	436.29
408.023	416.85
408.401	408.49
408.779	422.5
409.156	422.73
409.534	427.93
409.912	435.38
410.29	424.99
410.667	421.6
411.045	434.25
411.422	446.46
411.8	449.17
412.178	462.95
412.555	446.01
412.933	446.01
413.31	448.27
413.687	465.89
414.065	459.79
414.442	447.81
414.819	461.37
415.197	454.37
415.574	475.16
415.951	447.14
416.328	470.64
416.705	455.27
417.082	457.98
417.46	493.01
417.837	482.16
418.214	474.71
418.591	487.13
418.967	482.16
419.344	468.83
419.721	493.69
420.098	490.75
420.475	488.72
420.852	481.71
421.228	509.73
421.605	496.85
421.982	498.89
422.358	495.04
422.735	510.18
423.111	520.58
423.488	507.47
423.864	522.61
424.241	504.99
424.617	515.16
424.994	516.51
425.37	538.66
425.746	533.91
426.123	529.39
426.499	558.09
426.875	551.31
427.251	544.53
427.627	551.77
428.003	549.28
428.379	551.31
428.756	556.28
429.132	584.08
429.507	591.99
429.883	591.09
430.259	568.04
430.635	584.08
431.011	577.3
431.387	591.09
431.763	585.89
432.138	588.6
432.514	586.34
432.89	600.13
433.265	630.18
433.641	600.8
434.016	610.75
434.392	642.38
434.767	628.15
435.143	646
435.518	628.37
435.894	632.67
436.269	639.22
436.644	656.17
437.02	672.89
437.395	636.28
437.77	657.98
438.145	670.18
438.52	675.83
438.895	660.01
439.271	685.77
439.646	693.68
440.021	674.7
440.395	684.64
440.77	704.3
441.145	686.22
441.52	699.56
441.895	706.34
442.27	725.09
442.645	712.21
443.019	692.1
443.394	728.48
443.769	696.85
444.143	733.46
444.518	715.83
444.892	711.99
445.267	734.81
445.641	740.91
446.016	764.64
446.39	759.22
446.764	752.66
447.139	758.09
447.513	777.52
447.887	761.25
448.262	796.5
448.636	791.08
449.01	798.76
449.384	762.61
449.758	781.36
450.132	774.81
450.506	795.37
450.88	823.4
451.254	789.72
451.628	797.41
452.002	824.3
452.376	817.29
452.75	826.56
453.123	855.26
453.497	850.51
453.871	833.11
454.244	857.97
454.618	876.28
454.992	860.91
455.365	870.17
455.739	885.99
456.112	911.53
456.486	888.03
456.859	924.18
457.232	915.15
457.606	925.99
457.979	944.75
458.352	966.22
458.725	974.13
459.099	965.77
459.472	974.8
459.845	1019.32
460.218	1004.63
460.591	1019.55
460.964	1003.05
461.337	1053.67
461.71	1057.29
462.083	1094.8
462.456	1077.4
462.829	1087.34
463.201	1087.57
463.574	1085.99
463.947	1118.3
464.32	1127.57
464.692	1160.34
465.065	1171.64
465.438	1192.2
465.81	1190.84
466.183	1195.14
466.555	1246.44
466.928	1244.85
467.3	1263.84
467.672	1265.87
468.045	1279.88
468.417	1331.86
468.789	1337.73
469.161	1340.9
469.534	1352.87
469.906	1392.2
470.278	1385.64
470.65	1396.71
471.022	1482.14
471.394	1448.92
471.766	1510.38
472.138	1533.66
472.51	1603.71
472.882	1629.93
473.253	1649.14
473.625	1679.42
473.997	1725.75
474.369	1762.13
474.74	1788.34
475.112	1806.65
475.484	1848.45
475.855	1910.37
476.227	1958.96
476.598	2013.65
476.97	2053.19
477.341	2096.58
477.713	2147.43
478.084	2173.19
478.455	2271.49
478.827	2282.34
479.198	2403.92
479.569	2441.43
479.94	2494.54
480.311	2561.2
480.682	2652.27
481.053	2734.98
481.424	2824.02
481.795	2876
482.166	2970.68
482.537	3059.27
482.908	3149.21
483.279	3239.15
483.65	3299.72
484.021	3406.83
484.391	3527.51
484.762	3582.87
485.133	3677.56
485.503	3792.13
485.874	3886.82
486.244	3940.83
486.615	4093.37
486.985	4260.37
487.356	4342.63
487.726	4467.14
488.097	4548.72
488.467	4673.69
488.837	4806.34
489.207	5000.91
489.578	5115.49
489.948	5210.63
490.318	5351.41
490.688	5445.87
491.058	5620.33
491.428	5752.53
491.798	5897.16
492.168	6030.94
492.538	6176.02
492.908	6232.75
493.278	6483.81
493.648	6530.59
494.017	6741.21
494.387	6832.5
494.757	6982.1
495.126	7116.34
495.496	7220.52
495.866	7370.12
496.235	7462.77
496.605	7632.48
496.974	7760.39
497.344	7898.24
497.713	8122.41
498.082	8191.56
498.452	8340.71
498.821	8406.47
499.19	8538.22
499.559	8693.25
499.928	8815.28
500.298	8940.47
500.667	9086.23
501.036	9183.63
501.405	9333.46
501.774	9473.79
502.143	9610.96
502.512	9697.06
502.88	9841.46
503.249	9887.11
503.618	10087.56
503.987	10108.35
504.356	10259.31
504.724	10317.16
505.093	10497.04
505.462	10515.57
505.83	10671.27
506.199	10839.86
506.567	11033.75
506.936	11060.19
507.304	11257.47
507.672	11308.09
508.041	11378.37
508.409	11563.9
508.777	11671.7
509.145	11863.56
509.514	11833.05
509.882	11944.23
510.25	11963.22
510.618	12179.71
510.986	12255.64
511.354	12447.5
511.722	12528.85
512.09	12666.02
512.458	12684.55
512.826	12779.24
513.193	12929.74
513.561	12884.55
513.929	13091.77
514.297	13199.79
514.664	13362.05
515.032	13431.2
515.4	13584.64
515.767	13578.32
516.135	13696.28
516.502	13609.5
516.869	13895.82
517.237	13964.07
517.604	13967.23
517.972	14031.18
518.339	14206.77
518.706	14249.03
519.073	14305.98
519.44	14459.87
519.808	14619.87
520.175	14611.96
520.542	14784.39
520.909	14881.78
521.276	14901.44
521.643	15086.75
522.009	15125.17
522.376	15275.67
522.743	15368.78
523.11	15481.54
523.477	15552.27
523.843	15674.31
524.21	15748.88
524.577	15938.48
524.943	15824.36
525.31	15950.46
525.676	16126.72
526.043	16183.67
526.409	16273.39
526.776	16491.46
527.142	16424.34
527.508	16546.82
527.874	16711.11
528.241	16783.2
528.607	16844.67
528.973	16947.04
529.339	16991.33
529.705	17047.15
530.071	17064.1
530.437	17253.7
530.803	17290.31
531.169	17364.66
531.535	17264.09
531.901	17335.05
532.267	17458.67
532.632	17574.82
532.998	17579.11
533.364	17703.86
533.73	17677.42
534.095	17799.22
534.461	17766.91
534.826	17913.12
535.192	17957.18
535.557	17994.47
535.923	18017.97
536.288	18124.64
536.653	18123.28
537.019	18035.15
537.384	18161.02
537.749	18244.41
538.114	18201.92
538.479	18330.51
538.845	18340.22
539.21	18177.97
539.575	18298.64
539.94	18392.65
540.305	18397.62
540.67	18319.21
541.034	18412.09
541.399	18532.54
541.764	18550.84
542.129	18578.86
542.494	18597.62
542.858	18592.65
543.223	18573.21
543.587	18768.01
543.952	18694.11
544.316	18695.24
544.681	18659.76
545.045	18702.25
545.41	18807.33
545.774	18825.18
546.138	18798.97
546.503	18878.51
546.867	18772.75
547.231	18931.39
547.595	18933.43
547.959	18968.91
548.324	18944.5
548.688	18990.83
549.052	19011.84
549.416	18970.94
549.779	18964.61
550.143	19119.41
550.507	19101.33
550.871	19155.8
551.235	19123.71
551.599	19256.36
551.962	19141.78
552.326	19216.13
552.689	19258.39
553.053	19230.14
553.417	19282.12
553.78	19461.1
554.143	19367.54
554.507	19451.38
554.87	19436.24
555.234	19621.55
555.597	19492.51
555.96	19549.68
556.323	19612.05
556.686	19620.19
557.05	19739.96
557.413	19706.74
557.776	19763.92
558.139	19791.03
558.502	19756.46
558.865	19849.34
559.228	19986.96
559.59	19993.06
559.953	20027.86
560.316	20137.92
560.679	20154.64
561.041	20298.36
561.404	20272.83
561.767	20402.77
562.129	20296.33
562.492	20529.77
562.854	20577.91
563.217	20490.22
563.579	20509.21
563.941	20683.21
564.304	20710.78
564.666	20886.37
565.028	20839.14
565.39	20822.19
565.753	21108.06
566.115	21030.77
566.477	21087.72
566.839	21112.13
567.201	21159.36
567.563	21179.7
567.925	21393.25
568.287	21419.47
568.648	21435.51
569.01	21429.18
569.372	21629.4
569.734	21524.77
570.095	21642.51
570.457	21755.5
570.819	21754.15
571.18	21796.4
571.542	21821.49
571.903	21861.04
572.265	21847.93
572.626	21943.97
572.987	22013.35
573.349	22078.2
573.71	22101.71
574.071	22168.82
574.432	22221.48
574.794	22245.66
575.155	22385.99
575.516	22162.72
575.877	22418.31
576.238	22385.54
576.599	22419.66
576.96	22470.06
577.32	22422.15
577.681	22514.8
578.042	22624.41
578.403	22666.44
578.763	22555.93
579.124	22537.85
579.485	22697.17
579.845	22703.27
580.206	22697.62
580.566	22649.72
580.927	22692.65
581.287	22824.4
581.648	22640.22
582.008	22855.36
582.368	22743.72
582.728	22889.48
583.089	22815.81
583.449	22840.9
583.809	22798.41
584.169	22885.64
584.529	22781.92
584.889	22918.41
585.249	22788.92
585.609	22813.1
585.969	22791.41
586.329	22792.76
586.688	22854
587.048	22901.69
587.408	22918.63
587.768	22882.03
588.127	22779.66
588.487	22855.36
588.846	22887.22
589.206	22917.96
589.565	22951.63
589.925	23033.89
590.284	22852.87
590.643	22923.38
591.003	22904.85
591.362	23018.07
591.721	22963.15
592.08	22896.26
592.44	23033.21
592.799	22914.34
593.158	22902.36
593.517	22912.76
593.876	22958.41
594.235	22879.09
594.593	22850.16
594.952	23042.47
595.311	22952.31
595.67	22992.31
596.029	22994.56
596.387	22990.05
596.746	23106.43
597.104	22908.69
597.463	22931.29
597.822	23007.9
598.18	22928.58
598.538	22971.74
598.897	23074.34
599.255	22858.3
599.613	23199.31
599.972	22948.01
600.33	23188.68
600.688	23014.45
601.046	23174.67
601.404	23190.04
601.762	23182.81
602.12	23166.99
602.478	23294.9
602.836	23183.94
603.194	23110.72
603.552	23186.88
603.91	23159.53
604.268	23297.16
604.625	23260.09
604.983	23348
605.341	23161.79
605.698	23334.89
606.056	23330.83
606.413	23267.33
606.771	23334.89
607.128	23398.85
607.485	23332.86
607.843	23320.21
608.2	23512.52
608.557	23489.47
608.914	23491.95
609.272	23610.59
609.629	23644.72
609.986	23770.59
610.343	23628.67
610.7	23792.51
611.057	23670.03
611.414	23785.96
611.771	23752.51
612.127	23872.51
612.484	23743.02
612.841	23816.24
613.198	23857.59
613.554	23882.45
613.911	23990.24
614.267	23935.78
614.624	23941.88
614.98	24010.36
615.337	24076.12
615.693	23983.24
616.05	23925.39
616.406	24111.15
616.762	24072.5
617.118	24058.04
617.475	24159.05
617.831	24222.33
618.187	24165.16
618.543	24197.7
618.899	24382.32
619.255	24314.76
619.611	24380.07
619.967	24527.18
620.323	24551.13
620.678	24343.68
621.034	24292.61
621.39	24448.76
621.746	24373.51
622.101	24712.94
622.457	24288.32
622.812	24445.15
623.168	24442.89
623.523	24571.25
623.879	24582.32
624.234	24456.45
624.589	24480.85
624.945	24570.34
625.3	24591.81
625.655	24628.65
626.01	24511.36
626.365	24639.49
626.72	24489.21
627.075	24515.43
627.43	24542.77
627.785	24444.7
628.14	24633.39
628.495	24617.35
628.85	24485.15
629.205	24522.43
629.559	24651.02
629.914	24539.38
630.269	24532.15
630.623	24503.45
630.978	24361.53
631.332	24505.94
631.687	24595.65
632.041	24451.7
632.396	24539.38
632.75	24499.84
633.104	24556.33
633.459	24399.27
633.813	24277.92
634.167	24503.9
634.521	24272.05
634.875	24275.44
635.229	24393.85
635.583	24294.19
635.937	24304.36
636.291	24231.59
636.645	24239.05
636.999	24201.99
637.352	24280.18
637.706	24036.8
638.06	24172.16
638.413	24281.08
638.767	24011.26
639.121	24002.9
639.474	23995.67
639.828	23989.57
640.181	23988.44
640.534	24115.44
640.888	24020.75
641.241	23926.52
641.594	24067.08
641.947	24008.78
642.301	23958.38
642.654	23972.39
643.007	23941.66
643.36	23908.89
643.713	23853.3
644.066	23912.96
644.419	23714.09
644.771	23631.16
645.124	23437.72
645.477	23402.46
645.83	23166.31
646.182	23172.19
646.535	23157.5
646.888	23120.44
647.24	23005.19
647.593	23237.27
647.945	23121.12
648.298	22998.63
648.65	22990.5
649.002	22820.11
649.355	22954.34
649.707	22905.75
650.059	22981.68
650.411	23320.66
650.763	23242.47
651.115	23561.1
651.467	23425.51
651.819	23425.51
652.171	23467.32
652.523	23340.54
652.875	23419.19
653.227	23314.78
653.578	23391.16
653.93	23385.74
654.282	23368.34
654.633	23274.11
654.985	23357.27
655.337	23346.87
655.688	23429.58
656.039	23450.37
656.391	23253.09
656.742	23282.01
657.094	23333.54
657.445	23375.35
657.796	23380.32
658.147	23346.42
658.498	23316.36
658.849	23352.52
659.2	23308.23
659.551	23302.81
659.902	23333.76
660.253	23343.03
660.604	23450.6
660.955	23134
661.306	23390.94
661.656	23272.52
662.007	23329.25
662.358	23245.86
662.708	23329.02
663.059	23330.6
663.409	23137.84
663.76	23403.14
664.11	23358.62
664.461	23468
664.811	23355.91
665.161	23269.59
665.511	23204.95
665.862	23161.11
666.212	23312.97
666.562	23331.05
666.912	23291.28
667.262	23349.36
667.612	23307.1
667.962	23217.38
668.312	23280.21
668.662	23372.41
669.011	23369.24
669.361	23230.49
669.711	23282.47
670.06	23227.78
670.41	23098.06
670.76	23074.11
671.109	23258.51
671.459	23213.32
671.808	23172.19
672.157	23183.71
672.507	23031.85
672.856	23085.41
673.205	23074.11
673.554	23126.99
673.904	23101.23
674.253	23321.79
674.602	23234.11
674.951	22798.64
675.3	22585.99
675.649	23063.04
675.998	22969.71
676.346	22958.63
676.695	22933.55
677.044	22864.4
677.393	22947.56
677.741	22972.87
678.09	23015.81
678.438	22823.72
678.787	22873.89
679.135	22918.18
679.484	22647.91
679.832	22811.29
680.181	22718.19
680.529	22769.03
680.877	22699.21
681.225	22655.36
681.573	22773.1
681.922	22694.91
682.27	22557.51
682.618	22555.48
682.966	22566.55
683.314	22508.02
683.661	22433.9
684.009	22380.12
684.357	22219.67
684.705	22221.7
685.053	22318.2
685.4	22295.37
685.748	22088.83
686.095	22137.64
686.443	22011.99
686.79	22062.16
687.138	21999.79
687.485	21998.66
687.832	21835.5
688.18	21807.7
688.527	21747.14
688.874	21747.14
689.221	21689.74
689.568	21641.61
689.915	21646.13
690.262	21562.96
690.609	21593.02
690.956	21426.02
691.303	21346.25
691.65	21295.4
691.997	21343.99
692.344	21150.77
692.69	21158.23
693.037	21096.54
693.383	21026.71
693.73	21048.63
694.077	21061.06
694.423	20976.99
694.769	20895.64
695.116	20765.24
695.462	20777.45
695.808	20673.72
696.155	20776.09
696.501	20532.48
696.847	20573.39
697.193	20365.71
697.539	20484.12
697.885	20226.5
698.231	20248.2
698.577	20196.9
698.923	20109.44
699.269	20028.99
699.614	19940.86
699.96	19931.82
700.306	19830.13
700.651	19723.46
700.997	19700.87
701.342	19650.7
701.688	19758.72
702.033	19595.33
702.379	19632.17
702.724	19507.42
703.069	19483.02
703.415	19315.11
703.76	19255.45
704.105	19287.54
704.45	19257.26
704.795	19082.8
705.14	19075.57
705.485	18999.42
705.83	18981.56
706.175	19018.4
706.52	18890.72
706.865	18833.32
707.209	18779.76
707.554	18634.45
707.899	18754.22
708.243	18609.14
708.588	18682.36
708.932	18506.55
709.277	18404.86
709.621	18506.32
709.966	18319.89
710.31	18471.29
710.654	18228.81
710.998	18280.34
711.342	18280.34
711.687	18163.73
712.031	18108.37
712.375	18123.73
712.719	18041.02
713.063	18029.5
713.407	18064.53
713.75	17987.46
714.094	17987.46
714.438	17777.53
714.782	17963.74
715.125	17842.16
715.469	17836.28
715.812	17649.39
716.156	17640.13
716.499	17721.03
716.843	17682.16
717.186	17561.71
717.53	17589.06
717.873	17575.05
718.216	17523.07
718.559	17447.82
718.902	17444.65
719.246	17443.98
719.589	17352
719.932	17304.54
720.275	17215.51
720.617	17215.96
720.96	17301.16
721.303	17237.2
721.646	17272.23
721.989	17087.38
722.331	17246.69
722.674	17216.86
723.016	17171.89
723.359	17039.24
723.701	17128.05
724.044	17074.72
724.386	16958.34
724.729	17038.34
725.071	16881.73
725.413	16836.53
725.755	16978.68
726.097	16807.83
726.439	16774.39
726.782	16833.37
727.124	16911.11
727.465	16784.56
727.807	16786.59
728.149	16738.46
728.491	16726.03
728.833	16752.47
729.175	16673.6
729.516	16627.73
729.858	16626.82
730.199	16661.85
730.541	16677.44
730.882	16580.27
731.224	16602.64
731.565	16548.18
731.906	16545.92
732.248	16565.13
732.589	16542.76
732.93	16520.38
733.271	16587.5
733.612	16505.92
733.953	16532.59
734.294	16449.88
734.635	16468.41
734.976	16486.94
735.317	16446.26
735.658	16418.92
735.999	16466.6
736.339	16423.66
736.68	16514.06
737.021	16475.64
737.361	16346.6
737.702	16472.25
738.042	16344.34
738.383	16348.86
738.723	16505.7
739.063	16348.41
739.404	16351.12
739.744	16312.71
740.084	16239.94
740.424	16316.1
740.764	16333.72
741.104	16347.73
741.444	16240.39
741.784	16237.45
742.124	16336.66
742.464	16376.43
742.804	16403.1
743.143	16295.76
743.483	16347.06
743.823	16380.95
744.162	16323.78
744.502	16283.33
744.841	16339.15
745.181	16472.02
745.52	16351.8
745.86	16469.54
746.199	16402.65
746.538	16496.66
746.877	16485.36
747.216	16435.19
747.556	16526.49
747.895	16524.45
748.234	16562.42
748.573	16498.69
748.911	16580.04
749.25	16681.51
749.589	16674.96
749.928	16736.65
750.267	16749.98
750.605	16749.08
750.944	16754.73
751.283	16730.32
751.621	16836.53
751.96	16845.57
752.298	16966.02
752.636	17009.19
752.975	16950.2
753.313	17023.42
753.651	17123.31
753.989	17174.38
754.327	17207.15
754.666	17220.25
755.004	17404.2
755.342	17349.74
755.679	17401.72
756.017	17398.1
756.355	17517.65
756.693	17566.68
