Data from hue_260_FLMS001491_00057.txt Node
Date: Tue Feb 07 15:59:12 GMT 2017
User: dcchb
Spectrometer: FLMS00149
Trigger mode: 0
Integration Time (sec): 2.000000E-2
Scans to average: 10
Electric dark correction enabled: true
Nonlinearity correction enabled: false
Boxcar width: 0
XAxis mode: Wavelengths
Number of Pixels in Spectrum: 2048
>>>>>Begin Spectral Data<<<<<
341.393	-31.68
341.776	-31.68
342.16	-31.68
342.543	-58.12
342.927	-62.87
343.31	-62.87
343.693	-53.6
344.077	-60.61
344.46	-46.59
344.843	-56.76
345.226	-49.08
345.61	-24.22
345.993	-28.97
346.376	-14.51
346.759	-14.28
347.142	30.69
347.525	50.8
347.908	65.04
348.291	66.85
348.674	94.19
349.057	103.91
349.44	95.77
349.823	145.94
350.206	130.58
350.588	189.11
350.971	184.81
351.354	208.31
351.737	232.04
352.119	227.07
352.502	256.9
352.884	262.78
353.267	256.9
353.65	300.51
354.032	269.78
354.414	286.05
354.797	282.89
355.179	304.36
355.562	301.64
355.944	309.55
356.326	320.85
356.709	312.94
357.091	325.15
357.473	344.58
357.855	306.16
358.238	340.29
358.62	345.03
359.002	315.43
359.384	324.24
359.766	316.56
360.148	314.3
360.53	331.7
360.912	337.12
361.294	303
361.676	328.31
362.057	334.86
362.439	327.63
362.821	311.81
363.203	307.07
363.584	329.89
363.966	316.79
364.348	309.78
364.729	306.39
365.111	304.36
365.493	323.56
365.874	321.31
366.256	292.61
366.637	305.03
367.019	300.29
367.4	315.88
367.781	310.46
368.163	302.1
368.544	300.06
368.925	297.8
369.306	316.79
369.688	313.85
370.069	291.02
370.45	313.4
370.831	298.25
371.212	315.88
371.593	308.2
371.974	302.1
372.355	285.83
372.736	321.98
373.117	314.75
373.498	305.03
373.879	311.81
374.26	306.16
374.641	294.41
375.021	309.78
375.402	292.83
375.783	311.36
376.163	305.71
376.544	314.3
376.925	320.63
377.305	325.6
377.686	305.94
378.066	313.62
378.447	300.29
378.827	299.61
379.208	302.77
379.588	306.62
379.968	329.89
380.349	328.99
380.729	317.24
381.109	330.34
381.489	328.31
381.87	343.45
382.25	335.32
382.63	316.56
383.01	329.89
383.39	319.05
383.77	310.01
384.15	337.12
384.53	349.1
384.91	356.56
385.29	342.1
385.67	343.68
386.049	342.55
386.429	320.85
386.809	340.97
387.189	362.66
387.568	328.31
387.948	349.55
388.328	351.36
388.707	342.77
389.087	358.82
389.466	355.43
389.846	342.55
390.225	362.66
390.605	339.16
390.984	345.49
391.363	366.73
391.743	356.33
392.122	338.93
392.501	361.3
392.881	384.13
393.26	381.19
393.639	377.12
394.018	357.69
394.397	381.64
394.776	377.57
395.155	373.51
395.534	371.02
395.913	358.37
396.292	386.61
396.671	382.09
397.05	369.89
397.429	385.03
397.808	393.39
398.186	382.32
398.565	379.16
398.944	375.77
399.323	395.43
399.701	402.43
400.08	397.91
400.458	415.77
400.837	405.14
401.215	418.03
401.594	409.89
401.972	415.09
402.351	415.31
402.729	418.25
403.107	402.43
403.486	438.14
403.864	419.83
404.242	434.3
404.62	432.71
404.999	432.94
405.377	439.72
405.755	423.45
406.133	447.63
406.511	458.7
406.889	473.39
407.267	451.25
407.645	473.39
408.023	478.14
408.401	477.91
408.779	455.31
409.156	484.69
409.534	465.48
409.912	504.13
410.29	500.96
410.667	514.07
411.045	519.27
411.422	519.04
411.8	512.49
412.178	526.5
412.555	522.88
412.933	534.86
413.31	544.8
413.687	550.23
414.065	547.74
414.442	578.93
414.819	563.33
415.197	555.42
415.574	602.2
415.951	598.36
416.328	613.73
416.705	606.72
417.082	603.11
417.46	615.99
417.837	629.09
418.214	633.84
418.591	636.1
418.967	644.46
419.344	671.58
419.721	676.78
420.098	648.53
420.475	670.45
420.852	677.91
421.228	704.57
421.605	681.52
421.982	694.63
422.358	714.06
422.735	741.18
423.111	745.47
423.488	749.09
423.864	771.46
424.241	785.93
424.617	795.64
424.994	787.51
425.37	797.68
425.746	802.87
426.123	851.01
426.499	823.66
426.875	824.34
427.251	867.51
427.627	865.92
428.003	900.95
428.379	888.3
428.756	888.97
429.132	900.72
429.507	909.99
429.883	915.64
430.259	920.39
430.635	925.36
431.011	965.13
431.387	959.03
431.763	996.09
432.138	986.37
432.514	989.76
432.89	1021.63
433.265	1027.28
433.641	1036.09
434.016	1077.22
434.392	1099.59
434.767	1114.5
435.143	1115.41
435.518	1122.19
435.894	1135.3
436.269	1162.86
436.644	1180.27
437.02	1201.96
437.395	1214.84
437.77	1217.33
438.145	1253.03
438.52	1274.05
438.895	1280.15
439.271	1306.59
439.646	1332.35
440.021	1316.99
440.395	1331.22
440.77	1340.71
441.145	1343.65
441.52	1402.86
441.895	1401.95
442.27	1397.21
442.645	1409.86
443.019	1443.54
443.394	1439.02
443.769	1452.8
444.143	1466.36
444.518	1475.85
444.892	1462.07
445.267	1485.57
445.641	1473.59
446.016	1497.09
446.39	1533.7
446.764	1512.01
447.139	1548.17
447.513	1539.8
447.887	1573.02
448.262	1576.87
448.636	1595.4
449.01	1620.25
449.384	1608.28
449.758	1627.94
450.132	1647.37
450.506	1632.46
450.88	1653.25
451.254	1673.36
451.628	1677.65
452.002	1678.78
452.376	1722.85
452.75	1727.37
453.123	1761.27
453.497	1787.93
453.871	1758.33
454.244	1798.33
454.618	1821.83
454.992	1826.58
455.365	1839.68
455.739	1872.9
456.112	1867.71
456.486	1890.08
456.859	1904.31
457.232	1956.97
457.606	1940.25
457.979	1972.56
458.352	2013.24
458.725	2036.06
459.099	2093.69
459.472	2061.82
459.845	2106.79
460.218	2088.49
460.591	2135.49
460.964	2128.94
461.337	2177.98
461.71	2219.79
462.083	2240.35
462.456	2235.15
462.829	2269.5
463.201	2265.43
463.574	2283.29
463.947	2319.67
464.32	2347.24
464.692	2390.4
465.065	2366.9
465.438	2423.4
465.81	2459.33
466.183	2427.69
466.555	2513.34
466.928	2528.03
467.3	2509.04
467.672	2587.01
468.045	2606.44
468.417	2638.98
468.789	2670.4
469.161	2668.14
469.534	2694.8
469.906	2765.99
470.278	2771.86
470.65	2806.66
471.022	2864.29
471.394	2930.5
471.766	2928.69
472.138	2949.26
472.51	3024.28
472.882	3046.43
473.253	3070.16
473.625	3091.4
473.997	3168.69
474.369	3189.03
474.74	3223.6
475.112	3274.22
475.484	3337.95
475.855	3340.21
476.227	3368
476.598	3477.83
476.97	3477.38
477.341	3541.11
477.713	3622.01
478.084	3610.71
478.455	3656.36
478.827	3725.96
479.198	3805.06
479.569	3799.86
479.94	3901.55
480.311	3953.98
480.682	4000.3
481.053	4101.54
481.424	4099.28
481.795	4142.67
482.166	4199.62
482.537	4231.94
482.908	4313.97
483.279	4369.56
483.65	4407.98
484.021	4491.82
484.391	4529.1
484.762	4600.51
485.133	4614.98
485.503	4697.46
485.874	4786.05
486.244	4791.02
486.615	4832.6
486.985	4927.51
487.356	4950.56
487.726	5017.23
488.097	5082.76
488.467	5100.84
488.837	5241.4
489.207	5203.44
489.578	5319.59
489.948	5344.68
490.318	5414.28
490.688	5449.76
491.058	5521.39
491.428	5551.68
491.798	5626.93
492.168	5671.67
492.538	5699.47
492.908	5750.99
493.278	5800.48
493.648	5847.94
494.017	5926.58
494.387	5940.59
494.757	5948.05
495.126	6009.52
495.496	6015.84
495.866	6008.84
496.235	6093.36
496.605	6176.52
496.974	6134.71
497.344	6261.71
497.713	6277.98
498.082	6317.98
498.452	6308.94
498.821	6363.86
499.19	6447.47
499.559	6363.86
499.928	6405.89
500.298	6449.51
500.667	6524.31
501.036	6526.79
501.405	6532.89
501.774	6532.22
502.143	6595.49
502.512	6595.72
502.88	6641.14
503.249	6659.22
503.618	6671.87
503.987	6667.8
504.356	6722.94
504.724	6793.45
505.093	6784.41
505.462	6776.28
505.83	6790.74
506.199	6841.36
506.567	6927.23
506.936	6889.04
507.304	6906.89
507.672	6901.92
508.041	7007.46
508.409	7038.87
508.777	7063.05
509.145	7046.55
509.514	7121.58
509.882	7052.43
510.25	7111.86
510.618	7143.05
510.986	7129.49
511.354	7171.07
511.722	7264.85
512.09	7249.71
512.458	7226.21
512.826	7288.13
513.193	7345.08
513.561	7259.65
513.929	7359.09
514.297	7374
514.664	7405.19
515.032	7383.27
515.4	7416.03
515.767	7434.56
516.135	7476.15
516.502	7410.61
516.869	7511.17
517.237	7530.16
517.604	7424.17
517.972	7553.66
518.339	7578.52
518.706	7543.26
519.073	7555.47
519.44	7604.5
519.808	7604.28
520.175	7605.86
520.542	7623.49
520.909	7727.21
521.276	7606.76
521.643	7679.08
522.009	7739.19
522.376	7740.09
522.743	7812.86
523.11	7788.68
523.477	7871.62
523.843	7896.47
524.21	7905.29
524.577	7934.89
524.943	7937.83
525.31	7926.08
525.676	8030.71
526.043	8026.19
526.409	7978.28
526.776	8055.34
527.142	8015.34
527.508	8054.89
527.874	8023.02
528.241	8109.57
528.607	8116.58
528.973	8121.55
529.339	8127.43
529.705	8142.79
530.071	8143.92
530.437	8222.34
530.803	8193.41
531.169	8211.72
531.535	8163.58
531.901	8198.84
532.267	8205.62
532.632	8216.46
532.998	8202.68
533.364	8276.12
533.73	8244.94
534.095	8263.7
534.461	8256.01
534.826	8271.83
535.192	8279.29
535.557	8365.39
535.923	8273.64
536.288	8290.36
536.653	8248.78
537.019	8230.02
537.384	8257.82
537.749	8294.2
538.114	8254.66
538.479	8264.37
538.845	8253.53
539.21	8195.22
539.575	8210.14
539.94	8235.9
540.305	8222.11
540.67	8187.09
541.034	8239.74
541.399	8250.36
541.764	8141.89
542.129	8216.46
542.494	8239.29
542.858	8180.53
543.223	8201.78
543.587	8278.38
543.952	8149.57
544.316	8226.63
544.681	8157.26
545.045	8176.01
545.41	8180.76
545.774	8104.15
546.138	8154.32
546.503	8157.03
546.867	8137.82
547.231	8203.58
547.595	8169.91
547.959	8174.43
548.324	8177.37
548.688	8130.59
549.052	8161.1
549.416	8116.81
549.779	8111.61
550.143	8140.76
550.507	8135.79
550.871	8142.12
551.235	8081.1
551.599	8196.35
551.962	8153.42
552.326	8131.04
552.689	8140.99
553.053	8073.87
553.417	8055.79
553.78	8196.35
554.143	8136.47
554.507	8138.05
554.87	8142.12
555.234	8165.84
555.597	8175.11
555.96	8104.83
556.323	8136.01
556.686	8092.17
557.05	8155.68
557.413	8154.09
557.776	8187.99
558.139	8207.43
558.502	8248.1
558.865	8226.18
559.228	8246.75
559.59	8282.9
559.953	8263.47
560.316	8314.32
560.679	8310.7
561.041	8352.51
561.404	8329.23
561.767	8371.71
562.129	8310.25
562.492	8322.22
562.854	8367.42
563.217	8357.93
563.579	8426.18
563.941	8447.65
564.304	8379.17
564.666	8493.29
565.028	8468.89
565.39	8473.63
565.753	8457.36
566.115	8534.42
566.477	8571.26
566.839	8546.63
567.201	8578.49
567.563	8666.17
567.925	8612.16
568.287	8542.11
568.648	8600.41
569.01	8653.06
569.372	8741.2
569.734	8679.73
570.095	8742.78
570.457	8718.82
570.819	8741.42
571.18	8835.88
571.542	8837.01
571.903	8797.01
572.265	8897.58
572.626	8895.54
572.987	8818.03
573.349	8884.92
573.71	8910.91
574.071	8952.26
574.432	8956.78
574.794	9052.37
575.155	9055.54
575.516	9028.19
575.877	9097.35
576.238	9053.73
576.599	9131.92
576.96	9151.36
577.32	9123.33
577.681	9174.41
578.042	9184.8
578.403	9210.56
578.763	9178.47
579.124	9232.03
579.485	9203.33
579.845	9259.6
580.206	9202.88
580.566	9300.5
580.927	9299.6
581.287	9365.36
581.648	9316.1
582.008	9356.77
582.368	9381.18
582.728	9365.36
583.089	9415.76
583.449	9400.16
583.809	9386.83
584.169	9510.89
584.529	9476.32
584.889	9521.97
585.249	9473.38
585.609	9556.99
585.969	9554.73
586.329	9481.52
586.688	9530.33
587.048	9583.43
587.408	9548.41
587.768	9573.94
588.127	9588.86
588.487	9611.23
588.846	9631.79
589.206	9531.01
589.565	9616.43
589.925	9728.06
590.284	9723.77
590.643	9716.99
591.003	9741.62
591.362	9732.36
591.721	9704.56
592.08	9771.9
592.44	9780.94
592.799	9811
593.158	9797.89
593.517	9778.68
593.876	9776.42
594.235	9821.39
594.593	9819.59
594.952	9867.72
595.311	9843.99
595.67	9874.95
596.029	9928.51
596.387	9876.08
596.746	9891.9
597.104	9866.14
597.463	9870.88
597.822	9929.87
598.18	9866.82
598.538	9828.4
598.897	9981.84
599.255	9883.77
599.613	9991.56
599.972	9969.19
600.33	10032.69
600.688	10013.71
601.046	9992.46
601.404	10030.65
601.762	9983.42
602.12	10069.52
602.478	10003.31
602.836	10013.03
603.194	9967.38
603.552	10039.02
603.91	10016.42
604.268	10066.81
604.625	10034.04
604.983	10113.36
605.341	10091.9
605.698	10040.6
606.056	10086.92
606.413	10050.54
606.771	10105.68
607.128	10088.28
607.485	10072.24
607.843	10054.16
608.2	10141.16
608.557	10148.17
608.914	10137.54
609.272	10205.34
609.629	10299.57
609.986	10213.93
610.343	10200.37
610.7	10228.84
611.057	10276.52
611.414	10221.38
611.771	10227.03
612.127	10232.68
612.484	10281.04
612.841	10336.86
613.198	10266.81
613.554	10279.46
613.911	10290.31
614.267	10322.85
614.624	10293.7
614.98	10328.05
615.337	10379.57
615.693	10335.73
616.05	10400.81
616.406	10473.58
616.762	10382.06
617.118	10400.81
617.475	10376.86
617.831	10359.23
618.187	10381.83
618.543	10443.07
618.899	10519.46
619.255	10528.04
619.611	10441.04
619.967	10467.25
620.323	10493.02
620.678	10470.42
621.034	10453.47
621.39	10425.45
621.746	10348.39
622.101	10455.95
622.457	10433.58
622.812	10540.25
623.168	10524.43
623.523	10452.34
623.879	10521.49
624.234	10379.12
624.589	10471.55
624.945	10502.05
625.3	10526.91
625.655	10469.29
626.01	10512.45
626.365	10444.88
626.72	10433.58
627.075	10403.3
627.43	10443.98
627.785	10381.61
628.14	10464.77
628.495	10436.97
628.85	10505.44
629.205	10424.99
629.559	10473.58
629.914	10412.34
630.269	10427.93
630.623	10404.66
630.978	10353.13
631.332	10383.41
631.687	10439.91
632.041	10340.93
632.396	10373.92
632.75	10355.17
633.104	10367.82
633.459	10244.89
633.813	10332.57
634.167	10275.39
634.521	10219.12
634.875	10246.47
635.229	10239.91
635.583	10186.58
635.937	10233.13
636.291	10230.2
636.645	10266.13
636.999	10234.49
637.352	10215.51
637.706	10138.22
638.06	10167.83
638.413	10119.01
638.767	10046.93
639.121	10027.72
639.474	10108.39
639.828	10002.18
640.181	10006.7
640.534	10076.08
640.888	9986.59
641.241	10000.6
641.594	9953.82
641.947	9950.88
642.301	10012.12
642.654	10014.16
643.007	10053.48
643.36	9945.23
643.713	9922.86
644.066	9935.97
644.419	9846.7
644.771	9887.38
645.124	9811.68
645.477	9794.73
645.83	9735.29
646.182	9731.68
646.535	9728.29
646.888	9653.26
647.24	9603.77
647.593	9661.85
647.945	9640.38
648.298	9590.67
648.65	9498.46
649.002	9551.34
649.355	9606.94
649.707	9600.84
650.059	9648.07
650.411	9727.16
650.763	9738.23
651.115	9931.67
651.467	9778.91
651.819	9902.3
652.171	9742.75
652.523	9841.51
652.875	9833.15
653.227	9824.56
653.578	9879.92
653.93	9811.9
654.282	9780.27
654.633	9783.66
654.985	9794.73
655.337	9764.9
655.688	9786.37
656.039	9787.5
656.391	9709.08
656.742	9775.29
657.094	9721.51
657.445	9763.77
657.796	9755.41
658.147	9753.15
658.498	9779.81
658.849	9776.42
659.2	9785.92
659.551	9670.89
659.902	9820.49
660.253	9753.83
660.604	9795.63
660.955	9759.93
661.306	9794.28
661.656	9763.99
662.007	9757.22
662.358	9794.73
662.708	9753.15
663.059	9679.03
663.409	9662.3
663.76	9851.22
664.11	9804.9
664.461	9824.78
664.811	9774.39
665.161	9870.21
665.511	9746.37
665.862	9763.09
666.212	9821.62
666.562	9809.87
666.912	9780.04
667.262	9769.87
667.612	9734.84
667.962	9766.71
668.312	9760.83
668.662	9835.86
669.011	9722.19
669.361	9701.17
669.711	9707.05
670.06	9814.61
670.41	9781.17
670.76	9764.45
671.109	9813.71
671.459	9746.82
671.808	9765.12
672.157	9686.48
672.507	9692.13
672.856	9680.16
673.205	9640.38
673.554	9712.92
673.904	9677.44
674.253	9725.35
674.602	9678.35
674.951	9559.03
675.3	9543.89
675.649	9691
675.998	9682.64
676.346	9611.46
676.695	9636.77
677.044	9622.08
677.393	9592.25
677.741	9637.67
678.09	9577.78
678.438	9519.93
678.787	9571.91
679.135	9520.39
679.484	9464.57
679.832	9497.11
680.181	9528.07
680.529	9491.46
680.877	9472.02
681.225	9414.17
681.573	9531.68
681.922	9382.08
682.27	9426.6
682.618	9416.43
682.966	9429.31
683.314	9386.6
683.661	9367.39
684.009	9329.88
684.357	9267.74
684.705	9281.75
685.053	9364.68
685.4	9246.49
685.748	9224.35
686.095	9214.4
686.443	9226.83
686.79	9151.58
687.138	9145.48
687.485	9189.77
687.832	9153.39
688.18	9143.22
688.527	9013.05
688.874	9029.55
689.221	9017.8
689.568	9001.98
689.915	8953.39
690.262	8955.43
690.609	8952.49
690.956	8880.63
691.303	8905.03
691.65	8850.12
691.997	8813.51
692.344	8787.98
692.69	8752.04
693.037	8730.8
693.383	8681.09
693.73	8723.8
694.077	8618.49
694.423	8616.45
694.769	8619.39
695.116	8569
695.462	8531.03
695.808	8438.38
696.155	8500.75
696.501	8473.18
696.847	8472.96
697.193	8377.59
697.539	8393.41
697.885	8329
698.231	8340.08
698.577	8327.2
698.923	8321.55
699.269	8228.89
699.614	8167.43
699.96	8183.92
700.306	8150.03
700.651	8165.39
700.997	8131.72
701.342	8079.75
701.688	8104.6
702.033	8035.23
702.379	8023.02
702.724	8017.83
703.069	8013.98
703.415	7903.93
703.76	7942.57
704.105	7913.2
704.45	7871.84
704.795	7842.46
705.14	7764.73
705.485	7776.48
705.83	7759.08
706.175	7787.32
706.52	7775.57
706.865	7663.71
707.209	7722.24
707.554	7617.38
707.899	7646.31
708.243	7630.04
708.588	7581.23
708.932	7556.82
709.277	7580.78
709.621	7564.05
709.966	7455.58
710.31	7511.85
710.654	7456.71
710.998	7416.71
711.342	7431.17
711.687	7406.54
712.031	7315.25
712.375	7362.93
712.719	7265.3
713.063	7350.95
713.407	7324.51
713.75	7338.75
714.094	7294
714.438	7258.3
714.782	7266.43
715.125	7208.58
715.469	7227.79
715.812	7228.47
716.156	7218.98
716.499	7164.74
716.843	7127.23
717.186	7135.82
717.53	7202.25
717.873	7156.38
718.216	7131.97
718.559	7108.25
718.902	7055.59
719.246	7092.43
719.589	7089.49
719.932	7037.74
720.275	7065.08
720.617	7062.6
720.96	7021.02
721.303	7048.36
721.646	7025.99
721.989	7022.15
722.331	7018.76
722.674	7015.14
723.016	7014.91
723.359	7044.07
723.701	7001.58
724.044	6960.68
724.386	6889.95
724.729	6963.62
725.071	6949.61
725.413	6898.76
725.755	6920
726.097	6970.85
726.439	6879.1
726.782	6927.23
727.124	6910.06
727.465	6858.08
727.807	6873
728.149	6912.77
728.491	6872.77
728.833	6884.97
729.175	6833.9
729.516	6862.15
729.858	6797.97
730.199	6921.58
730.541	6885.88
730.882	6819.44
731.224	6897.63
731.565	6815.82
731.906	6839.33
732.248	6879.55
732.589	6796.16
732.93	6786.67
733.271	6764.98
733.612	6800.46
733.953	6820.12
734.294	6747.12
734.635	6784.86
734.976	6822.83
735.317	6757.52
735.658	6828.93
735.999	6789.84
736.339	6773.56
736.68	6775.37
737.021	6743.74
737.361	6777.18
737.702	6818.54
738.042	6730.18
738.383	6802.04
738.723	6800.46
739.063	6809.04
739.404	6841.13
739.744	6812.66
740.084	6776.73
740.424	6834.13
740.764	6861.25
741.104	6874.81
741.444	6822.15
741.784	6802.49
742.124	6830.96
742.464	6873.22
742.804	6912.09
743.143	6925.88
743.483	6937.4
743.823	6903.73
744.162	6885.65
744.502	6970.4
744.841	6938.31
745.181	6983.28
745.52	7024.63
745.86	7070.73
746.199	7073.9
746.538	7104.4
746.877	7142.37
747.216	7174.23
747.556	7152.31
747.895	7169.03
748.234	7289.26
748.573	7255.59
748.911	7334.91
749.25	7350.5
749.589	7377.16
749.928	7472.53
750.267	7513.43
750.605	7555.24
750.944	7649.25
751.283	7626.42
751.621	7747.32
751.96	7760.43
752.298	7866.87
752.636	7861.22
752.975	7948.9
753.313	7984.15
753.651	8133.08
753.989	8201.78
754.327	8210.36
754.666	8336.24
755.004	8394.09
755.342	8482.22
755.679	8587.75
756.017	8658.26
756.355	8836.11
756.693	8903.23
757.031	8966.73
757.368	9132.37
757.706	9147.29
758.044	9295.76
758.381	9451.23
758.719	9483.78
759.056	9691.68
759.394	9731.45
759.731	9859.36
760.068	9952.01
760.405	10069.07
760.743	10145.23
761.08	10347.71
761.417	10441.27
761.754	10544.77
762.091	10667.25
762.428	10827.7
762.765	10906.79
763.102	11053.68
763.438	11142.72
763.775	11233.33
764.112	11455.25
764.449	11483.5
764.785	11600.56
765.122	11720.55
765.458	11844.84
765.795	11907.89
766.131	12007.33
766.467	12198.73
766.804	12234.44
