Data from hue_280_FLMS001491_00080.txt Node
Date: Tue Feb 07 15:55:46 GMT 2017
User: dcchb
Spectrometer: FLMS00149
Trigger mode: 0
Integration Time (sec): 2.000000E-2
Scans to average: 10
Electric dark correction enabled: true
Nonlinearity correction enabled: false
Boxcar width: 0
XAxis mode: Wavelengths
Number of Pixels in Spectrum: 2048
>>>>>Begin Spectral Data<<<<<
341.393	-16.03
341.776	-16.03
342.16	-16.03
342.543	-60.55
342.927	-61
343.31	-57.39
343.693	-75.46
344.077	-62.81
344.46	-68.68
344.843	-46.76
345.226	-36.37
345.61	-18.97
345.993	-32.08
346.376	-8.57
346.759	16.28
347.142	21.93
347.525	52.89
347.908	38.88
348.291	83.63
348.674	89.96
349.057	103.51
349.44	129.28
349.823	141.03
350.206	172.44
350.588	194.59
350.971	209.05
351.354	229.61
351.737	241.82
352.119	250.85
352.502	264.87
352.884	251.31
353.267	286.33
353.65	299.89
354.032	274.81
354.414	298.99
354.797	306.22
355.179	307.8
355.562	316.62
355.944	322.27
356.326	314.13
356.709	348.25
357.091	325.88
357.473	338.54
357.855	338.99
358.238	331.76
358.62	328.82
359.002	353.23
359.384	336.95
359.766	341.47
360.148	322.94
360.53	337.41
360.912	328.59
361.294	327.24
361.676	335.6
362.057	339.21
362.439	331.76
362.821	321.36
363.203	333.56
363.584	338.08
363.966	305.54
364.348	317.52
364.729	310.06
365.111	309.16
365.493	303.73
365.874	328.14
366.256	329.27
366.637	321.36
367.019	320.23
367.4	300.8
367.781	310.29
368.163	298.76
368.544	302.38
368.925	314.58
369.306	304.41
369.688	286.33
370.069	324.53
370.45	322.94
370.831	300.57
371.212	322.49
371.593	319.33
371.974	318.2
372.355	310.97
372.736	295.37
373.117	324.98
373.498	325.88
373.879	318.88
374.26	319.1
374.641	311.19
375.021	332.21
375.402	317.97
375.783	294.7
376.163	324.75
376.544	323.85
376.925	332.43
377.305	304.86
377.686	320.68
378.066	325.2
378.447	322.72
378.827	324.07
379.208	341.47
379.588	338.31
379.968	343.51
380.349	319.55
380.729	342.83
381.109	343.51
381.489	336.73
381.87	326.79
382.25	346.67
382.63	326.79
383.01	348.25
383.39	337.41
383.77	339.21
384.15	355.03
384.53	330.63
384.91	363.85
385.29	360.91
385.67	348.03
386.049	342.6
386.429	349.38
386.809	327.46
387.189	338.31
387.568	349.84
387.948	370.85
388.328	343.96
388.707	352.77
389.087	353
389.466	342.15
389.846	359.33
390.225	382.6
390.605	377.41
390.984	371.08
391.363	374.92
391.743	391.64
392.122	373.11
392.501	376.95
392.881	354.81
393.26	395.71
393.639	384.18
394.018	373.56
394.397	395.94
394.776	404.3
395.155	397.97
395.534	396.61
395.913	395.48
396.292	392.77
396.671	397.97
397.05	385.77
397.429	403.85
397.808	404.98
398.186	379.44
398.565	407.91
398.944	423.05
399.323	416.27
399.701	400.46
400.08	397.07
400.458	427.8
400.837	441.81
401.215	421.92
401.594	414.01
401.972	413.11
402.351	426.44
402.729	404.3
403.107	439.1
403.486	441.58
403.864	421.92
404.242	434.13
404.62	447.69
404.999	434.35
405.377	435.03
405.755	452.66
406.133	456.27
406.511	452.43
406.889	472.32
407.267	467.35
407.645	485.2
408.023	463.5
408.401	491.53
408.779	506.44
409.156	500.57
409.534	494.46
409.912	497.85
410.29	544.86
410.667	518.87
411.045	524.52
411.422	532.66
411.8	556.61
412.178	532.88
412.555	560.45
412.933	558.87
413.31	550.73
413.687	550.06
414.065	581.69
414.442	583.73
414.819	596.83
415.197	578.76
415.574	606.33
415.951	610.39
416.328	611.75
416.705	621.69
417.082	615.59
417.46	636.38
417.837	645.19
418.214	647.23
418.591	661.69
418.967	655.36
419.344	679.77
419.721	670.28
420.098	690.84
420.475	681.8
420.852	704.4
421.228	709.15
421.605	711.18
421.982	732.2
422.358	721.13
422.735	740.33
423.111	754.57
423.488	770.39
423.864	792.76
424.241	797.28
424.617	804.06
424.994	807.22
425.37	812.87
425.746	809.71
426.123	821.69
426.499	828.92
426.875	860.1
427.251	877.05
427.627	866.88
428.003	864.17
428.379	860.78
428.756	892.42
429.132	900.1
429.507	921.8
429.883	925.64
430.259	932.64
430.635	955.7
431.011	952.53
431.387	976.94
431.763	968.58
432.138	988.46
432.514	1031.17
432.89	1007.22
433.265	1052.19
433.641	1052.42
434.016	1055.58
434.392	1073.88
434.767	1110.27
435.143	1117.05
435.518	1102.58
435.894	1148.91
436.269	1143.03
436.644	1141.68
437.02	1192.07
437.395	1188.91
437.77	1177.38
438.145	1205.18
438.52	1237.5
438.895	1212.19
439.271	1257.16
439.646	1253.31
440.021	1297.83
440.395	1282.47
440.77	1297.16
441.145	1290.6
441.52	1289.92
441.895	1319.3
442.27	1331.5
442.645	1341.45
443.019	1354.1
443.394	1353.2
443.769	1380.54
444.143	1364.27
444.518	1377.38
444.892	1404.05
445.267	1412.63
445.641	1398.62
446.016	1431.39
446.39	1441.33
446.764	1396.36
447.139	1414.21
447.513	1458.05
447.887	1435
448.262	1447.43
448.636	1450.37
449.01	1482.01
449.384	1489.69
449.758	1471.39
450.132	1500.54
450.506	1503.48
450.88	1529.47
451.254	1525.4
451.628	1554.32
452.002	1576.7
452.376	1550.48
452.75	1583.02
453.123	1561.1
453.497	1609.46
453.871	1618.95
454.244	1637.26
454.618	1654.89
454.992	1650.14
455.365	1655.56
455.739	1673.19
456.112	1719.52
456.486	1715
456.859	1712.06
457.232	1719.74
457.606	1725.84
457.979	1771.04
458.352	1813.75
458.725	1792.74
459.099	1807.2
459.472	1811.04
459.845	1825.28
460.218	1850.59
460.591	1855.56
460.964	1845.62
461.337	1890.36
461.71	1944.14
462.083	1955.44
462.456	1932.84
462.829	1953.64
463.201	2009.9
463.574	1964.93
463.947	2012.84
464.32	2046.74
464.692	2050.36
465.065	2074.54
465.438	2088.77
465.81	2119.73
466.183	2117.7
466.555	2164.93
466.928	2165.83
467.3	2167.64
467.672	2216
468.045	2243.57
468.417	2267.98
468.789	2256.9
469.161	2283.34
469.534	2289.67
469.906	2316.34
470.278	2350.23
470.65	2378.26
471.022	2402.66
471.394	2463.45
471.766	2425.71
472.138	2483.56
472.51	2530.8
472.882	2518.37
473.253	2554.75
473.625	2570.79
473.997	2627.06
474.369	2639.27
474.74	2643.33
475.112	2703.22
475.484	2719.72
475.855	2770.11
476.227	2752.48
476.598	2822.09
476.97	2865.7
477.341	2924.23
477.713	2952.7
478.084	2906.38
478.455	3024.57
478.827	3009.2
479.198	3037.22
479.569	3060.05
479.94	3134.39
480.311	3166.94
480.682	3195.41
481.053	3276.31
481.424	3308.63
481.795	3333.03
482.166	3373.71
482.537	3382.52
482.908	3425.23
483.279	3473.6
483.65	3517.66
484.021	3535.97
484.391	3635.17
484.762	3628.62
485.133	3628.62
485.503	3688.96
485.874	3711.55
486.244	3765.34
486.615	3799.69
486.985	3846.24
487.356	3913.36
487.726	3908.84
488.097	3975.5
488.467	3999.01
488.837	4065.22
489.207	4093.47
489.578	4142.96
489.948	4196.29
490.318	4214.37
490.688	4176.85
491.058	4275.61
491.428	4300.01
491.798	4323.97
492.168	4384.53
492.538	4385.66
492.908	4467.02
493.278	4501.14
493.648	4495.72
494.017	4584.98
494.387	4569.61
494.757	4615.03
495.126	4661.59
495.496	4651.42
495.866	4613.9
496.235	4648.03
496.605	4749.49
496.974	4732.09
497.344	4815.25
497.713	4773.9
498.082	4857.29
498.452	4876.95
498.821	4870.85
499.19	4916.27
499.559	4922.14
499.928	4958.3
500.298	4954.01
500.667	5078.07
501.036	5007.11
501.405	5092.76
501.774	5048.24
502.143	5036.27
502.512	5064.97
502.88	5082.37
503.249	5100.67
503.618	5131.18
503.987	5125.08
504.356	5184.51
504.724	5162.82
505.093	5209.14
505.462	5232.87
505.83	5193.1
506.199	5263.6
506.567	5344.73
506.936	5311.29
507.304	5368.69
507.672	5330.5
508.041	5373.66
508.409	5388.12
508.777	5386.54
509.145	5421.79
509.514	5436.26
509.882	5451.62
510.25	5455.46
510.618	5488.91
510.986	5519.19
511.354	5486.65
511.722	5604.61
512.09	5553.99
512.458	5558.96
512.826	5576.82
513.193	5648.68
513.561	5665.4
513.929	5684.38
514.297	5703.14
514.664	5735.23
515.032	5736.13
515.4	5777.72
515.767	5770.48
516.135	5750.82
516.502	5730.48
516.869	5789.24
517.237	5838.73
517.604	5796.7
517.972	5804.16
518.339	5845.96
518.706	5846.87
519.073	5809.35
519.44	5879.18
519.808	5941.1
520.175	5902.68
520.542	5992.17
520.909	5927.77
521.276	6006.41
521.643	6036.24
522.009	6040.99
522.376	6050.7
522.743	6072.4
523.11	6170.02
523.477	6139.97
523.843	6145.84
524.21	6159.17
524.577	6215.67
524.943	6269.45
525.31	6248.66
525.676	6310.13
526.043	6354.65
526.409	6386.29
526.776	6387.64
527.142	6393.74
527.508	6408.66
527.874	6490.01
528.241	6447.53
528.607	6490.24
528.973	6499.05
529.339	6480.07
529.705	6593.51
530.071	6573.17
530.437	6613.63
530.803	6648.88
531.169	6642.78
531.535	6599.84
531.901	6677.13
532.267	6686.84
532.632	6678.48
532.998	6716.9
533.364	6788.08
533.73	6768.2
534.095	6823.11
534.461	6799.61
534.826	6847.97
535.192	6885.48
535.557	6851.13
535.923	6864.24
536.288	6886.16
536.653	6938.36
537.019	6885.26
537.384	6875.77
537.749	6851.59
538.114	6994.18
538.479	6959.15
538.845	6969.1
539.21	6967.51
539.575	7036.89
539.94	6989.89
540.305	7021.52
540.67	7019.49
541.034	7060.17
541.399	7112.14
541.764	7080.28
542.129	7147.85
542.494	7120.05
542.858	7109.21
543.223	7198.92
543.587	7187.62
543.952	7214.74
544.316	7187.85
544.681	7137.91
545.045	7196.89
545.41	7271.24
545.774	7212.93
546.138	7268.52
546.503	7281.86
546.867	7306.49
547.231	7275.3
547.595	7336.77
547.959	7304.68
548.324	7381.29
548.688	7369.09
549.052	7340.16
549.416	7394.85
549.779	7360.05
550.143	7376.09
550.507	7446.82
550.871	7481.4
551.235	7434.39
551.599	7469.87
551.962	7476.2
552.326	7488.4
552.689	7526.6
553.053	7464
553.417	7551.68
553.78	7561.85
554.143	7594.16
554.507	7559.82
554.87	7603.43
555.234	7704.22
555.597	7694.95
555.96	7627.38
556.323	7689.08
556.686	7679.13
557.05	7695.41
557.413	7714.16
557.776	7715.97
558.139	7783.09
558.502	7795.97
558.865	7827.83
559.228	7868.73
559.59	7854.27
559.953	7802.52
560.316	7925.46
560.679	7894.72
561.041	7979.47
561.404	7987.15
561.767	8023.31
562.129	8014.72
562.492	8066.24
562.854	8051.33
563.217	8041.16
563.579	8092.46
563.941	8087.94
564.304	8165.9
564.666	8204.09
565.028	8246.35
565.39	8193.02
565.753	8249.97
566.115	8313.02
566.477	8327.48
566.839	8351.21
567.201	8370.64
567.563	8388.95
567.925	8421.94
568.287	8404.09
568.648	8522.95
569.01	8500.36
569.372	8546.91
569.734	8537.87
570.095	8597.3
570.457	8676.4
570.819	8703.51
571.18	8673.46
571.542	8707.13
571.903	8728.82
572.265	8769.05
572.626	8788.48
572.987	8830.74
573.349	8886.56
573.71	8869.61
574.071	8907.12
574.432	8970.4
574.794	9028.93
575.155	8999.33
575.516	9010.85
575.877	9073
576.238	9162.71
576.599	9157.06
576.96	9221.69
577.32	9185.31
577.681	9276.61
578.042	9338.75
578.403	9341.01
578.763	9355.47
579.124	9443.16
579.485	9456.49
579.845	9506.66
580.206	9530.39
580.566	9571.29
580.927	9650.16
581.287	9672.08
581.648	9691.74
582.008	9750.27
582.368	9863.03
582.728	9872.52
583.089	9860.09
583.449	9921.34
583.809	10069.58
584.169	9966.08
584.529	10094.44
584.889	10284.04
585.249	10183.25
585.609	10238.61
585.969	10330.59
586.329	10351.15
586.688	10430.7
587.048	10513.18
587.408	10518.83
587.768	10610.58
588.127	10675.89
588.487	10677.7
588.846	10893.06
589.206	10818.03
589.565	10894.42
589.925	10997.47
590.284	11040.4
590.643	11247.63
591.003	11302.32
591.362	11332.6
591.721	11436.1
592.08	11486.94
592.44	11526.49
592.799	11584.57
593.158	11588.64
593.517	11703.21
593.876	11790.44
594.235	11829.99
594.593	11859.14
594.952	12034.05
595.311	12065.23
595.67	12031.34
596.029	12247.83
596.387	12301.39
596.746	12392
597.104	12317.2
597.463	12435.62
597.822	12523.53
598.18	12448.5
598.538	12574.82
598.897	12710.87
599.255	12607.37
599.613	12875.61
599.972	12846.91
600.33	12940.69
600.688	12909.73
601.046	13022.04
601.404	13092.55
601.762	13130.74
602.12	13246.22
602.478	13304.98
602.836	13341.13
603.194	13329.16
603.552	13350.17
603.91	13311.3
604.268	13453.9
604.625	13410.73
604.983	13542.03
605.341	13500.68
605.698	13596.94
606.056	13720.11
606.413	13667
606.771	13722.82
607.128	13815.02
607.485	13771.63
607.843	13887.56
608.2	13997.61
608.557	14003.04
608.914	14014.79
609.272	14042.13
609.629	14118.96
609.986	14161.45
610.343	14114.9
610.7	14220.43
611.057	14290.94
611.414	14295.23
611.771	14374.78
612.127	14368
612.484	14423.14
612.841	14480.76
613.198	14433.31
613.554	14491.38
613.911	14530.25
614.267	14570.93
614.624	14545.39
614.98	14570.48
615.337	14679.18
615.693	14665.17
616.05	14640.99
616.406	14820.42
616.762	14752.39
617.118	14732.06
617.475	14773.19
617.831	14805.73
618.187	14891.37
618.543	14929.11
618.899	14977.47
619.255	15012.95
619.611	14849.12
619.967	15050.69
620.323	15057.7
620.678	14928.21
621.034	14954.88
621.39	14994.42
621.746	15019.05
622.101	15125.72
622.457	15003.69
622.812	15129.11
623.168	15148.32
623.523	15167.98
623.879	15204.59
624.234	15086.85
624.589	15085.27
624.945	15177.24
625.3	15221.99
625.655	15183.34
626.01	15196.68
626.365	15318.03
626.72	15177.47
627.075	15112.39
627.43	15194.64
627.785	15113.74
628.14	15198.71
628.495	15204.59
628.85	15228.54
629.205	15191.48
629.559	15224.92
629.914	15206.39
630.269	15254.98
630.623	15189.45
630.978	15185.6
631.332	15165.94
631.687	15186.06
632.041	15143.57
632.396	15263.79
632.75	15114.87
633.104	15181.08
633.459	15106.51
633.813	15125.94
634.167	15056.57
634.521	15103.35
634.875	15074.19
635.229	15097.92
635.583	15042.78
635.937	15091.59
636.291	14957.81
636.645	14992.61
636.999	14976.34
637.352	15096.11
637.706	14922.56
638.06	14938.6
638.413	14956.23
638.767	14953.75
639.121	14913.97
639.474	14813.86
639.828	14901.32
640.181	14925.5
640.534	14952.16
640.888	14849.79
641.241	14836.23
641.594	14920.07
641.947	14876.23
642.301	14823.58
642.654	14847.31
643.007	14785.39
643.36	14821.77
643.713	14732.96
644.066	14786.07
644.419	14732.73
644.771	14662.68
645.124	14550.14
645.477	14554.66
645.83	14300.88
646.182	14396.7
646.535	14337.72
646.888	14382.23
647.24	14286.64
647.593	14429.47
647.945	14295.91
648.298	14230.6
648.65	14244.16
649.002	14216.82
649.355	14259.98
649.707	14315.8
650.059	14252.75
650.411	14430.37
650.763	14548.78
651.115	14649.12
651.467	14676.24
651.819	14576.58
652.171	14596.69
652.523	14660.65
652.875	14583.59
653.227	14579.52
653.578	14770.02
653.93	14710.81
654.282	14568.22
654.633	14530.71
654.985	14686.41
655.337	14545.17
655.688	14658.61
656.039	14649.57
656.391	14553.3
656.742	14624.71
657.094	14525.28
657.445	14713.07
657.796	14631.27
658.147	14626.07
658.498	14647.09
658.849	14607.54
659.2	14632.85
659.551	14682.79
659.902	14701.1
660.253	14553.08
660.604	14709.01
660.955	14642.34
661.306	14729.57
661.656	14617.26
662.007	14660.87
662.358	14662
662.708	14604.38
663.059	14711.94
663.409	14684.83
663.76	14756.01
664.11	14688.89
664.461	14762.56
664.811	14633.3
665.161	14679.18
665.511	14674.66
665.862	14751.26
666.212	14789.23
666.562	14814.31
666.912	14678.95
667.262	14725.5
667.612	14738.61
667.962	14784.94
668.312	14632.85
668.662	14854.76
669.011	14741.55
669.361	14741.77
669.711	14686.18
670.06	14661.55
670.41	14586.07
670.76	14671.27
671.109	14733.41
671.459	14698.16
671.808	14645.05
672.157	14697.48
672.507	14556.24
672.856	14541.33
673.205	14657.93
673.554	14639.18
673.904	14537.71
674.253	14646.41
674.602	14659.52
674.951	14448.9
675.3	14357.83
675.649	14528.67
675.998	14606.64
676.346	14512.17
676.695	14551.5
677.044	14363.48
677.393	14486.41
677.741	14592.62
678.09	14440.99
678.438	14341.78
678.787	14543.81
679.135	14482.8
679.484	14318.73
679.832	14376.81
680.181	14225.63
680.529	14313.08
680.877	14257.94
681.225	14290.94
681.573	14295.23
681.922	14261.11
682.27	14220.21
682.618	14151.28
682.966	14136.37
683.314	14244.39
683.661	14091.85
684.009	14051.4
684.357	13932.08
684.705	14061.11
685.053	14072.86
685.4	14032.64
685.748	13882.81
686.095	13912.42
686.443	13845.98
686.79	13771.63
687.138	13865.86
687.485	13772.99
687.832	13715.36
688.18	13802.82
688.527	13645.31
688.874	13688.47
689.221	13611.63
689.568	13532.31
689.915	13557.85
690.262	13510.39
690.609	13429.72
690.956	13463.84
691.303	13410.06
691.65	13297.29
691.997	13346.56
692.344	13224.98
692.69	13268.14
693.037	13203.51
693.383	13053
693.73	13164.41
694.077	13081.7
694.423	13158.99
694.769	13081.25
695.116	12951.31
695.462	12949.96
695.808	12905.66
696.155	12957.64
696.501	12825.21
696.847	12774.82
697.193	12658.66
697.539	12801.03
697.885	12641.04
698.231	12559.23
698.577	12537.99
698.923	12547.93
699.269	12432.23
699.614	12339.35
699.96	12313.14
700.306	12333.48
700.651	12287.37
700.997	12178
701.342	12167.15
701.688	12173.03
702.033	12152.69
702.379	12119.47
702.724	12068.62
703.069	12065.46
703.415	11901.4
703.76	11881.74
704.105	11940.94
704.45	11898.68
704.795	11877.44
705.14	11781.17
705.485	11752.02
705.83	11670.67
706.175	11718.58
706.52	11593.38
706.865	11693.72
707.209	11605.36
707.554	11543.89
707.899	11570.56
708.243	11514.74
708.588	11474.97
708.932	11414.86
709.277	11315.42
709.621	11390.9
709.966	11327.4
710.31	11288.76
710.654	11162.21
710.998	11247.85
711.342	11147.52
711.687	11137.12
712.031	11125.15
712.375	11059.38
712.719	11053.51
713.063	11077.01
713.407	11157.46
713.75	11006.5
714.094	11029.78
714.438	10956.11
714.782	11020.52
715.125	10924.7
715.469	10922.89
715.812	10900.74
716.156	10766.96
716.499	10847.41
716.843	10858.03
717.186	10788.43
717.53	10855.55
717.873	10845.83
718.216	10781.2
718.559	10794.76
718.902	10720.41
719.246	10703.24
719.589	10714.08
719.932	10681.77
720.275	10705.72
720.617	10628.66
720.96	10653.75
721.303	10642.45
721.646	10613.29
721.989	10588.44
722.331	10656.91
722.674	10564.48
723.016	10554.09
723.359	10532.17
723.701	10592.73
724.044	10576.91
724.386	10459.17
724.729	10560.41
725.071	10474.77
725.413	10491.49
725.755	10484.71
726.097	10421.66
726.439	10416.24
726.782	10388.67
727.124	10467.31
727.465	10414.43
727.807	10409.91
728.149	10333.3
728.491	10343.7
728.833	10416.01
729.175	10310.7
729.516	10370.59
729.858	10311.61
730.199	10355
730.541	10362.23
730.882	10276.35
731.224	10343.47
731.565	10296.92
731.906	10304.15
732.248	10382.34
732.589	10299.86
732.93	10331.72
733.271	10332.17
733.612	10359.74
733.953	10432.96
734.294	10305.51
734.635	10300.31
734.976	10310.7
735.317	10304.83
735.658	10248.11
735.999	10280.65
736.339	10282.46
736.68	10343.7
737.021	10331.72
737.361	10276.35
737.702	10309.8
738.042	10381.89
738.383	10365.84
738.723	10300.99
739.063	10317.71
739.404	10361.1
739.744	10345.5
740.084	10352.06
740.424	10392.51
740.764	10411.04
741.104	10382.34
741.444	10411.94
741.784	10405.62
742.124	10489.91
742.464	10455.11
742.804	10469.12
743.143	10498.04
743.483	10490.81
743.823	10432.51
744.162	10488.1
744.502	10571.49
744.841	10595.22
745.181	10609
745.52	10547.08
745.86	10646.97
746.199	10711.82
746.538	10736
746.877	10799.5
747.216	10860.97
747.556	10853.97
747.895	10932.83
748.234	10941.2
748.573	11024.36
748.911	11062.32
749.25	11174.86
749.589	11182.09
749.928	11290.34
750.267	11462.09
750.605	11460.5
750.944	11461.86
751.283	11468.64
751.621	11681.97
751.96	11712.93
752.298	11813.49
752.636	11901.4
752.975	11967.61
753.313	12053.71
753.651	12250.77
753.989	12261.39
754.327	12389.07
754.666	12490.53
755.004	12575.95
755.342	12729.17
755.679	12878.09
756.017	12983.63
756.355	13071.53
756.693	13209.61
757.031	13390.4
757.368	13468.36
757.706	13508.13
758.044	13629.49
758.381	13762.14
758.719	13991.74
759.056	14136.14
759.394	14293.65
759.731	14387.88
760.068	14463.14
