Data from hue_130_FLMS001491_00086.txt Node
Date: Tue Feb 07 16:58:13 GMT 2017
User: dcchb
Spectrometer: FLMS00149
Trigger mode: 0
Integration Time (sec): 2.000000E-2
Scans to average: 10
Electric dark correction enabled: true
Nonlinearity correction enabled: false
Boxcar width: 0
XAxis mode: Wavelengths
Number of Pixels in Spectrum: 2048
>>>>>Begin Spectral Data<<<<<
341.393	-20.45
341.776	-20.45
342.16	-20.45
342.543	-43.05
342.927	-61.35
343.31	-78.08
343.693	-79.88
344.077	-84.63
344.46	-61.81
344.843	-50.28
345.226	-25.42
345.61	-32.88
345.993	-24.07
346.376	-6.67
346.759	13.22
347.142	22.49
347.525	51.19
347.908	69.04
348.291	70.39
348.674	100.45
349.057	116.95
349.44	107.91
349.823	117.62
350.206	146.32
350.588	198.3
350.971	214.34
351.354	220.45
351.737	250.73
352.119	252.99
352.502	267
352.884	279.43
353.267	278.75
353.65	292.99
354.032	294.34
354.414	296.6
354.797	306.32
355.179	317.84
355.562	307.9
355.944	308.81
356.326	314.46
356.709	338.18
357.091	334.57
357.473	329.6
357.855	344.06
358.238	326.43
358.62	340.44
359.002	322.82
359.384	324.17
359.766	314.23
360.148	336.83
360.53	338.41
360.912	335.02
361.294	337.51
361.676	342.25
362.057	308.13
362.439	339.09
362.821	350.61
363.203	328.01
363.584	333.66
363.966	337.28
364.348	320.78
364.729	319.88
365.111	333.66
365.493	336.83
365.874	322.14
366.256	300.67
366.637	312.87
367.019	302.03
367.4	339.99
367.781	308.81
368.163	327.79
368.544	325.08
368.925	306.77
369.306	300.67
369.688	303.61
370.069	319.88
370.45	307.22
370.831	320.78
371.212	322.59
371.593	314.23
371.974	316.94
372.355	323.49
372.736	325.98
373.117	307.22
373.498	325.08
373.879	325.3
374.26	318.3
374.641	316.94
375.021	303.38
375.402	301.35
375.783	320.56
376.163	316.49
376.544	325.08
376.925	335.92
377.305	326.21
377.686	327.79
378.066	331.18
378.447	292.99
378.827	324.85
379.208	323.27
379.588	311.97
379.968	359.2
380.349	331.18
380.729	338.64
381.109	328.24
381.489	326.21
381.87	338.86
382.25	336.6
382.63	328.01
383.01	335.02
383.39	338.41
383.77	350.16
384.15	344.51
384.53	351.29
384.91	341.12
385.29	348.13
385.67	371.4
386.049	348.13
386.429	344.74
386.809	346.09
387.189	352.87
387.568	360.56
387.948	360.78
388.328	347.67
388.707	359.65
389.087	354
389.466	350.16
389.846	346.32
390.225	358.3
390.605	358.75
390.984	372.98
391.363	349.71
391.743	371.18
392.122	347.22
392.501	369.82
392.881	384.96
393.26	381.12
393.639	383.83
394.018	382.7
394.397	400.33
394.776	385.41
395.155	377.96
395.534	381.35
395.913	366.21
396.292	379.99
396.671	394.9
397.05	367.56
397.429	397.84
397.808	389.48
398.186	398.52
398.565	412.08
398.944	392.42
399.323	393.77
399.701	376.6
400.08	403.94
400.458	407.33
400.837	390.84
401.215	388.58
401.594	391.97
401.972	396.94
402.351	393.32
402.729	409.37
403.107	410.72
403.486	403.94
403.864	420.44
404.242	412.53
404.62	436.94
404.999	415.47
405.377	405.07
405.755	423.38
406.133	434.45
406.511	436.94
406.889	439.65
407.267	445.07
407.645	454.56
408.023	438.29
408.401	459.99
408.779	432.64
409.156	447.33
409.534	459.31
409.912	447.56
410.29	469.03
410.667	471.29
411.045	463.15
411.422	479.87
411.8	479.87
412.178	475.81
412.555	478.29
412.933	483.26
413.31	487.33
413.687	490.72
414.065	461.12
414.442	477.39
414.819	507.44
415.197	497.73
415.574	497.5
415.951	498.63
416.328	518.07
416.705	496.37
417.082	502.92
417.46	523.49
417.837	531.4
418.214	518.97
418.591	519.87
418.967	518.74
419.344	514.22
419.721	543.38
420.098	527.56
420.475	546.99
420.852	557.61
421.228	528.69
421.605	556.71
421.982	556.71
422.358	564.62
422.735	556.48
423.111	555.13
423.488	567.33
423.864	573.43
424.241	583.83
424.617	568.23
424.994	591.96
425.37	602.81
425.746	587.67
426.123	594.22
426.499	614.11
426.875	606.2
427.251	630.15
427.627	632.64
428.003	625.18
428.379	621.79
428.756	615.92
429.132	636.71
429.507	631.73
429.883	650.27
430.259	637.84
430.635	649.81
431.011	655.69
431.387	649.36
431.763	669.47
432.138	686.87
432.514	678.29
432.89	666.31
433.265	689.36
433.641	695.69
434.016	710.6
434.392	701.56
434.767	712.86
435.143	725.52
435.518	732.98
435.894	735.91
436.269	717.83
436.644	744.27
437.02	764.39
437.395	737.49
437.77	755.8
438.145	767.55
438.52	782.69
438.895	788.79
439.271	762.58
439.646	806.65
440.021	787.66
440.395	808.68
440.77	813.65
441.145	807.32
441.52	797.15
441.895	813.88
442.27	842.58
442.645	810.94
443.019	845.74
443.394	821.79
443.769	851.84
444.143	829.47
444.518	850.71
444.892	848
445.267	858.85
445.641	866.3
446.016	875.34
446.39	879.64
446.764	901.33
447.139	890.49
447.513	888.68
447.887	903.14
448.262	901.56
448.636	892.74
449.01	918.28
449.384	916.47
449.758	941.78
450.132	945.4
450.506	928.9
450.88	929.13
451.254	953.08
451.628	987.66
452.002	971.16
452.376	989.01
452.75	988.11
453.123	1007.77
453.497	985.4
453.871	1001.44
454.244	1030.37
454.618	1031.5
454.992	1073.76
455.365	1035.34
455.739	1094.77
456.112	1097.94
456.486	1099.97
456.859	1087.54
457.232	1116.69
457.606	1097.94
457.979	1127.99
458.352	1150.37
458.725	1182.23
459.099	1164.83
459.472	1210.02
459.845	1241.21
460.218	1219.52
460.591	1233.3
460.964	1234.88
461.337	1256.58
461.71	1304.49
462.083	1283.02
462.456	1356.91
462.829	1312.17
463.201	1324.37
463.574	1343.35
463.947	1365.5
464.32	1420.41
464.692	1425.61
465.065	1422
465.438	1432.62
465.81	1449.79
466.183	1503.12
466.555	1518.04
466.928	1518.94
467.3	1533.86
467.672	1576.12
468.045	1612.95
468.417	1619.96
468.789	1656.34
469.161	1699.5
469.534	1680.07
469.906	1728.66
470.278	1779.73
470.65	1784.92
471.022	1832.38
471.394	1879.61
471.766	1904.7
472.138	1930.46
472.51	2015.2
472.882	2007.74
473.253	2057.46
473.625	2093.62
473.997	2115.54
474.369	2145.37
474.74	2204.35
475.112	2253.16
475.484	2325.02
475.855	2374.51
476.227	2391.46
476.598	2484.79
476.97	2555.3
477.341	2592.81
477.713	2646.37
478.084	2691.12
478.455	2782.19
478.827	2818.12
479.198	2966.14
479.569	3013.37
479.94	3103.31
480.311	3172.01
480.682	3288.61
481.053	3331.1
481.424	3489.29
481.795	3501.26
482.166	3613.35
482.537	3700.58
482.908	3822.39
483.279	3909.84
483.65	4035.04
484.021	4147.12
484.391	4258.08
484.762	4293.56
485.133	4399.55
485.503	4534.91
485.874	4737.84
486.244	4783.04
486.615	4942.36
486.985	5006.54
487.356	5189.36
487.726	5274.32
488.097	5465.28
488.467	5567.2
488.837	5683.13
489.207	5839.51
489.578	5987.3
489.948	6073.4
490.318	6270
490.688	6338.25
491.058	6485.14
491.428	6668.86
491.798	6713.61
492.168	6948.86
492.538	7066.82
492.908	7212.13
493.278	7369.64
493.648	7378.22
494.017	7546.58
494.387	7734.82
494.757	7876.74
495.126	8015.95
495.496	8090.75
495.866	8175.94
496.235	8370.97
496.605	8457.29
496.974	8608.93
497.344	8717.17
497.713	8844.85
498.082	8967.33
498.452	9150.38
498.821	9208.23
499.19	9242.36
499.559	9387.21
499.928	9445.97
500.298	9581.78
500.667	9728.44
501.036	9796.47
501.405	9871.04
501.774	9996.69
502.143	10127.3
502.512	10168.43
502.88	10366.39
503.249	10277.13
503.618	10447.52
503.987	10550.34
504.356	10598.03
504.724	10695.88
505.093	10749.66
505.462	10868.53
505.83	10908.07
506.199	10997.79
506.567	11130.89
506.936	11193.94
507.304	11332.02
507.672	11398.23
508.041	11451.11
508.409	11531.56
508.777	11656.3
509.145	11679.13
509.514	11732.23
509.882	11794.83
510.25	11786.02
510.618	11971.32
510.986	12002.06
511.354	12023.98
511.722	12167.25
512.09	12262.84
512.458	12280.02
512.826	12281.15
513.193	12350.07
513.561	12400.01
513.929	12402.27
514.297	12553
514.664	12617.86
515.032	12657.18
515.4	12787.35
515.767	12682.04
516.135	12842.26
516.502	12689.72
516.869	12881.58
517.237	12847.91
517.604	12839.1
517.972	12986.21
518.339	13035.93
518.706	12964.29
519.073	13084.74
519.44	13091.52
519.808	13226.21
520.175	13159.99
520.542	13281.8
520.909	13303.72
521.276	13258.07
521.643	13382.59
522.009	13423.49
522.376	13482.7
522.743	13525.18
523.11	13553.2
523.477	13657.83
523.843	13697.38
524.21	13796.13
524.577	13851.5
524.943	13801.56
525.31	13790.71
525.676	13942.57
526.043	13873.42
526.409	13976.69
526.776	14001.1
527.142	14017.37
527.508	13966.75
527.874	14079.06
528.241	14096.69
528.607	14059.86
528.973	14113.87
529.339	14144.83
529.705	14236.12
530.071	14183.24
530.437	14134.88
530.803	14225.05
531.169	14242.45
531.535	14186.18
531.901	14199.97
532.267	14145.96
532.632	14182.11
532.998	14200.64
533.364	14155.67
533.73	14187.08
534.095	14258.72
534.461	14173.07
534.826	14178.5
535.192	14152.28
535.557	14224.37
535.923	14169.46
536.288	14188.89
536.653	14170.14
537.019	14124.04
537.384	14111.15
537.749	14021.44
538.114	14054.21
538.479	14008.78
538.845	14044.26
539.21	13808.11
539.575	13957.03
539.94	13880.2
540.305	13901.44
540.67	13868.67
541.034	13812.41
541.399	13923.14
541.764	13858.28
542.129	13768.56
542.494	13761.33
542.858	13744.38
543.223	13713.42
543.587	13718.4
543.952	13682.47
544.316	13644.5
544.681	13606.99
545.045	13636.14
545.41	13646.31
545.774	13626.42
546.138	13570.6
546.503	13552.53
546.867	13408.35
547.231	13460.32
547.595	13524.05
547.959	13418.97
548.324	13460.32
548.688	13328.35
549.052	13400.89
549.416	13335.81
549.779	13264.85
550.143	13279.31
550.507	13229.14
550.871	13217.84
551.235	13146.43
551.599	13140.56
551.962	13127.9
552.326	13100.56
552.689	13145.76
553.053	13086.55
553.417	13071.41
553.78	13161.35
554.143	13076.38
554.507	13028.25
554.87	12977.17
555.234	13117.51
555.597	12987.79
555.96	13005.19
556.323	12928.13
556.686	12927.68
557.05	12978.3
557.413	12915.71
557.776	12911.19
558.139	12931.75
558.502	12895.14
558.865	12897.4
559.228	12948.47
559.59	12989.6
559.953	12933.11
560.316	13027.79
560.679	12927.46
561.041	12904.41
561.404	12924.29
561.767	12972.2
562.129	12964.52
562.492	13020.11
562.854	12982.6
563.217	13009.04
563.579	12953.22
563.941	13046.55
564.304	13027.57
564.666	13023.05
565.028	13095.14
565.39	13091.97
565.753	13113.21
566.115	13114.8
566.477	13127.23
566.839	13145.76
567.201	13141.91
567.563	13184.4
567.925	13285.19
568.287	13173.33
568.648	13207.22
569.01	13219.88
569.372	13287.9
569.734	13167.22
570.095	13332.19
570.457	13357.5
570.819	13314.11
571.18	13267.79
571.542	13359.31
571.903	13378.52
572.265	13384.62
572.626	13374.9
572.987	13324.73
573.349	13447.67
573.71	13379.42
574.071	13436.82
574.432	13426.2
574.794	13445.18
575.155	13443.38
575.516	13329.71
575.877	13398.4
576.238	13419.2
576.599	13510.49
576.96	13498.29
577.32	13456.71
577.681	13479.31
578.042	13499.19
578.403	13553.65
578.763	13522.47
579.124	13543.03
579.485	13607.89
579.845	13534.45
580.206	13453.54
580.566	13547.1
580.927	13508.91
581.287	13590.04
581.648	13480.89
582.008	13603.82
582.368	13522.7
582.728	13532.64
583.089	13480.21
583.449	13497.84
583.809	13456.71
584.169	13526.31
584.529	13426.65
584.889	13538.74
585.249	13446.09
585.609	13388.24
585.969	13504.39
586.329	13486.54
586.688	13446.31
587.048	13476.37
587.408	13431.62
587.768	13453.54
588.127	13405.86
588.487	13362.7
588.846	13455.35
589.206	13308.24
589.565	13319.31
589.925	13399.08
590.284	13348.01
590.643	13374.9
591.003	13384.39
591.362	13405.86
591.721	13338.97
592.08	13307.79
592.44	13387.11
592.799	13394.34
593.158	13323.38
593.517	13376.03
593.876	13237.73
594.235	13328.35
594.593	13298.97
594.952	13255.36
595.311	13280.44
595.67	13283.83
596.029	13357.5
596.387	13371.74
596.746	13338.97
597.104	13187.11
597.463	13262.14
597.822	13225.3
598.18	13179.43
598.538	13200.22
598.897	13232.08
599.255	13223.72
599.613	13406.99
599.972	13208.58
600.33	13304.4
600.688	13118.19
601.046	13246.54
601.404	13253.32
601.762	13189.14
602.12	13381
602.478	13284.06
602.836	13378.74
603.194	13232.76
603.552	13300.33
603.91	13247.22
604.268	13295.58
604.625	13214.23
604.983	13216.94
605.341	13169.26
605.698	13258.3
606.056	13321.8
606.413	13350.72
606.771	13301.46
607.128	13282.93
607.485	13215.36
607.843	13213.32
608.2	13308.46
608.557	13305.98
608.914	13282.02
609.272	13356.6
609.629	13291.51
609.986	13325.19
610.343	13382.36
610.7	13438.63
611.057	13381
611.414	13391.85
611.771	13345.3
612.127	13400.89
612.484	13433.66
612.841	13407.67
613.198	13402.92
613.554	13408.8
613.911	13512.98
614.267	13444.05
614.624	13476.14
614.98	13485.86
615.337	13559.3
615.693	13522.92
616.05	13512.3
616.406	13541.23
616.762	13558.17
617.118	13517.72
617.475	13471.85
617.831	13637.49
618.187	13555.91
618.543	13636.14
618.899	13646.99
619.255	13635.91
619.611	13639.3
619.967	13658.96
620.323	13701.22
620.678	13664.84
621.034	13638.4
621.39	13586.65
621.746	13571.28
622.101	13749.36
622.457	13630.94
622.812	13707.32
623.168	13651.73
623.523	13666.87
623.879	13733.76
624.234	13664.39
624.589	13673.43
624.945	13762.91
625.3	13703.48
625.655	13627.55
626.01	13656.93
626.365	13637.49
626.72	13628.68
627.075	13636.36
627.43	13597.04
627.785	13620.77
628.14	13642.92
628.495	13674.56
628.85	13587.78
629.205	13486.99
629.559	13545.07
629.914	13567.44
630.269	13588.46
630.623	13507.1
630.978	13501.68
631.332	13647.89
631.687	13597.27
632.041	13479.08
632.396	13570.6
632.75	13466.2
633.104	13507.33
633.459	13395.24
633.813	13481.11
634.167	13434.79
634.521	13458.52
634.875	13458.52
635.229	13430.49
635.583	13358.18
635.937	13319.76
636.291	13303.94
636.645	13279.76
636.999	13313.21
637.352	13394.79
637.706	13213.32
638.06	13281.8
638.413	13230.5
638.767	13236.15
639.121	13218.07
639.474	13143.04
639.828	13155.02
640.181	13290.16
640.534	13191.63
640.888	13149.82
641.241	13060.56
641.594	13119.77
641.947	13177.85
642.301	13068.7
642.654	13147.34
643.007	13088.81
643.36	13077.74
643.713	13019.88
644.066	13133.78
644.419	13056.72
644.771	12968.59
645.124	12771.75
645.477	12796.61
645.83	12751.19
646.182	12661.25
646.535	12704.19
646.888	12633.45
647.24	12658.99
647.593	12702.83
647.945	12662.15
648.298	12632.32
648.65	12588.03
649.002	12598.2
649.355	12629.84
649.707	12570.18
650.059	12676.39
650.411	12823.73
650.763	12748.25
651.115	12971.98
651.467	12858.53
651.819	12864.63
652.171	12978.08
652.523	12911.64
652.875	12772.21
653.227	12840.68
653.578	12943.95
653.93	12943.73
654.282	12912.09
654.633	12819.89
654.985	12744.18
655.337	12872.09
655.688	12896.72
656.039	12948.02
656.391	12854.92
656.742	12832.09
657.094	12807.23
657.445	12938.76
657.796	12915.03
658.147	12809.27
658.498	12920
658.849	12870.74
659.2	12862.15
659.551	12864.18
659.902	12825.31
660.253	12894.46
660.604	12862.37
660.955	12804.75
661.306	12883.62
661.656	12920.68
662.007	12928.59
662.358	12907.57
662.708	12960
663.059	12905.76
663.409	12930.85
663.76	12916.84
664.11	12975.14
664.461	12957.06
664.811	12894.01
665.161	12926.55
665.511	12888.59
665.862	12912.99
666.212	12938.76
666.562	13022.6
666.912	12943.95
667.262	12888.14
667.612	12960
667.962	12885.42
668.312	13019.43
668.662	12983.05
669.011	12901.02
669.361	12958.87
669.711	12869.83
670.06	12874.35
670.41	12887.46
670.76	12791.87
671.109	12941.47
671.459	12823.05
671.808	12851.98
672.157	12810.17
672.507	12688.37
672.856	12746.22
673.205	12728.14
673.554	12772.21
673.904	12766.33
674.253	12777.86
674.602	12840.68
674.951	12581.48
675.3	12569.5
675.649	12729.95
675.998	12781.02
676.346	12666.9
676.695	12741.25
677.044	12675.03
677.393	12634.13
677.741	12739.21
678.09	12619.89
678.438	12618.31
678.787	12668.03
679.135	12634.13
679.484	12610.4
679.832	12620.12
680.181	12516.39
680.529	12639.33
680.877	12508.48
681.225	12561.36
681.573	12553.68
681.922	12411.54
682.27	12450.63
682.618	12434.14
682.966	12349.62
683.314	12358.66
683.661	12451.99
684.009	12347.13
684.357	12293.12
684.705	12310.52
685.053	12269.85
685.4	12232.79
685.748	12116.4
686.095	12154.37
686.443	12048.84
686.79	12079.12
687.138	12122.05
687.485	12089.29
687.832	12113.47
688.18	12073.02
688.527	11942.85
688.874	12005.9
689.221	11930.42
689.568	11880.25
689.915	11876.41
690.262	11858.56
690.609	11750.31
690.956	11853.13
691.303	11779.92
691.65	11644.33
691.997	11677.55
692.344	11567.27
692.69	11489.53
693.037	11508.74
693.383	11474.39
693.73	11463.99
694.077	11472.81
694.423	11431
694.769	11355.52
695.116	11313.49
695.462	11302.41
695.808	11294.05
696.155	11273.04
696.501	11107.17
696.847	11106.94
697.193	11029.65
697.539	11068.07
697.885	11005.02
698.231	11008.41
698.577	10871.01
698.923	10873.95
699.269	10888.19
699.614	10811.35
699.96	10791.47
700.306	10824.91
700.651	10770.23
700.997	10658.59
701.342	10634.64
701.688	10672.15
702.033	10656.1
702.379	10570.68
702.724	10493.62
703.069	10622.88
703.415	10373.63
703.76	10418.14
704.105	10454.53
704.45	10431.93
704.795	10336.79
705.14	10251.82
705.485	10201.65
705.83	10217.7
706.175	10231.26
706.52	10108.32
706.865	10120.07
707.209	10069
707.554	10099.06
707.899	10072.16
708.243	10007.53
708.588	10006.63
708.932	9925.73
709.277	9896.8
709.621	9923.69
709.966	9874.88
710.31	9827.2
710.654	9836.92
710.998	9756.69
711.342	9821.32
711.687	9723.02
712.031	9727.31
712.375	9723.7
712.719	9719.86
713.063	9624.04
713.407	9697.26
713.75	9611.84
714.094	9622.68
714.438	9563.25
714.782	9598.5
715.125	9557.15
715.469	9574.55
715.812	9525.74
716.156	9464.04
716.499	9481.45
716.843	9447.1
717.186	9430.15
717.53	9481.22
717.873	9468.79
718.216	9432.18
718.559	9473.08
718.902	9288.91
719.246	9345.86
719.589	9309.25
719.932	9312.86
720.275	9297.04
720.617	9289.59
720.96	9337.95
721.303	9265.41
721.646	9350.83
721.989	9265.18
722.331	9266.54
722.674	9243.26
723.016	9280.77
723.359	9253.65
723.701	9228.8
724.044	9177.27
724.386	9142.92
724.729	9269.47
725.071	9143.6
725.413	9127.56
725.755	9167.56
726.097	9063.83
726.439	9064.73
726.782	9060.21
727.124	9133.66
727.465	9067.9
727.807	9062.02
728.149	9088.01
728.491	8998.52
728.833	9095.02
729.175	9024.28
729.516	9078.29
729.858	9057.28
730.199	9129.82
730.541	9068.12
730.882	9020.21
731.224	9088.24
731.565	8998.29
731.906	9048.46
732.248	8991.06
732.589	9024.73
732.93	9057.95
733.271	8979.09
733.612	9003.49
733.953	9062.02
734.294	8951.97
734.635	8972.31
734.976	9056.15
735.317	9005.53
735.658	8933.21
735.999	9017.5
736.339	9023.6
736.68	9075.13
737.021	8995.36
737.361	8970.5
737.702	9104.73
738.042	9004.85
738.383	9014.57
738.723	8987.9
739.063	9036.94
739.404	9099.31
739.744	9120.33
740.084	8998.97
740.424	9072.42
740.764	9090.27
741.104	9189.48
741.444	9137.5
741.784	9126.2
742.124	9168.23
742.464	9152.87
742.804	9139.99
743.143	9154
743.483	9227.22
743.823	9191.28
744.162	9287.1
744.502	9333.65
744.841	9301.34
745.181	9341.11
745.52	9356.25
745.86	9356.93
746.199	9377.72
746.538	9413.65
746.877	9531.84
747.216	9590.82
747.556	9563.25
747.895	9577.94
748.234	9659.75
748.573	9735.68
748.911	9711.04
749.25	9860.42
749.589	9855.22
749.928	9942.9
750.267	10002.34
750.605	10066.51
750.944	10211.14
751.283	10197.58
751.621	10271.26
751.96	10323.68
752.298	10463.79
752.636	10605.26
752.975	10636.67
753.313	10665.6
753.651	10873.5
753.989	10886.61
754.327	11036.21
754.666	11083.44
755.004	11231.46
755.342	11392.81
755.679	11530.88
756.017	11607.72
756.355	11772.68
756.693	11849.29
757.031	12000.93
757.368	12060.36
757.706	12217.64
758.044	12372.44
758.381	12580.8
758.719	12679.55
759.056	12873.9
