Data from hue_20_FLMS001491_51.txt Node
Date: Mon Feb 06 15:34:18 GMT 2017
User: dcchb
Spectrometer: FLMS00149
Trigger mode: 0
Integration Time (sec): 2.000000E-2
Scans to average: 10
Electric dark correction enabled: true
Nonlinearity correction enabled: false
Boxcar width: 0
XAxis mode: Wavelengths
Number of Pixels in Spectrum: 2048
>>>>>Begin Spectral Data<<<<<
341.393	-18.45
341.776	-18.45
342.16	-18.45
342.543	-57.54
342.927	-45.11
343.31	-88.95
343.693	-81.72
344.077	-70.65
344.46	-67.71
344.843	-46.92
345.226	-31.1
345.61	-26.81
345.993	-27.03
346.376	-3.53
346.759	3.25
347.142	32.4
347.525	47.99
347.908	61.78
348.291	75.56
348.674	108.33
349.057	115.11
349.44	125.28
349.823	158.5
350.206	163.02
350.588	180.19
350.971	194.88
351.354	220.64
351.737	237.59
352.119	261.77
352.502	273.52
352.884	262.45
353.267	288.21
353.65	304.71
354.032	288.89
354.414	310.36
354.797	306.29
355.179	322.79
355.562	310.13
355.944	341.54
356.326	360.3
356.709	327.31
357.091	333.18
357.473	337.93
357.855	344.71
358.238	327.99
358.62	330.7
359.002	344.03
359.384	323.24
359.766	337.25
360.148	343.8
360.53	350.13
360.912	329.34
361.294	356.91
361.676	344.48
362.057	331.6
362.439	338.15
362.821	335.67
363.203	318.27
363.584	351.04
363.966	316.91
364.348	329.34
364.729	330.25
365.111	335.22
365.493	326.86
365.874	334.09
366.256	324.6
366.637	328.21
367.019	327.53
367.4	302
367.781	311.94
368.163	335.44
368.544	289.34
368.925	320.08
369.306	334.54
369.688	313.52
370.069	324.6
370.45	317.59
370.831	316.91
371.212	307.42
371.593	309.23
371.974	305.16
372.355	320.53
372.736	304.26
373.117	325.73
373.498	332.28
373.879	341.77
374.26	311.04
374.641	320.08
375.021	323.01
375.402	316.46
375.783	331.6
376.163	345.61
376.544	345.84
376.925	328.44
377.305	321.21
377.686	340.64
378.066	350.36
378.447	356.46
378.827	320.53
379.208	341.77
379.588	326.18
379.968	340.87
380.349	335.67
380.729	336.12
381.109	350.13
381.489	325.95
381.87	341.09
382.25	351.04
382.63	337.25
383.01	343.35
383.39	342.67
383.77	337.48
384.15	333.18
384.53	351.94
384.91	369.11
385.29	359.17
385.67	342.45
386.049	364.82
386.429	354.43
386.809	387.65
387.189	358.95
387.568	374.54
387.948	355.56
388.328	362.34
388.707	347.19
389.087	374.99
389.466	360.3
389.846	367.98
390.225	382.22
390.605	375.89
390.984	370.92
391.363	387.19
391.743	381.09
392.122	376.12
392.501	383.8
392.881	403.24
393.26	409.79
393.639	381.54
394.018	397.14
394.397	387.42
394.776	394.2
395.155	390.36
395.534	401.2
395.913	374.76
396.292	410.7
396.671	382.9
397.05	400.98
397.429	406.18
397.808	388.78
398.186	402.56
398.565	400.75
398.944	382
399.323	401.43
399.701	404.82
400.08	424.93
400.458	415.44
400.837	415.89
401.215	417.93
401.594	424.93
401.972	412.5
402.351	423.12
402.729	432.62
403.107	424.25
403.486	428.32
403.864	436.68
404.242	427.87
404.62	433.75
404.999	439.85
405.377	448.66
405.755	436.91
406.133	445.5
406.511	448.43
406.889	443.69
407.267	469.45
407.645	458.83
408.023	444.14
408.401	444.14
408.779	440.07
409.156	476.91
409.534	476
409.912	469.45
410.29	484.59
410.667	483.69
411.045	493.86
411.422	470.81
411.8	471.03
412.178	487.98
412.555	503.8
412.933	519.17
413.31	496.12
413.687	490.24
414.065	512.84
414.442	532.5
414.819	513.97
415.197	515.1
415.574	532.73
415.951	522.33
416.328	538.15
416.705	525.04
417.082	509.9
417.46	540.18
417.837	541.99
418.214	564.36
418.591	550.8
418.967	531.82
419.344	550.8
419.721	550.13
420.098	557.13
420.475	559.39
420.852	583.8
421.228	572.73
421.605	540.41
421.982	566.62
422.358	581.99
422.735	595.32
423.111	590.35
423.488	572.5
423.864	585.38
424.241	611.14
424.617	595.55
424.994	586.51
425.37	593.52
425.746	612.95
426.123	592.61
426.499	628.32
426.875	596.68
427.251	621.54
427.627	603.23
428.003	635.1
428.379	637.58
428.756	629.45
429.132	629.22
429.507	663.57
429.883	650.24
430.259	653.85
430.635	672.16
431.011	668.09
431.387	694.3
431.763	683.68
432.138	712.16
432.514	707.18
432.89	704.92
433.265	701.54
433.641	720.29
434.016	729.11
434.392	739.05
434.767	755.09
435.143	743.79
435.518	755.55
435.894	753.06
436.269	758.71
436.644	771.59
437.02	757.35
437.395	775.43
437.77	782.89
438.145	797.13
438.52	797.35
438.895	815.2
439.271	827.63
439.646	828.54
440.021	820.85
440.395	831.25
440.77	812.72
441.145	835.09
441.52	853.85
441.895	868.08
442.27	829.44
442.645	837.35
443.019	872.15
443.394	830.35
443.769	877.8
444.143	871.93
444.518	875.32
444.892	885.49
445.267	893.62
445.641	900.17
446.016	885.71
446.39	891.13
446.764	877.8
447.139	904.47
447.513	920.29
447.887	921.87
448.262	924.35
448.636	942.21
449.01	934.52
449.384	927.07
449.758	940.85
450.132	949.21
450.506	955.99
450.88	969.1
451.254	959.38
451.628	980.17
452.002	974.07
452.376	1006.16
452.75	1001.19
453.123	1001.41
453.497	1004.58
453.871	1032.6
454.244	1035.99
454.618	1058.14
454.992	1082.99
455.365	1054.07
455.739	1066.72
456.112	1107.85
456.486	1120.28
456.859	1093.84
457.232	1116.67
457.606	1096.78
457.979	1141.07
458.352	1134.97
458.725	1162.31
459.099	1152.6
459.472	1187.85
459.845	1205.48
460.218	1229.2
460.591	1219.94
460.964	1242.09
461.337	1273.72
461.71	1273.72
462.083	1294.51
462.456	1290.45
462.829	1292.25
463.201	1285.93
463.574	1326.83
463.947	1337.22
464.32	1375.64
464.692	1351.01
465.065	1389.65
465.438	1390.78
465.81	1414.96
466.183	1417
466.555	1447.73
466.928	1437.11
467.3	1463.1
467.672	1492.7
468.045	1522.3
468.417	1555.75
468.789	1541.97
469.161	1547.84
469.534	1593.72
469.906	1645.92
470.278	1636.88
470.65	1643.21
471.022	1697.89
471.394	1718.68
471.766	1719.81
472.138	1734.28
472.51	1784.9
472.882	1755.97
473.253	1794.61
473.625	1841.84
473.997	1892.01
474.369	1916.87
474.74	1934.27
475.112	1942.86
475.484	1983.54
475.855	2029.86
476.227	2093.59
476.598	2106.47
476.97	2122.74
477.341	2187.15
477.713	2191.44
478.084	2217.65
478.455	2266.47
478.827	2294.71
479.198	2362.28
479.569	2386.69
479.94	2482.28
480.311	2473.24
480.682	2522.5
481.053	2581.03
481.424	2592.56
481.795	2661.94
482.166	2699
482.537	2757.98
482.908	2815.38
483.279	2832.1
483.65	2883.62
484.021	2961.36
484.391	2991.19
484.762	3005.43
485.133	3040.91
485.503	3086.33
485.874	3187.12
486.244	3197.97
486.615	3252.88
486.985	3332.88
487.356	3366.55
487.726	3413.1
488.097	3462.37
488.467	3501.46
488.837	3565.19
489.207	3622.14
489.578	3652.64
489.948	3753.21
490.318	3750.27
490.688	3817.61
491.058	3821.45
491.428	3895.12
491.798	3892.19
492.168	4016.48
492.538	4070.26
492.908	4082.24
493.278	4127.21
493.648	4167.21
494.017	4199.07
494.387	4225.06
494.757	4325.39
495.126	4387.31
495.496	4340.99
495.866	4434.32
496.235	4496.24
496.605	4542.34
496.974	4569.46
497.344	4590.25
497.713	4583.02
498.082	4680.87
498.452	4725.38
498.821	4759.06
499.19	4732.39
499.559	4804.93
499.928	4831.82
500.298	4842.9
500.667	4950.01
501.036	4880.86
501.405	4934.42
501.774	4985.26
502.143	4979.84
502.512	5034.98
502.88	5064.58
503.249	5122.66
503.618	5129.89
503.987	5133.28
504.356	5206.05
504.724	5199.04
505.093	5229.55
505.462	5251.25
505.83	5305.48
506.199	5344.13
506.567	5396.78
506.936	5373.5
507.304	5451.01
507.672	5460.05
508.041	5536.44
508.409	5500.96
508.777	5541.41
509.145	5568.75
509.514	5624.8
509.882	5617.79
510.25	5683.33
510.618	5708.41
510.986	5695.75
511.354	5760.61
511.722	5765.13
512.09	5862.76
512.458	5814.17
512.826	5901.17
513.193	5855.07
513.561	5947.27
513.929	5981.85
514.297	6021.17
514.664	6067.5
515.032	6023.88
515.4	6106.59
515.767	6132.58
516.135	6150.43
516.502	6141.39
516.869	6229.3
517.237	6181.17
517.604	6245.57
517.972	6283.08
518.339	6308.17
518.706	6323.31
519.073	6334.38
519.44	6392.01
519.808	6469.52
520.175	6397.2
520.542	6502.06
520.909	6525.34
521.276	6531.66
521.643	6565.34
522.009	6629.51
522.376	6631.32
522.743	6634.71
523.11	6733.24
523.477	6769.85
523.843	6823.63
524.21	6863.41
524.577	6908.15
524.943	6910.86
525.31	6983.18
525.676	6993.8
526.043	7078.09
526.409	7124.64
526.776	7168.48
527.142	7164.64
527.508	7222.95
527.874	7258.65
528.241	7328.48
528.607	7292.55
528.973	7379.33
529.339	7385.2
529.705	7474.01
530.071	7531.19
530.437	7564.18
530.803	7566.44
531.169	7596.27
531.535	7629.71
531.901	7666.1
532.267	7704.51
532.632	7682.82
532.998	7753.33
533.364	7794.91
533.73	7837.62
534.095	7930.95
534.461	7971.17
534.826	7965.53
535.192	8040.55
535.557	8021.57
535.923	8096.6
536.288	8098.4
536.653	8142.92
537.019	8159.19
537.384	8158.51
537.749	8278.29
538.114	8204.39
538.479	8320.09
538.845	8341.11
539.21	8349.02
539.575	8370.26
539.94	8417.94
540.305	8468.11
540.67	8433.31
541.034	8470.6
541.399	8537.94
541.764	8495.23
542.129	8594.44
542.494	8594.89
542.858	8683.02
543.223	8689.12
543.587	8753.3
543.952	8766.18
544.316	8799.63
544.681	8790.36
545.045	8800.76
545.41	8848.44
545.774	8842.79
546.138	8945.16
546.503	9005.05
546.867	9014.31
547.231	9087.53
547.595	9053.63
547.959	9138.15
548.324	9124.36
548.688	9193.06
549.052	9144.7
549.416	9148.77
549.779	9247.07
550.143	9268.77
550.507	9327.07
550.871	9308.31
551.235	9361.19
551.599	9419.05
551.962	9449.1
552.326	9454.75
552.689	9536.33
553.053	9474.64
553.417	9540.85
553.78	9659.27
554.143	9657.23
554.507	9693.39
554.87	9621.98
555.234	9761.41
555.597	9712.37
555.96	9724.35
556.323	9839.37
556.686	9790.11
557.05	9894.51
557.413	9944
557.776	9957.79
558.139	10008.86
558.502	10071.68
558.865	10058.58
559.228	10116.88
559.59	10161.17
559.953	10189.2
560.316	10264
560.679	10205.47
561.041	10322.98
561.404	10344.67
561.767	10430.32
562.129	10423.99
562.492	10488.85
562.854	10431.45
563.217	10490.2
563.579	10493.14
563.941	10578.34
564.304	10652.46
564.666	10762.97
565.028	10731.55
565.39	10762.29
565.753	10842.96
566.115	10766.58
566.477	10896.07
566.839	10878.22
567.201	11026.01
567.563	10996.18
567.925	11104.65
568.287	11069.17
568.648	11109.17
569.01	11184.2
569.372	11294.25
569.734	11138.77
570.095	11271.65
570.457	11399.33
570.819	11414.93
571.18	11408.15
571.542	11422.16
571.903	11507.8
572.265	11596.84
572.626	11661.93
572.987	11645.65
573.349	11700.34
573.71	11747.35
574.071	11833.45
574.432	11830.51
574.794	12004.51
575.155	11965.19
575.516	12020.11
575.877	12118.41
576.238	12173.78
576.599	12266.2
576.96	12305.52
577.32	12402.24
577.681	12461.68
578.042	12552.52
578.403	12642.46
578.763	12738.96
579.124	12813.08
579.485	12929.01
579.845	13012.62
580.206	13117.48
580.566	13131.94
580.927	13261.43
581.287	13451.26
581.648	13595.89
582.008	13659.84
582.368	13758.59
582.728	13873.39
583.089	14072.03
583.449	14231.12
583.809	14302.76
584.169	14510.44
584.529	14580.49
584.889	15000.59
585.249	14887.83
585.609	15072.23
585.969	15401.26
586.329	15555.83
586.688	15714.47
587.048	15903.4
587.408	16105.65
587.768	16384.29
588.127	16587.67
588.487	16779.08
588.846	17032.41
589.206	17205.51
589.565	17445.5
589.925	17783.12
590.284	17982.21
590.643	18216.78
591.003	18452.71
591.362	18814.51
591.721	19053.82
592.08	19214.27
592.44	19547.37
592.799	19875.49
593.158	20037.75
593.517	20390.74
593.876	20743.04
594.235	20826.43
594.593	21214.22
594.952	21558.16
595.311	21781.21
595.67	22106.85
596.029	22452.15
596.387	22861.63
596.746	23097.1
597.104	23236.31
597.463	23593.14
597.822	24007.82
598.18	24264.31
598.538	24492.1
598.897	25011.4
599.255	25087.79
599.613	25669.24
599.972	25782.68
600.33	26114.2
600.688	26324.14
601.046	26775.2
601.404	27056.32
601.762	27324.56
602.12	27720.26
602.478	27974.26
602.836	28283.18
603.194	28403.86
603.552	28665.77
603.91	28927.46
604.268	29336.71
604.625	29499.65
604.983	29916.36
605.341	29849.7
605.698	30377.37
606.056	30543.01
606.413	30914.75
606.771	31240.39
607.128	31530.33
607.485	31611
607.843	31927.38
608.2	32241.72
608.557	32549.51
608.914	32683.29
609.272	33043.28
609.629	33270.62
609.986	33684.85
610.343	33667.67
610.7	34108.79
611.057	34340.42
611.414	34418.84
611.771	34706.97
612.127	34932.27
612.484	35110.35
612.841	35484.58
613.198	35510.79
613.554	35706.04
613.911	36003.21
614.267	36131.56
614.624	36247.27
614.98	36595.73
615.337	36850.64
615.693	36921.37
616.05	36914.14
616.406	37354.13
616.762	37255.6
617.118	37440
617.475	37716.61
617.831	37888.13
618.187	38121.12
618.543	38204.73
618.899	38518.85
619.255	38499.19
619.611	38676.13
619.967	38994.31
620.323	39075.89
620.678	39031.83
621.034	39090.81
621.39	39405.83
621.746	39347.75
622.101	39794.29
622.457	39646.95
622.812	39830.68
623.168	39969.43
623.523	40033.38
623.879	40271.57
624.234	40188.63
624.589	40367.38
624.945	40324.9
625.3	40602.18
625.655	40615.51
626.01	40598.11
626.365	40839.91
626.72	40811.67
627.075	40836.53
627.43	40947.93
627.785	40867.48
628.14	41035.16
628.495	41054.6
628.85	41093.24
629.205	41141.38
629.559	41447.81
629.914	41208.04
630.269	41348.6
630.623	41293.91
630.978	41244.65
631.332	41489.84
631.687	41664.53
632.041	41553.12
632.396	41542.27
632.75	41393.57
633.104	41638.09
633.459	41441.93
633.813	41440.35
634.167	41506.11
634.521	41572.1
634.875	41647.8
635.229	41608.71
635.583	41545.66
635.937	41525.32
636.291	41583.85
636.645	41557.41
636.999	41473.12
637.352	41653.45
637.706	41511.54
638.06	41687.58
638.413	41576.39
638.767	41558.09
639.121	41597.18
639.474	41354.25
639.828	41470.63
640.181	41486.68
640.534	41618.88
640.888	41292.33
641.241	41314.03
641.594	41417.75
641.947	41531.42
642.301	41276.97
642.654	41571.2
643.007	41422.05
643.36	41395.61
643.713	41351.09
644.066	41613.68
644.419	41273.35
644.771	40997.88
645.124	40718.79
645.477	40724.44
645.83	40351.11
646.182	40269.76
646.535	40109.09
646.888	40348.18
647.24	40095.75
647.593	40361.51
647.945	40272.92
648.298	40159.03
648.65	40087.17
649.002	39969.88
649.355	40114.51
649.707	40012.82
650.059	40208.97
650.411	40549.08
650.763	40664.55
651.115	41071.55
651.467	40858.45
651.819	41032
652.171	40946.8
652.523	40785.9
652.875	40949.74
653.227	40746.58
653.578	40915.39
653.93	40841.04
654.282	40724.44
654.633	40607.83
654.985	40703.42
655.337	40696.87
655.688	40710.88
656.039	40794.27
656.391	40454.39
656.742	40606.02
657.094	40544.56
657.445	40704.55
657.796	40709.75
658.147	40562.18
658.498	40616.64
658.849	40547.27
659.2	40491.22
659.551	40508.17
659.902	40617.1
660.253	40648.96
660.604	40717.88
660.955	40481.51
661.306	40710.43
661.656	40551.33
662.007	40641.95
662.358	40557.66
662.708	40470.89
663.059	40489.64
663.409	40345.01
663.76	40522.64
664.11	40521.05
664.461	40469.3
664.811	40474.95
665.161	40497.55
665.511	40290.1
665.862	40550.66
666.212	40531
666.562	40580.71
666.912	40391.11
667.262	40250.1
667.612	40298.69
667.962	40463.88
668.312	40432.24
668.662	40507.27
669.011	40341.85
669.361	40337.56
669.711	40239.7
670.06	40240.61
670.41	40236.99
670.76	40268.63
671.109	40358.8
671.459	40190.67
671.808	40280.16
672.157	40242.42
672.507	39999.48
672.856	40080.16
673.205	40164.45
673.554	40218.24
673.904	40025.92
674.253	40179.14
674.602	40074.74
674.951	39449.44
675.3	39352.04
675.649	39995.64
675.998	40036.32
676.346	39947.51
676.695	39988.41
677.044	39761.3
677.393	39927.4
677.741	40089.65
678.09	39865.7
678.438	39726.72
678.787	39803.78
679.135	39864.35
679.484	39721.07
679.832	39745.48
680.181	39569.44
680.529	39590.91
680.877	39586.84
681.225	39485.83
681.573	39607.4
681.922	39338.71
682.27	39154.76
682.618	39271.37
682.966	39139.17
683.314	39142.33
683.661	39106.85
684.009	39030.47
684.357	38881.1
684.705	38859.63
685.053	38892.62
685.4	38900.98
685.748	38642.91
686.095	38695.79
686.443	38516.59
686.79	38500.99
687.138	38670.25
687.485	38645.17
687.832	38413.09
688.18	38275.01
688.527	38300.77
688.874	38253.77
689.221	38254.9
689.568	38121.79
689.915	37990.05
690.262	37989.59
690.609	37881.57
690.956	37683.16
691.303	37729.49
691.65	37499.66
691.997	37590.73
692.344	37319.56
692.69	37248.6
693.037	37254.92
693.383	37010.64
693.73	37125.44
694.077	36976.29
694.423	36828.27
694.769	36853.35
695.116	36706.46
695.462	36619.23
695.808	36445.23
696.155	36676.41
696.501	36205.69
696.847	36423.99
697.193	36070.77
697.539	36268.06
697.885	35935.19
698.231	35769.09
698.577	35863.77
698.923	35786.26
699.269	35598.92
699.614	35336.1
699.96	35362.54
700.306	35530.45
700.651	35241.87
700.997	35087.07
701.342	35084.81
701.688	35074.87
702.033	34999.39
702.379	34968.43
702.724	34797.59
703.069	34778.83
703.415	34501.1
703.76	34502.23
704.105	34510.14
704.45	34354.66
704.795	34300.88
705.14	34135.46
705.485	34191.28
705.83	34126.65
706.175	33998.74
706.52	33873.09
706.865	33752.42
707.209	33731.18
707.554	33710.84
707.899	33665.64
708.243	33601.01
708.588	33407.12
708.932	33386.55
709.277	33290.96
709.621	33323.28
709.966	32985.88
710.31	33150.4
710.654	32728.94
710.998	32820.24
711.342	32896.39
711.687	32709.28
712.031	32723.97
712.375	32543.41
712.719	32529.17
713.063	32536.18
713.407	32595.39
713.75	32353.58
714.094	32365.11
714.438	32303.19
714.782	32196.53
715.125	31994.5
715.469	32233.14
715.812	32005.8
716.156	31754.05
716.499	31967.61
716.843	31900.94
717.186	31761.96
717.53	31800.38
717.873	31922.64
718.216	31706.14
718.559	31659.37
718.902	31453.04
719.246	31510.67
719.589	31410.11
719.932	31273.61
720.275	31244.91
720.617	31209.66
720.96	31054.41
721.303	31169.43
721.646	31131.47
721.989	30872.04
722.331	30922.21
722.674	30922.89
723.016	30886.28
723.359	30951.81
723.701	30817.13
724.044	30594.08
724.386	30573.97
724.729	30655.55
725.071	30532.39
725.413	30569.45
725.755	30431.83
726.097	30331.26
726.439	30197.93
726.782	30204.94
727.124	30360.42
727.465	30081.78
727.807	30123.36
728.149	30160.2
728.491	30048.33
728.833	30103.93
729.175	29956.13
729.516	29876.81
729.858	29829.58
730.199	29813.09
730.541	29871.84
730.882	29823.48
731.224	29896.02
731.565	29732.64
731.906	29625.29
732.248	29645.41
732.589	29543.71
732.93	29441.8
733.271	29562.02
733.612	29406.09
733.953	29429.59
734.294	29292.2
734.635	29269.82
734.976	29421.46
735.317	29168.58
735.658	29152.54
735.999	29127.23
736.339	29029.6
736.68	29174.01
737.021	28941.24
737.361	28911.19
737.702	29076.83
738.042	29003.84
738.383	28870.74
738.723	28826.9
739.063	28742.61
739.404	28888.82
739.744	28826.45
740.084	28640.01
740.424	28755.71
740.764	28666.9
741.104	28595.94
741.444	28550.97
741.784	28400.92
742.124	28529.05
742.464	28433.01
742.804	28470.3
743.143	28365.89
743.483	28367.47
743.823	28136.29
744.162	28154.82
744.502	28219.46
744.841	28139.68
745.181	28420.81
745.52	28061.72
745.86	28161.15
746.199	28057.43
746.538	28019.91
746.877	28092.68
747.216	28044.77
747.556	27941.27
747.895	27891.78
748.234	27786.25
748.573	27704.22
748.911	27696.76
749.25	27579.92
749.589	27547.61
749.928	27745.12
750.267	27612.92
750.605	27495.63
750.944	27501.51
751.283	27359.59
751.621	27463.09
751.96	27264.9
752.298	27241.4
752.636	27296.54
752.975	27150.78
753.313	27103.1
753.651	27187.39
753.989	27043.44
754.327	27024.46
754.666	26880.06
755.004	26948.3
755.342	26956.66
755.679	26992.14
756.017	26616.33
756.355	26764.58
756.693	26664.24
757.031	26693.62
757.368	26597.58
757.706	26594.41
758.044	26412.72
758.381	26360.3
758.719	26340.18
759.056	26344.48
759.394	26266.06
