Data from hue_80_FLMS001491_17.txt Node
Date: Mon Feb 06 15:22:33 GMT 2017
User: dcchb
Spectrometer: FLMS00149
Trigger mode: 0
Integration Time (sec): 2.000000E-2
Scans to average: 10
Electric dark correction enabled: true
Nonlinearity correction enabled: false
Boxcar width: 0
XAxis mode: Wavelengths
Number of Pixels in Spectrum: 2048
>>>>>Begin Spectral Data<<<<<
341.393	-1.95
341.776	-1.95
342.16	-1.95
342.543	-72
342.927	-62.96
343.31	-60.48
343.693	-64.09
344.077	-48.5
344.46	-48.95
344.843	-56.41
345.226	-48.73
345.61	-35.39
345.993	-32.23
346.376	-15.06
346.759	-5.79
347.142	30.37
347.525	43.25
347.908	78.27
348.291	59.97
348.674	98.84
349.057	104.94
349.44	121.44
349.823	167.09
350.206	164.15
350.588	194.66
350.971	212.73
351.354	221.77
351.737	231.04
352.119	239.17
352.502	262.45
352.884	271.26
353.267	271.49
353.65	291.6
354.032	301.77
354.414	306.52
354.797	309.68
355.179	327.76
355.562	331.38
355.944	309
356.326	310.81
356.709	322.79
357.091	344.71
357.473	349.68
357.855	315.33
358.238	334.77
358.62	342.9
359.002	337.03
359.384	329.34
359.766	339.51
360.148	340.41
360.53	347.65
360.912	327.99
361.294	327.99
361.676	312.39
362.057	344.03
362.439	329.12
362.821	317.82
363.203	331.6
363.584	305.61
363.966	325.73
364.348	313.75
364.729	328.66
365.111	299.51
365.493	302.68
365.874	315.78
366.256	325.05
366.637	297.7
367.019	310.36
367.4	303.58
367.781	304.48
368.163	315.1
368.544	310.59
368.925	299.74
369.306	323.24
369.688	299.29
370.069	312.17
370.45	299.29
370.831	318.72
371.212	315.33
371.593	320.53
371.974	310.36
372.355	308.78
372.736	313.75
373.117	304.03
373.498	322.11
373.879	323.24
374.26	282.56
374.641	295.67
375.021	326.63
375.402	327.08
375.783	342.22
376.163	300.87
376.544	314.65
376.925	319.62
377.305	324.6
377.686	316.23
378.066	327.99
378.447	330.02
378.827	327.08
379.208	329.34
379.588	342
379.968	322.56
380.349	334.54
380.729	325.95
381.109	324.37
381.489	324.82
381.87	319.17
382.25	323.92
382.63	344.93
383.01	339.06
383.39	353.52
383.77	329.12
384.15	342.45
384.53	345.61
384.91	344.93
385.29	342.45
385.67	331.38
386.049	330.92
386.429	353.52
386.809	345.16
387.189	344.26
387.568	332.51
387.948	332.28
388.328	354.65
388.707	352.17
389.087	335.9
389.466	359.62
389.846	354.88
390.225	368.66
390.605	351.04
390.984	374.31
391.363	345.16
391.743	354.43
392.122	360.53
392.501	376.57
392.881	375.67
393.26	389.45
393.639	375.89
394.018	362.56
394.397	357.36
394.776	378.83
395.155	367.98
395.534	369.79
395.913	380.19
396.292	366.63
396.671	356.46
397.05	397.36
397.429	367.76
397.808	388.1
398.186	365.95
398.565	366.63
398.944	375.44
399.323	396.23
399.701	382.67
400.08	383.8
400.458	384.26
400.837	409.11
401.215	388.55
401.594	407.08
401.972	396.91
402.351	391.71
402.729	410.24
403.107	404.14
403.486	391.26
403.864	399.17
404.242	407.53
404.62	413.41
404.999	389.23
405.377	421.54
405.755	401.88
406.133	402.11
406.511	411.37
406.889	410.02
407.267	411.15
407.645	412.05
408.023	405.05
408.401	417.25
408.779	435.78
409.156	439.85
409.534	417.7
409.912	426.29
410.29	415.67
410.667	440.98
411.045	451.37
411.422	436.01
411.8	450.47
412.178	443.01
412.555	445.72
412.933	455.89
413.31	467.19
413.687	453.63
414.065	456.12
414.442	475.1
414.819	477.36
415.197	484.82
415.574	465.84
415.951	473.29
416.328	473.52
416.705	475.1
417.082	482.78
417.46	468.55
417.837	487.53
418.214	473.07
418.591	495.44
418.967	499.51
419.344	499.51
419.721	501.09
420.098	492.05
420.475	499.96
420.852	510.81
421.228	521.43
421.605	523.46
421.982	536.57
422.358	501.31
422.735	503.12
423.111	519.39
423.488	537.92
423.864	550.58
424.241	527.75
424.617	540.41
424.994	549.67
425.37	544.48
425.746	527.75
426.123	541.09
426.499	546.51
426.875	575.89
427.251	556
427.627	549.67
428.003	580.86
428.379	568.66
428.756	572.95
429.132	584.02
429.507	580.18
429.883	566.17
430.259	568.43
430.635	600.29
431.011	620.41
431.387	613.18
431.763	628.99
432.138	614.98
432.514	610.24
432.89	609.33
433.265	618.15
433.641	619.05
434.016	643.91
434.392	652.95
434.767	643.23
435.143	648.2
435.518	645.72
435.894	668.77
436.269	655.66
436.644	687.75
437.02	670.8
437.395	677.36
437.77	699.28
438.145	703.57
438.52	688.88
438.895	710.57
439.271	704.02
439.646	703.12
440.021	737.69
440.395	725.72
440.77	706.51
441.145	735.88
441.52	709.9
441.895	730.01
442.27	734.08
442.645	747.86
443.019	740.86
443.394	751.25
443.769	741.99
444.143	745.38
444.518	767.07
444.892	748.31
445.267	767.07
445.641	765.94
446.016	785.15
446.39	805.49
446.764	784.7
447.139	794.41
447.513	790.35
447.887	794.64
448.262	803.45
448.636	823.34
449.01	794.19
449.384	779.95
449.758	827.86
450.132	829.22
450.506	850.46
450.88	826.5
451.254	836.9
451.628	823.34
452.002	860.4
452.376	881.64
452.75	862.66
453.123	867.63
453.497	894.75
453.871	886.84
454.244	908.99
454.618	920.51
454.992	907.63
455.365	949.21
455.739	942.43
456.112	956.67
456.486	961.64
456.859	971.13
457.232	974.3
457.606	979.72
457.979	976.1
458.352	998.93
458.725	1006.39
459.099	986.95
459.472	1048.87
459.845	1033.96
460.218	1053.84
460.591	1075.08
460.964	1070.57
461.337	1093.62
461.71	1088.19
462.083	1103.78
462.456	1123.67
462.829	1116.67
463.201	1141.07
463.574	1151.92
463.947	1174.29
464.32	1205.93
464.692	1242.54
465.065	1220.39
465.438	1211.58
465.81	1258.13
466.183	1268.53
466.555	1323.89
466.928	1293.38
467.3	1352.59
467.672	1334.29
468.045	1387.84
468.417	1389.65
468.789	1391.46
469.161	1401.86
469.534	1444.34
469.906	1504.9
470.278	1507.84
470.65	1508.75
471.022	1547.84
471.394	1596.43
471.766	1620.83
472.138	1614.96
472.51	1685.46
472.882	1681.4
473.253	1725.01
473.625	1753.71
473.997	1821.05
474.369	1843.2
474.74	1896.08
475.112	1908.06
475.484	1948.28
475.855	1975.4
476.227	2022.4
476.598	2066.7
476.97	2118
477.341	2222.63
477.713	2250.2
478.084	2319.35
478.455	2365.22
478.827	2387.37
479.198	2495.61
479.569	2532.67
479.94	2647.02
480.311	2696.51
480.682	2796.62
481.053	2859.9
481.424	2941.93
481.795	2992.32
482.166	3101.7
482.537	3160.68
482.908	3275.7
483.279	3301.69
483.65	3415.14
484.021	3585.08
484.391	3606.09
484.762	3687.9
485.133	3749.59
485.503	3872.3
485.874	4007.89
486.244	4099.41
486.615	4246.3
486.985	4330.82
487.356	4427.31
487.726	4549.12
488.097	4686.52
488.467	4757.02
488.837	4932.61
489.207	5048.77
489.578	5145.49
489.948	5240.4
490.318	5399.49
490.688	5492.6
491.058	5650.33
491.428	5773.04
491.798	5966.71
492.168	6053.71
492.538	6147.72
492.908	6276.98
493.278	6447.6
493.648	6576.41
494.017	6698.89
494.387	6814.14
494.757	6954.03
495.126	7158.77
495.496	7159.22
495.866	7306.33
496.235	7413.9
496.605	7539.77
496.974	7740.45
497.344	7800.56
497.713	8001.23
498.082	8035.35
498.452	8261.79
498.821	8282.58
499.19	8444.83
499.559	8553.98
499.928	8667.65
500.298	8803.47
500.667	8947.42
501.036	9008.21
501.405	9070.13
501.774	9189
502.143	9335.88
502.512	9396.67
502.88	9518.93
503.249	9629.66
503.618	9648.19
503.987	9825.82
504.356	9933.38
504.724	10067.39
505.093	10061.74
505.462	10138.12
505.83	10283.43
506.199	10452.24
506.567	10622.18
506.936	10573.37
507.304	10710.99
507.672	10745.56
508.041	10832.57
508.409	11035.73
508.777	11084.54
509.145	11185.78
509.514	11266.46
509.882	11369.28
510.25	11394.36
510.618	11520.23
510.986	11618.08
511.354	11742.83
511.722	11762.94
512.09	11914.57
512.458	11892.88
512.826	11923.39
513.193	12086.32
513.561	12138.3
513.929	12253.1
514.297	12286.09
514.664	12449.7
515.032	12411.96
515.4	12527.66
515.767	12654.44
516.135	12644.72
516.502	12655.57
516.869	12827.54
517.237	12889.24
517.604	12820.09
517.972	12983.47
518.339	13087.2
518.706	13081.77
519.073	13149.12
519.44	13229.79
519.808	13367.64
520.175	13322.45
520.542	13432.73
520.909	13544.81
521.276	13514.53
521.643	13576.9
522.009	13666.62
522.376	13738.71
522.743	13904.13
523.11	13897.12
523.477	14047.17
523.843	14108.41
524.21	14158.13
524.577	14217.34
524.943	14220.5
525.31	14322.65
525.676	14437.45
526.043	14534.62
526.409	14507.5
526.776	14609.19
527.142	14560.15
527.508	14710.66
527.874	14733.71
528.241	14815.51
528.607	14757.44
528.973	14899.35
529.339	14892.12
529.705	14997.43
530.071	15045.11
530.437	15092.8
530.803	15165.56
531.169	15205.79
531.535	15033.36
531.901	15171.44
532.267	15200.59
532.632	15219.57
532.998	15209.4
533.364	15297.54
533.73	15232.45
534.095	15365.78
534.461	15340.02
534.826	15448.94
535.192	15399.45
535.557	15439.68
535.923	15385.89
536.288	15434.93
536.653	15522.84
537.019	15433.35
537.384	15381.38
537.749	15560.58
538.114	15451.43
538.479	15593.12
538.845	15513.58
539.21	15459.57
539.575	15540.47
539.94	15498.21
540.305	15570.75
540.67	15509.51
541.034	15513.12
541.399	15565.33
541.764	15521.94
542.129	15462.5
542.494	15522.16
542.858	15481.03
543.223	15472.67
543.587	15529.62
543.952	15411.2
544.316	15500.69
544.681	15575.49
545.045	15509.96
545.41	15515.61
545.774	15537.76
546.138	15556.96
546.503	15563.97
546.867	15423.63
547.231	15537.53
547.595	15444.65
547.959	15536.63
548.324	15545.21
548.688	15483.97
549.052	15506.34
549.416	15455.72
549.779	15484.88
550.143	15482.39
550.507	15441.94
550.871	15507.02
551.235	15442.84
551.599	15516.06
551.962	15573.46
552.326	15505.89
552.689	15597.41
553.053	15488.94
553.417	15399.68
553.78	15609.62
554.143	15449.85
554.507	15528.94
554.87	15573.01
555.234	15619.79
555.597	15445.78
555.96	15485.1
556.323	15550.18
556.686	15502.73
557.05	15547.92
557.413	15617.08
557.776	15601.26
558.139	15612.1
558.502	15634.48
558.865	15588.6
559.228	15751.08
559.59	15757.64
559.953	15673.57
560.316	15911.53
560.679	15843.96
561.041	15870.18
561.404	15961.92
561.767	15869.27
562.129	15848.71
562.492	15965.09
562.854	15989.04
563.217	15918.99
563.579	16002.6
563.941	16050.74
564.304	15988.14
564.666	16127.8
565.028	16060.45
565.39	16003.05
565.753	16070.4
566.115	16174.8
566.477	16234.23
566.839	16247.57
567.201	16294.35
567.563	16243.27
567.925	16387.22
568.287	16321.69
568.648	16338.41
569.01	16338.86
569.372	16489.14
569.734	16459.09
570.095	16440.78
570.457	16488.01
570.819	16552.64
571.18	16606.65
571.542	16641.68
571.903	16669.02
572.265	16674.22
572.626	16705.41
572.987	16710.15
573.349	16800.32
573.71	16869.02
574.071	16887.1
574.432	16880.09
574.794	16936.81
575.155	16967.32
575.516	16808.46
575.877	16949.92
576.238	16856.59
576.599	16932.52
576.96	16972.52
577.32	16960.54
577.681	17077.38
578.042	16954.67
578.403	16998.51
578.763	16896.14
579.124	17053.87
579.485	17132.06
579.845	17077.15
580.206	17052.74
580.566	17126.19
580.927	17094.1
581.287	17125.74
581.648	17053.87
582.008	17092.52
582.368	17058.62
582.728	17100.88
583.089	17083.48
583.449	17032.41
583.809	16926.42
584.169	17083.7
584.529	17057.26
584.889	17112.18
585.249	17071.05
585.609	17036.47
585.969	17078.51
586.329	16996.47
586.688	17004.61
587.048	16996.25
587.408	17003.03
587.768	17013.87
588.127	17034.67
588.487	16925.52
588.846	17091.61
589.206	16915.35
589.565	16937.72
589.925	16974.55
590.284	16949.7
590.643	16984.72
591.003	16976.14
591.362	17038.96
591.721	16916.48
592.08	17013.42
592.44	17008.23
592.799	16911.96
593.158	16915.57
593.517	16937.72
593.876	16999.41
594.235	16864.95
594.593	16895.01
594.952	17033.54
595.311	16829.92
595.67	16917.61
596.029	16963.03
596.387	16993.08
596.746	16981.56
597.104	16912.86
597.463	16861.79
597.822	16993.31
598.18	16864.95
598.538	16851.85
598.897	16920.32
599.255	16777.04
599.613	17019.07
599.972	16976.36
600.33	16958.96
600.688	16901.56
601.046	16954.67
601.404	16962.12
601.762	16982.69
602.12	17049.81
602.478	17086.19
602.836	17044.61
603.194	16913.09
603.552	17047.55
603.91	16926.42
604.268	16955.35
604.625	16923.03
604.983	16944.05
605.341	16934.78
605.698	17056.59
606.056	17037.15
606.413	17007.77
606.771	17077.6
607.128	17074.89
607.485	16986.53
607.843	17017.26
608.2	17065.4
608.557	17018.62
608.914	17079.18
609.272	17184.04
609.629	17225.39
609.986	17267.43
610.343	17137.26
610.7	17314.21
611.057	17338.39
611.414	17320.76
611.771	17252.51
612.127	17275.56
612.484	17340.19
612.841	17393.3
613.198	17192.4
613.554	17297.26
613.911	17317.82
614.267	17353.3
614.624	17337.93
614.98	17401.21
615.337	17473.75
615.693	17408.89
616.05	17396.46
616.406	17577.7
616.762	17473.75
617.118	17433.75
617.475	17353.75
617.831	17558.49
618.187	17507.87
618.543	17700.86
618.899	17716
619.255	17581.32
619.611	17649.34
619.967	17633.29
620.323	17660.86
620.678	17695.89
621.034	17555.1
621.39	17563.24
621.746	17583.58
622.101	17777.47
622.457	17735.89
622.812	17731.6
623.168	17687.3
623.523	17730.47
623.879	17727.08
624.234	17618.38
624.589	17688.66
624.945	17685.5
625.3	17715.33
625.655	17675.1
626.01	17718.71
626.365	17714.2
626.72	17661.54
627.075	17672.39
627.43	17663.58
627.785	17650.02
628.14	17678.49
628.495	17695.21
628.85	17664.03
629.205	17644.14
629.559	17762.78
629.914	17673.97
630.269	17690.24
630.623	17594.2
630.978	17519.62
631.332	17665.38
631.687	17635.1
632.041	17509.23
632.396	17568.89
632.75	17512.17
633.104	17609.11
633.459	17504.94
633.813	17440.53
634.167	17420.19
634.521	17410.93
634.875	17433.3
635.229	17472.39
635.583	17349.69
635.937	17380.87
636.291	17394.66
636.645	17304.71
636.999	17406.41
637.352	17273.3
637.706	17158.73
638.06	17313.3
638.413	17286.18
638.767	17222.68
639.121	17221.55
639.474	17110.14
639.828	17286.64
640.181	17177.94
640.534	17202.57
640.888	17072.4
641.241	17026.53
641.594	16970.03
641.947	17224.26
642.301	17106.75
642.654	17109.47
643.007	17042.8
643.36	17126.87
643.713	17087.32
644.066	17147.88
644.419	17004.38
644.771	16881
645.124	16695.69
645.477	16757.84
645.83	16621.79
646.182	16556.03
646.535	16578.18
646.888	16532.31
647.24	16426.32
647.593	16589.93
647.945	16575.47
648.298	16463.83
648.65	16430.16
649.002	16268.36
649.355	16427.22
649.707	16479.43
650.059	16487.33
650.411	16712.41
650.763	16721
651.115	16855.69
651.467	16851.39
651.819	16854.78
652.171	16772.75
652.523	16879.19
652.875	16856.59
653.227	16758.06
653.578	16876.93
653.93	16846.87
654.282	16669.48
654.633	16639.87
654.985	16732.53
655.337	16823.82
655.688	16805.52
656.039	16847.33
656.391	16710.61
656.742	16633.77
657.094	16767.78
657.445	16836.03
657.796	16645.97
658.147	16660.66
658.498	16721.45
658.849	16741.11
659.2	16744.5
659.551	16766.88
659.902	16740.89
660.253	16723.71
660.604	16786.76
660.955	16704.73
661.306	16932.29
661.656	16767.1
662.007	16846.87
662.358	16716.93
662.708	16776.82
663.059	16740.89
663.409	16792.41
663.76	16911.96
664.11	16724.16
664.461	16864.95
664.811	16911.05
665.161	16932.97
665.511	16831.05
665.862	16897.95
666.212	16901.79
666.562	16952.41
666.912	16841.22
667.262	16839.42
667.612	16773.88
667.962	16881.67
668.312	16786.76
668.662	16844.16
669.011	16852.07
669.361	16771.62
669.711	16799.19
670.06	16798.74
670.41	16717.84
670.76	16818.17
671.109	16820.66
671.459	16736.59
671.808	16790.83
672.157	16831.73
672.507	16564.39
672.856	16685.52
673.205	16721.23
673.554	16695.92
673.904	16671.96
674.253	16782.92
674.602	16644.17
674.951	16432.42
675.3	16290.5
675.649	16578.18
675.998	16660.44
676.346	16537.95
676.695	16578.63
677.044	16535.7
677.393	16506.77
677.741	16571.17
678.09	16534.57
678.438	16498.86
678.787	16573.21
679.135	16480.56
679.484	16383.38
679.832	16496.83
680.181	16354.23
680.529	16427.9
680.877	16377.96
681.225	16376.38
681.573	16471.29
681.922	16318.75
682.27	16299.77
682.618	16281.92
682.966	16195.37
683.314	16208.7
683.661	16208.92
684.009	16110.4
684.357	16156.72
684.705	16063.62
685.053	16003.51
685.4	16051.19
685.748	15928.25
686.095	15796.28
686.443	15860.01
686.79	15775.04
687.138	15836.5
687.485	15803.74
687.832	15657.53
688.18	15760.12
688.527	15725.1
688.874	15556.06
689.221	15549.28
689.568	15599
689.915	15473.58
690.262	15550.64
690.609	15362.62
690.956	15361.04
691.303	15368.72
691.65	15345.44
691.997	15296.18
692.344	15241.72
692.69	15207.37
693.037	15282.39
693.383	15015.28
693.73	15086.24
694.077	14934.61
694.423	14996.53
694.769	14912.46
695.116	14858
695.462	14857.77
695.808	14825.23
696.155	14738.91
696.501	14775.74
696.847	14649.64
697.193	14566.26
697.539	14572.36
697.885	14407.16
698.231	14421.63
698.577	14441.51
698.923	14333.27
699.269	14298.24
699.614	14102.76
699.96	14178.02
700.306	14025.48
700.651	14033.61
700.997	14038.81
701.342	13950.68
701.688	13982.99
702.033	13930.57
702.379	13860.96
702.724	13837.46
703.069	13794.75
703.415	13670.91
703.76	13719.05
704.105	13692.83
704.45	13639.95
704.795	13541.65
705.14	13547.53
705.485	13406.74
705.83	13408.77
706.175	13452.39
706.52	13377.81
706.865	13321.99
707.209	13302.79
707.554	13269.34
707.899	13324.48
708.243	13172.39
708.588	13191.38
708.932	13104.82
709.277	13117.71
709.621	13030.7
709.966	12941.67
710.31	13026.41
710.654	12874.32
710.998	12962
711.342	12853.76
711.687	12839.07
712.031	12776.25
712.375	12697.6
712.719	12721.56
713.063	12708.23
713.407	12684.27
713.75	12695.8
714.094	12668
714.438	12606.53
714.782	12653.54
715.125	12516.59
715.469	12575.12
715.812	12473.43
716.156	12437.72
716.499	12441.11
716.843	12421.68
717.186	12358.63
717.53	12379.19
717.873	12473.66
718.216	12437.95
718.559	12296.48
718.902	12203.38
719.246	12301
719.589	12207.45
719.932	12204.96
720.275	12207
720.617	12242.02
720.96	12197.73
721.303	12182.14
721.646	12244.06
721.989	12134.68
722.331	12156.15
722.674	12083.61
723.016	12172.42
723.359	12135.36
723.701	12127.22
724.044	12069.37
724.386	11985.76
724.729	12087.22
725.071	11980.56
725.413	12048.81
725.755	11971.3
726.097	11957.96
726.439	11894.24
726.782	11850.39
727.124	11933.1
727.465	11915.25
727.807	11840.45
728.149	11861.92
728.491	11859.43
728.833	11885.65
729.175	11808.59
729.516	11788.25
729.858	11742.15
730.199	11787.57
730.541	11866.89
730.882	11760.45
731.224	11859.66
731.565	11717.52
731.906	11780.79
732.248	11779.66
732.589	11734.01
732.93	11701.47
733.271	11808.14
733.612	11751.87
733.953	11810.17
734.294	11763.84
734.635	11693.56
734.976	11760.68
735.317	11694.92
735.658	11715.03
735.999	11691.08
736.339	11690.4
736.68	11781.7
737.021	11715.03
737.361	11744.86
737.702	11766.1
738.042	11784.41
738.383	11814.01
738.723	11704.64
739.063	11672.09
739.404	11782.6
739.744	11710.74
740.084	11724.07
740.424	11814.46
740.764	11759.1
741.104	11783.28
741.444	11877.29
741.784	11812.43
742.124	11833.22
742.464	11767.46
742.804	11812.66
743.143	11882.71
743.483	11864.41
743.823	11819.21
744.162	11909.38
744.502	11940.34
744.841	11825.31
745.181	11978.53
745.52	12031.86
745.86	12094.46
746.199	12018.53
746.538	12110.5
746.877	12131.74
747.216	12213.1
747.556	12175.36
747.895	12268.69
748.234	12296.48
748.573	12335.81
748.911	12478.17
749.25	12517.04
749.589	12522.69
749.928	12586.19
750.267	12728.79
750.605	12650.15
750.944	12691.73
751.283	12658.73
751.621	12885.85
751.96	12870.48
752.298	13059.18
752.636	13120.87
752.975	13147.76
753.313	13061.89
753.651	13342.11
753.989	13414.2
754.327	13407.64
754.666	13460.07
755.004	13655.32
755.342	13795.2
755.679	13879.49
756.017	13887.86
756.355	14034.97
756.693	14091.24
757.031	14252.82
