Data from hue_32_FLMS001491_00009.txt Node
Date: Tue Feb 07 17:22:50 GMT 2017
User: dcchb
Spectrometer: FLMS00149
Trigger mode: 0
Integration Time (sec): 2.000000E-2
Scans to average: 10
Electric dark correction enabled: true
Nonlinearity correction enabled: false
Boxcar width: 0
XAxis mode: Wavelengths
Number of Pixels in Spectrum: 2048
>>>>>Begin Spectral Data<<<<<
341.393	-30.52
341.776	-30.52
342.16	-30.52
342.543	-51.99
342.927	-76.85
343.31	-63.74
343.693	-59.67
344.077	-70.97
344.46	-71.2
344.843	-56.96
345.226	-33.91
345.61	-18.09
345.993	-26.23
346.376	-22.84
346.759	-2.73
347.142	14.45
347.525	42.02
347.908	69.14
348.291	89.7
348.674	90.83
349.057	120.21
349.44	109.14
349.823	151.62
350.206	167.67
350.588	194.56
350.971	225.29
351.354	231.84
351.737	229.13
352.119	247.21
352.502	282.46
352.884	272.75
353.267	285.63
353.65	290.15
354.032	303.48
354.414	322.24
354.797	297.15
355.179	311.84
355.562	308.68
355.944	330.15
356.326	338.06
356.709	339.64
357.091	339.86
357.473	336.25
357.855	333.08
358.238	327.43
358.62	354.78
359.002	332.63
359.384	349.36
359.766	331.28
360.148	345.06
360.53	336.47
360.912	335.34
361.294	339.19
361.676	314.55
362.057	344.84
362.439	343.03
362.821	330.37
363.203	341.45
363.584	352.29
363.966	314.1
364.348	332.18
364.729	335.8
365.111	312.52
365.493	341.9
365.874	312.75
366.256	349.13
366.637	302.58
367.019	315.01
367.4	316.81
367.781	326.53
368.163	328.56
368.544	318.85
368.925	322.46
369.306	319.53
369.688	319.98
370.069	299.41
370.45	326.3
370.831	292.18
371.212	317.27
371.593	324.27
371.974	345.06
372.355	327.21
372.736	310.71
373.117	315.68
373.498	338.28
373.879	328.79
374.26	334.44
374.641	323.14
375.021	338.51
375.402	335.8
375.783	342.35
376.163	337.15
376.544	329.47
376.925	319.3
377.305	327.21
377.686	322.69
378.066	303.93
378.447	339.41
378.827	318.62
379.208	345.51
379.588	335.12
379.968	326.53
380.349	330.82
380.729	337.15
381.109	344.38
381.489	358.39
381.87	334.67
382.25	359.3
382.63	354.1
383.01	341.45
383.39	308
383.77	341.22
384.15	350.03
384.53	349.81
384.91	333.54
385.29	357.94
385.67	367.43
386.049	336.7
386.429	359.3
386.809	356.59
387.189	354.78
387.568	348.45
387.948	361.78
388.328	355
388.707	359.98
389.087	354.55
389.466	359.98
389.846	378.28
390.225	374.44
390.605	369.24
390.984	382.57
391.363	354.33
391.743	357.26
392.122	379.86
392.501	380.09
392.881	370.82
393.26	366.98
393.639	392.52
394.018	335.8
394.397	372.41
394.776	376.02
395.155	387.32
395.534	387.77
395.913	361.11
396.292	370.37
396.671	378.51
397.05	377.6
397.429	383.25
397.808	374.67
398.186	409.24
398.565	413.08
398.944	389.81
399.323	419.18
399.701	420.54
400.08	399.3
400.458	409.92
400.837	406.75
401.215	418.51
401.594	423.7
401.972	425.51
402.351	416.92
402.729	418.05
403.107	418.28
403.486	404.04
403.864	398.17
404.242	414.44
404.62	425.06
404.999	417.83
405.377	423.7
405.755	452.18
406.133	446.75
406.511	432.52
406.889	436.13
407.267	435
407.645	432.06
408.023	451.73
408.401	457.37
408.779	448.56
409.156	462.57
409.534	448.56
409.912	456.7
410.29	463.93
410.667	446.75
411.045	459.86
411.422	476.36
411.8	470.71
412.178	467.77
412.555	477.04
412.933	463.02
413.31	481.56
413.687	482.01
414.065	480.43
414.442	478.17
414.819	496.02
415.197	492.85
415.574	503.48
415.951	517.03
416.328	498.28
416.705	478.84
417.082	528.11
417.46	514.32
417.837	519.97
418.214	539.63
418.591	508
418.967	512.97
419.344	541.44
419.721	546.64
420.098	531.5
420.475	539.86
420.852	534.44
421.228	528.33
421.605	556.58
421.982	545.51
422.358	568.78
422.735	567.43
423.111	573.98
423.488	555.23
423.864	538.28
424.241	558.84
424.617	564.49
424.994	550.25
425.37	581.44
425.746	582.34
426.123	579.86
426.499	582.34
426.875	620.99
427.251	598.61
427.627	622.79
428.003	599.07
428.379	599.29
428.756	616.24
429.132	619.18
429.507	628.22
429.883	622.79
430.259	637.03
430.635	627.54
431.011	633.64
431.387	653.08
431.763	665.28
432.138	646.97
432.514	669.12
432.89	654.66
433.265	675.9
433.641	683.36
434.016	672.74
434.392	723.81
434.767	691.04
435.143	699.4
435.518	719.29
435.894	694.43
436.269	714.77
436.644	712.51
437.02	730.14
437.395	732.4
437.77	735.79
438.145	747.76
438.52	745.5
438.895	759.97
439.271	762.45
439.646	789.8
440.021	765.39
440.395	774.43
440.77	784.82
441.145	784.37
441.52	809.91
441.895	777.59
442.27	790.93
442.645	781.43
443.019	812.62
443.394	808.1
443.769	790.02
444.143	811.94
444.518	822.11
444.892	808.55
445.267	800.87
445.641	837.48
446.016	843.58
446.39	843.35
446.764	841.09
447.139	858.95
447.513	841.77
447.887	855.1
448.262	858.72
448.636	893.75
449.01	866.86
449.384	891.26
449.758	892.84
450.132	874.54
450.506	888.32
450.88	923.8
451.254	916.8
451.628	924.71
452.002	928.32
452.376	943.01
452.75	927.87
453.123	945.95
453.497	941.66
453.871	942.33
454.244	971.03
454.618	1009.68
454.992	983.91
455.365	1018.26
455.739	1014.42
456.112	1011.03
456.486	1031.6
456.859	1044.93
457.232	1062.1
457.606	1048.55
457.979	1062.1
458.352	1086.51
458.725	1093.06
459.099	1063.69
459.472	1107.53
459.845	1137.81
460.218	1109.56
460.591	1140.75
460.964	1143.01
461.337	1158.37
461.71	1206.28
462.083	1232.04
462.456	1196.56
462.829	1207.86
463.201	1238.37
463.574	1221.87
463.947	1262.1
464.32	1266.85
464.692	1284.7
465.065	1312.27
465.438	1277.24
465.81	1347.52
466.183	1312.04
466.555	1371.25
466.928	1377.35
467.3	1347.07
467.672	1413.96
468.045	1457.12
468.417	1424.81
468.789	1480.85
469.161	1517.46
469.534	1541.19
469.906	1526.27
470.278	1550.23
470.65	1563.56
471.022	1604.24
471.394	1623.9
471.766	1617.12
472.138	1652.82
472.51	1708.87
472.882	1717.91
473.253	1765.82
473.625	1810.11
473.997	1852.59
474.369	1854.63
474.74	1881.07
475.112	1956.54
475.484	1945.02
475.855	2006.49
476.227	2006.49
476.598	2077.22
476.97	2099.37
477.341	2191.79
477.713	2191.34
478.084	2246.03
478.455	2327.83
478.827	2336.87
479.198	2400.15
479.569	2465.01
479.94	2528.05
480.311	2575.06
480.682	2598.79
481.053	2673.36
481.424	2751.55
481.795	2793.13
482.166	2844.2
482.537	2918.55
482.908	2992
483.279	3044.88
483.65	3087.81
484.021	3194.7
484.391	3247.58
484.762	3344.76
485.133	3351.08
485.503	3472.44
485.874	3579.33
486.244	3602.83
486.615	3689.83
486.985	3782.94
487.356	3834.46
487.726	3968.92
488.097	4106.54
488.467	4068.13
488.837	4208.69
489.207	4333.66
489.578	4323.26
489.948	4438.74
490.318	4524.16
490.688	4568.68
491.058	4655.68
491.428	4778.17
491.798	4859.29
492.168	4993.53
492.538	5078.04
492.908	5106.52
493.278	5223.8
493.648	5243.92
494.017	5389.22
494.387	5457.92
494.757	5524.81
495.126	5572.49
495.496	5652.94
495.866	5747.86
496.235	5793.28
496.605	5918.47
496.974	5976.55
497.344	6071.46
497.713	6109.88
498.082	6222.65
498.452	6310.1
498.821	6321.63
499.19	6328.86
499.559	6527.27
499.928	6552.58
500.298	6621.96
500.667	6687.04
501.036	6770.88
501.405	6786.02
501.774	6886.13
502.143	6970.88
502.512	7024.89
502.88	7050.42
503.249	7135.39
503.618	7187.37
503.987	7207.25
504.356	7286.8
504.724	7298.55
505.093	7390.53
505.462	7466.68
505.83	7521.37
506.199	7558.43
506.567	7705.09
506.936	7698.99
507.304	7870.51
507.672	7841.36
508.041	7908.93
508.409	7946.67
508.777	8080.9
509.145	8152.99
509.514	8160.68
509.882	8221.01
510.25	8219.2
510.618	8338.52
510.986	8322.7
511.354	8438.18
511.722	8478.63
512.09	8599.99
512.458	8583.26
512.826	8627.56
513.193	8757.04
513.561	8689.02
513.929	8828.68
514.297	8881.33
514.664	8943.25
515.032	8965.17
515.4	9063.02
515.767	9088.79
516.135	9084.27
516.502	9090.14
516.869	9275.22
517.237	9262.57
517.604	9294.88
517.972	9363.36
518.339	9407.42
518.706	9368.55
519.073	9503.46
519.44	9531.26
519.808	9601.99
520.175	9620.3
520.542	9733.97
520.909	9773.51
521.276	9801.54
521.643	9810.35
522.009	9951.36
522.376	10013.28
522.743	10131.47
523.11	10110
523.477	10189.1
523.843	10265.03
524.21	10376.44
524.577	10412.82
524.943	10493.95
525.31	10493.95
525.676	10640.16
526.043	10678.12
526.409	10701.85
526.776	10796.09
527.142	10846.71
527.508	10826.82
527.874	11000.6
528.241	11009.19
528.607	11042.18
528.973	11227.49
529.339	11176.64
529.705	11287.82
530.071	11374.38
530.437	11413.25
530.803	11531.66
531.169	11483.53
531.535	11596.97
531.901	11548.38
532.267	11680.36
532.632	11711.77
532.998	11725.1
533.364	11850.07
533.73	11918.32
534.095	11980.91
534.461	11909.73
534.826	11988.82
535.192	12163.28
535.557	12183.39
535.923	12169.84
536.288	12227.69
536.653	12238.08
537.019	12348.14
537.384	12329.38
537.749	12420.68
538.114	12452.54
538.479	12585.64
538.845	12611.86
539.21	12593.33
539.575	12679.65
539.94	12686.66
540.305	12798.07
540.67	12785.19
541.034	12846.2
541.399	12893.43
541.764	12939.76
542.129	13001.23
542.494	13060.43
542.858	13026.54
543.223	13212.97
543.587	13239.19
543.952	13178.62
544.316	13350.82
544.681	13296.36
545.045	13411.84
545.41	13461.78
545.774	13512.4
546.138	13573.41
546.503	13579.29
546.867	13632.17
547.231	13776.12
547.595	13766.86
547.959	13813.18
548.324	13808.89
548.688	13878.72
549.052	13918.26
549.416	14028.09
549.779	14042.1
550.143	14096.79
550.507	14127.75
550.871	14167.3
551.235	14187.41
551.599	14287.75
551.962	14255.66
552.326	14301.53
552.689	14383.11
553.053	14466.95
553.417	14435.99
553.78	14678.92
554.143	14563.9
554.507	14669.88
554.87	14725.93
555.234	14795.3
555.597	14762.08
555.96	14831.01
556.323	14855.87
556.686	14961.17
557.05	15098.12
557.413	15068.52
557.776	14953.04
558.139	15196.87
558.502	15170.43
558.865	15289.08
559.228	15339.02
559.59	15455.85
559.953	15436.64
560.316	15591.21
560.679	15496.53
561.041	15587.6
561.404	15616.52
561.767	15731.32
562.129	15723.19
562.492	15850.19
562.854	15925.44
563.217	15897.42
563.579	16054.7
563.941	15916.63
564.304	16122.5
564.666	16122.27
565.028	16225.55
565.39	16159.79
565.753	16344.87
566.115	16270.97
566.477	16435.94
566.839	16449.5
567.201	16534.47
567.563	16610.4
567.925	16650.62
568.287	16680.23
568.648	16753.9
569.01	16852.42
569.372	17011.06
569.734	16961.12
570.095	17027.33
570.457	17115.47
570.819	17173.55
571.18	17312.3
571.542	17322.24
571.903	17353.43
572.265	17488.79
572.626	17574.44
572.987	17638.62
573.349	17637.71
573.71	17717.71
574.071	17856.92
574.432	18027.53
574.794	18073.86
575.155	18109.34
575.516	18132.84
575.877	18385.49
576.238	18379.84
576.599	18443.12
576.96	18621.19
577.32	18653.96
577.681	18939.37
578.042	18912.48
578.403	19144.34
578.763	19253.72
579.124	19331.23
579.485	19624.55
579.845	19758.56
580.206	19793.59
580.566	19952
580.927	20133.24
581.287	20330.52
581.648	20472.22
582.008	20578.88
582.368	20739.1
582.728	20954.46
583.089	21130.5
583.449	21184.97
583.809	21533.66
584.169	21685.97
584.529	21878.05
584.889	22203.92
585.249	22244.15
585.609	22374.54
585.969	22830.35
586.329	22947.18
586.688	23328.86
587.048	23394.85
587.408	23618.12
587.768	23876.42
588.127	24081.61
588.487	24303.3
588.846	24706.23
589.206	24772.22
589.565	24928.14
589.925	25283.39
590.284	25504.85
590.643	25804.05
591.003	26160.88
591.362	26424.38
591.721	26686.06
592.08	26975.1
592.44	27204.92
592.799	27510.67
593.158	27709.99
593.517	28002.19
593.876	28141.17
594.235	28390.43
594.593	28725.78
594.952	29010.75
595.311	29080.58
595.67	29473.79
596.029	29859.77
596.387	30128.01
596.746	30397.38
597.104	30593.08
597.463	30765.96
597.822	31058.6
598.18	31143.12
598.538	31479.84
598.897	31988.52
599.255	31796.89
599.613	32521.39
599.972	32563.88
600.33	32875.05
600.688	32889.74
601.046	33204.54
601.404	33666.45
601.762	33638.88
602.12	33965.87
602.478	34268.46
602.836	34371.51
603.194	34419.87
603.552	34733.99
603.91	34779.41
604.268	35093.98
604.625	35309.57
604.983	35612.83
605.341	35638.14
605.698	35965.14
606.056	36249.43
606.413	36342.31
606.771	36582.3
607.128	36781.17
607.485	36753.6
607.843	37145.68
608.2	37394.03
608.557	37560.58
608.914	37420.7
609.272	37829.5
609.629	38088.25
609.986	38231.97
610.343	38341.58
610.7	38684.17
611.057	38671.74
611.414	38874.44
611.771	38909.92
612.127	39224.04
612.484	39318.05
612.841	39424.49
613.198	39615.22
613.554	39703.12
613.911	40019.05
614.267	40103.79
614.624	40172.26
614.98	40328.19
615.337	40432.37
615.693	40625.13
616.05	40686.37
616.406	40848.4
616.762	40924.33
617.118	40918.46
617.475	41153.48
617.831	41205.68
618.187	41448.39
618.543	41489.74
618.899	41725.44
619.255	41729.51
619.611	41805.67
619.967	41939.67
620.323	42245.88
620.678	41986
621.034	42035.26
621.39	42105.55
621.746	42228.71
622.101	42780.78
622.457	42584.63
622.812	42587.34
623.168	42717.51
623.523	42718.41
623.879	43044.5
624.234	42830.27
624.589	42915.02
624.945	43004.73
625.3	43058.74
625.655	43155.69
626.01	43134.9
626.365	43305.51
626.72	43332.63
627.075	43209.7
627.43	43170.83
627.785	43198.85
628.14	43372.18
628.495	43373.76
628.85	43498.28
629.205	43352.74
629.559	43630.93
629.914	43418.28
630.269	43563.59
630.623	43320.2
630.978	43528.78
631.332	43616.47
631.687	43822.79
632.041	43615.34
632.396	43771.94
632.75	43455.57
633.104	43632.96
633.459	43479.29
633.813	43526.53
634.167	43580.76
634.521	43354.1
634.875	43573.76
635.229	43560.87
635.583	43382.8
635.937	43510.48
636.291	43470.93
636.645	43566.98
636.999	43304.16
637.352	43522.46
637.706	43278.4
638.06	43529.91
638.413	43300.32
638.767	43336.93
639.121	43455.11
639.474	43232.75
639.828	43216.7
640.181	43307.77
640.534	43252.86
640.888	43276.59
641.241	43136.25
641.594	43185.74
641.947	43307.55
642.301	43169.47
642.654	43326.08
643.007	43207.44
643.36	43140.77
643.713	43097.61
644.066	43282.46
644.419	43098.74
644.771	42718.64
645.124	42444.07
645.477	42239.1
645.83	42137.41
646.182	42008.6
646.535	41799.34
646.888	41967.92
647.24	41815.16
647.593	42016.51
647.945	42010.63
648.298	41798.89
648.65	41676.86
649.002	41622.62
649.355	41775.38
649.707	41821.94
650.059	41948.94
650.411	42278.87
650.763	42423.05
651.115	42796.83
651.467	42611.97
651.819	42734.23
652.171	42529.04
652.523	42571.75
652.875	42382.15
653.227	42315.71
653.578	42581.01
653.93	42560.9
654.282	42421.47
654.633	42463.05
654.985	42477.51
655.337	42362.04
655.688	42464.63
656.039	42377.63
656.391	42223.73
656.742	42269.83
657.094	42198.65
657.445	42381.7
657.796	42178.76
658.147	42204.53
658.498	42147.58
658.849	42293.11
659.2	42171.98
659.551	42140.12
659.902	42340.34
660.253	42170.63
660.604	42311.64
660.955	42184.19
661.306	42276.16
661.656	42099.44
662.007	42158.88
662.358	42182.38
662.708	42125.21
663.059	42183.06
663.409	41998.2
663.76	42199.55
664.11	42168.37
664.461	42200.46
664.811	42118.2
665.161	42144.19
665.511	42103.06
665.862	42050.86
666.212	42176.05
666.562	42190.06
666.912	42041.37
667.262	41892.9
667.612	42020.8
667.962	42036.85
668.312	42026.23
668.662	42246.78
669.011	41944.87
669.361	41952.56
669.711	42118.2
670.06	41797.08
670.41	41817.64
670.76	41811.99
671.109	41959.33
671.459	41905.1
671.808	41802.5
672.157	41887.02
672.507	41541.04
672.856	41688.16
673.205	41793.01
673.554	41837.08
673.904	41737.42
674.253	41888.38
674.602	41738.1
674.951	41224.44
675.3	40968.17
675.649	41740.81
675.998	41545.11
676.346	41677.53
676.695	41696.29
677.044	41523.41
677.393	41609.06
677.741	41524.77
678.09	41643.86
678.438	41424.21
678.787	41418.11
679.135	41539.46
679.484	41145.12
679.832	41458.33
680.181	41122.29
680.529	41259.47
680.877	41070.54
681.225	41088.62
681.573	41407.26
681.922	41123.42
682.27	40879.81
682.618	40948.97
682.966	40710.78
683.314	40947.16
683.661	40795.07
684.009	40742.19
684.357	40565.92
684.705	40576.09
685.053	40581.74
685.4	40525.25
685.748	40327.74
686.095	40287.29
686.443	40377.23
686.79	40119.61
687.138	40431.24
687.485	40119.61
687.832	40098.82
688.18	40183.79
688.527	39945.6
688.874	39864.02
689.221	39876
689.568	39661.77
689.915	39690.24
690.262	39596.68
690.609	39556.46
690.956	39346.75
691.303	39332.96
691.65	39105.62
691.997	39166.19
692.344	38962.8
692.69	38950.37
693.037	38986.53
693.383	38698.86
693.73	38749.93
694.077	38557.39
694.423	38523.94
694.769	38336.83
695.116	38206.89
695.462	38371.86
695.808	38114.01
696.155	38205.08
696.501	37886.22
696.847	37929.38
697.193	37612.56
697.539	37815.71
697.885	37566.91
698.231	37530.75
698.577	37523.52
698.923	37385.9
699.269	37374.6
699.614	37046.92
699.96	37090.54
700.306	37040.59
700.651	36816.87
700.997	36789.98
701.342	36685.35
701.688	36462.08
702.033	36490.33
702.379	36550.89
702.724	36418.24
703.069	36533.49
703.415	36088.98
703.76	36079.49
704.105	36215.76
704.45	35914.3
704.795	35768.08
705.14	35783
705.485	35738.26
705.83	35612.16
706.175	35559.5
706.52	35522.89
706.865	35344.37
707.209	35424.82
707.554	35109.35
707.899	35261.88
708.243	35116.35
708.588	35028.67
708.932	34907.09
709.277	34762.01
709.621	34864.61
709.966	34700.32
710.31	34796.36
710.654	34487.89
710.998	34511.17
711.342	34617.61
711.687	34329.03
712.031	34230.27
712.375	34243.61
712.719	34236.6
713.063	34186.88
713.407	34274.79
713.75	34111.86
714.094	33922.03
714.438	33823.5
714.782	33957.06
715.125	33873.45
715.469	33714.13
715.812	33535.6
716.156	33509.39
716.499	33382.16
716.843	33414.7
717.186	33206.8
717.53	33461.93
717.873	33349.17
718.216	33241.37
718.559	33075.05
718.902	32802.97
719.246	32952.11
719.589	32808.84
719.932	32649.3
720.275	32776.75
720.617	32804.1
720.96	32627.38
721.303	32555.51
721.646	32556.42
721.989	32359.59
722.331	32552.12
722.674	32529.07
723.016	32394.16
723.359	32376.31
723.701	32322.53
724.044	32164.34
724.386	32167.05
724.729	32137.22
725.071	32075.75
725.413	32032.14
725.755	31976.77
726.097	31858.13
726.439	31814.52
726.782	31896.1
727.124	31906.94
727.465	31705.82
727.807	31652.49
728.149	31560.06
728.491	31557.8
728.833	31516.22
729.175	31464.47
729.516	31319.16
729.858	31399.61
730.199	31393.28
730.541	31333.17
730.882	31344.7
731.224	31399.39
731.565	31186.28
731.906	31096.12
732.248	31197.81
732.589	30993.52
732.93	30820.19
733.271	31045.5
733.612	30982
733.953	31015.89
734.294	30831.49
734.635	30835.33
734.976	30816.12
735.317	30716.92
735.658	30592.85
735.999	30621.78
736.339	30525.06
736.68	30595.57
737.021	30497.72
737.361	30276.25
737.702	30353.31
738.042	30318.28
738.383	30302.69
738.723	30314.44
739.063	30396.02
739.404	30350.83
739.744	30168.68
740.084	30050.04
740.424	30138.63
740.764	30067.44
741.104	30134.11
741.444	29994.68
741.784	29808.69
742.124	29864.29
742.464	29982.02
742.804	29777.06
743.143	29698.87
743.483	29745.19
743.823	29636.49
744.162	29494.35
744.502	29598.08
744.841	29391.53
745.181	29657.51
745.52	29437.86
745.86	29425.43
746.199	29526.89
746.538	29495.26
746.877	29454.35
747.216	29430.85
747.556	29441.25
747.895	29272.66
748.234	29177.07
748.573	29230.86
748.911	29136.17
749.25	29124.42
749.589	28845.33
749.928	29099.79
750.267	29002.61
750.605	28927.59
750.944	28830.41
751.283	28748.16
751.621	28793.13
751.96	28580.7
752.298	28653.7
752.636	28564.66
752.975	28497.99
753.313	28488.73
753.651	28489.63
753.989	28246.47
754.327	28274.04
754.666	28187.95
755.004	28210.54
755.342	28180.49
755.679	28098.91
756.017	27930.78
756.355	28079.7
756.693	27842.19
757.031	27972.13
757.368	27760.84
757.706	27790.22
