Data from hue_200_FLMS001491_00090.txt Node
Date: Tue Feb 07 16:44:04 GMT 2017
User: dcchb
Spectrometer: FLMS00149
Trigger mode: 0
Integration Time (sec): 2.000000E-2
Scans to average: 10
Electric dark correction enabled: true
Nonlinearity correction enabled: false
Boxcar width: 0
XAxis mode: Wavelengths
Number of Pixels in Spectrum: 2048
>>>>>Begin Spectral Data<<<<<
341.393	-12.19
341.776	-12.19
342.16	-12.19
342.543	-65.52
342.927	-58.97
343.31	-69.59
343.693	-69.81
344.077	-67.33
344.46	-64.16
344.843	-48.57
345.226	-53.32
345.61	-29.82
345.993	-11.96
346.376	9.28
346.759	15.15
347.142	28.71
347.525	39.56
347.908	61.26
348.291	81.37
348.674	74.81
349.057	104.42
349.44	105.32
349.823	140.12
350.206	176.05
350.588	215.15
350.971	211.53
351.354	221.93
351.737	245.43
352.119	240.69
352.502	244.3
352.884	281.14
353.267	265.77
353.65	285.66
354.032	294.7
354.414	311.87
354.797	329.72
355.179	325.2
355.562	320.91
355.944	319.1
356.326	343.96
356.709	331.98
357.091	330.85
357.473	331.98
357.855	356.61
358.238	329.27
358.62	313.9
359.002	355.26
359.384	343.06
359.766	335.6
360.148	329.05
360.53	305.77
360.912	346.45
361.294	331.3
361.676	343.73
362.057	336.05
362.439	327.24
362.821	338.54
363.203	318.88
363.584	331.53
363.966	307.35
364.348	305.77
364.729	312.55
365.111	329.27
365.493	298.76
365.874	318.88
366.256	321.59
366.637	301.7
367.019	334.92
367.4	326.33
367.781	314.36
368.163	312.77
368.544	312.77
368.925	304.86
369.306	332.66
369.688	303.28
370.069	293.79
370.45	315.49
370.831	299.22
371.212	316.16
371.593	311.87
371.974	325.2
372.355	305.54
372.736	344.41
373.117	289.27
373.498	315.26
373.879	317.97
374.26	312.32
374.641	336.73
375.021	317.97
375.402	322.49
375.783	341.93
376.163	323.17
376.544	326.79
376.925	315.94
377.305	323.62
377.686	293.34
378.066	328.14
378.447	312.1
378.827	339.89
379.208	333.56
379.588	316.62
379.968	322.27
380.349	324.75
380.729	324.3
381.109	352.1
381.489	328.37
381.87	325.2
382.25	332.43
382.63	354.81
383.01	328.37
383.39	350.74
383.77	350.97
384.15	334.24
384.53	359.55
384.91	340.12
385.29	352.32
385.67	329.5
386.049	360.68
386.429	344.86
386.809	366.33
387.189	359.33
387.568	358.87
387.948	355.26
388.328	364.75
388.707	364.07
389.087	353
389.466	386.9
389.846	370.63
390.225	374.24
390.605	385.31
390.984	372.66
391.363	389.16
391.743	381.7
392.122	379.89
392.501	374.24
392.881	393.9
393.26	379.67
393.639	396.39
394.018	378.08
394.397	387.12
394.776	371.76
395.155	379.89
395.534	396.39
395.913	395.03
396.292	387.12
396.671	395.48
397.05	411.08
397.429	391.87
397.808	413.56
398.186	399.78
398.565	372.43
398.944	425.09
399.323	418.76
399.701	414.01
400.08	396.84
400.458	409.49
400.837	412.21
401.215	423.51
401.594	414.69
401.972	422.15
402.351	446.1
402.729	421.47
403.107	448.14
403.486	428.93
403.864	458.08
404.242	439.1
404.62	463.73
404.999	446.1
405.377	449.04
405.755	475.71
406.133	476.84
406.511	484.97
406.889	487.23
407.267	485.2
407.645	484.97
408.023	489.04
408.401	508.7
408.779	529.04
409.156	531.53
409.534	538.76
409.912	521.81
410.29	551.86
410.667	558.19
411.045	522.49
411.422	538.98
411.8	585.76
412.178	578.98
412.555	609.72
412.933	601.58
413.31	619.88
413.687	607.46
414.065	637.06
414.442	643.61
414.819	650.17
415.197	657.4
415.574	651.07
415.951	679.77
416.328	669.83
416.705	690.17
417.082	675.48
417.46	738.07
417.837	721.58
418.214	747.11
418.591	744.4
418.967	739.88
419.344	752.76
419.721	781.24
420.098	798.64
420.475	795.02
420.852	798.86
421.228	798.19
421.605	830.95
421.982	843.83
422.358	863.95
422.735	887.9
423.111	887.9
423.488	922.93
423.864	909.59
424.241	945.75
424.617	978.75
424.994	976.94
425.37	971.06
425.746	997.5
426.123	1009.48
426.499	1024.39
426.875	1054.45
427.251	1031.63
427.627	1092.19
428.003	1104.84
428.379	1098.29
428.756	1108.01
429.132	1135.35
429.507	1181.9
429.883	1167.22
430.259	1187.55
430.635	1199.76
431.011	1218.97
431.387	1235.01
431.763	1247.21
432.138	1268.68
432.514	1286.31
432.89	1311.39
433.265	1311.62
433.641	1378.96
434.016	1391.39
434.392	1387.55
434.767	1454.89
435.143	1453.99
435.518	1478.85
435.894	1507.77
436.269	1526.53
436.644	1555.91
437.02	1606.75
437.395	1611.95
437.77	1646.07
438.145	1686.75
438.52	1692.85
438.895	1747.54
439.271	1755.22
439.646	1743.7
440.021	1806.07
440.395	1827.76
440.77	1794.54
441.145	1853.07
441.52	1868.89
441.895	1943.92
442.27	1956.57
442.645	1947.53
443.019	1999.51
443.394	1958.15
443.769	2047.87
444.143	2048.77
444.518	2083.8
444.892	2081.09
445.267	2082.22
445.641	2137.36
446.016	2157.02
446.39	2169
446.764	2211.03
447.139	2169.22
447.513	2210.8
447.887	2253.29
448.262	2256.9
448.636	2260.52
449.01	2266.85
449.384	2310.91
449.758	2342.55
450.132	2367.18
450.506	2399.95
450.88	2382.78
451.254	2385.94
451.628	2428.65
452.002	2468.2
452.376	2501.64
452.75	2518.82
453.123	2543.45
453.497	2562.66
453.871	2594.07
454.244	2645.37
454.618	2652.15
454.992	2660.28
455.365	2691.92
455.739	2793.39
456.112	2773.05
456.486	2786.83
456.859	2829.32
457.232	2865.48
457.606	2858.47
457.979	2932.14
458.352	2965.36
458.725	3010.56
459.099	3048.07
459.472	3114.73
459.845	3131.46
460.218	3131.68
460.591	3174.17
460.964	3196.09
461.337	3267.05
461.71	3321.51
462.083	3319.02
462.456	3355.18
462.829	3377.55
463.201	3434.73
463.574	3424.1
463.947	3510.66
464.32	3554.95
464.692	3594.95
465.065	3642.63
465.438	3665.23
465.81	3734.83
466.183	3754.27
466.555	3818.67
466.928	3892.57
467.3	3860.48
467.672	3920.14
468.045	4030.42
468.417	4013.92
468.789	4034.48
469.161	4089.85
469.534	4208.04
469.906	4279.68
470.278	4298.21
470.65	4335.27
471.022	4402.16
471.394	4493.91
471.766	4526.22
472.138	4546.11
472.51	4644.86
472.882	4738.87
473.253	4788.59
473.625	4802.6
473.997	4917.17
474.369	4960.79
474.74	5006.21
475.112	5086.89
475.484	5154.68
475.855	5215.02
476.227	5272.19
476.598	5424.73
476.97	5446.2
477.341	5547.21
477.713	5656.14
478.084	5684.16
478.455	5811.84
478.827	5892.97
479.198	6045.96
479.569	6023.81
479.94	6182.68
480.311	6210.25
480.682	6349.68
481.053	6439.39
481.424	6551.93
481.795	6584.25
482.166	6702.89
482.537	6823.79
482.908	6897.69
483.279	6967.29
483.65	7104.46
484.021	7208.86
484.391	7280.73
484.762	7271.01
485.133	7370.89
485.503	7492.47
485.874	7652.69
486.244	7637.55
486.615	7825.12
486.985	7857.89
487.356	8039.35
487.726	8054.49
488.097	8191.44
488.467	8211.1
488.837	8369.06
489.207	8458.1
489.578	8572.44
489.948	8664.65
490.318	8717.53
490.688	8775.15
491.058	8854.7
491.428	8976.05
491.798	9026.22
492.168	9197.29
492.538	9175.59
492.908	9263.27
493.278	9383.95
493.648	9360.9
494.017	9502.82
494.387	9566.32
494.757	9596.15
495.126	9711.4
495.496	9725.86
495.866	9819.64
496.235	9834.33
496.605	9865.97
496.974	9949.58
497.344	10105.96
497.713	10123.82
498.082	10078.39
498.452	10248.33
498.821	10246.3
499.19	10291.49
499.559	10336.01
499.928	10369.23
500.298	10420.98
500.667	10448.33
501.036	10479.06
501.405	10512.73
501.774	10562.45
502.143	10557.93
502.512	10557.25
502.88	10680.64
503.249	10623.24
503.618	10657.81
503.987	10722.67
504.356	10802.89
504.724	10809.67
505.093	10798.6
505.462	10855.77
505.83	10844.25
506.199	10959.27
506.567	11028.42
506.936	10994.98
507.304	11041.31
507.672	11064.58
508.041	11095.32
508.409	11137.12
508.777	11233.39
509.145	11213.73
509.514	11206.95
509.882	11314.29
510.25	11183.22
510.618	11231.58
510.986	11292.6
511.354	11375.76
511.722	11404.23
512.09	11449.2
512.458	11341.86
512.826	11512.93
513.193	11485.81
513.561	11528.75
513.929	11571.91
514.297	11584.57
514.664	11642.65
515.032	11651.46
515.4	11648.3
515.767	11599.26
516.135	11644.91
516.502	11511.12
516.869	11801.96
517.237	11764.22
517.604	11617.11
517.972	11816.2
518.339	11754.51
518.706	11714.28
519.073	11702.31
519.44	11719.93
519.808	11775.52
520.175	11794.28
520.542	11850.1
520.909	11844
521.276	11771
521.643	11844
522.009	11826.82
522.376	11878.8
522.743	11870.44
523.11	11912.92
523.477	11979.81
523.843	11980.72
524.21	11928.06
524.577	12026.14
524.943	12014.39
525.31	12040.38
525.676	12083.09
526.043	12114.72
526.409	12126.02
526.776	12138.45
527.142	12103.2
527.508	12129.19
527.874	12126.93
528.241	12010.77
528.607	12046.7
528.973	12133.25
529.339	12029.75
529.705	12153.59
530.071	12074.72
530.437	12110.66
530.803	12125.12
531.169	12014.39
531.535	12017.1
531.901	12056.65
532.267	11887.39
532.632	12018
532.998	11950.21
533.364	11977.33
533.73	11902.98
534.095	11839.25
534.461	11829.53
534.826	11880.61
535.192	11899.59
535.557	11846.03
535.923	11787.05
536.288	11720.16
536.653	11732.81
537.019	11586.6
537.384	11579.82
537.749	11566.49
538.114	11557
538.479	11520.16
538.845	11504.34
539.21	11438.13
539.575	11422.54
539.94	11324.24
540.305	11353.39
540.67	11279.72
541.034	11280.4
541.399	11216.89
541.764	11190.45
542.129	11120.4
542.494	11146.39
542.858	11076.11
543.223	10999.72
543.587	11036.79
543.952	11004.47
544.316	10928.99
544.681	10823.46
545.045	10819.84
545.41	10810.8
545.774	10744.14
546.138	10748.43
546.503	10636.57
546.867	10558.15
547.231	10614.42
547.595	10547.99
547.959	10531.94
548.324	10475.44
548.688	10410.59
549.052	10411.49
549.416	10355.45
549.779	10347.54
550.143	10289.46
550.507	10218.5
550.871	10234.77
551.235	10210.37
551.599	10225.51
551.962	10129.69
552.326	10065.96
552.689	10109.13
553.053	10045.17
553.417	9966.53
553.78	10055.12
554.143	9942.35
554.507	9804.28
554.87	9901.9
555.234	9927.21
555.597	9849.7
555.96	9756.59
556.323	9839.08
556.686	9739.42
557.05	9797.95
557.413	9757.72
557.776	9656.48
558.139	9730.83
558.502	9679.76
558.865	9650.16
559.228	9632.3
559.59	9655.58
559.953	9577.84
560.316	9704.84
560.679	9575.58
561.041	9625.07
561.404	9650.38
561.767	9613.55
562.129	9548.92
562.492	9638.18
562.854	9605.64
563.217	9513.21
563.579	9524.96
563.941	9536.26
564.304	9564.51
564.666	9546.88
565.028	9539.88
565.39	9527.9
565.753	9572.42
566.115	9546.66
566.477	9554.79
566.839	9574
567.201	9583.04
567.563	9567.45
567.925	9567.67
568.287	9572.87
568.648	9559.99
569.01	9647.44
569.372	9626.2
569.734	9610.16
570.095	9633.43
570.457	9609.7
570.819	9615.35
571.18	9579.42
571.542	9689.93
571.903	9587.33
572.265	9625.3
572.626	9628.91
572.987	9673.88
573.349	9603.38
573.71	9623.49
574.071	9672.98
574.432	9621.68
574.794	9704.84
575.155	9658.74
575.516	9569.93
575.877	9655.35
576.238	9649.7
576.599	9709.82
576.96	9642.02
577.32	9682.92
577.681	9713.66
578.042	9711.85
578.403	9690.38
578.763	9668.23
579.124	9749.59
579.485	9735.58
579.845	9725.41
580.206	9710.27
580.566	9691.51
580.927	9685.86
581.287	9732.87
581.648	9697.84
582.008	9726.31
582.368	9748.23
582.728	9741.68
583.089	9723.37
583.449	9715.24
583.809	9752.3
584.169	9704.17
584.529	9698.06
584.889	9722.92
585.249	9636.6
585.609	9574.23
585.969	9745.07
586.329	9661
586.688	9673.66
587.048	9704.84
587.408	9637.27
587.768	9692.19
588.127	9564.06
588.487	9594.11
588.846	9738.29
589.206	9631.4
589.565	9645.41
589.925	9570.16
590.284	9670.27
590.643	9656.71
591.003	9611.74
591.362	9578.97
591.721	9504.62
592.08	9631.63
592.44	9657.16
592.799	9593.43
593.158	9568.35
593.517	9575.36
593.876	9588.46
594.235	9557.28
594.593	9543.27
594.952	9543.72
595.311	9562.47
595.67	9463.72
596.029	9593.66
596.387	9545.75
596.746	9569.93
597.104	9552.31
597.463	9559.31
597.822	9569.93
598.18	9525.64
598.538	9470.5
598.897	9575.36
599.255	9484.06
599.613	9592.76
599.972	9542.81
600.33	9484.51
600.688	9550.27
601.046	9502.59
601.404	9615.13
601.762	9539.65
602.12	9642.92
602.478	9493.1
602.836	9611.06
603.194	9483.83
603.552	9508.46
603.91	9458.07
604.268	9491.29
604.625	9524.74
604.983	9538.07
605.341	9467.79
605.698	9547.33
606.056	9474.12
606.413	9493.78
606.771	9525.64
607.128	9559.08
607.485	9481.12
607.843	9501.23
608.2	9540.1
608.557	9556.82
608.914	9564.06
609.272	9568.58
609.629	9620.78
609.986	9600.89
610.343	9580.33
610.7	9556.82
611.057	9567.67
611.414	9603.83
611.771	9584.62
612.127	9696.71
612.484	9630.95
612.841	9703.26
613.198	9583.04
613.554	9630.04
613.911	9668.23
614.267	9590.95
614.624	9629.59
614.98	9721.79
615.337	9677.5
615.693	9670.27
616.05	9656.26
616.406	9739.19
616.762	9765.18
617.118	9688.8
617.475	9694.9
617.831	9751.4
618.187	9724.5
618.543	9735.58
618.899	9713.43
619.255	9719.08
619.611	9699.42
619.967	9753.2
620.323	9715.46
620.678	9726.54
621.034	9736.48
621.39	9715.92
621.746	9661.46
622.101	9862.13
622.457	9750.72
622.812	9755.92
623.168	9745.07
623.523	9791.4
623.879	9767.44
624.234	9733.32
624.589	9723.15
624.945	9780.1
625.3	9766.54
625.655	9721.57
626.01	9795.91
626.365	9784.62
626.72	9659.42
627.075	9721.34
627.43	9723.15
627.785	9669.36
628.14	9678.4
628.495	9660.78
628.85	9723.6
629.205	9642.7
629.559	9765.18
629.914	9634.56
630.269	9697.84
630.623	9680.66
630.978	9610.16
631.332	9675.69
631.687	9678.63
632.041	9566.77
632.396	9652.64
632.75	9603.38
633.104	9666.88
633.459	9527.67
633.813	9517.5
634.167	9552.76
634.521	9545.75
634.875	9604.73
635.229	9528.8
635.583	9442.03
635.937	9445.64
636.291	9496.71
636.645	9475.47
636.999	9407.68
637.352	9507.56
637.706	9437.05
638.06	9469.6
638.413	9435.7
638.767	9394.12
639.121	9425.75
639.474	9329.71
639.828	9380.11
640.181	9368.36
640.534	9391.63
640.888	9417.39
641.241	9314.35
641.594	9337.62
641.947	9327.9
642.301	9296.04
642.654	9270.73
643.007	9287.45
643.36	9256.49
643.713	9298.75
644.066	9293.78
644.419	9249.49
644.771	9200.68
645.124	9130.17
645.477	9133.33
645.83	9075.48
646.182	9006.78
646.535	8989.61
646.888	9045.2
647.24	8928.82
647.593	9007.23
647.945	8970.63
648.298	8986.44
648.65	8934.24
649.002	8954.13
649.355	8963.17
649.707	8944.86
650.059	8992.55
650.411	9103.05
650.763	9100.11
651.115	9157.97
651.467	9188.02
651.819	9208.81
652.171	9196.38
652.523	9189.83
652.875	9138.3
653.227	9119.32
653.578	9132.43
653.93	9163.61
654.282	9097.18
654.633	9113.9
654.985	9148.02
655.337	9169.94
655.688	9183.05
656.039	9185.54
656.391	9098.31
656.742	9183.73
657.094	9164.74
657.445	9160.68
657.796	9174.01
658.147	9134.92
658.498	9184.63
658.849	9155.48
659.2	9156.84
659.551	9156.16
659.902	9187.57
660.253	9186.67
660.604	9205.65
660.955	9098.76
661.306	9221.92
661.656	9209.26
662.007	9169.49
662.358	9222.37
662.708	9146.67
663.059	9183.05
663.409	9123.39
663.76	9208.36
664.11	9221.24
664.461	9278.64
664.811	9236.38
665.161	9224.63
665.511	9265.53
665.862	9232.31
666.212	9235.03
666.562	9192.99
666.912	9162.03
667.262	9252.65
667.612	9196.61
667.962	9243.61
668.312	9243.39
668.662	9314.35
669.011	9178.08
669.361	9187.12
669.711	9199.09
670.06	9196.61
670.41	9214.91
670.76	9151.86
671.109	9192.99
671.459	9177.85
671.808	9160.23
672.157	9161.13
672.507	9141.02
672.856	9110.06
673.205	9131.53
673.554	9165.42
673.904	9153.67
674.253	9143.95
674.602	9112.77
674.951	9035.71
675.3	9020.79
675.649	9100.57
675.998	9126.33
676.346	9087.46
676.695	9093.11
677.044	9054.47
677.393	9057.86
677.741	9013.56
678.09	8967.69
678.438	8977.18
678.787	9014.01
679.135	9083.17
679.484	8968.14
679.832	8936.05
680.181	8892.21
680.529	8921.81
680.877	8874.13
681.225	8899.67
681.573	8976.28
681.922	8890.85
682.27	8841.59
682.618	8851.76
682.966	8851.98
683.314	8869.84
683.661	8758.43
684.009	8773.34
684.357	8762.04
684.705	8696.73
685.053	8737.64
685.4	8762.72
685.748	8661.03
686.095	8658.54
686.443	8665.55
686.79	8603.86
687.138	8599.11
687.485	8630.07
687.832	8524.31
688.18	8540.13
688.527	8441.37
688.874	8495.84
689.221	8480.92
689.568	8412.9
689.915	8439.79
690.262	8410.41
690.609	8413.8
690.956	8303.3
691.303	8318.67
691.65	8289.97
691.997	8295.62
692.344	8197.99
692.69	8267.82
693.037	8194.37
693.383	8138.11
693.73	8151.21
694.077	8096.07
694.423	8056.53
694.769	8080.03
695.116	8054.27
695.462	8020.14
695.808	7984.21
696.155	8026.7
696.501	7949.64
696.847	7929.3
697.193	7824.44
697.539	7870.54
697.885	7811.33
698.231	7790.09
698.577	7779.7
698.923	7800.04
699.269	7701.96
699.614	7741.73
699.96	7629.19
700.306	7682.52
700.651	7574.05
700.997	7528.63
701.342	7578.57
701.688	7493.83
702.033	7480.72
702.379	7501.06
702.724	7451.34
703.069	7426.03
703.415	7339.48
703.76	7374.74
704.105	7340.39
704.45	7315.75
704.795	7314.4
705.14	7273.5
705.485	7233.72
705.83	7172.71
706.175	7132.93
706.52	7197.11
706.865	7132.48
707.209	7148.3
707.554	7090.45
707.899	7126.61
708.243	7090.45
708.588	7077.12
708.932	7028.98
709.277	6975.42
709.621	7022.2
709.966	6934.75
710.31	6995.08
710.654	6875.31
710.998	6921.64
711.342	6923.45
711.687	6887.29
712.031	6885.03
712.375	6832.15
712.719	6837.35
713.063	6831.25
713.407	6820.4
713.75	6789.44
714.094	6828.76
714.438	6747.41
714.782	6784.92
715.125	6757.35
715.469	6718.03
715.812	6766.84
716.156	6687.07
716.499	6671.93
716.843	6686.17
717.186	6697.47
717.53	6712.83
717.873	6676.67
718.216	6658.37
718.559	6630.35
718.902	6588.54
719.246	6612.5
719.589	6587.41
719.932	6558.49
720.275	6583.57
720.617	6483.01
720.96	6540.86
721.303	6590.58
721.646	6539.28
721.989	6526.17
722.331	6604.59
722.674	6506.96
723.016	6497.92
723.359	6460.86
723.701	6535.66
724.044	6510.58
724.386	6449.79
724.729	6466.28
725.071	6505.83
725.413	6461.31
725.755	6469.22
726.097	6448.43
726.439	6421.09
726.782	6415.89
727.124	6475.32
727.465	6423.57
727.807	6433.29
728.149	6406.63
728.491	6409.79
728.833	6442.56
729.175	6349
729.516	6410.47
729.858	6406.17
730.199	6389.22
730.541	6406.4
730.882	6365.04
731.224	6453.86
731.565	6407.53
731.906	6433.07
732.248	6441.65
732.589	6374.31
732.93	6329.11
733.271	6337.7
733.612	6394.42
733.953	6414.31
734.294	6390.35
734.635	6367.98
734.976	6478.26
735.317	6329.57
735.658	6373.63
735.999	6387.87
736.339	6429
736.68	6460.18
737.021	6399.17
737.361	6409.56
737.702	6427.42
738.042	6451.82
738.383	6420.18
738.723	6433.29
739.063	6433.52
739.404	6450.69
739.744	6450.47
740.084	6475.55
740.424	6465.83
740.764	6488.43
741.104	6512.16
741.444	6491.82
741.784	6538.83
742.124	6541.54
742.464	6549.67
742.804	6589.9
743.143	6560.07
743.483	6598.26
743.823	6620.86
744.162	6614.3
744.502	6660.63
744.841	6690.91
745.181	6678.03
745.52	6777.92
745.86	6761.64
746.199	6831.47
746.538	6832.15
746.877	6880.06
747.216	6927.74
747.556	6983.79
747.895	7002.09
748.234	7069.21
748.573	7080.51
748.911	7117.34
749.25	7248.41
749.589	7211.58
749.928	7297.45
750.267	7332.7
750.605	7430.78
750.944	7491.12
751.283	7548.97
751.621	7659.47
751.96	7744.44
752.298	7843.42
752.636	7911.67
752.975	8024.44
753.313	8123.42
753.651	8226.46
753.989	8382.62
754.327	8473.92
754.666	8535.38
755.004	8715.49
755.342	8827.35
755.679	8934.02
756.017	8975.15
756.355	9288.36
756.693	9246.1
757.031	9536.49
757.368	9589.59
757.706	9727.44
758.044	9858.29
758.381	10004.95
758.719	10173.08
759.056	10467.08
759.394	10533.75
759.731	10596.57
760.068	10848.09
760.405	10993.85
760.743	11175.99
761.08	11350.9
761.417	11560.16
761.754	11748.63
762.091	11932.13
762.428	12065.46
762.765	12211.67
763.102	12433.13
763.438	12516.07
763.775	12803.29
764.112	12978.43
764.449	13164.87
764.785	13308.82
765.122	13473.56
765.458	13636.27
765.795	13775.92
