Data from hue_320_FLMS001491_80.txt Node
Date: Mon Feb 06 15:47:41 GMT 2017
User: dcchb
Spectrometer: FLMS00149
Trigger mode: 0
Integration Time (sec): 2.000000E-2
Scans to average: 10
Electric dark correction enabled: true
Nonlinearity correction enabled: false
Boxcar width: 0
XAxis mode: Wavelengths
Number of Pixels in Spectrum: 2048
>>>>>Begin Spectral Data<<<<<
341.393	9.72
341.776	9.72
342.16	9.72
342.543	-52.43
342.927	-56.04
343.31	-74.57
343.693	-62.37
344.077	-65.31
344.46	-54.69
344.843	-38.87
345.226	-54.91
345.61	-29.83
345.993	-2.03
346.376	-2.03
346.759	11.07
347.142	17.17
347.525	38.64
347.908	56.5
348.291	63.28
348.674	82.03
349.057	115.93
349.44	160.22
349.823	162.26
350.206	166.1
350.588	197.51
350.971	186.21
351.354	220.79
351.737	249.48
352.119	263.72
352.502	265.76
352.884	284.51
353.267	265.98
353.65	286.77
354.032	296.72
354.414	307.79
354.797	315.25
355.179	325.42
355.562	316.83
355.944	324.74
356.326	339.88
356.709	330.61
357.091	325.64
357.473	352.53
357.855	326.32
358.238	329.93
358.62	333.32
359.002	335.36
359.384	349.6
359.766	322.48
360.148	334.68
360.53	364.74
360.912	336.26
361.294	334.91
361.676	320.22
362.057	350.27
362.439	329.26
362.821	338.52
363.203	321.12
363.584	319.09
363.966	322.93
364.348	317.51
364.729	322.93
365.111	333.1
365.493	334.23
365.874	326.09
366.256	301.01
366.637	338.52
367.019	324.96
367.4	326.09
367.781	296.04
368.163	320.67
368.544	295.59
368.925	317.73
369.306	324.06
369.688	307.79
370.069	329.03
370.45	308.92
370.831	316.38
371.212	310.05
371.593	309.14
371.974	302.82
372.355	310.95
372.736	308.47
373.117	307.79
373.498	316.83
373.879	311.63
374.26	311.18
374.641	307.56
375.021	320.9
375.402	324.06
375.783	309.14
376.163	326.55
376.544	313.66
376.925	331.29
377.305	332.42
377.686	300.11
378.066	336.49
378.447	313.89
378.827	332.65
379.208	316.6
379.588	333.78
379.968	314.12
380.349	317.05
380.729	317.96
381.109	319.54
381.489	331.97
381.87	331.06
382.25	332.87
382.63	344.85
383.01	342.59
383.39	343.04
383.77	348.01
384.15	346.21
384.53	357.96
384.91	364.51
385.29	333.78
385.67	345.98
386.049	335.58
386.429	350.73
386.809	365.87
387.189	352.76
387.568	345.98
387.948	351.4
388.328	362.25
388.707	374
389.087	349.14
389.466	351.86
389.846	346.43
390.225	343.72
390.605	361.57
390.984	359.31
391.363	369.26
391.743	368.8
392.122	354.11
392.501	341.01
392.881	383.94
393.26	374.68
393.639	357.05
394.018	357.05
394.397	358.63
394.776	367.9
395.155	370.84
395.534	373.1
395.913	377.84
396.292	374.91
396.671	391.63
397.05	370.84
397.429	379.43
397.808	372.19
398.186	378.97
398.565	377.17
398.944	382.81
399.323	389.59
399.701	385.98
400.08	389.82
400.458	422.14
400.837	412.64
401.215	399.54
401.594	403.15
401.972	404.51
402.351	380.1
402.729	392.76
403.107	409.25
403.486	415.81
403.864	412.87
404.242	413.32
404.62	409.71
404.999	408.35
405.377	428.01
405.755	409.25
406.133	436.82
406.511	406.09
406.889	445.86
407.267	437.05
407.645	457.39
408.023	440.67
408.401	441.57
408.779	446.77
409.156	437.73
409.534	452.42
409.912	460.78
410.29	461.23
410.667	486.54
411.045	484.28
411.422	484.51
411.8	483.83
412.178	509.82
412.555	504.62
412.933	522.92
413.31	516.37
413.687	515.69
414.065	510.04
414.442	510.95
414.819	512.08
415.197	532.19
415.574	538.29
415.951	546.43
416.328	567.67
416.705	570.61
417.082	566.31
417.46	564.5
417.837	566.99
418.214	561.12
418.591	581.91
418.967	606.99
419.344	588.69
419.721	603.83
420.098	602.7
420.475	604.28
420.852	605.18
421.228	642.69
421.605	628.23
421.982	635.01
422.358	671.17
422.735	638.85
423.111	669.59
423.488	639.76
423.864	665.75
424.241	667.33
424.617	678.85
424.994	689.7
425.37	713.43
425.746	686.31
426.123	709.81
426.499	700.09
426.875	703.71
427.251	714.11
427.627	717.04
428.003	725.86
428.379	722.69
428.756	756.59
429.132	769.47
429.507	762.01
429.883	773.99
430.259	759.98
430.635	765.86
431.011	803.59
431.387	805.85
431.763	826.64
432.138	812.63
432.514	821
432.89	849.24
433.265	853.99
433.641	862.12
434.016	877.72
434.392	862.35
434.767	889.47
435.143	887.66
435.518	884.95
435.894	916.59
436.269	898.28
436.644	935.34
437.02	918.85
437.395	915.23
437.77	925.85
438.145	932.4
438.52	988.67
438.895	986.64
439.271	977.6
439.646	979.86
440.021	981.22
440.395	996.81
440.77	978.51
441.145	998.62
441.52	1006.98
441.895	1037.03
442.27	1018.5
442.645	1018.73
443.019	1040.88
443.394	1056.47
443.769	1046.53
444.143	1034.32
444.518	1063.02
444.892	1039.07
445.267	1051.5
445.641	1084.27
446.016	1046.98
446.39	1061.44
446.764	1078.39
447.139	1074.32
447.513	1099.86
447.887	1090.59
448.262	1108.45
448.636	1076.58
449.01	1110.25
449.384	1116.35
449.758	1110.03
450.132	1135.34
450.506	1124.72
450.88	1136.92
451.254	1128.11
451.628	1144.6
452.002	1138.95
452.376	1153.42
452.75	1155.68
453.123	1160.65
453.497	1173.53
453.871	1176.69
454.244	1201.78
454.618	1159.07
454.992	1228.67
455.365	1201.32
455.739	1220.53
456.112	1230.93
456.486	1227.99
456.859	1251.49
457.232	1253.75
457.606	1277.71
457.979	1279.74
458.352	1278.16
458.725	1279.97
459.099	1299.4
459.472	1341.66
459.845	1318.16
460.218	1302.11
460.591	1352.51
460.964	1334.65
461.337	1399.96
461.71	1352.73
462.083	1403.35
462.456	1376.91
462.829	1381.88
463.201	1403.58
463.574	1414.88
463.947	1400.42
464.32	1454.2
464.692	1442
465.065	1467.53
465.438	1498.27
465.81	1502.56
466.183	1477.48
466.555	1512.5
466.928	1536
467.3	1525.84
467.672	1532.16
468.045	1570.58
468.417	1555.89
468.789	1586.62
469.161	1604.48
469.534	1611.71
469.906	1606.74
470.278	1628.21
470.65	1644.02
471.022	1674.98
471.394	1686.74
471.766	1686.51
472.138	1690.13
472.51	1752.04
472.882	1720.86
473.253	1781.65
473.625	1751.37
473.997	1790.91
474.369	1808.54
474.74	1837.24
475.112	1837.92
475.484	1863.68
475.855	1910.46
476.227	1918.14
476.598	1949.33
476.97	1956.56
477.341	1978.48
477.713	2002.21
478.084	2010.34
478.455	2051.47
478.827	2084.92
479.198	2100.06
479.569	2105.71
479.94	2162.88
480.311	2157.68
480.682	2217.79
481.053	2234.74
481.424	2278.81
481.795	2258.47
482.166	2286.27
482.537	2328.53
482.908	2354.97
483.279	2373.5
483.65	2393.84
484.021	2468.86
484.391	2441.52
484.762	2467.73
485.133	2500.05
485.503	2520.61
485.874	2558.35
486.244	2553.38
486.615	2596.54
486.985	2608.07
487.356	2648.52
487.726	2664.11
488.097	2739.36
488.467	2730.78
488.837	2765.8
489.207	2767.16
489.578	2825.91
489.948	2811
490.318	2840.38
490.688	2845.8
491.058	2870.88
491.428	2908.62
491.798	3003.31
492.168	3014.38
492.538	3019.13
492.908	3026.36
493.278	3069.07
493.648	3075.4
494.017	3124.44
494.387	3114.27
494.757	3141.84
495.126	3162.63
495.496	3211.67
495.866	3140.71
496.235	3217.09
496.605	3238.56
496.974	3234.04
497.344	3245.56
497.713	3318.78
498.082	3286.92
498.452	3304.09
498.821	3301.38
499.19	3333.25
499.559	3376.86
499.928	3372.57
500.298	3378.44
500.667	3433.13
501.036	3386.8
501.405	3411.21
501.774	3409.63
502.143	3461.38
502.512	3443.75
502.88	3497.08
503.249	3471.55
503.618	3494.6
503.987	3500.92
504.356	3525.33
504.724	3526.23
505.093	3557.42
505.462	3575.73
505.83	3569.17
506.199	3618.21
506.567	3616.18
506.936	3683.52
507.304	3637.87
507.672	3645.33
508.041	3665.44
508.409	3669.73
508.777	3736.85
509.145	3738.21
509.514	3711.54
509.882	3737.98
510.25	3733.46
510.618	3741.6
510.986	3761.26
511.354	3756.74
511.722	3795.15
512.09	3821.37
512.458	3750.64
512.826	3840.13
513.193	3860.92
513.561	3846.23
513.929	3840.13
514.297	3871.54
514.664	3920.8
515.032	3920.12
515.4	3891.42
515.767	3900.01
516.135	3895.26
516.502	3917.19
516.869	3934.36
517.237	3974.81
517.604	3968.26
517.972	4012.55
518.339	4031.53
518.706	4000.8
519.073	3963.74
519.44	4013
519.808	4026.56
520.175	4029.05
520.542	4055.94
520.909	4094.81
521.276	4069.5
521.643	4079.89
522.009	4118.54
522.376	4149.95
522.743	4163.73
523.11	4180.91
523.477	4205.31
523.843	4190.85
524.21	4230.17
524.577	4242.37
524.943	4232.88
525.31	4271.75
525.676	4297.97
526.043	4320.56
526.409	4335.71
526.776	4373.9
527.142	4352.65
527.508	4375.25
527.874	4400.11
528.241	4405.76
528.607	4424.06
528.973	4505.42
529.339	4476.72
529.705	4526.21
530.071	4558.07
530.437	4528.02
530.803	4526.89
531.169	4592.65
531.535	4587.9
531.901	4581.8
532.267	4592.2
532.632	4650.05
532.998	4677.17
533.364	4748.12
533.73	4691.63
534.095	4747.22
534.461	4713.1
534.826	4801
535.192	4801.91
535.557	4849.59
535.923	4811.85
536.288	4874.45
536.653	4851.17
537.019	4825.86
537.384	4925.29
537.749	4923.94
538.114	4944.05
538.479	4944.5
538.845	4961.23
539.21	4961.68
539.575	5025.4
539.94	5010.04
540.305	5058.17
540.67	5029.02
541.034	5078.51
541.399	5128.23
541.764	5114.22
542.129	5158.51
542.494	5117.15
542.858	5205.06
543.223	5210.94
543.587	5229.47
543.952	5255.23
544.316	5288.45
544.681	5259.52
545.045	5294.55
545.41	5320.09
545.774	5318.96
546.138	5320.99
546.503	5392.85
546.867	5384.72
547.231	5485.28
547.595	5463.13
547.959	5446.86
548.324	5494.09
548.688	5534.54
549.052	5540.19
549.416	5530.02
549.779	5563.7
550.143	5576.12
550.507	5615.22
550.871	5649.79
551.235	5586.07
551.599	5647.76
551.962	5683.69
552.326	5681.66
552.689	5747.65
553.053	5726.63
553.417	5684.14
553.78	5793.29
554.143	5760.75
554.507	5789.45
554.87	5824.93
555.234	5850.69
555.597	5832.16
555.96	5797.36
556.323	5886.4
556.686	5857.7
557.05	5896.34
557.413	5957.36
557.776	5933.4
558.139	5974.08
558.502	5956
558.865	5966.4
559.228	5970.24
559.59	6040.29
559.953	6070.57
560.316	6094.3
560.679	6108.09
561.041	6079.61
561.404	6157.58
561.767	6210.68
562.129	6161.65
562.492	6269.44
562.854	6188.09
563.217	6261.3
563.579	6257.46
563.941	6229.67
564.304	6281.64
564.666	6337.91
565.028	6386.95
565.39	6324.58
565.753	6367.29
566.115	6421.75
566.477	6405.48
566.839	6449.32
567.201	6491.58
567.563	6475.76
567.925	6483.9
568.287	6553.95
568.648	6572.71
569.01	6621.07
569.372	6682.99
569.734	6648.64
570.095	6635.76
570.457	6738.35
570.819	6741.29
571.18	6751.91
571.542	6797.56
571.903	6899.93
572.265	6885.02
572.626	6884.11
572.987	6913.04
573.349	6948.74
573.71	6953.72
574.071	7048.18
574.432	7076.65
574.794	7162.75
575.155	7188.51
575.516	7237.78
575.877	7283.42
576.238	7326.59
576.599	7401.84
576.96	7473.25
577.32	7526.13
577.681	7580.59
578.042	7668.05
578.403	7729.06
578.763	7827.82
579.124	7936.29
579.485	8023.97
579.845	8097.19
580.206	8176.06
580.566	8217.64
580.927	8365.66
581.287	8621.92
581.648	8622.82
582.008	8765.19
582.368	8929.26
582.728	9049.25
583.089	9113.88
583.449	9201.57
583.809	9505.51
584.169	9628.67
584.529	9743.25
584.889	9980.98
585.249	10126.74
585.609	10283.57
585.969	10446.5
586.329	10686.95
586.688	10846.95
587.048	11076.77
587.408	11239.48
587.768	11519.92
588.127	11710.88
588.487	11936.86
588.846	12242.16
589.206	12368.49
589.565	12664.53
589.925	12926.89
590.284	13167.34
590.643	13323.04
591.003	13738.4
591.362	13917.83
591.721	14160.53
592.08	14516.45
592.44	14744.92
592.799	15077.34
593.158	15191.24
593.517	15508.74
593.876	15781.51
594.235	16078.67
594.593	16465.56
594.952	16666.68
595.311	16925.66
595.67	17335.36
596.029	17617.84
596.387	17910.72
596.746	18124.04
597.104	18378.5
597.463	18692.62
597.822	19046.5
598.18	19292.15
598.538	19451.01
598.897	19979.59
599.255	19989.08
599.613	20534.38
599.972	20695.05
600.33	21089.39
600.688	21218.88
601.046	21489.38
601.404	21836.94
601.762	22122.58
602.12	22604.15
602.478	22734.54
602.836	23090.01
603.194	23204.14
603.552	23512.15
603.91	23688.87
604.268	23915.76
604.625	24192.13
604.983	24552.8
605.341	24626.47
605.698	25031.88
606.056	25291.09
606.413	25355.04
606.771	25781.47
607.128	25839.09
607.485	26178.97
607.843	26313.66
608.2	26713.42
608.557	26943.92
608.914	27045.16
609.272	27392.5
609.629	27702.32
609.986	27841.53
610.343	28008.53
610.7	28333.27
611.057	28649.64
611.414	28737.78
611.771	28825.23
612.127	29039.24
612.484	29323.52
612.841	29551.77
613.198	29572.56
613.554	29719.67
613.911	30029.04
614.267	30184.29
614.624	30313.78
614.98	30497.73
615.337	30715.35
615.693	30915.35
616.05	30941.56
616.406	31321.21
616.762	31310.36
617.118	31566.18
617.475	31454.77
617.831	31800.97
618.187	31904.02
618.543	32157.12
618.899	32276.44
619.255	32407.28
619.611	32512.14
619.967	32716.2
620.323	32884.33
620.678	32846.59
621.034	32841.4
621.39	33106.47
621.746	33208.84
622.101	33681.83
622.457	33429.18
622.812	33402.74
623.168	33714.14
623.523	33800.47
623.879	33939.22
624.234	33821.03
624.589	33996.17
624.945	34145.77
625.3	34282.04
625.655	34319.1
626.01	34392.32
626.365	34424.63
626.72	34440.9
627.075	34507.12
627.43	34589.37
627.785	34560.22
628.14	34714.57
628.495	34850.38
628.85	34858.07
629.205	34867.78
629.559	35092.41
629.914	35038.63
630.269	35080.89
630.623	35092.18
630.978	35049.47
631.332	35208.57
631.687	35277.49
632.041	35095.57
632.396	35336.7
632.75	35175.35
633.104	35356.58
633.459	35212.18
633.813	35235.68
634.167	35217.15
634.521	35225.74
634.875	35295.12
635.229	35228
635.583	35277.04
635.937	35319.98
636.291	35242.01
636.645	35280.65
636.999	35331.27
637.352	35294.89
637.706	35192.75
638.06	35366.3
638.413	35435.9
638.767	35314.1
639.121	35275.91
639.474	35073.2
639.828	35205.63
640.181	35289.47
640.534	35338.51
640.888	35223.03
641.241	35233.42
641.594	35235.68
641.947	35350.03
642.301	35258.06
642.654	35348.68
643.007	35188.45
643.36	35225.29
643.713	35211.05
644.066	35338.51
644.419	35216.02
644.771	34919.53
645.124	34601.35
645.477	34585.76
645.83	34353.9
646.182	34222.6
646.535	34164.53
646.888	34327.46
647.24	34107.13
647.593	34382.15
647.945	34248.82
648.298	34002.04
648.65	34105.32
649.002	34078.88
649.355	34148.25
649.707	34114.58
650.059	34283.39
650.411	34619.88
650.763	34765.19
651.115	35010.15
651.467	35031.4
651.819	35017.61
652.171	34873.21
652.523	34830.95
652.875	34880.21
653.227	34766.54
653.578	34938.74
653.93	34957.95
654.282	34702.14
654.633	34693.78
654.985	34754.34
655.337	34809.03
655.688	34782.14
656.039	34951.85
656.391	34635.02
656.742	34697.17
657.094	34682.93
657.445	34823.49
657.796	34703.72
658.147	34679.77
658.498	34623.72
658.849	34737.39
659.2	34607.9
659.551	34599.77
659.902	34782.14
660.253	34594.8
660.604	34663.27
660.955	34407.46
661.306	34692.87
661.656	34540.33
662.007	34496.72
662.358	34488.36
662.708	34566.32
663.059	34561.8
663.409	34339.89
663.76	34541.24
664.11	34529.49
664.461	34571.07
664.811	34568.81
665.161	34567.9
665.511	34468.7
665.862	34558.87
666.212	34620.33
666.562	34561.8
666.912	34576.49
667.262	34543.95
667.612	34451.75
667.962	34514.57
668.312	34477.29
668.662	34605.87
669.011	34552.09
669.361	34445.87
669.711	34474.57
670.06	34528.81
670.41	34357.97
670.76	34372.2
671.109	34428.02
671.459	34473.22
671.808	34301.02
672.157	34442.48
672.507	34281.81
672.856	34233.9
673.205	34268.93
673.554	34417.85
673.904	34322.94
674.253	34405.2
674.602	34366.78
674.951	33871.43
675.3	33713.46
675.649	34195.03
675.998	34113.45
676.346	34193.23
676.695	34311.19
677.044	33979.22
677.393	34072.32
677.741	34131.53
678.09	34045.66
678.438	33845.44
678.787	34131.31
679.135	34127.69
679.484	33832.78
679.832	33862.84
680.181	33805.21
680.529	33809.28
680.877	33755.27
681.225	33739.45
681.573	33936.06
681.922	33701.71
682.27	33689.28
682.618	33755.72
682.966	33446.35
683.314	33742.62
683.661	33555.28
684.009	33394.38
684.357	33412.23
684.705	33287.03
685.053	33263.31
685.4	33275.06
685.748	33075.51
686.095	33206.58
686.443	32987.16
686.79	32932.92
687.138	33016.31
687.485	32912.35
687.832	32902.64
688.18	32922.3
688.527	32741.51
688.874	32701.97
689.221	32687.05
689.568	32544.23
689.915	32493.38
690.262	32477.11
690.609	32352.37
690.956	32232.6
691.303	32333.61
691.65	32019.72
691.997	32073.51
692.344	31936.79
692.69	31901.31
693.037	31917.8
693.383	31694.76
693.73	31715.32
694.077	31593.97
694.423	31501.09
694.769	31555.1
695.116	31396.69
695.462	31472.84
695.808	31296.58
696.155	31252.29
696.501	31048.45
696.847	31146.75
697.193	30923.48
697.539	31009.81
697.885	30673.09
698.231	30656.82
698.577	30743.37
698.923	30594.9
699.269	30498.86
699.614	30244.4
699.96	30317.17
700.306	30297.28
700.651	30232.43
700.997	30212.54
701.342	30116.27
701.688	30040.79
702.033	29847.35
702.379	29839.67
702.724	29832.89
703.069	29812.1
703.415	29624.31
703.76	29510.18
704.105	29499.56
704.45	29471.77
704.795	29316.29
705.14	29323.52
705.485	29267.71
705.83	29106.35
706.175	29169.4
706.52	29183.19
706.865	28823.65
707.209	28954.04
707.554	28813.25
707.899	28891.67
708.243	28769.41
708.588	28703.88
708.932	28559.25
709.277	28475.86
709.621	28722.63
709.966	28437.44
710.31	28395.41
710.654	28272.93
710.998	28227.96
711.342	28267.05
711.687	28197.22
712.031	28030
712.375	27940.73
712.719	28034.07
713.063	27907.51
713.407	27940.06
713.75	27657.35
714.094	27755.43
714.438	27650.35
714.782	27559.5
715.125	27574.42
715.469	27508.88
715.812	27475.44
716.156	27279.51
716.499	27474.53
716.843	27397.7
717.186	27235.44
717.53	27356.12
717.873	27340.98
718.216	27208.1
718.559	27093.98
718.902	26866.86
719.246	26914.09
719.589	26799.07
719.932	26805.4
720.275	26857.37
720.617	26799.97
720.96	26717.49
721.303	26774.89
721.646	26725.62
721.989	26551.84
722.331	26595.01
722.674	26583.26
723.016	26493.99
723.359	26480.89
723.701	26552.97
724.044	26239.54
724.386	26264.39
724.729	26347.78
725.071	26239.99
725.413	26201.8
725.755	26135.36
726.097	26066.43
726.439	25917.28
726.782	25991.63
727.124	26115.47
727.465	25931.75
727.807	25983.05
728.149	25835.48
728.491	25788.25
728.833	25757.51
729.175	25718.19
729.516	25558.2
729.858	25647.91
730.199	25625.31
730.541	25664.18
730.882	25655.37
731.224	25652.88
731.565	25436.39
731.906	25452.66
732.248	25557.07
732.589	25433.23
732.93	25202.5
733.271	25251.99
733.612	25360.92
733.953	25282.5
734.294	25152.56
734.635	25219.22
734.976	25103.29
735.317	25027.36
735.658	25127.02
735.999	25071.88
736.339	24999.79
736.68	25140.58
737.021	25004.77
737.361	24848.61
737.702	25089.06
738.042	24925.9
738.383	24776.3
738.723	24894.49
739.063	24764.77
739.404	24739.69
739.744	24652.69
740.084	24595.29
740.424	24561.16
740.764	24461.5
741.104	24660.37
741.444	24514.84
741.784	24447.49
742.124	24481.16
742.464	24337.44
742.804	24394.61
743.143	24296.08
743.483	24239.81
743.823	24175.86
744.162	24160.49
744.502	24172.92
744.841	24051.35
745.181	24246.37
745.52	24030.1
745.86	24027.62
746.199	24049.54
746.538	24045.92
746.877	24039.82
747.216	24042.53
747.556	23961.18
747.895	23864.01
748.234	23740.17
748.573	23651.13
748.911	23784.23
749.25	23711.24
749.589	23581.75
749.928	23625.59
750.267	23641.19
750.605	23596.22
750.944	23506.95
751.283	23407.52
751.621	23526.84
751.96	23341.99
752.298	23257.24
752.636	23228.09
752.975	23252.95
753.313	23080.98
753.651	23249.11
753.989	23180.63
754.327	23044.14
754.666	22889.34
755.004	22921.88
755.342	22951.94
755.679	22904.93
756.017	22720.53
756.355	22793.98
756.693	22734.09
757.031	22765.05
757.368	22646.86
757.706	22565.06
758.044	22523.48
758.381	22443.7
758.719	22429.47
759.056	22494.32
759.394	22233.31
759.731	22276.93
760.068	22164.16
