Data from hue_280_FLMS001491_00072.txt Node
Date: Tue Feb 07 15:55:44 GMT 2017
User: dcchb
Spectrometer: FLMS00149
Trigger mode: 0
Integration Time (sec): 2.000000E-2
Scans to average: 10
Electric dark correction enabled: true
Nonlinearity correction enabled: false
Boxcar width: 0
XAxis mode: Wavelengths
Number of Pixels in Spectrum: 2048
>>>>>Begin Spectral Data<<<<<
341.393	-14.56
341.776	-14.56
342.16	-14.56
342.543	-64.28
342.927	-69.7
343.31	-76.03
343.693	-59.31
344.077	-69.93
344.46	-67.67
344.843	-41.23
345.226	-28.8
345.61	-5.52
345.993	-3.94
346.376	-21.79
346.759	5.78
347.142	26.57
347.525	20.01
347.908	66.57
348.291	70.63
348.674	93.46
349.057	91.2
349.44	116.96
349.823	153.34
350.206	142.72
350.588	189.27
350.971	204.19
351.354	193.34
351.737	245.09
352.119	244.87
352.502	255.94
352.884	264.98
353.267	280.12
353.65	289.61
354.032	293
354.414	279.44
354.797	316.5
355.179	337.07
355.562	316.95
355.944	347.24
356.326	316.5
356.709	331.87
357.091	337.75
357.473	340.01
357.855	333.68
358.238	344.98
358.62	308.14
359.002	329.84
359.384	329.16
359.766	328.93
360.148	331.42
360.53	336.16
360.912	331.42
361.294	320.8
361.676	328.93
362.057	337.29
362.439	321.25
362.821	332.32
363.203	322.38
363.584	319.67
363.966	336.16
364.348	312.66
364.729	319.67
365.111	299.1
365.493	320.34
365.874	312.66
366.256	316.73
366.637	298.2
367.019	307.92
367.4	343.17
367.781	307.69
368.163	306.79
368.544	294.81
368.925	321.02
369.306	335.94
369.688	326.9
370.069	311.31
370.45	324.86
370.831	318.99
371.212	316.05
371.593	301.36
371.974	289.39
372.355	311.08
372.736	323.28
373.117	327.58
373.498	324.41
373.879	309.5
374.26	293.45
374.641	301.36
375.021	322.15
375.402	309.72
375.783	297.07
376.163	332.1
376.544	328.71
376.925	310.85
377.305	344.07
377.686	328.25
378.066	326.22
378.447	330.51
378.827	314.24
379.208	330.51
379.588	340.91
379.968	309.05
380.349	324.19
380.729	320.34
381.109	346.33
381.489	322.38
381.87	355.82
382.25	331.42
382.63	326.9
383.01	331.64
383.39	335.26
383.77	347.46
384.15	338.2
384.53	322.6
384.91	349.72
385.29	352.66
385.67	345.43
386.049	346.11
386.429	335.71
386.809	353.79
387.189	334.81
387.568	371.19
387.948	351.08
388.328	350.85
388.707	371.42
389.087	352.21
389.466	355.82
389.846	357.41
390.225	369.38
390.605	378.2
390.984	369.16
391.363	380.68
391.743	379.33
392.122	382.49
392.501	369.38
392.881	387.24
393.26	380.91
393.639	372.77
394.018	389.27
394.397	394.47
394.776	402.38
395.155	378.42
395.534	382.26
395.913	388.37
396.292	393.56
396.671	386.56
397.05	367.58
397.429	415.94
397.808	394.47
398.186	398.08
398.565	419.33
398.944	400.57
399.323	408.48
399.701	430.17
400.08	421.81
400.458	414.58
400.837	419.78
401.215	436.27
401.594	445.77
401.972	431.3
402.351	413.68
402.729	424.75
403.107	432.66
403.486	474.46
403.864	435.6
404.242	426.1
404.62	443.96
404.999	440.34
405.377	445.09
405.755	443.51
406.133	453.9
406.511	483.28
406.889	479.66
407.267	473.34
407.645	467.23
408.023	500.68
408.401	474.46
408.779	503.16
409.156	497.97
409.534	508.36
409.912	517.85
410.29	499.1
410.667	534.58
411.045	533.9
411.422	546.33
411.8	545.65
412.178	549.04
412.555	561.02
412.933	567.8
413.31	575.93
413.687	552.65
414.065	571.64
414.442	586.1
414.819	591.3
415.197	601.47
415.574	606.89
415.951	617.51
416.328	616.16
416.705	622.94
417.082	636.04
417.46	623.16
417.837	642.6
418.214	645.08
418.591	642.37
418.967	652.09
419.344	669.94
419.721	702.93
420.098	696.61
420.475	683.5
420.852	706.55
421.228	720.33
421.605	719.2
421.982	744.97
422.358	759.43
422.735	737.73
423.111	740.9
423.488	760.11
423.864	787.23
424.241	802.59
424.617	771.63
424.994	799.65
425.37	816.15
425.746	790.16
426.123	834.91
426.499	830.61
426.875	838.52
427.251	839.65
427.627	854.57
428.003	896.6
428.379	882.36
428.756	920.55
429.132	913.32
429.507	912.19
429.883	944.51
430.259	934.57
430.635	951.51
431.011	959.42
431.387	971.63
431.763	1002.59
432.138	993.1
432.514	1005.3
432.89	1009.37
433.265	1044.62
433.641	1045.3
434.016	1069.7
434.392	1092.3
434.767	1104.96
435.143	1097.27
435.518	1092.08
435.894	1128.46
436.269	1151.28
436.644	1182.92
437.02	1151.51
437.395	1196.71
437.77	1182.24
438.145	1203.94
438.52	1227.89
438.895	1222.02
439.271	1231.96
439.646	1273.99
440.021	1255.01
440.395	1258.4
440.77	1305.86
441.145	1310.6
441.52	1330.49
441.895	1367.32
442.27	1326.19
442.645	1341.11
443.019	1339.07
443.394	1366.19
443.769	1365.06
444.143	1363.48
444.518	1409.81
444.892	1394.21
445.267	1421.78
445.641	1387.66
446.016	1432.41
446.39	1423.14
446.764	1433.08
447.139	1448
447.513	1432.18
447.887	1467.89
448.262	1466.53
448.636	1447.32
449.01	1488
449.384	1481.44
449.758	1530.48
450.132	1507.66
450.506	1500.65
450.88	1510.6
451.254	1514.66
451.628	1512.86
452.002	1561.44
452.376	1547.43
452.75	1575.23
453.123	1614.1
453.497	1659.97
453.871	1603.47
454.244	1596.92
454.618	1622.91
454.992	1652.06
455.365	1678.73
455.739	1698.84
456.112	1715.11
456.486	1695.68
456.859	1715.79
457.232	1723.02
457.606	1739.06
457.979	1753.98
458.352	1816.58
458.725	1795.79
459.099	1800.53
459.472	1824.26
459.845	1855.22
460.218	1892.96
460.591	1847.76
460.964	1860.64
461.337	1895.67
461.71	1906.29
462.083	1979.74
462.456	1960.08
462.829	1965.05
463.201	1988.32
463.574	1997.14
463.947	1989.91
464.32	2043.46
464.692	2044.82
465.065	2073.29
465.438	2063.8
465.81	2097.47
466.183	2147.42
466.555	2162.1
466.928	2191.71
467.3	2171.6
467.672	2188.77
468.045	2226.06
468.417	2231.03
468.789	2261.08
469.161	2280.97
469.534	2302.21
469.906	2337.69
470.278	2350.8
470.65	2412.27
471.022	2437.8
471.394	2475.32
471.766	2428.31
472.138	2471.25
472.51	2500.63
472.882	2538.37
473.253	2524.81
473.625	2571.13
473.997	2589.44
474.369	2589.21
474.74	2666.27
475.112	2707.4
475.484	2744.91
475.855	2772.26
476.227	2773.16
476.598	2815.87
476.97	2816.1
477.341	2904.46
477.713	2921.63
478.084	2936.55
478.455	2987.17
478.827	3002.53
479.198	3088.41
479.569	3107.39
479.94	3170.21
480.311	3175.41
480.682	3175.41
481.053	3257.44
481.424	3293.6
481.795	3332.24
482.166	3353.94
482.537	3409.75
482.908	3441.39
483.279	3510.77
483.65	3547.6
484.021	3553.48
484.391	3609.98
484.762	3591.22
485.133	3669.41
485.503	3687.71
485.874	3750.31
486.244	3766.36
486.615	3818.11
486.985	3882.28
487.356	3866.92
487.726	3927.48
488.097	3970.87
488.467	4021.72
488.837	4076.4
489.207	4104.2
489.578	4144.2
489.948	4167.02
490.318	4221.49
490.688	4219.9
491.058	4270.3
491.428	4300.35
491.798	4367.7
492.168	4487.47
492.538	4451.99
492.908	4490.86
493.278	4486.34
493.648	4531.76
494.017	4576.96
494.387	4588.03
494.757	4577.18
495.126	4643.85
495.496	4626.9
495.866	4695.82
496.235	4697.63
496.605	4789.15
496.974	4760.23
497.344	4779.89
497.713	4824.18
498.082	4817.63
498.452	4878.19
498.821	4898.98
499.19	4856.95
499.559	4953.22
499.928	5005.42
500.298	4997.06
500.667	4961.8
501.036	5022.82
501.405	5067.56
501.774	5025.53
502.143	5123.61
502.512	5127
502.88	5119.99
503.249	5121.57
503.618	5127
503.987	5200.44
504.356	5179.43
504.724	5178.97
505.093	5216.26
505.462	5176.26
505.83	5219.88
506.199	5297.84
506.567	5331.06
506.936	5341.91
507.304	5341.68
507.672	5361.12
508.041	5386.2
508.409	5424.39
508.777	5427.1
509.145	5449.48
509.514	5436.59
509.882	5482.24
510.25	5468.23
510.618	5504.16
510.986	5513.43
511.354	5538.96
511.722	5567.66
512.09	5596.59
512.458	5597.95
512.826	5623.71
513.193	5662.13
513.561	5636.82
513.929	5646.53
514.297	5732.86
514.664	5709.81
515.032	5741.22
515.4	5772.4
515.767	5806.08
516.135	5788.68
516.502	5720.43
516.869	5835.68
517.237	5835.68
517.604	5781.9
517.972	5860.54
518.339	5841.78
518.706	5858.5
519.073	5871.39
519.44	5839.07
519.808	5952.96
520.175	5937.37
520.542	6008.56
520.909	5984.83
521.276	5970.37
521.643	6062.11
522.009	6029.35
522.376	6132.85
522.743	6103.47
523.11	6133.3
523.477	6165.84
523.843	6159.29
524.21	6182.79
524.577	6228.44
524.943	6258.49
525.31	6250.58
525.676	6234.77
526.043	6354.54
526.409	6352.95
526.776	6390.02
527.142	6406.06
527.508	6403.8
527.874	6486.96
528.241	6504.59
528.607	6517.24
528.973	6483.57
529.339	6524.02
529.705	6559.05
530.071	6594.76
530.437	6607.86
530.803	6599.28
531.169	6647.41
531.535	6618.03
531.901	6633.63
532.267	6711.36
532.632	6773.28
532.998	6761.08
533.364	6803.34
533.73	6786.62
534.095	6852.83
534.461	6824.35
534.826	6810.34
535.192	6924.01
535.557	6896.22
535.923	6908.42
536.288	6961.98
536.653	6928.53
537.019	6908.87
537.384	6990
537.749	6940.06
538.114	6950.68
538.479	6974.41
538.845	6983.22
539.21	7006.95
539.575	7067.51
539.94	7049.21
540.305	7046.27
540.67	7067.06
541.034	7121.07
541.399	7101.86
541.764	7124.46
542.129	7156.78
542.494	7132.59
542.858	7185.02
543.223	7124.01
543.587	7183.89
543.952	7182.99
544.316	7244.91
544.681	7214.4
545.045	7202.42
545.41	7267.51
545.774	7298.47
546.138	7251.91
546.503	7336.88
546.867	7360.39
547.231	7361.29
547.595	7389.99
547.959	7395.86
548.324	7428.41
548.688	7412.59
549.052	7431.12
549.416	7389.99
549.779	7392.7
550.143	7443.32
550.507	7516.99
550.871	7469.99
551.235	7474.28
551.599	7441.29
551.962	7505.92
552.326	7530.32
552.689	7525.8
553.053	7478.12
553.417	7536.88
553.78	7597.44
554.143	7571.45
554.507	7628.85
554.87	7628.18
555.234	7666.14
555.597	7626.14
555.96	7665.46
556.323	7686.25
556.686	7708.17
557.05	7736.19
557.413	7799.02
557.776	7777.78
558.139	7804.44
558.502	7854.61
558.865	7804.44
559.228	7886.93
559.59	7859.36
559.953	7830.88
560.316	7871.33
560.679	7945.91
561.041	7995.4
561.404	7975.96
561.767	8034.27
562.129	8025.23
562.492	8095.28
562.854	8084.21
563.217	8093.47
563.579	8094.15
563.941	8201.49
564.304	8212.34
564.666	8264.77
565.028	8220.48
565.39	8248.5
565.753	8249.18
566.115	8312.9
566.477	8355.39
566.839	8410.08
567.201	8424.76
567.563	8413.92
567.925	8485.78
568.287	8482.16
568.648	8497.98
569.01	8650.07
569.372	8630.41
569.734	8541.82
570.095	8683.51
570.457	8617.98
570.819	8710.86
571.18	8709.73
571.542	8790.86
571.903	8724.87
572.265	8783.4
572.626	8817.97
572.987	8867.01
573.349	8863.85
573.71	8997.4
574.071	8953.56
574.432	8996.95
574.794	9038.76
575.155	9045.31
575.516	9039.44
575.877	9081.02
576.238	9229.04
576.599	9185.2
576.96	9236.49
577.32	9229.49
577.681	9329.37
578.042	9347.45
578.403	9354.01
578.763	9417.05
579.124	9465.41
579.485	9508.58
579.845	9569.37
580.206	9571.17
580.566	9632.19
580.927	9641.46
581.287	9674.22
581.648	9739.31
582.008	9795.12
582.368	9822.69
582.728	9920.77
583.089	9922.8
583.449	9978.85
583.809	10028.34
584.169	10105.17
584.529	10108.79
584.889	10293.42
585.249	10226.98
585.609	10229.69
585.969	10387.2
586.329	10378.16
586.688	10524.82
587.048	10538.83
587.408	10532.51
587.768	10683.46
588.127	10706.51
588.487	10842.78
588.846	10868.99
589.206	10941.99
589.565	10969.56
589.925	11171.58
590.284	11119.38
590.643	11151.92
591.003	11308.3
591.362	11444.8
591.721	11397.12
592.08	11480.96
592.44	11617
592.799	11592.14
593.158	11659.03
593.517	11772.92
593.876	11816.31
594.235	11844.34
594.593	11920.49
594.952	12004.33
595.311	12037.32
595.67	12158.23
596.029	12307.83
596.387	12351.89
596.746	12335.62
597.104	12412.68
597.463	12477.99
597.822	12559.8
598.18	12537.65
598.538	12597.76
598.897	12765.89
599.255	12707.82
599.613	12933.12
599.972	12841.6
600.33	12949.62
600.688	12944.87
601.046	13087.47
601.404	13194.13
601.762	13252.43
602.12	13278.65
602.478	13329.04
602.836	13441.81
603.194	13347.35
603.552	13457.63
603.91	13424.86
604.268	13490.62
604.625	13441.58
604.983	13487.91
605.341	13576.04
605.698	13724.29
606.056	13845.64
606.413	13731.07
606.771	13779.43
607.128	13884.51
607.485	13874.34
607.843	13901.23
608.2	13923.15
608.557	14055.12
608.914	14012.19
609.272	14180.32
609.629	14171.96
609.986	14223.26
610.343	14161.11
610.7	14437.94
611.057	14342.12
611.414	14385.29
611.771	14415.12
612.127	14551.38
612.484	14454.89
612.841	14581.44
613.198	14523.81
613.554	14505.96
613.911	14568.33
614.267	14695.56
614.624	14647.65
614.98	14652.62
615.337	14743.02
615.693	14722.45
616.05	14764.94
616.406	14889
616.762	14814.2
617.118	14827.08
617.475	14787.08
617.831	14914.31
618.187	14841.32
618.543	14956.57
618.899	15057.58
619.255	15006.51
619.611	14992.73
619.967	15026.85
620.323	15058.04
620.678	14986.17
621.034	15014.2
621.39	15096
621.746	15090.13
622.101	15230.69
622.457	15169.45
622.812	15160.41
623.168	15147.98
623.523	15188.88
623.879	15253.06
624.234	15099.62
624.589	15278.14
624.945	15154.98
625.3	15278.82
625.655	15257.13
626.01	15215.55
626.365	15232.95
626.72	15169.67
627.075	15218.71
627.43	15213.06
627.785	15223
628.14	15231.59
628.495	15249.9
628.85	15238.37
629.205	15208.99
629.559	15320.63
629.914	15275.88
630.269	15217.35
630.623	15145.94
630.978	15167.86
631.332	15222.1
631.687	15238.37
632.041	15208.99
632.396	15308.2
632.75	15201.76
633.104	15193.85
633.459	15119.28
633.813	15169.22
634.167	15128.32
634.521	15216
634.875	15157.92
635.229	15071.6
635.583	15100.52
635.937	15099.39
636.291	15067.3
636.645	15055.78
636.999	15058.94
637.352	15075.44
637.706	14956.34
638.06	15095.78
638.413	15043.8
638.767	15004.25
639.121	14985.5
639.474	14966.06
639.828	14967.64
640.181	14954.31
640.534	14973.07
640.888	14852.17
641.241	14883.13
641.594	14824.37
641.947	14925.16
642.301	14876.8
642.654	14829.34
643.007	14864.82
643.36	14902.79
643.713	14780.76
644.066	14880.19
644.419	14718.16
644.771	14712.51
645.124	14535.56
645.477	14506.64
645.83	14391.61
646.182	14323.14
646.535	14348.9
646.888	14324.5
647.24	14250.37
647.593	14421.67
647.945	14360.65
648.298	14311.62
648.65	14308
649.002	14249.7
649.355	14428.45
649.707	14392.07
650.059	14352.07
650.411	14552.29
650.763	14562.46
651.115	14779.85
651.467	14665.96
651.819	14653.53
652.171	14695.33
652.523	14747.99
652.875	14660.53
653.227	14672.51
653.578	14801.77
653.93	14676.58
654.282	14586.18
654.633	14614.43
654.985	14623.25
655.337	14619.18
655.688	14728.1
656.039	14762.22
656.391	14675
656.742	14584.15
657.094	14659.18
657.445	14704.6
657.796	14728.33
658.147	14648.1
658.498	14709.12
658.849	14765.39
659.2	14747.76
659.551	14686.29
659.902	14764.26
660.253	14732.4
660.604	14790.25
660.955	14654.21
661.306	14761.55
661.656	14690.81
662.007	14722.68
662.358	14726.97
662.708	14762.45
663.059	14655.79
663.409	14674.09
663.76	14794.77
664.11	14759.06
664.461	14778.95
664.811	14823.47
665.161	14753.19
665.511	14779.63
665.862	14810.13
666.212	14811.72
666.562	14804.94
666.912	14783.02
667.262	14679.97
667.612	14706.18
667.962	14822.11
668.312	14783.24
668.662	14890.58
669.011	14711.6
669.361	14758.84
669.711	14734.65
670.06	14647.43
670.41	14695.79
670.76	14621.44
671.109	14758.38
671.459	14689.46
671.808	14683.13
672.157	14707.76
672.507	14652.85
672.856	14694.66
673.205	14612.17
673.554	14703.92
673.904	14646.97
674.253	14785.95
674.602	14639.06
674.951	14457.6
675.3	14321.56
675.649	14535.34
675.998	14615.79
676.346	14567.2
676.695	14643.36
677.044	14449.69
677.393	14539.18
677.741	14536.92
678.09	14532.63
678.438	14433.19
678.787	14508.67
679.135	14418.51
679.484	14280.88
679.832	14440.2
680.181	14381.9
680.529	14329.24
680.877	14334.21
681.225	14352.52
681.573	14372.18
681.922	14387.09
682.27	14257.83
682.618	14272.52
682.966	14218.06
683.314	14196.36
683.661	14085.41
684.009	14049.48
684.357	14072.3
684.705	14053.54
685.053	14147.33
685.4	14012.87
685.748	13960.44
686.095	13961.79
686.443	13937.84
686.79	13823.04
687.138	13861.23
687.485	13934.22
687.832	13829.14
688.18	13779.43
688.527	13722.7
688.874	13781.23
689.221	13670.5
689.568	13646.1
689.915	13529.26
690.262	13583.5
690.609	13543.05
690.956	13499.21
691.303	13438.64
691.65	13359.55
691.997	13385.54
692.344	13283.85
692.69	13258.99
693.037	13376.05
693.383	13141.7
693.73	13161.81
694.077	13115.04
694.423	13080.24
694.769	13006.79
695.116	13013.8
695.462	12910.07
695.808	12913.01
696.155	12946.45
696.501	12897.19
696.847	12795.04
697.193	12735.61
697.539	12797.08
697.885	12654.71
698.231	12564.09
698.577	12571.55
698.923	12570.19
699.269	12527.93
699.614	12394.38
699.96	12402.06
700.306	12368.62
700.651	12330.42
700.997	12289.07
701.342	12281.16
701.688	12176.53
702.033	12182.63
702.379	12166.36
702.724	12111.67
703.069	12128.62
703.415	11988.51
703.76	12008.17
704.105	11964.11
704.45	11999.13
704.795	11837.56
705.14	11856.99
705.485	11836.2
705.83	11755.3
706.175	11735.19
706.52	11712.14
706.865	11646.15
707.209	11625.81
707.554	11503.33
707.899	11640.05
708.243	11513.5
708.588	11525.02
708.932	11433.5
709.277	11400.96
709.621	11398.7
709.966	11306.72
710.31	11353.05
710.654	11249.55
710.998	11223.33
711.342	11234.41
711.687	11172.04
712.031	11174.07
712.375	11160.96
712.719	11144.01
713.063	11105.82
713.407	11117.8
713.75	11090.01
714.094	11100.4
714.438	10998.26
714.782	11023.79
715.125	11005.26
715.469	11034.87
715.812	10939.95
716.156	10846.62
716.499	10908.54
716.843	10938.82
717.186	10838.26
717.53	10827.41
717.873	10876.45
718.216	10843.01
718.559	10807.53
718.902	10740.64
719.246	10782.22
719.589	10739.05
719.932	10731.14
720.275	10645.04
720.617	10709.68
720.96	10673.29
721.303	10694.08
721.646	10697.02
721.989	10609.11
722.331	10678.72
722.674	10676.91
723.016	10638.27
723.359	10575.67
723.701	10609.79
724.044	10539.96
724.386	10474.43
724.729	10561.21
725.071	10512.85
725.413	10514.43
725.755	10516.46
726.097	10440.3
726.439	10374.09
726.782	10482.11
727.124	10442.34
727.465	10481.89
727.807	10421.1
728.149	10372.96
728.491	10397.37
728.833	10429.68
729.175	10399.18
729.516	10435.33
729.858	10416.35
730.199	10427.42
730.541	10299.07
730.882	10352.17
731.224	10408.89
731.565	10297.71
731.906	10377.93
732.248	10384.03
732.589	10319.63
732.93	10304.49
733.271	10283.92
733.612	10350.59
733.953	10351.95
734.294	10340.42
734.635	10384.03
734.976	10377.71
735.317	10287.99
735.658	10384.03
735.999	10316.01
736.339	10345.84
736.68	10362.57
737.021	10392.4
737.361	10334.77
737.702	10403.47
738.042	10421.55
738.383	10384.71
738.723	10455.67
739.063	10356.24
739.404	10466.52
739.744	10471.49
740.084	10473.07
740.424	10402.57
740.764	10355.11
741.104	10503.81
741.444	10480.08
741.784	10474.65
742.124	10483.69
742.464	10485.95
742.804	10417.71
743.143	10460.19
743.483	10519.62
743.823	10541.09
744.162	10505.61
744.502	10602.56
744.841	10520.98
745.181	10658.83
745.52	10666.97
745.86	10729.79
746.199	10797.13
746.538	10805.72
746.877	10900.41
747.216	10854.76
747.556	10929.11
747.895	10948.09
748.234	10972.95
748.573	11056.79
748.911	11140.17
749.25	11209.78
749.589	11186.27
749.928	11296.33
750.267	11393.95
750.605	11442.31
750.944	11525.25
751.283	11536.77
751.621	11639.6
751.96	11784.22
752.298	11873.71
752.636	11925.46
752.975	11939.7
753.313	12088.62
753.651	12266.25
753.989	12345.34
754.327	12374.94
754.666	12548.5
755.004	12624.2
755.342	12771.77
755.679	12903.74
756.017	12939
756.355	13127.69
756.693	13269.16
757.031	13449.72
757.368	13546.44
757.706	13649.03
758.044	13732.2
758.381	13905.75
758.719	14041.57
759.056	14145.29
759.394	14361.56
759.731	14306.64
760.068	14564.26
