Data from hue_28_FLMS001491_00001.txt Node
Date: Tue Feb 07 17:16:46 GMT 2017
User: dcchb
Spectrometer: FLMS00149
Trigger mode: 0
Integration Time (sec): 2.000000E-2
Scans to average: 10
Electric dark correction enabled: true
Nonlinearity correction enabled: false
Boxcar width: 0
XAxis mode: Wavelengths
Number of Pixels in Spectrum: 2048
>>>>>Begin Spectral Data<<<<<
341.393	-15.47
341.776	-15.47
342.16	-15.47
342.543	-55.01
342.927	-82.36
343.31	-76.93
343.693	-64.05
344.077	-80.1
344.46	-71.51
344.843	-68.35
345.226	-35.13
345.61	-19.31
345.993	-31.06
346.376	-0.1
346.759	6.45
347.142	29.05
347.525	38.77
347.908	65.21
348.291	79.67
348.674	100.24
349.057	127.13
349.44	123.74
349.823	144.76
350.206	166.68
350.588	188.82
350.971	204.19
351.354	212.78
351.737	247.8
352.119	257.75
352.502	275.37
352.884	289.39
353.267	287.8
353.65	291.87
354.032	302.27
354.414	302.72
354.797	323.51
355.179	292.55
355.562	316.5
355.944	335.94
356.326	338.2
356.709	325.99
357.091	349.04
357.473	330.51
357.855	355.15
358.238	361.47
358.62	337.52
359.002	346.33
359.384	337.07
359.766	356.28
360.148	340.23
360.53	345.2
360.912	347.46
361.294	347.69
361.676	336.16
362.057	329.84
362.439	313.11
362.821	351.3
363.203	330.97
363.584	324.41
363.966	314.92
364.348	333.45
364.729	325.99
365.111	322.83
365.493	319.21
365.874	318.76
366.256	310.4
366.637	315.37
367.019	331.64
367.4	353.79
367.781	328.25
368.163	309.95
368.544	336.62
368.925	335.03
369.306	340.23
369.688	324.86
370.069	315.15
370.45	314.7
370.831	324.86
371.212	318.08
371.593	332.1
371.974	313.34
372.355	324.86
372.736	322.15
373.117	323.96
373.498	298.65
373.879	313.11
374.26	358.99
374.641	328.48
375.021	309.05
375.402	340.23
375.783	309.27
376.163	338.88
376.544	335.03
376.925	354.92
377.305	332.32
377.686	331.87
378.066	325.54
378.447	332.77
378.827	340.68
379.208	352.66
379.588	345.2
379.968	329.84
380.349	335.71
380.729	351.76
381.109	339.1
381.489	366.9
381.87	344.98
382.25	335.49
382.63	359.21
383.01	342.27
383.39	357.63
383.77	341.59
384.15	365.09
384.53	350.85
384.91	359.21
385.29	349.04
385.67	365.99
386.049	351.3
386.429	362.6
386.809	369.83
387.189	365.99
387.568	365.77
387.948	384.07
388.328	367.58
388.707	384.07
389.087	362.83
389.466	364.64
389.846	363.06
390.225	382.04
390.605	376.16
390.984	363.96
391.363	365.77
391.743	370.74
392.122	375.71
392.501	391.3
392.881	391.08
393.26	381.13
393.639	398.99
394.018	372.77
394.397	370.96
394.776	388.82
395.155	372.32
395.534	385.43
395.913	386.56
396.292	389.5
396.671	413.9
397.05	415.26
397.429	417.29
397.808	385.43
398.186	408.93
398.565	403.51
398.944	398.53
399.323	411.42
399.701	415.03
400.08	420.46
400.458	425.88
400.837	405.77
401.215	421.81
401.594	437.18
401.972	412.77
402.351	432.88
402.729	414.35
403.107	434.69
403.486	447.12
403.864	420.46
404.242	419.55
404.62	438.99
404.999	438.53
405.377	451.87
405.755	431.98
406.133	435.82
406.511	423.62
406.889	444.64
407.267	455.71
407.645	445.09
408.023	471.75
408.401	476.27
408.779	437.63
409.156	450.96
409.534	471.08
409.912	470.17
410.29	480.34
410.667	466.78
411.045	482.6
411.422	484.41
411.8	482.15
412.178	471.75
412.555	504.75
412.933	493.67
413.31	507.23
413.687	511.98
414.065	498.87
414.442	527.12
414.819	534.12
415.197	498.65
415.574	513.56
415.951	531.86
416.328	541.13
416.705	540.45
417.082	510.62
417.46	535.71
417.837	537.29
418.214	538.42
418.591	532.09
418.967	535.48
419.344	558.08
419.721	535.25
420.098	547.01
420.475	583.61
420.852	566.89
421.228	576.16
421.605	558.08
421.982	577.74
422.358	577.06
422.735	584.07
423.111	603.05
423.488	587.46
423.864	594.01
424.241	601.24
424.617	598.53
424.994	597.4
425.37	605.76
425.746	607.12
426.123	612.09
426.499	613.22
426.875	621.13
427.251	645.08
427.627	626.33
428.003	625.2
428.379	661.13
428.756	645.31
429.132	655.93
429.507	666.1
429.883	671.97
430.259	693.44
430.635	657.28
431.011	680.56
431.387	709.26
431.763	673.56
432.138	692.54
432.514	723.27
432.89	732.54
433.265	703.16
433.641	726.89
434.016	723.27
434.392	726.21
434.767	749.26
435.143	746.32
435.518	780.67
435.894	765.76
436.269	756.27
436.644	789.03
437.02	762.14
437.395	776.15
437.77	804.17
438.145	807.79
438.52	803.27
438.895	832.87
439.271	799.65
439.646	837.17
440.021	846.21
440.395	829.71
440.77	839.88
441.145	846.88
441.52	851.86
441.895	851.18
442.27	849.14
442.645	848.47
443.019	862.25
443.394	885.98
443.769	889.82
444.143	882.59
444.518	900.89
444.892	888.01
445.267	890.95
445.641	901.35
446.016	898.41
446.39	925.3
446.764	926.2
447.139	907.9
447.513	942.02
447.887	944.28
448.262	915.13
448.636	920.55
449.01	923.49
449.384	945.41
449.758	960.1
450.132	947.9
450.506	969.59
450.88	979.31
451.254	979.31
451.628	985.19
452.002	986.99
452.376	1029.25
452.75	1011.63
453.123	1022.47
453.497	1025.86
453.871	1050.95
454.244	1057.27
454.618	1049.59
454.992	1083.04
455.365	1097.95
455.739	1085.3
456.112	1105.18
456.486	1139.53
456.859	1135.24
457.232	1163.49
457.606	1144.96
457.979	1156.48
458.352	1178.4
458.725	1175.92
459.099	1181.34
459.472	1224.73
459.845	1229.25
460.218	1229.93
460.591	1198.97
460.964	1252.75
461.337	1259.08
461.71	1270.83
462.083	1300.88
462.456	1299.98
462.829	1355.35
463.201	1330.26
463.574	1351.05
463.947	1356.02
464.32	1388.11
464.692	1399.86
465.065	1430.82
465.438	1443.7
465.81	1471.27
466.183	1493.87
466.555	1494.33
466.928	1512.63
467.3	1519.18
467.672	1557.37
468.045	1537.26
468.417	1584.49
468.789	1606.41
469.161	1604.6
469.534	1626.07
469.906	1688.67
470.278	1663.59
470.65	1692.06
471.022	1726.18
471.394	1768.67
471.766	1764.15
472.138	1809.12
472.51	1839.63
472.882	1862.23
473.253	1878.72
473.625	1917.36
473.997	1946.74
474.369	1968.66
474.74	1999.17
475.112	2042.79
475.484	2060.64
475.855	2099.28
476.227	2125.49
476.598	2187.41
476.97	2197.36
477.341	2308.32
477.713	2300.18
478.084	2329.56
478.455	2378.14
478.827	2421.31
479.198	2519.38
479.569	2502.43
479.94	2572.04
480.311	2593.28
480.682	2659.04
481.053	2698.36
481.424	2751.24
481.795	2834.85
482.166	2912.14
482.537	2920.28
482.908	2946.04
483.279	3045.7
483.65	3064.68
484.021	3170.89
484.391	3221.29
484.762	3235.07
485.133	3290.44
485.503	3332.69
485.874	3450.21
486.244	3465.57
486.615	3532.46
486.985	3595.96
487.356	3653.82
487.726	3697.66
488.097	3777.43
488.467	3812.68
488.837	3905.79
489.207	3913.47
489.578	4015.61
489.948	4071.43
490.318	4129.74
490.688	4150.07
491.058	4249.51
491.428	4284.99
491.798	4309.39
492.168	4453.57
492.538	4435.94
492.908	4583.51
493.278	4570.63
493.648	4599.55
494.017	4669.83
494.387	4727.01
494.757	4770.17
495.126	4819.66
495.496	4862.15
495.866	4938.98
496.235	4981.92
496.605	5004.97
496.974	5044.29
497.344	5148.92
497.713	5159.31
498.082	5214.23
498.452	5247.22
498.821	5325.41
499.19	5343.72
499.559	5353.88
499.928	5410.38
500.298	5472.3
500.667	5533.99
501.036	5610.6
501.405	5595.01
501.774	5553.88
502.143	5710.71
502.512	5712.52
502.88	5780.54
503.249	5762.46
503.618	5826.87
503.987	5859.18
504.356	5880.2
504.724	5957.48
505.093	5957.48
505.462	5981.21
505.83	6034.09
506.199	6109.8
506.567	6141.66
506.936	6123.13
507.304	6217.14
507.672	6200.19
508.041	6219.62
508.409	6319.28
508.777	6317.02
509.145	6383.69
509.514	6405.16
509.882	6445.16
510.25	6447.19
510.618	6484.02
510.986	6522.22
511.354	6577.36
511.722	6602.44
512.09	6621.87
512.458	6658.71
512.826	6713.62
513.193	6725.6
513.561	6787.52
513.929	6810.12
514.297	6846.5
514.664	6888.99
515.032	6864.13
515.4	6958.81
515.767	6978.25
516.135	7033.39
516.502	6979.38
516.869	7104.35
517.237	7142.99
517.604	7130.79
517.972	7201.07
518.339	7219.6
518.706	7246.26
519.073	7259.37
519.44	7327.39
519.808	7331.01
520.175	7383.66
520.542	7456.2
520.909	7540.72
521.276	7461.85
521.643	7597.67
522.009	7559.48
522.376	7645.8
522.743	7643.54
523.11	7756.53
523.477	7760.6
523.843	7813.93
524.21	7888.06
524.577	7921.95
524.943	7946.58
525.31	8011.89
525.676	8118.78
526.043	8083.53
526.409	8084.21
526.776	8217.99
527.142	8242.62
527.508	8288.95
527.874	8297.54
528.241	8393.13
528.607	8417.98
528.973	8519.68
529.339	8444.65
529.705	8531.88
530.071	8582.73
530.437	8613.69
530.803	8752.21
531.169	8701.82
531.535	8709.05
531.901	8731.65
532.267	8802.16
532.632	8849.16
532.998	8892.32
533.364	8966.22
533.73	8978.65
534.095	9099.55
534.461	9023.62
534.826	9102.03
535.192	9125.31
535.557	9161.47
535.923	9144.75
536.288	9258.64
536.653	9314.01
537.019	9323.05
537.384	9306.55
537.749	9401.91
538.114	9466.32
538.479	9472.87
538.845	9507
539.21	9503.38
539.575	9580.44
539.94	9596.48
540.305	9676.26
540.67	9681.23
541.034	9733.88
541.399	9736.37
541.764	9747.89
542.129	9872.18
542.494	9900.88
542.858	9922.13
543.223	9864.73
543.587	9961
543.952	9970.26
544.316	10023.37
544.681	10033.54
545.045	10137.49
545.41	10193.31
545.774	10165.51
546.138	10217.26
546.503	10282.34
546.867	10322.34
547.231	10437.37
547.595	10401.21
547.959	10484.82
548.324	10500.87
548.688	10455.9
549.052	10441.89
549.416	10540.87
549.779	10592.62
550.143	10586.97
550.507	10646.63
550.871	10704.25
551.235	10682.11
551.599	10805.27
551.962	10748.55
552.326	10794.42
552.689	10838.94
553.053	10785.83
553.417	10923.23
553.78	11109.44
554.143	10947.41
554.507	11123.9
554.87	11062.44
555.234	11184.47
555.597	11106.73
555.96	11164.81
556.323	11214.52
556.686	11252.71
557.05	11352.15
557.413	11349.21
557.776	11343.78
558.139	11405.02
558.502	11445.7
558.865	11530.22
559.228	11527.73
559.59	11584.91
559.953	11648.18
560.316	11718.01
560.679	11661.97
561.041	11775.86
561.404	11838.01
561.767	11895.63
562.129	11859.48
562.492	12021.96
562.854	11927.95
563.217	12014.95
563.579	12004.33
563.941	12113.03
564.304	12162.29
564.666	12167.04
565.028	12183.08
565.39	12319.35
565.753	12319.13
566.115	12310.31
566.477	12488.61
566.839	12468.27
567.201	12567.25
567.563	12540.81
567.925	12562.51
568.287	12620.81
568.648	12675.27
569.01	12743.52
569.372	12862.84
569.734	12786.68
570.095	12906.91
570.457	12868.94
570.819	12993.46
571.18	12957.98
571.542	13005.43
571.903	13192.32
572.265	13085.43
572.626	13259.89
572.987	13240
573.349	13431.86
573.71	13435.03
574.071	13520
574.432	13555.25
574.794	13799.09
575.155	13704.85
575.516	13690.39
575.877	13836.83
576.238	13968.35
576.599	14013.09
576.96	14096.25
577.32	14138.29
577.681	14287.44
578.042	14420.76
578.403	14450.14
578.763	14434.32
579.124	14591.83
579.485	14835.44
579.845	15075.89
580.206	15048.32
580.566	15143.23
580.927	15246.05
581.287	15496.89
581.648	15618.93
582.008	15758.58
582.368	15934.62
582.728	16090.33
583.089	16174.62
583.449	16396.08
583.809	16574.38
584.169	16898.21
584.529	16970.98
584.889	17260.69
585.249	17316.73
585.609	17523.28
585.969	17818.42
586.329	17956.27
586.688	18261.79
587.048	18479.87
587.408	18669.69
587.768	18807.09
588.127	19192.39
588.487	19337.47
588.846	19683.45
589.206	19881.41
589.565	20102.88
589.925	20415.41
590.284	20669.64
590.643	21006.13
591.003	21193.02
591.362	21611.76
591.721	21857.63
592.08	22107.57
592.44	22466.88
592.799	22683.6
593.158	22954.1
593.517	23251.95
593.876	23586.85
594.235	23795.21
594.593	24050.12
594.952	24386.6
595.311	24695.3
595.67	24965.12
596.029	25510.19
596.387	25759.68
596.746	25956.51
597.104	26257.29
597.463	26515.81
597.822	26950.15
598.18	27061.11
598.538	27378.62
598.897	27799.85
599.255	27876.68
599.613	28619.49
599.972	28720.95
600.33	29044.79
600.688	29179.7
601.046	29536.07
601.404	29966.34
601.762	30215.15
602.12	30558.42
602.478	30802.48
602.836	31000.67
603.194	31134.45
603.552	31531.28
603.91	31699.63
604.268	32056.69
604.625	32231.37
604.983	32735.99
605.341	32597.24
605.698	33098.69
606.056	33458.46
606.413	33629.53
606.771	33911.1
607.128	34270.64
607.485	34238.1
607.843	34435.38
608.2	35008.7
608.557	35296.15
608.914	35228.35
609.272	35640.77
609.629	35878.96
609.986	36167.31
610.343	36211.15
610.7	36517.59
611.057	36697.24
611.414	36889.78
611.771	37047.51
612.127	37524.34
612.484	37592.36
612.841	37780.83
613.198	37865.8
613.554	38119.8
613.911	38440.02
614.267	38677.98
614.624	38613.12
614.98	38959.55
615.337	39465.08
615.693	39368.58
616.05	39357.74
616.406	39731.96
616.762	39814
617.118	39865.52
617.475	39969.47
617.831	40213.08
618.187	40358.39
618.543	40560.87
618.899	40828.21
619.255	40855.78
619.611	40919.05
619.967	41144.36
620.323	41282.43
620.678	41362.88
621.034	41178.03
621.39	41445.37
621.746	41521.07
622.101	42059.59
622.457	41853.26
622.812	41978.46
623.168	42003.77
623.523	42157.89
623.879	42378.22
624.234	42140.26
624.589	42486.47
624.945	42512.23
625.3	42724.65
625.655	42723.98
626.01	42871.99
626.365	42958.32
626.72	42915.16
627.075	43039.22
627.43	42891.43
627.785	43030.18
628.14	43061.14
628.495	43200.8
628.85	43225.88
629.205	43126
629.559	43405.99
629.914	43254.81
630.269	43407.12
630.623	43305.2
630.978	43432.88
631.332	43432.66
631.687	43603.27
632.041	43443.05
632.396	43741.35
632.75	43443.73
633.104	43605.31
633.459	43507.01
633.813	43520.79
634.167	43456.16
634.521	43561.92
634.875	43741.35
635.229	43547.46
635.583	43451.41
635.937	43537.74
636.291	43516.5
636.645	43613.44
636.999	43480.34
637.352	43507.23
637.706	43441.24
638.06	43600.34
638.413	43651.41
638.767	43433.56
639.121	43583.39
639.474	43484.41
639.828	43381.36
640.181	43507.68
640.534	43457.52
640.888	43322.38
641.241	43334.35
641.594	43408.48
641.947	43454.8
642.301	43377.74
642.654	43419.1
643.007	43380.23
643.36	43361.47
643.713	43420.68
644.066	43495.25
644.419	43235.37
644.771	43072.89
645.124	42562.4
645.477	42637.65
645.83	42425.9
646.182	42360.14
646.535	42095.74
646.888	42174.16
647.24	42199.02
647.593	42228.4
647.945	42154.27
648.298	42073.37
648.65	41983.43
649.002	41821.17
649.355	42039.47
649.707	41994.96
650.059	42208.28
650.411	42766.69
650.763	42780.02
651.115	43141.59
651.467	43013.01
651.819	42933.46
652.171	42934.59
652.523	42922.16
652.875	42814.82
653.227	42722.39
653.578	43018.43
653.93	42930.75
654.282	42757.42
654.633	42633.58
654.985	42799.23
655.337	42744.54
655.688	42759.23
656.039	42811.66
656.391	42536.86
656.742	42542.29
657.094	42645.79
657.445	42846.23
657.796	42749.51
658.147	42708.61
658.498	42611.89
658.849	42791.32
659.2	42546.81
659.551	42537.99
659.902	42700.93
660.253	42494.38
660.604	42653.24
660.955	42452.57
661.306	42555.39
661.656	42678.55
662.007	42595.39
662.358	42625.22
662.708	42627.25
663.059	42586.8
663.409	42339.8
663.76	42631.55
664.11	42662.28
664.461	42591.55
664.811	42665.67
665.161	42495.05
665.511	42409.18
665.862	42641.72
666.212	42565.11
666.562	42635.16
666.912	42560.82
667.262	42452.57
667.612	42485.79
667.962	42593.36
668.312	42460.48
668.662	42660.47
669.011	42556.3
669.361	42388.62
669.711	42502.06
670.06	42381.16
670.41	42346.36
670.76	42352.01
671.109	42355.4
671.459	42415.51
671.808	42241.28
672.157	42393.14
672.507	42059.81
672.856	42138.23
673.205	42254.61
673.554	42345.23
673.904	42187.94
674.253	42373.7
674.602	42356.98
674.951	41549.32
675.3	41596.55
675.649	42103.43
675.998	42079.7
676.346	42002.86
676.695	42234.5
677.044	41917.22
677.393	42121.28
677.741	42088.29
678.09	42043.99
678.438	41914.51
678.787	41967.39
679.135	41939.82
679.484	41628.86
679.832	41856.43
680.181	41544.8
680.529	41803.77
680.877	41638.58
681.225	41703.21
681.573	41752.7
681.922	41540.96
682.27	41600.39
682.618	41351.81
682.966	41413.95
683.314	41379.83
683.661	41308.19
684.009	41131.25
684.357	40946.85
684.705	40999.95
685.053	41114.98
685.4	41028.43
685.748	40670.02
686.095	40811.94
686.443	40705.27
686.79	40602.68
687.138	40656.69
687.485	40719.28
687.832	40588.44
688.18	40625.05
688.527	40378.73
688.874	40361.33
689.221	40260.76
689.568	40202.46
689.915	40145.29
690.262	40051.5
690.609	40032.52
690.956	39820.1
691.303	39905.29
691.65	39625.07
691.997	39797.95
692.344	39453.1
692.69	39486.55
693.037	39460.11
693.383	39251.98
693.73	39204.75
694.077	38922.49
694.423	39032.77
694.769	38936.73
695.116	38761.59
695.462	38787.13
695.808	38538.32
696.155	38611.77
696.501	38490.64
696.847	38470.98
697.193	38137.43
697.539	38413.58
697.885	38126.13
698.231	37972.01
698.577	37994.83
698.923	37910.77
699.269	37652.7
699.614	37580.61
699.96	37451.12
700.306	37539.25
700.651	37418.58
700.997	37235.76
701.342	37219.71
701.688	37107.63
702.033	37013.39
702.379	36949.21
702.724	36866.05
703.069	37009.55
703.415	36472.61
703.76	36650.69
704.105	36574.08
704.45	36503.57
704.795	36439.62
705.14	36321.21
705.485	36207.99
705.83	36075.56
706.175	36186.52
706.52	35965.06
706.865	35811.84
707.209	35904.04
707.554	35793.54
707.899	35804.84
708.243	35477.39
708.588	35526.65
708.932	35399.87
709.277	35250.27
709.621	35438.74
709.966	35004.18
710.31	35057.06
710.654	34872.2
710.998	35007.79
711.342	35005.53
711.687	34799.44
712.031	34701.36
712.375	34547.47
712.719	34449.62
713.063	34521.71
713.407	34751.08
713.75	34467.02
714.094	34482.61
714.438	34139.57
714.782	34207.14
715.125	34046.01
715.469	34142.28
715.812	34113.58
716.156	33846.69
716.499	33822.06
716.843	33872.91
717.186	33721.5
717.53	33854.83
717.873	33740.93
718.216	33606.7
718.559	33690.09
718.902	33294.17
719.246	33435.63
719.589	33359.25
719.932	33207.62
720.275	33190.21
720.617	33119.48
720.96	33084.68
721.303	33125.81
721.646	33048.52
721.989	32816.44
722.331	32899.15
722.674	32864.35
723.016	32933.05
723.359	32821.41
723.701	32782.54
724.044	32601.08
724.386	32390.91
724.729	32698.93
725.071	32540.97
725.413	32611.25
725.755	32423.68
726.097	32362.44
726.439	32214.2
726.782	32180.75
727.124	32351.82
727.465	32156.34
727.807	32115.44
728.149	32043.35
728.491	32114.54
728.833	32074.99
729.175	32033.18
729.516	31882.45
729.858	31907.31
730.199	31799.74
730.541	31757.48
730.882	31759.29
731.224	31823.02
731.565	31726.98
731.906	31678.16
732.248	31621.89
732.589	31366.99
732.93	31375.35
733.271	31362.47
733.612	31450.15
733.953	31443.59
734.294	31313.88
734.635	31120.89
734.976	31210.61
735.317	31111.85
735.658	30981.23
735.999	31074.34
736.339	30937.39
736.68	31036.37
737.021	30888.13
737.361	30691.3
737.702	30881.35
738.042	30864.17
738.383	30785.53
738.723	30866.89
739.063	30750.73
739.404	30718.64
739.744	30807.45
740.084	30586.22
740.424	30535.82
740.764	30436.39
741.104	30510.51
741.444	30439.1
741.784	30299.22
742.124	30427.12
742.464	30273.91
742.804	30343.74
743.143	30168.83
743.483	30260.8
743.823	30081.14
744.162	29963.63
744.502	30128.15
744.841	29926.35
745.181	30132.22
745.52	29862.84
745.86	29989.62
746.199	29833.02
746.538	29823.07
746.877	29851.55
747.216	29841.83
747.556	29722.28
747.895	29794.82
748.234	29696.07
748.573	29504.21
748.911	29506.24
749.25	29529.97
749.589	29294.5
749.928	29465.34
750.267	29493.81
750.605	29336.53
750.944	29278.45
751.283	29142.41
751.621	29379.69
751.96	29184.22
752.298	29077.1
752.636	29124.33
752.975	28920.95
753.313	28779.48
753.651	29048.85
753.989	28879.82
754.327	28713.27
754.666	28570
755.004	28808.41
755.342	28697.45
755.679	28620.62
756.017	28513.05
756.355	28509.89
756.693	28339.95
757.031	28544.91
757.368	28234.64
757.706	28231.25
758.044	28248.88
