Data from hue_40_FLMS001491_12.txt Node
Date: Mon Feb 06 15:07:30 GMT 2017
User: dcchb
Spectrometer: FLMS00149
Trigger mode: 0
Integration Time (sec): 2.000000E-2
Scans to average: 10
Electric dark correction enabled: true
Nonlinearity correction enabled: false
Boxcar width: 0
XAxis mode: Wavelengths
Number of Pixels in Spectrum: 2048
>>>>>Begin Spectral Data<<<<<
341.393	3.47
341.776	3.47
342.16	3.47
342.543	-54.83
342.927	-56.86
343.31	-72
343.693	-54.83
344.077	-62.74
344.46	-70.87
344.843	-53.25
345.226	-59.8
345.61	-28.84
345.993	-3.76
346.376	4.38
346.759	22.46
347.142	23.81
347.525	42.12
347.908	55.22
348.291	55
348.674	80.08
349.057	123.02
349.44	142.68
349.823	138.84
350.206	171.38
350.588	190.81
350.971	194.66
351.354	236.46
351.737	236.24
352.119	236.69
352.502	267.42
352.884	285.27
353.267	280.76
353.65	305.61
354.032	298.61
354.414	325.05
354.797	314.88
355.179	316.46
355.562	303.58
355.944	346.29
356.326	346.29
356.709	336.57
357.091	324.37
357.473	362.34
357.855	320.3
358.238	336.57
358.62	350.58
359.002	352.17
359.384	348.1
359.766	347.87
360.148	361.21
360.53	357.36
360.912	337.25
361.294	333.18
361.676	317.82
362.057	337.7
362.439	344.93
362.821	322.56
363.203	311.94
363.584	325.5
363.966	302.45
364.348	316.91
364.729	332.51
365.111	341.09
365.493	336.35
365.874	316.46
366.256	334.77
366.637	321.21
367.019	323.47
367.4	304.71
367.781	344.03
368.163	330.25
368.544	311.26
368.925	304.71
369.306	312.84
369.688	305.84
370.069	306.07
370.45	317.14
370.831	307.65
371.212	340.87
371.593	308.1
371.974	297.7
372.355	325.5
372.736	299.96
373.117	305.16
373.498	323.69
373.879	321.66
374.26	323.69
374.641	308.55
375.021	325.05
375.402	311.49
375.783	311.49
376.163	326.86
376.544	320.3
376.925	322.34
377.305	320.75
377.686	322.34
378.066	330.25
378.447	342
378.827	350.81
379.208	345.61
379.588	327.08
379.968	326.63
380.349	353.3
380.729	354.65
381.109	331.6
381.489	331.38
381.87	331.6
382.25	346.52
382.63	358.72
383.01	352.62
383.39	345.39
383.77	341.54
384.15	342.22
384.53	342.45
384.91	332.28
385.29	341.09
385.67	340.87
386.049	363.01
386.429	377.02
386.809	370.47
387.189	371.37
387.568	352.39
387.948	364.59
388.328	358.04
388.707	365.5
389.087	344.71
389.466	356.01
389.846	363.01
390.225	361.43
390.605	346.06
390.984	370.24
391.363	376.12
391.743	351.26
392.122	381.77
392.501	381.77
392.881	361.21
393.26	372.05
393.639	379.74
394.018	368.44
394.397	366.85
394.776	375.67
395.155	396.01
395.534	362.11
395.913	364.82
396.292	380.41
396.671	382
397.05	403.01
397.429	382.22
397.808	384.26
398.186	389.23
398.565	383.58
398.944	385.84
399.323	392.62
399.701	411.37
400.08	396.46
400.458	397.81
400.837	407.31
401.215	398.04
401.594	405.05
401.972	388.78
402.351	401.2
402.729	394.2
403.107	406.18
403.486	409.34
403.864	403.24
404.242	416.12
404.62	412.73
404.999	408.89
405.377	410.02
405.755	429.23
406.133	414.31
406.511	417.7
406.889	409.34
407.267	443.46
407.645	429
408.023	435.33
408.401	439.4
408.779	424.48
409.156	443.24
409.534	432.62
409.912	462.22
410.29	436.01
410.667	458.6
411.045	444.59
411.422	431.26
411.8	440.98
412.178	465.84
412.555	479.39
412.933	462.9
413.31	471.03
413.687	459.73
414.065	490.92
414.442	458.15
414.819	471.71
415.197	502.9
415.574	492.28
415.951	485.27
416.328	473.29
416.705	479.85
417.082	511.03
417.46	494.99
417.837	505.61
418.214	497.7
418.591	515.1
418.967	501.77
419.344	495.66
419.721	482.78
420.098	501.54
420.475	533.63
420.852	490.02
421.228	533.86
421.605	524.36
421.982	516.23
422.358	534.99
422.735	536.57
423.111	537.02
423.488	543.35
423.864	551.03
424.241	544.93
424.617	548.32
424.994	528.43
425.37	535.89
425.746	561.2
426.123	552.16
426.499	563.69
426.875	575.89
427.251	596.68
427.627	602.1
428.003	577.24
428.379	606.62
428.756	592.39
429.132	597.81
429.507	618.37
429.883	606.17
430.259	624.93
430.635	612.5
431.011	611.82
431.387	623.57
431.763	614.31
432.138	606.4
432.514	627.86
432.89	663.8
433.265	661.08
433.641	664.7
434.016	657.69
434.392	668.99
434.767	661.76
435.143	667.64
435.518	661.76
435.894	667.86
436.269	681.42
436.644	676.45
437.02	700.63
437.395	701.08
437.77	708.09
438.145	697.02
438.52	727.52
438.895	727.98
439.271	717.81
439.646	744.25
440.021	756.45
440.395	727.07
440.77	738.14
441.145	753.96
441.52	744.7
441.895	755.77
442.27	776.11
442.645	776.56
443.019	767.52
443.394	755.09
443.769	780.86
444.143	763
444.518	810.91
444.892	780.63
445.267	806.39
445.641	809.55
446.016	784.02
446.39	805.71
446.764	786.96
447.139	784.47
447.513	819.72
447.887	815.66
448.262	803.91
448.636	823.11
449.01	837.12
449.384	844.81
449.758	845.94
450.132	845.03
450.506	841.42
450.88	819.95
451.254	847.75
451.628	894.98
452.002	879.16
452.376	883
452.75	916.67
453.123	891.81
453.497	906.5
453.871	907.41
454.244	907.18
454.618	925.71
454.992	941.75
455.365	944.47
455.739	964.35
456.112	953.73
456.486	966.61
456.859	999.83
457.232	1036.44
457.606	1001.64
457.979	1026.05
458.352	1036.44
458.725	1057.68
459.099	1045.03
459.472	1074.18
459.845	1068.08
460.218	1082.77
460.591	1077.34
460.964	1075.54
461.337	1104.91
461.71	1130.68
462.083	1126.38
462.456	1141.52
462.829	1144.01
463.201	1161.41
463.574	1177.91
463.947	1209.54
464.32	1213.16
464.692	1198.02
465.065	1226.72
465.438	1238.7
465.81	1276.44
466.183	1287.96
466.555	1304.23
466.928	1323.21
467.3	1331.8
467.672	1345.59
468.045	1345.81
468.417	1390.78
468.789	1411.35
469.161	1393.04
469.534	1447.5
469.906	1478.24
470.278	1477.56
470.65	1500.38
471.022	1544.9
471.394	1543.1
471.766	1586.03
472.138	1633.26
472.51	1647.95
472.882	1694.5
473.253	1717.33
473.625	1720.72
473.997	1766.37
474.369	1813.37
474.74	1855.18
475.112	1871.67
475.484	1965.91
475.855	1960.26
476.227	1981.73
476.598	2065.57
476.97	2094.49
477.341	2149.63
477.713	2158.67
478.084	2209.52
478.455	2338.78
478.827	2303.98
479.198	2440.7
479.569	2480.7
479.94	2514.37
480.311	2572.67
480.682	2694.03
481.053	2740.13
481.424	2812.44
481.795	2870.74
482.166	2948.48
482.537	3010.18
482.908	3097.86
483.279	3188.02
483.65	3257.4
484.021	3371.75
484.391	3430.05
484.762	3501.01
485.133	3565.87
485.503	3614
485.874	3824.39
486.244	3872.07
486.615	3964.73
486.985	4065.97
487.356	4168.11
487.726	4242.91
488.097	4372.85
488.467	4450.36
488.837	4597.7
489.207	4662.56
489.578	4719.96
489.948	4902.33
490.318	4968.32
490.688	5028.65
491.058	5224.81
491.428	5298.7
491.798	5440.17
492.168	5558.13
492.538	5622.99
492.908	5716.77
493.278	5871.12
493.648	5968.52
494.017	6055.97
494.387	6135.97
494.757	6212.12
495.126	6330.31
495.496	6459.8
495.866	6533.7
496.235	6643.75
496.605	6744.77
496.974	6843.07
497.344	6932.56
497.713	7048.94
498.082	7154.47
498.452	7311.08
498.821	7333
499.19	7437.63
499.559	7529.6
499.928	7622.03
500.298	7685.31
500.667	7829.94
501.036	7856.38
501.405	7948.35
501.774	8039.65
502.143	8178.85
502.512	8226.54
502.88	8311.05
503.249	8360.77
503.618	8481.67
503.987	8508.34
504.356	8544.04
504.724	8718.95
505.093	8762.79
505.462	8928.44
505.83	8913.97
506.199	9009.34
506.567	9124.36
506.936	9158.26
507.304	9284.81
507.672	9380.18
508.041	9476.45
508.409	9502.89
508.777	9569.55
509.145	9709.66
509.514	9754.18
509.882	9786.27
510.25	9860.62
510.618	10009.31
510.986	10029.2
511.354	10078.92
511.722	10228.52
512.09	10328.4
512.458	10332.47
512.826	10449.75
513.193	10491.79
513.561	10607.72
513.929	10611.78
514.297	10705.79
514.664	10788.95
515.032	10853.13
515.4	10918.67
515.767	10994.37
516.135	11092.9
516.502	10986.01
516.869	11261.94
517.237	11317.53
517.604	11243.86
517.972	11376.06
518.339	11472.55
518.706	11441.59
519.073	11533.34
519.44	11618.99
519.808	11781.24
520.175	11877.96
520.542	12028.02
520.909	12000.22
521.276	12007.9
521.643	12121.57
522.009	12205.41
522.376	12306.65
522.743	12395.47
523.11	12434.33
523.477	12622.8
523.843	12623.48
524.21	12782.57
524.577	12836.58
524.943	12965.39
525.31	12940.08
525.676	13160.42
526.043	13151.38
526.409	13189.12
526.776	13423.01
527.142	13251.04
527.508	13534.42
527.874	13629.56
528.241	13616.9
528.607	13748.2
528.973	13863.68
529.339	13896.67
529.705	13963.33
530.071	14061.86
530.437	14185.7
530.803	14196.1
531.169	14317
531.535	14262.31
531.901	14336.43
532.267	14509.99
532.632	14531
532.998	14636.99
533.364	14665.01
533.73	14683.09
534.095	14938.9
534.461	14776.87
534.826	14927.83
535.192	15027.03
535.557	15122.62
535.923	15089.18
536.288	15233.58
536.653	15304.77
537.019	15294.37
537.384	15356.29
537.749	15460.24
538.114	15478.1
538.479	15532.78
538.845	15608.94
539.21	15535.04
539.575	15649.84
539.94	15766.9
540.305	15824.08
540.67	15965.77
541.034	15917.18
541.399	15965.54
541.764	16077.85
542.129	16143.62
542.494	16224.29
542.858	16240.11
543.223	16257.51
543.587	16387.22
543.952	16345.19
544.316	16535.92
544.681	16521.01
545.045	16600.55
545.41	16715.13
545.774	16765.52
546.138	16795.12
546.503	16876.03
546.867	16838.74
547.231	16953.54
547.595	17037.6
547.959	16991.73
548.324	17032.86
548.688	17242.8
549.052	17188.33
549.416	17242.8
549.779	17174.1
550.143	17413.19
550.507	17376.35
550.871	17459.29
551.235	17474.65
551.599	17612.73
551.962	17692.73
552.326	17691.15
552.689	17882.78
553.053	17731.37
553.417	17816.11
553.78	18126.84
554.143	18043
554.507	18120.51
554.87	18140.4
555.234	18353.05
555.597	18219.27
555.96	18315.54
556.323	18430.79
556.686	18403.44
557.05	18530.44
557.413	18616.54
557.776	18594.62
558.139	18803.66
558.502	18772.02
558.865	18879.81
559.228	19029.87
559.59	18944.45
559.953	19003.88
560.316	19249.52
560.679	19162.97
561.041	19370.87
561.404	19478.89
561.767	19532.9
562.129	19465.34
562.492	19642.96
562.854	19671.21
563.217	19595.28
563.579	19788.04
563.941	19871.2
564.304	19948.71
564.666	20023.06
565.028	20195.71
565.39	20231.64
565.753	20360
566.115	20404.52
566.477	20464.86
566.839	20497.4
567.201	20647.23
567.563	20650.39
567.925	20790.05
568.287	20759.99
568.648	20934.68
569.01	20957.5
569.372	21077.04
569.734	20953.21
570.095	21190.26
570.457	21303.25
570.819	21370.6
571.18	21449.01
571.542	21502.57
571.903	21657.37
572.265	21714.99
572.626	21782.34
572.987	21850.58
573.349	21824.82
573.71	22010.81
574.071	22125.38
574.432	22225.72
574.794	22471.58
575.155	22350.91
575.516	22479.95
575.877	22544.58
576.238	22677
576.599	22853.95
576.96	22942.31
577.32	22991.57
577.681	23232.24
578.042	23207.84
578.403	23343.2
578.763	23519.92
579.124	23570.09
579.485	23714.49
579.845	23998.1
580.206	23947.03
580.566	24108.6
580.927	24204.19
581.287	24425.43
581.648	24468.59
582.008	24711.07
582.368	24699.77
582.728	24998.75
583.089	25044.62
583.449	25291.62
583.809	25389.7
584.169	25622.91
584.529	25751.27
584.889	25990.14
585.249	25991.04
585.609	26162.33
585.969	26360.97
586.329	26565.49
586.688	26612.72
587.048	26910.11
587.408	26990.56
587.768	27140.39
588.127	27461.28
588.487	27520.04
588.846	27840.03
589.206	27865.57
589.565	28045.9
589.925	28451.77
590.284	28416.74
590.643	28743.51
591.003	29009.72
591.362	29149.15
591.721	29247.45
592.08	29477.28
592.44	29827.78
592.799	29795.46
593.158	30141.67
593.517	30218.5
593.876	30335.56
594.235	30644.48
594.593	30653.74
594.952	30892.15
595.311	31103.45
595.67	31280.17
596.029	31726.26
596.387	31794.5
596.746	32100.71
597.104	32076.08
597.463	32195.4
597.822	32486.46
598.18	32404.66
598.538	32780.69
598.897	32956.05
599.255	32928.03
599.613	33495.93
599.972	33315.82
600.33	33753.77
600.688	33746.09
601.046	33844.39
601.404	34228.34
601.762	34242.57
602.12	34500.87
602.478	34543.58
602.836	34784.71
603.194	34670.81
603.552	34942.67
603.91	34868.32
604.268	35160.97
604.625	35332.94
604.983	35411.36
605.341	35415.42
605.698	35774.06
606.056	35957.78
606.413	35966.37
606.771	36099.7
607.128	36288.17
607.485	36276.19
607.843	36349.19
608.2	36654.26
608.557	36877.76
608.914	36852
609.272	37074.14
609.629	37291.76
609.986	37383.96
610.343	37267.35
610.7	37656.04
611.057	37677.96
611.414	37821.24
611.771	37879.99
612.127	38033.89
612.484	38141
612.841	38329.02
613.198	38192.3
613.554	38354.1
613.911	38534.89
614.267	38582.35
614.624	38649.46
614.98	38847.65
615.337	38924.71
615.693	39156.8
616.05	38853.07
616.406	39349.33
616.762	39147.53
617.118	39239.96
617.475	39278.83
617.831	39426.17
618.187	39588.2
618.543	39675.65
618.899	40044.23
619.255	39850.79
619.611	39905.93
619.967	40096.66
620.323	40208.75
620.678	40193.38
621.034	40074.96
621.39	40135.98
621.746	40208.29
622.101	40607.6
622.457	40319.02
622.812	40446.25
623.168	40590.2
623.523	40491.68
623.879	40800.14
624.234	40552.24
624.589	40655.29
624.945	40676.3
625.3	40813.7
625.655	40829.29
626.01	41007.37
626.365	41043.75
626.72	41013.24
627.075	40972.79
627.43	40920.59
627.785	40958.33
628.14	41107.93
628.495	41092.11
628.85	41112
629.205	40893.7
629.559	41297.3
629.914	41143.41
630.269	41125.11
630.623	41112.22
630.978	41123.07
631.332	41164.88
631.687	41275.16
632.041	41117.87
632.396	41107.03
632.75	41013.47
633.104	41110.42
633.459	40919.46
633.813	41133.01
634.167	41135.05
634.521	41095.28
634.875	41059.34
635.229	40955.39
635.583	40908.39
635.937	40960.14
636.291	40957.2
636.645	40984.54
636.999	40770.76
637.352	40936.64
637.706	40823.42
638.06	40966.92
638.413	40755.17
638.767	40900.93
639.121	40823.64
639.474	40667.94
639.828	40629.52
640.181	40768.5
640.534	40685.34
640.888	40643.99
641.241	40608.96
641.594	40624.1
641.947	40708.62
642.301	40565.57
642.654	40505.91
643.007	40685.57
643.36	40683.31
643.713	40474.5
644.066	40657.32
644.419	40264.79
644.771	40198.58
645.124	39859.83
645.477	39722.43
645.83	39524.7
646.182	39309.79
646.535	39323.34
646.888	39251.26
647.24	39102.11
647.593	39394.76
647.945	39230.01
648.298	39093.29
648.65	39180.3
649.002	38867.99
649.355	39097.36
649.707	39039.74
650.059	39065.5
650.411	39723.79
650.763	39795.87
651.115	40247.61
651.467	39886.95
651.819	39986.38
652.171	39858.25
652.523	39906.83
652.875	39860.73
653.227	39718.59
653.578	39910.67
653.93	39837
654.282	39721.3
654.633	39591.59
654.985	39850.34
655.337	39698.25
655.688	39677.46
656.039	39753.62
656.391	39378.48
656.742	39478.59
657.094	39573.06
657.445	39670.68
657.796	39392.72
658.147	39407.18
658.498	39503.9
658.849	39492.38
659.2	39512.04
659.551	39482.89
659.902	39556.56
660.253	39568.08
660.604	39429.33
660.955	39248.54
661.306	39494.19
661.656	39472.04
662.007	39458.26
662.358	39461.42
662.708	39382.55
663.059	39395.43
663.409	39148.66
663.76	39458.26
664.11	39292.16
664.461	39399.95
664.811	39453.51
665.161	39247.87
665.511	39149.56
665.862	39226.4
666.212	39481.76
666.562	39491.02
666.912	39385.94
667.262	39380.29
667.612	39294.64
667.962	39273.4
668.312	39210.81
668.662	39380.74
669.011	39329.22
669.361	39119.51
669.711	39084.03
670.06	39085.16
670.41	39107.98
670.76	38931.26
671.109	39153.18
671.459	39133.97
671.808	39025.5
672.157	39093.52
672.507	38898.95
672.856	38850.36
673.205	38962
673.554	39046.29
673.904	38951.83
674.253	39016.01
674.602	38865.28
674.951	38421.22
675.3	38174
675.649	38740.99
675.998	38671.84
676.346	38690.14
676.695	38941.89
677.044	38613.53
677.393	38664.38
677.741	38754.55
678.09	38552.74
678.438	38594.55
678.787	38648.11
679.135	38609.69
679.484	38484.95
679.832	38556.59
680.181	38300.32
680.529	38459.64
680.877	38444.5
681.225	38312.07
681.573	38510.71
681.922	38359.3
682.27	38120.21
682.618	38293.09
682.966	38059.42
683.314	38183.26
683.661	38109.37
684.009	38025.07
684.357	37915.92
684.705	37721.8
685.053	37789.15
685.4	37688.59
685.748	37508.7
686.095	37564.75
686.443	37448.14
686.79	37408.59
687.138	37510.06
687.485	37422.83
687.832	37290.4
688.18	37347.58
688.527	37124.31
688.874	37123.4
689.221	37014.93
689.568	36861.04
689.915	36907.14
690.262	36728.16
690.609	36659.01
690.956	36682.51
691.303	36501.72
691.65	36287.72
691.997	36477.77
692.344	36218.34
692.69	36218.57
693.037	36168.85
693.383	35869.88
693.73	35973.83
694.077	35937.44
694.423	35863.1
694.769	35720.5
695.116	35696.55
695.462	35591.47
695.808	35463.11
696.155	35534.97
696.501	35332.04
696.847	35363.9
697.193	35028.32
697.539	35149.44
697.885	34886.4
698.231	34873.97
698.577	34860.86
698.923	34690.02
699.269	34504.04
699.614	34421.1
699.96	34359.18
700.306	34428.33
700.651	34187.21
700.997	34103.82
701.342	34131.62
701.688	34001.22
702.033	33920.77
702.379	33947.67
702.724	33880.55
703.069	33875.58
703.415	33545.42
703.76	33427
704.105	33592.2
704.45	33338.87
704.795	33260.45
705.14	33227.46
705.485	33196.95
705.83	33006.67
706.175	33140
706.52	32919.45
706.865	32767.13
707.209	32869.05
707.554	32636.29
707.899	32773.01
708.243	32551.55
708.588	32572.56
708.932	32378.89
709.277	32313.36
709.621	32305.9
709.966	32192.01
710.31	32202.4
710.654	31952.46
710.998	32050.54
711.342	32041.73
711.687	31821.85
712.031	31800.15
712.375	31719.93
712.719	31797.44
713.063	31662.76
713.407	31713.15
713.75	31410.78
714.094	31580.05
714.438	31367.17
714.782	31345.7
715.125	31281.97
715.469	31194.52
715.812	31187.51
716.156	30871.36
716.499	30954.53
716.843	30951.81
717.186	30808.09
717.53	30877.01
717.873	30935.77
718.216	30739.39
718.559	30696.45
718.902	30418.27
719.246	30598.83
719.589	30489.9
719.932	30361.55
720.275	30367.87
720.617	30271.61
720.96	30251.72
721.303	30181.89
721.646	30267.99
721.989	29991.61
722.331	30122.91
722.674	30104.15
723.016	30083.59
723.359	29920.88
723.701	30078.39
724.044	29783.03
724.386	29744.84
724.729	29907.77
725.071	29653.09
725.413	29645.86
725.755	29685.41
726.097	29623.71
726.439	29241.58
726.782	29292.2
727.124	29571.51
727.465	29291.97
727.807	29268.69
728.149	29286.32
728.491	29134.01
728.833	29199.77
729.175	29158.87
729.516	29155.48
729.858	29003.62
730.199	29122.93
730.541	28959.78
730.882	28933.79
731.224	28972.2
731.565	28835.26
731.906	28850.4
732.248	28742.38
732.589	28733.34
732.93	28713.23
733.271	28604.76
733.612	28573.12
733.953	28586.9
734.294	28532.89
734.635	28437.76
734.976	28349.62
735.317	28397.3
735.658	28350.3
735.999	28317.53
736.339	28224.43
736.68	28409.96
737.021	28097.88
737.361	28105.33
737.702	28222.62
738.042	28038.44
738.383	28079.35
738.723	28043.64
739.063	27955.06
739.404	27972.68
739.744	27940.59
740.084	27776.53
740.424	27894.49
740.764	27830.31
741.104	27889.52
741.444	27809.97
741.784	27623.99
742.124	27662.63
742.464	27586.48
742.804	27478.91
743.143	27386.48
743.483	27382.64
743.823	27292.47
744.162	27348.29
744.502	27351
744.841	27226.04
745.181	27344.45
745.52	27165.02
745.86	27315.52
746.199	27147.62
746.538	27004.12
746.877	27101.97
747.216	26994.86
747.556	26947.4
747.895	27028.75
748.234	26999.37
748.573	26881.41
748.911	26831.7
749.25	26795.76
749.589	26629.22
749.928	26609.1
750.267	26596.22
750.605	26578.59
750.944	26416.34
751.283	26370.01
751.621	26528.2
751.96	26339.96
752.298	26292.5
752.636	26306.29
752.975	26197.36
753.313	25994.66
753.651	26269.22
753.989	26041.66
754.327	26032.85
754.666	25925.5
755.004	25927.54
755.342	25904.26
755.679	25939.97
756.017	25655.68
756.355	25804.38
756.693	25647.32
757.031	25692.29
757.368	25437.16
757.706	25533.42
758.044	25416.14
758.381	25366.65
