Data from hue_310_FLMS001491_76.txt Node
Date: Mon Feb 06 15:50:09 GMT 2017
User: dcchb
Spectrometer: FLMS00149
Trigger mode: 0
Integration Time (sec): 2.000000E-2
Scans to average: 10
Electric dark correction enabled: true
Nonlinearity correction enabled: false
Boxcar width: 0
XAxis mode: Wavelengths
Number of Pixels in Spectrum: 2048
>>>>>Begin Spectral Data<<<<<
341.393	-20.48
341.776	-20.48
342.16	-20.48
342.543	-67.94
342.927	-66.35
343.31	-73.81
343.693	-72.23
344.077	-65.9
344.46	-61.38
344.843	-45.56
345.226	-36.07
345.61	-36.52
345.993	-8.95
346.376	13.64
346.759	23.81
347.142	6.19
347.525	35.79
347.908	50.7
348.291	68.56
348.674	81.89
349.057	119.86
349.44	122.12
349.823	126.64
350.206	159.4
350.588	184.26
350.971	210.02
351.354	240.53
351.737	201.44
352.119	228.33
352.502	245.28
352.884	267.2
353.267	272.39
353.65	282.79
354.032	292.73
354.414	309
354.797	309
355.179	325.95
355.562	316.91
355.944	334.77
356.326	327.76
356.709	321.66
357.091	338.83
357.473	356.46
357.855	323.69
358.238	345.16
358.62	338.15
359.002	347.19
359.384	349.45
359.766	333.18
360.148	329.79
360.53	340.41
360.912	327.76
361.294	320.08
361.676	324.14
362.057	338.83
362.439	333.64
362.821	341.09
363.203	329.34
363.584	314.2
363.966	330.47
364.348	317.14
364.729	311.71
365.111	317.82
365.493	307.65
365.874	295.22
366.256	338.15
366.637	316.23
367.019	324.6
367.4	313.52
367.781	304.71
368.163	318.04
368.544	291.6
368.925	327.08
369.306	311.71
369.688	310.59
370.069	300.87
370.45	302
370.831	322.11
371.212	317.82
371.593	314.88
371.974	314.43
372.355	283.47
372.736	322.56
373.117	300.64
373.498	294.54
373.879	300.87
374.26	302.45
374.641	295.9
375.021	315.33
375.402	305.39
375.783	315.56
376.163	333.18
376.544	338.61
376.925	331.38
377.305	311.94
377.686	310.81
378.066	314.43
378.447	314.43
378.827	340.41
379.208	313.75
379.588	329.57
379.968	346.29
380.349	323.92
380.729	323.92
381.109	330.25
381.489	325.05
381.87	326.4
382.25	346.06
382.63	334.77
383.01	346.52
383.39	350.13
383.77	356.23
384.15	350.81
384.53	355.78
384.91	364.37
385.29	360.53
385.67	327.08
386.049	341.77
386.429	323.69
386.809	369.79
387.189	361.21
387.568	347.65
387.948	330.92
388.328	349.68
388.707	350.81
389.087	368.89
389.466	376.57
389.846	354.43
390.225	358.95
390.605	349.68
390.984	361.21
391.363	385.16
391.743	385.84
392.122	373.86
392.501	372.96
392.881	383.8
393.26	356.46
393.639	383.8
394.018	366.18
394.397	358.72
394.776	396.46
395.155	373.86
395.534	367.76
395.913	385.84
396.292	399.85
396.671	395.55
397.05	394.88
397.429	391.26
397.808	396.91
398.186	428.77
398.565	410.7
398.944	390.58
399.323	400.3
399.701	394.88
400.08	391.26
400.458	406.18
400.837	426.06
401.215	405.95
401.594	402.33
401.972	396.23
402.351	417.93
402.729	421.54
403.107	421.09
403.486	436.46
403.864	451.37
404.242	424.48
404.62	447.98
404.999	442.56
405.377	449.11
405.755	436.91
406.133	467.19
406.511	460.86
406.889	454.08
407.267	466.29
407.645	471.26
408.023	472.61
408.401	472.39
408.779	485.27
409.156	473.07
409.534	492.28
409.912	503.57
410.29	502.9
410.667	499.51
411.045	511.26
411.422	516.46
411.8	538.6
412.178	539.51
412.555	552.39
412.933	551.48
413.31	562.33
413.687	559.17
414.065	556.45
414.442	578.6
414.819	598.26
415.197	611.37
415.574	602.33
415.951	610.46
416.328	621.31
416.705	616.57
417.082	608.66
417.46	654.3
417.837	647.98
418.214	665.83
418.591	657.02
418.967	661.54
419.344	684.13
419.721	692.27
420.098	677.13
420.475	677.13
420.852	695.21
421.228	723.23
421.605	722.33
421.982	722.1
422.358	719.39
422.735	736.11
423.111	767.52
423.488	767.52
423.864	750.35
424.241	798.48
424.617	790.8
424.994	777.47
425.37	799.39
425.746	801.19
426.123	831.7
426.499	813.17
426.875	805.71
427.251	831.02
427.627	874.64
428.003	855.43
428.379	868.31
428.756	878.71
429.132	889.1
429.507	895.65
429.883	892.04
430.259	937.46
430.635	927.07
431.011	933.85
431.387	965.03
431.763	991.7
432.138	981.3
432.514	978.59
432.89	1008.87
433.265	978.82
433.641	1014.97
434.016	1035.76
434.392	1053.84
434.767	1068.98
435.143	1063.79
435.518	1077.12
435.894	1073.28
436.269	1107.17
436.644	1087.06
437.02	1131.13
437.395	1138.59
437.77	1112.82
438.145	1153.95
438.52	1159.15
438.895	1174.29
439.271	1173.39
439.646	1189.43
440.021	1213.39
440.395	1198.47
440.77	1205.7
441.145	1214.29
441.52	1224.91
441.895	1237.57
442.27	1236.21
442.645	1259.49
443.019	1250.22
443.394	1259.49
443.769	1271.46
444.143	1271.46
444.518	1262.2
444.892	1262.65
445.267	1301.07
445.641	1280.96
446.016	1311.91
446.39	1285.47
446.764	1299.94
447.139	1313.72
447.513	1304.68
447.887	1308.3
448.262	1322.54
448.636	1339.26
449.01	1361.18
449.384	1379.26
449.758	1337
450.132	1362.31
450.506	1375.42
450.88	1343.33
451.254	1372.03
451.628	1377.22
452.002	1404.34
452.376	1421.74
452.75	1404.57
453.123	1431.46
453.497	1419.26
453.871	1466.26
454.244	1461.52
454.618	1464
454.992	1467.39
455.365	1469.2
455.739	1499.25
456.112	1507.39
456.486	1519.59
456.859	1537.22
457.232	1538.35
457.606	1539.93
457.979	1534.73
458.352	1576.54
458.725	1607.73
459.099	1632.36
459.472	1655.18
459.845	1645.92
460.218	1633.26
460.591	1648.63
460.964	1666.93
461.337	1673.94
461.71	1697.22
462.083	1719.81
462.456	1709.87
462.829	1729.08
463.201	1744.22
463.574	1749.87
463.947	1758.91
464.32	1805.69
464.692	1814.73
465.065	1799.13
465.438	1802.52
465.81	1824.9
466.183	1855.86
466.555	1866.25
466.928	1879.13
467.3	1872.8
467.672	1880.04
468.045	1940.82
468.417	1930.66
468.789	1936.76
469.161	1982.86
469.534	1986.25
469.906	2038
470.278	2047.71
470.65	2043.42
471.022	2057.88
471.394	2100.14
471.766	2107.15
472.138	2155.28
472.51	2189.63
472.882	2201.61
473.253	2191.44
473.625	2220.82
473.997	2254.04
474.369	2223.3
474.74	2270.08
475.112	2291.78
475.484	2346.24
475.855	2370.19
476.227	2361.15
476.598	2418.78
476.97	2447.93
477.341	2458.1
477.713	2494.26
478.084	2491.54
478.455	2554.59
478.827	2568.15
479.198	2644.76
479.569	2597.3
479.94	2687.7
480.311	2691.99
480.682	2733.8
481.053	2766.34
481.424	2826.45
481.795	2798.43
482.166	2872.1
482.537	2879.56
482.908	2932.21
483.279	2951.87
483.65	2942.15
484.021	3028.25
484.391	3027.8
484.762	3091.08
485.133	3076.39
485.503	3121.81
485.874	3170.85
486.244	3222.6
486.615	3217.63
486.985	3239.32
487.356	3269.83
487.726	3300.79
488.097	3378.53
488.467	3382.59
488.837	3411.29
489.207	3476.38
489.578	3463.5
489.948	3554.57
490.318	3537.84
490.688	3541.69
491.058	3570.84
491.428	3659.65
491.798	3634.34
492.168	3705.75
492.538	3705.52
492.908	3769.93
493.278	3784.84
493.648	3809.93
494.017	3851.28
494.387	3867.1
494.757	3856.48
495.126	3885.63
495.496	3937.16
495.866	3903.94
496.235	3997.04
496.605	4004.05
496.974	4014.44
497.344	4055.57
497.713	4037.27
498.082	4100.99
498.452	4091.05
498.821	4133.99
499.19	4121.78
499.559	4184.38
499.928	4195.91
500.298	4195.23
500.667	4229.13
501.036	4197.26
501.405	4250.14
501.774	4209.92
502.143	4267.77
502.512	4276.36
502.88	4303.47
503.249	4339.18
503.618	4346.41
503.987	4350.48
504.356	4371.04
504.724	4382.12
505.093	4373.76
505.462	4367.88
505.83	4430.25
506.199	4435.22
506.567	4527.42
506.936	4490.14
507.304	4551.15
507.672	4564.03
508.041	4550.25
508.409	4581.66
508.777	4598.16
509.145	4637.93
509.514	4612.84
509.882	4625.95
510.25	4657.82
510.618	4665.95
510.986	4686.29
511.354	4728.77
511.722	4730.13
512.09	4760.86
512.458	4750.24
512.826	4782.56
513.193	4798.6
513.561	4800.18
513.929	4850.13
514.297	4818.72
514.664	4855.78
515.032	4865.49
515.4	4914.76
515.767	4873.85
516.135	4964.25
516.502	4935.1
516.869	4967.64
517.237	4994.53
517.604	5008.54
517.972	5006.05
518.339	4994.53
518.706	5044.02
519.073	5042.21
519.44	5077.24
519.808	5081.31
520.175	5117.01
520.542	5118.14
520.909	5127.86
521.276	5164.24
521.643	5189.1
522.009	5213.51
522.376	5233.39
522.743	5233.62
523.11	5273.84
523.477	5288.53
523.843	5286.5
524.21	5339.61
524.577	5349.32
524.943	5411.92
525.31	5437
525.676	5486.49
526.043	5494.4
526.409	5526.95
526.776	5548.87
527.142	5560.39
527.508	5593.84
527.874	5655.98
528.241	5659.14
528.607	5683.1
528.973	5697.79
529.339	5699.37
529.705	5776.88
530.071	5795.64
530.437	5822.08
530.803	5900.95
531.169	5890.1
531.535	5931.91
531.901	5876.77
532.267	5932.13
532.632	5977.78
532.998	5983.2
533.364	5998.57
533.73	5989.98
534.095	6086.25
534.461	6121.73
534.826	6122.64
535.192	6118.57
535.557	6202.18
535.923	6157.89
536.288	6249.41
536.653	6242.63
537.019	6214.16
537.384	6279.02
537.749	6329.86
538.114	6259.81
538.479	6318.11
538.845	6355.17
539.21	6352.23
539.575	6383.87
539.94	6408.96
540.305	6420.48
540.67	6408.05
541.034	6535.96
541.399	6490.08
541.764	6522.63
542.129	6629.74
542.494	6674.26
542.858	6657.54
543.223	6634.49
543.587	6681.72
543.952	6718.33
544.316	6714.03
544.681	6752.9
545.045	6761.04
545.41	6829.28
545.774	6876.97
546.138	6849.85
546.503	6900.69
546.867	6918.09
547.231	6973.01
547.595	6955.83
547.959	7004.87
548.324	6992.22
548.688	7006.45
549.052	7027.02
549.416	7098.43
549.779	7080.58
550.143	7110.41
550.507	7112.67
550.871	7161.48
551.235	7139.33
551.599	7227.47
551.962	7219.33
552.326	7257.07
552.689	7335.49
553.053	7306.56
553.417	7346.11
553.78	7356.73
554.143	7409.61
554.507	7477.63
554.87	7445.99
555.234	7578.19
555.597	7447.8
555.96	7532.77
556.323	7501.36
556.686	7557.17
557.05	7614.12
557.413	7586.1
557.776	7566.21
558.139	7634.69
558.502	7650.05
558.865	7663.39
559.228	7792.2
559.59	7750.62
559.953	7825.19
560.316	7844.85
560.679	7822.93
561.041	7898.86
561.404	7942.7
561.767	7971.63
562.129	7890.27
562.492	8006.88
562.854	8045.97
563.217	8015.02
563.579	8042.13
563.941	8082.81
564.304	8125.75
564.666	8114.45
565.028	8128.46
565.39	8225.86
565.753	8193.99
566.115	8199.64
566.477	8263.37
566.839	8247.33
567.201	8329.81
567.563	8324.84
567.925	8349.92
568.287	8429.24
568.648	8423.59
569.01	8455.23
569.372	8516.02
569.734	8519.41
570.095	8579.97
570.457	8607.99
570.819	8687.31
571.18	8671.72
571.542	8729.12
571.903	8779.97
572.265	8804.6
572.626	8876.01
572.987	8901.32
573.349	8948.1
573.71	9009.34
574.071	9052.95
574.432	9033.29
574.794	9177.92
575.155	9158.94
575.516	9185.15
575.877	9302.67
576.238	9444.13
576.599	9463.79
576.96	9469.89
577.32	9543.56
577.681	9691.81
578.042	9811.58
578.403	9838.92
578.763	9932.48
579.124	10029.43
579.485	10157.78
579.845	10278.46
580.206	10354.39
580.566	10459.7
580.927	10611.78
581.287	10776.75
581.648	10814.04
582.008	11013.58
582.368	11094.03
582.728	11284.08
583.089	11450.63
583.449	11588.25
583.809	11739.66
584.169	11913.22
584.529	11985.31
584.889	12307.33
585.249	12357.95
585.609	12608.57
585.969	12879.52
586.329	12927.65
586.688	13296.91
587.048	13494.65
587.408	13731.25
587.768	13943.67
588.127	14108.41
588.487	14473.6
588.846	14806.02
589.206	14895.51
589.565	15171.89
589.925	15429.06
590.284	15762.16
590.643	16001.25
591.003	16308.58
591.362	16683.04
591.721	16812.98
592.08	17137.71
592.44	17548.1
592.799	17765.27
593.158	18009.33
593.517	18324.8
593.876	18568.41
594.235	18928.85
594.593	19112.12
594.952	19545.56
595.311	19765.21
595.67	20084.3
596.029	20514.57
596.387	20791.85
596.746	21157.72
597.104	21288.56
597.463	21639.06
597.822	21949.79
598.18	22154.98
598.538	22477.46
598.897	22871.12
599.255	23099.59
599.613	23618.22
599.972	23811.44
600.33	24240.58
600.688	24344.08
601.046	24608.7
601.404	24964.85
601.762	25329.36
602.12	25733.65
602.478	25860.42
602.836	26208.44
603.194	26327.08
603.552	26761.64
603.91	26798.25
604.268	27199.82
604.625	27334.73
604.983	27811.33
605.341	27953.25
605.698	28266.46
606.056	28498.54
606.413	28649.95
606.771	29037.97
607.128	29370.39
607.485	29283.16
607.843	29651.28
608.2	30120.87
608.557	30358.83
608.914	30328.55
609.272	30784.36
609.629	31021.42
609.986	31232.48
610.343	31392.25
610.7	31728.29
611.057	31949.3
611.414	32068.62
611.771	32206.47
612.127	32471.77
612.484	32696.85
612.841	32995.38
613.198	33010.97
613.554	33154.02
613.911	33500.67
614.267	33632.65
614.624	33890.04
614.98	34008
615.337	34332.52
615.693	34380.42
616.05	34497.26
616.406	34878.94
616.762	34799.17
617.118	34939.05
617.475	35105.38
617.831	35384.24
618.187	35375.2
618.543	35635.53
618.899	35935.64
619.255	35986.94
619.611	35994.84
619.967	36348.28
620.323	36553.93
620.678	36355.29
621.034	36478.9
621.39	36580.37
621.746	36618.56
622.101	37181.48
622.457	36979.45
622.812	37115.04
623.168	37269.61
623.523	37438.87
623.879	37573.79
624.234	37373.79
624.589	37497.86
624.945	37797.96
625.3	37814.46
625.655	37804.74
626.01	37989.82
626.365	38169.25
626.72	38135.35
627.075	38117.5
627.43	38095.13
627.785	38133.09
628.14	38418.96
628.495	38459.19
628.85	38468
629.205	38409.47
629.559	38731.27
629.914	38427.55
630.269	38651.5
630.623	38508
630.978	38444.95
631.332	38813.98
631.687	38814.21
632.041	38715.45
632.396	38847.88
632.75	38613.53
633.104	38828.67
633.459	38673.19
633.813	38703.25
634.167	38763.59
634.521	38866.41
634.875	38973.07
635.229	38879.29
635.583	38809.23
635.937	38749.12
636.291	38965.39
636.645	38897.82
636.999	38832.74
637.352	39032.05
637.706	38683.36
638.06	38835.67
638.413	38925.84
638.767	38734.43
639.121	38819.4
639.474	38686.07
639.828	38771.95
640.181	38840.87
640.534	38800.19
640.888	38677.49
641.241	38545.96
641.594	38787.31
641.947	38753.19
642.301	38839.74
642.654	38790.25
643.007	38798.39
643.36	38853.3
643.713	38742.57
644.066	38901.21
644.419	38635.68
644.771	38319.3
645.124	38175.35
645.477	37947.56
645.83	37863.95
646.182	37602.03
646.535	37581.7
646.888	37755.25
647.24	37507.35
647.593	37659.43
647.945	37651.52
648.298	37520.45
648.65	37352.55
649.002	37156.17
649.355	37423.73
649.707	37364.98
650.059	37587.12
650.411	37877.05
650.763	38076.6
651.115	38357.27
651.467	38323.6
651.819	38305.07
652.171	38202.02
652.523	38144.17
652.875	38066.65
653.227	38121.57
653.578	38469.13
653.93	38187.1
654.282	38069.14
654.633	37922.25
654.985	38007.22
655.337	38027.79
655.688	38161.79
656.039	38353.65
656.391	37876.83
656.742	37983.94
657.094	37967.22
657.445	38142.81
657.796	37987.79
658.147	38076.15
658.498	38104.39
658.849	38039.54
659.2	37938.75
659.551	37890.61
659.902	38037.05
660.253	37927.9
660.604	38084.96
660.955	37762.03
661.306	38035.47
661.656	37872.08
662.007	37884.06
662.358	37839.32
662.708	37875.02
663.059	37810.62
663.409	37635.93
663.76	37854.91
664.11	37903.49
664.461	37896.94
664.811	37942.36
665.161	37904.62
665.511	37749.6
665.862	37994.79
666.212	38004.74
666.562	37830.95
666.912	37718.19
667.262	37696.95
667.612	37839.09
667.962	37885.87
668.312	37673.9
668.662	37878.41
669.011	37845.19
669.361	37759.77
669.711	37680.68
670.06	37755.7
670.41	37667.34
670.76	37599.55
671.109	37706.89
671.459	37654.69
671.808	37570.17
672.157	37693.1
672.507	37509.61
672.856	37400.68
673.205	37536.5
673.554	37640
673.904	37590.51
674.253	37723.16
674.602	37511.64
674.951	37015.38
675.3	36880.24
675.649	37428.48
675.998	37474.58
676.346	37420.34
676.695	37449.72
677.044	37202.04
677.393	37266
677.741	37380.12
678.09	37266.9
678.438	37189.62
678.787	37341.7
679.135	37243.17
679.484	37167.24
679.832	37197.75
680.181	36957.98
680.529	37114.82
680.877	37089.28
681.225	36919.79
681.573	37085.89
681.922	36917.76
682.27	36826.91
682.618	36852
682.966	36711.66
683.314	36860.36
683.661	36676.41
684.009	36547.15
684.357	36493.81
684.705	36498.79
685.053	36602.06
685.4	36498.79
685.748	36178.12
686.095	36334.72
686.443	36235.29
686.79	36236.87
687.138	36174.95
687.485	36120.26
687.832	35943.77
688.18	36068.51
688.527	35739.94
688.874	35794.85
689.221	35858.35
689.568	35567.96
689.915	35633.95
690.262	35547.17
690.609	35457.46
690.956	35306.5
691.303	35304.47
691.65	35199.39
691.997	35136.56
692.344	34975.66
692.69	34938.38
693.037	34936.34
693.383	34742.67
693.73	34867.87
694.077	34667.42
694.423	34696.35
694.769	34395.11
695.116	34519.86
695.462	34485.05
695.808	34264.04
696.155	34390.14
696.501	34179.98
696.847	34079.41
697.193	33862.25
697.539	34022.92
697.885	33675.13
698.231	33542.25
698.577	33664.28
698.923	33683.04
699.269	33409.6
699.614	33246.44
699.96	33337.06
700.306	33314.91
700.651	33191.75
700.997	33123.28
701.342	32975.71
701.688	32897.98
702.033	32875.6
702.379	32859.56
702.724	32650.07
703.069	32736.85
703.415	32323.98
703.76	32362.4
704.105	32490.76
704.45	32322.85
704.795	32145.91
705.14	32088.28
705.485	31947.72
705.83	31938
706.175	32138
706.52	31840.6
706.865	31775.07
707.209	31701.4
707.554	31559.93
707.899	31720.38
708.243	31496.43
708.588	31465.25
708.932	31305.02
709.277	31378.92
709.621	31280.39
709.966	31123.11
710.31	31210.56
710.654	30879.5
710.998	30909.78
711.342	30946.16
711.687	30851.25
712.031	30806.05
712.375	30542.78
712.719	30781.2
713.063	30598.83
713.407	30594.31
713.75	30514.76
714.094	30436.12
714.438	30226.18
714.782	30380.08
715.125	30240.42
715.469	30263.02
715.812	30051.27
716.156	29989.8
716.499	30029.8
716.843	29961.56
717.186	29792.07
717.53	29927.43
717.873	29835.23
718.216	29795.23
718.559	29770.38
718.902	29526.77
719.246	29591.62
719.589	29502.59
719.932	29312.76
720.275	29352.31
720.617	29325.87
720.96	29356.38
721.303	29354.34
721.646	29242.48
721.989	29056.95
722.331	29228.47
722.674	29058.98
723.016	29091.3
723.359	29030.73
723.701	29138.75
724.044	28809.95
724.386	28669.16
724.729	28871.64
725.071	28653.34
725.413	28704.41
725.755	28859.21
726.097	28527.7
726.439	28462.16
726.782	28502.39
727.124	28556.17
727.465	28324.31
727.807	28380.81
728.149	28310.07
728.491	28317.53
728.833	28412.9
729.175	28211.32
729.516	28172.45
729.858	28036.86
730.199	28247.7
730.541	28043.42
730.882	28048.61
731.224	28115.05
731.565	27988.95
731.906	27956.64
732.248	27848.62
732.589	27752.58
732.93	27684.1
733.271	27684.33
733.612	27733.37
733.953	27728.85
734.294	27471
734.635	27529.98
734.976	27544.45
735.317	27394.84
735.658	27491.34
735.999	27330.67
736.339	27409.76
736.68	27447.5
737.021	27205.92
737.361	27213.61
737.702	27342.64
738.042	27237.33
738.383	27267.39
738.723	27249.54
739.063	27000.05
739.404	27183.1
739.744	27022.2
740.084	26992.6
740.424	26989.88
740.764	26875.76
741.104	26904.24
741.444	26804.13
741.784	26718.7
742.124	26723.68
742.464	26630.57
742.804	26637.12
743.143	26633.06
743.483	26557.8
743.823	26446.17
744.162	26462.44
744.502	26496.79
744.841	26407.3
745.181	26484.13
745.52	26363.23
745.86	26412.27
746.199	26392.84
746.538	26252.73
746.877	26302.22
747.216	26241.88
747.556	26074.43
747.895	26090.7
748.234	26061.55
748.573	25965.96
748.911	25945.39
749.25	25922.12
749.589	25911.72
749.928	25827.43
750.267	25825.85
750.605	25714.21
750.944	25649.35
751.283	25560.09
751.621	25666.3
751.96	25490.71
752.298	25469.92
752.636	25446.42
752.975	25377.5
753.313	25225.41
753.651	25324.84
753.989	25219.76
754.327	25190.83
754.666	24949.71
755.004	24995.13
755.342	25124.17
755.679	24929.37
756.017	24842.14
756.355	24972.54
756.693	24855.93
757.031	24778.42
757.368	24609.83
757.706	24665.42
758.044	24458.42
758.381	24588.59
758.719	24507.24
759.056	24511.76
759.394	24311.08
759.731	24232.67
