Data from hue_80_FLMS001491_51.txt Node
Date: Mon Feb 06 15:23:13 GMT 2017
User: dcchb
Spectrometer: FLMS00149
Trigger mode: 0
Integration Time (sec): 2.000000E-2
Scans to average: 10
Electric dark correction enabled: true
Nonlinearity correction enabled: false
Boxcar width: 0
XAxis mode: Wavelengths
Number of Pixels in Spectrum: 2048
>>>>>Begin Spectral Data<<<<<
341.393	-5.11
341.776	-5.11
342.16	-5.11
342.543	-57.31
342.927	-62.74
343.31	-81.95
343.693	-75.39
344.077	-79.24
344.46	-74.26
344.843	-40.59
345.226	-33.59
345.61	-29.29
345.993	-26.13
346.376	1.21
346.759	22.46
347.142	13.64
347.525	29.01
347.908	78.5
348.291	88.67
348.674	91.38
349.057	115.56
349.44	122.34
349.823	161.21
350.206	177.48
350.588	208.21
350.971	206.63
351.354	224.49
351.737	248.89
352.119	238.04
352.502	273.98
352.884	288.21
353.267	257.93
353.65	295.9
354.032	297.93
354.414	292.28
354.797	311.26
355.179	302
355.562	353.75
355.944	322.34
356.326	338.83
356.709	327.53
357.091	319.85
357.473	332.51
357.855	326.86
358.238	334.09
358.62	339.74
359.002	328.44
359.384	339.96
359.766	342.45
360.148	335.22
360.53	358.95
360.912	348.1
361.294	335.22
361.676	337.93
362.057	321.88
362.439	352.62
362.821	340.19
363.203	320.3
363.584	313.07
363.966	321.66
364.348	335.9
364.729	330.92
365.111	305.39
365.493	323.69
365.874	317.59
366.256	335.9
366.637	340.41
367.019	319.4
367.4	323.24
367.781	330.25
368.163	305.84
368.544	324.82
368.925	314.88
369.306	326.4
369.688	302.22
370.069	309.68
370.45	318.04
370.831	330.02
371.212	320.3
371.593	334.09
371.974	333.18
372.355	314.88
372.736	323.24
373.117	325.5
373.498	327.53
373.879	338.83
374.26	299.74
374.641	309.23
375.021	305.84
375.402	311.71
375.783	337.93
376.163	312.39
376.544	318.04
376.925	336.35
377.305	327.99
377.686	328.21
378.066	322.56
378.447	322.79
378.827	338.15
379.208	345.84
379.588	350.36
379.968	340.87
380.349	322.11
380.729	344.26
381.109	337.48
381.489	339.28
381.87	339.74
382.25	332.28
382.63	358.72
383.01	331.38
383.39	334.77
383.77	329.12
384.15	355.33
384.53	357.14
384.91	370.02
385.29	348.1
385.67	338.15
386.049	337.25
386.429	367.98
386.809	348.1
387.189	352.39
387.568	368.44
387.948	352.84
388.328	360.08
388.707	364.82
389.087	367.08
389.466	361.21
389.846	366.85
390.225	360.53
390.605	366.18
390.984	370.92
391.363	403.69
391.743	364.37
392.122	364.37
392.501	377.7
392.881	377.02
393.26	368.44
393.639	370.92
394.018	379.96
394.397	366.63
394.776	374.99
395.155	378.61
395.534	369.79
395.913	380.41
396.292	385.61
396.671	395.33
397.05	384.48
397.429	377.48
397.808	403.24
398.186	374.76
398.565	411.37
398.944	385.39
399.323	407.08
399.701	400.07
400.08	389.45
400.458	396.01
400.837	385.61
401.215	402.11
401.594	398.04
401.972	393.07
402.351	392.84
402.729	392.62
403.107	409.79
403.486	417.02
403.864	402.56
404.242	404.82
404.62	437.14
404.999	408.21
405.377	417.02
405.755	403.46
406.133	432.16
406.511	425.84
406.889	431.94
407.267	415.89
407.645	413.63
408.023	439.17
408.401	424.25
408.779	431.71
409.156	463.12
409.534	443.24
409.912	452.5
410.29	460.64
410.667	463.8
411.045	437.81
411.422	457.25
411.8	455.21
412.178	453.63
412.555	478.49
412.933	470.13
413.31	464.25
413.687	456.34
414.065	489.11
414.442	479.39
414.819	480.52
415.197	492.5
415.574	503.35
415.951	483.01
416.328	476.23
416.705	489.11
417.082	478.49
417.46	487.98
417.837	506.96
418.214	490.69
418.591	512.61
418.967	497.7
419.344	517.13
419.721	523.46
420.098	497.47
420.475	543.57
420.852	505.16
421.228	528.21
421.605	546.96
421.982	552.16
422.358	525.95
422.735	535.21
423.111	532.5
423.488	553.29
423.864	536.34
424.241	552.39
424.617	537.7
424.994	561.88
425.37	556.68
425.746	559.39
426.123	550.58
426.499	555.32
426.875	565.95
427.251	565.95
427.627	589.45
428.003	572.95
428.379	601.65
428.756	607.98
429.132	596.68
429.507	581.99
429.883	580.41
430.259	606.85
430.635	612.72
431.011	610.01
431.387	631.48
431.763	620.63
432.138	613.85
432.514	630.35
432.89	653.17
433.265	655.43
433.641	637.81
434.016	686.39
434.392	659.28
434.767	658.82
435.143	680.29
435.518	709.9
435.894	674.42
436.269	721.87
436.644	716.68
437.02	710.35
437.395	725.94
437.77	722.78
438.145	693.17
438.52	718.71
438.895	718.48
439.271	724.13
439.646	754.42
440.021	767.07
440.395	757.13
440.77	743.57
441.145	775.43
441.52	761.42
441.895	750.35
442.27	750.8
442.645	769.33
443.019	799.16
443.394	768.43
443.769	835.54
444.143	778.37
444.518	815.66
444.892	793.51
445.267	831.25
445.641	799.39
446.016	831.25
446.39	848.2
446.764	826.5
447.139	832.61
447.513	838.93
447.887	857.24
448.262	853.4
448.636	827.86
449.01	840.06
449.384	849.78
449.758	855.2
450.132	896.11
450.506	881.42
450.88	915.31
451.254	888.42
451.628	899.72
452.002	919.83
452.376	949.44
452.75	930.23
453.123	929.1
453.497	921.42
453.871	949.44
454.244	961.87
454.618	947.86
454.992	955.77
455.365	972.49
455.739	979.04
456.112	1020.85
456.486	1007.74
456.859	1035.54
457.232	1053.39
457.606	1047.06
457.979	1067.63
458.352	1081.86
458.725	1071.92
459.099	1084.12
459.472	1093.62
459.845	1127.74
460.218	1155.08
460.591	1137
460.964	1138.59
461.337	1156.21
461.71	1179.49
462.083	1200.96
462.456	1197.79
462.829	1238.02
463.201	1226.95
463.574	1249.32
463.947	1284.8
464.32	1298.36
464.692	1307.85
465.065	1300.62
465.438	1317.34
465.81	1340.84
466.183	1374.29
466.555	1405.02
466.928	1414.51
467.3	1408.41
467.672	1421.74
468.045	1463.1
468.417	1494.51
468.789	1484.57
469.161	1482.76
469.534	1534.51
469.906	1594.85
470.278	1607.95
470.65	1635.52
471.022	1664.67
471.394	1692.24
471.766	1730.89
472.138	1771.34
472.51	1827.16
472.882	1842.75
473.253	1901.28
473.625	1907.15
473.997	1958.23
474.369	1996.64
474.74	2045
475.112	2064.89
475.484	2165.45
475.855	2182.4
476.227	2241.38
476.598	2299.23
476.97	2327.48
477.341	2392.79
477.713	2413.13
478.084	2504.2
478.455	2578.32
478.827	2611.09
479.198	2734.48
479.569	2776.96
479.94	2875.72
480.311	2938.09
480.682	3020.57
481.053	3132.21
481.424	3181.92
481.795	3230.51
482.166	3354.57
482.537	3448.36
482.908	3554.57
483.279	3655.81
483.65	3712.53
484.021	3893.54
484.391	3973.31
484.762	4049.47
485.133	4134.44
485.503	4266.87
485.874	4392.96
486.244	4481.1
486.615	4587.99
486.985	4717.93
487.356	4856.45
487.726	4964.47
488.097	5163.34
488.467	5207.63
488.837	5361.98
489.207	5504.57
489.578	5665.47
489.948	5759.48
490.318	5918.35
490.688	6022.98
491.058	6222.07
491.428	6370.54
491.798	6479.46
492.168	6632.9
492.538	6797.19
492.908	6888.04
493.278	7051.42
493.648	7159.22
494.017	7326.22
494.387	7430.62
494.757	7563.28
495.126	7754.23
495.496	7858.86
495.866	7990.16
496.235	8147.22
496.605	8278.96
496.974	8429.69
497.344	8514.44
497.713	8653.19
498.082	8835.11
498.452	8955.78
498.821	9084.37
499.19	9197.58
499.559	9371.59
499.928	9450.46
500.298	9623.11
500.667	9675.99
501.036	9750.56
501.405	9884.8
501.774	9943.1
502.143	10085.24
502.512	10265.35
502.88	10375.63
503.249	10366.14
503.618	10560.26
503.987	10628.05
504.356	10742.85
504.724	10891.55
505.093	10929.51
505.462	11042.96
505.83	11170.64
506.199	11228.94
506.567	11462.38
506.936	11446.34
507.304	11659.21
507.672	11758.65
508.041	11782.6
508.409	11913.9
508.777	12000.67
509.145	12100.33
509.514	12216.03
509.882	12293.32
510.25	12291.74
510.618	12425.29
510.986	12482.69
511.354	12558.4
511.722	12656.48
512.09	12811.95
512.458	12915.45
512.826	13014.66
513.193	13100.53
513.561	13128.55
513.929	13152.28
514.297	13327.19
514.664	13433.18
515.032	13486.06
515.4	13583.68
515.767	13614.19
516.135	13679.95
516.502	13626.85
516.869	13846.95
517.237	13907.29
517.604	13839.27
517.972	14032.26
518.339	14096.44
518.706	14194.29
519.073	14229.99
519.44	14187.51
519.808	14413.72
520.175	14321.06
520.542	14556.31
520.909	14539.36
521.276	14624.33
521.643	14685.8
522.009	14838.56
522.376	14918.56
522.743	14918.79
523.11	15100.7
523.477	15219.57
523.843	15282.39
524.21	15361.26
524.577	15375.5
524.943	15443.52
525.31	15542.5
525.676	15637.41
526.043	15697.07
526.409	15673.34
526.776	15853.68
527.142	15916.95
527.508	15859.55
527.874	15961.7
528.241	16062.04
528.607	16041.02
528.973	16246.21
529.339	16143.62
529.705	16278.07
530.071	16386.32
530.437	16340.22
530.803	16440.33
531.169	16544.51
531.535	16375.93
531.901	16528.01
532.267	16513.1
532.632	16605.98
532.998	16569.14
533.364	16593.32
533.73	16694.79
534.095	16740.21
534.461	16711.06
534.826	16793.32
535.192	16720.1
535.557	16813.88
535.923	16776.37
536.288	16793.99
536.653	16886.42
537.019	16827.21
537.384	16791.06
537.749	16857.95
538.114	16877.61
538.479	16811.62
538.845	16846.87
539.21	16878.06
539.575	16858.62
539.94	16895.69
540.305	16921.67
540.67	16947.66
541.034	16891.17
541.399	16989.47
541.764	16924.39
542.129	16992.63
542.494	16993.54
542.858	16912.41
543.223	16970.03
543.587	17025.17
543.952	16922.58
544.316	16980.88
544.681	16871.96
545.045	16893.2
545.41	16948.34
545.774	16855.91
546.138	16890.49
546.503	16928
546.867	16834.9
547.231	16989.69
547.595	16840.09
547.959	16916.48
548.324	16964.61
548.688	16882.58
549.052	16961.22
549.416	16913.76
549.779	16797.84
550.143	16826.31
550.507	16980.66
550.871	16926.65
551.235	16849.13
551.599	16894.33
551.962	16839.87
552.326	16986.53
552.689	16991.05
553.053	16819.76
553.417	16918.28
553.78	17039.18
554.143	16854.56
554.507	16892.07
554.87	16884.61
555.234	17097.94
555.597	16828.57
555.96	16936.14
556.323	16900.88
556.686	16992.86
557.05	16978.4
557.413	16923.48
557.776	17013.42
558.139	17110.14
558.502	17066.53
558.865	17039.86
559.228	17097.04
559.59	17117.6
559.953	17096.81
560.316	17217.94
560.679	17325.96
561.041	17371.83
561.404	17351.27
561.767	17347.88
562.129	17324.6
562.492	17481.43
562.854	17371.15
563.217	17500.19
563.579	17447.76
563.941	17541.54
564.304	17600.3
564.666	17594.65
565.028	17641.2
565.39	17584.48
565.753	17693.18
566.115	17698.15
566.477	17707.64
566.839	17751.03
567.201	17864.7
567.563	17749.45
567.925	17852.95
568.287	17951.25
568.648	17843.91
569.01	17998.71
569.372	18059.5
569.734	17996
570.095	18063.79
570.457	18219.94
570.819	18133.39
571.18	18097.24
571.542	18184.47
571.903	18142.21
572.265	18264.92
572.626	18352.37
572.987	18257.68
573.349	18346.95
573.71	18337.91
574.071	18276.89
574.432	18440.73
574.794	18556.66
575.155	18500.39
575.516	18432.59
575.877	18496.32
576.238	18597.56
576.599	18596.43
576.96	18541.52
577.32	18564.12
577.681	18551.46
578.042	18685.92
578.403	18613.15
578.763	18544.91
579.124	18529.09
579.485	18678.01
579.845	18708.75
580.206	18634.85
580.566	18691.12
580.927	18666.71
581.287	18756.2
581.648	18513.27
582.008	18702.42
582.368	18645.47
582.728	18693.15
583.089	18702.87
583.449	18580.16
583.809	18614.74
584.169	18581.97
584.529	18654.51
584.889	18804.79
585.249	18711.68
585.609	18595.3
585.969	18680.27
586.329	18584.91
586.688	18701.06
587.048	18597.34
587.408	18502.2
587.768	18615.64
588.127	18492.93
588.487	18535.42
588.846	18668.29
589.206	18530.22
589.565	18630.1
589.925	18553.5
590.284	18570.67
590.643	18487.06
591.003	18584.68
591.362	18654.96
591.721	18550.11
592.08	18540.61
592.44	18565.02
592.799	18543.33
593.158	18487.51
593.517	18451.8
593.876	18619.71
594.235	18528.41
594.593	18548.98
594.952	18497.23
595.311	18445.93
595.67	18515.98
596.029	18516.43
596.387	18596.21
596.746	18550.56
597.104	18534.29
597.463	18559.14
597.822	18549.43
598.18	18481.41
598.538	18410.45
598.897	18637.11
599.255	18367.06
599.613	18621.06
599.972	18481.86
600.33	18591.01
600.688	18475.76
601.046	18466.49
601.404	18601.63
601.762	18589.65
602.12	18721.4
602.478	18630.78
602.836	18613.15
603.194	18514.4
603.552	18549.43
603.91	18476.89
604.268	18616.09
604.625	18567.73
604.983	18473.27
605.341	18523.21
605.698	18596.21
606.056	18684.11
606.413	18555.76
606.771	18718.46
607.128	18671.91
607.485	18517.34
607.843	18618.8
608.2	18752.59
608.557	18767.5
608.914	18598.24
609.272	18753.94
609.629	18832.81
609.986	18871.68
610.343	18783.77
610.7	18977.44
611.057	18831.91
611.414	18880.27
611.771	18847.5
612.127	18955.74
612.484	18937.89
612.841	18952.58
613.198	18878.23
613.554	19016.76
613.911	19087.49
614.267	19001.39
614.624	18981.73
614.98	19057.89
615.337	19131.56
615.693	19062.18
616.05	19097.89
616.406	19147.15
616.762	19079.81
617.118	19094.5
617.475	18993.48
617.831	19150.54
618.187	19226.47
618.543	19201.16
618.899	19247.26
619.255	19219.92
619.611	19158.45
619.967	19227.83
620.323	19241.61
620.678	19188.28
621.034	19192.35
621.39	19215.4
621.746	19228.96
622.101	19389.41
622.457	19191.44
622.812	19376.3
623.168	19284.32
623.523	19292.46
623.879	19448.16
624.234	19125.46
624.589	19389.18
624.945	19356.86
625.3	19360.25
625.655	19425.56
626.01	19437.99
626.365	19246.58
626.72	19362.51
627.075	19296.3
627.43	19194.16
627.785	19230.54
628.14	19355.28
628.495	19301.5
628.85	19344.66
629.205	19205.23
629.559	19345.34
629.914	19145.12
630.269	19302.85
630.623	19192.57
630.978	19185.57
631.332	19278.22
631.687	19261.27
632.041	19173.82
632.396	19245
632.75	19218.34
633.104	19177.43
633.459	19000.26
633.813	19019.25
634.167	19104.67
634.521	19055.4
634.875	19068.96
635.229	19047.95
635.583	19077.78
635.937	18994.39
636.291	19010.21
636.645	18929.3
636.999	18854.96
637.352	18917.33
637.706	18857.89
638.06	18939.02
638.413	18863.09
638.767	18819.93
639.121	18749.87
639.474	18707.16
639.828	18742.42
640.181	18698.35
640.534	18777.22
640.888	18687.28
641.241	18472.82
641.594	18773.83
641.947	18688.63
642.301	18625.36
642.654	18641.63
643.007	18647.73
643.36	18625.58
643.713	18622.19
644.066	18618.8
644.419	18532.03
644.771	18392.82
645.124	18356.66
645.477	18183.34
645.83	18231.24
646.182	18072.15
646.535	18004.81
646.888	17986.5
647.24	17885.04
647.593	18043.9
647.945	17996.67
648.298	17864.25
648.65	17915.32
649.002	17848.43
649.355	17859.05
649.707	17869.22
650.059	17962.55
650.411	18201.19
650.763	18340.85
651.115	18481.41
651.467	18517.34
651.819	18379.49
652.171	18320.28
652.523	18312.37
652.875	18335.65
653.227	18275.31
653.578	18264.92
653.93	18290.23
654.282	18365.93
654.633	18348.08
654.985	18301.3
655.337	18378.36
655.688	18314.63
656.039	18420.62
656.391	18336.33
656.742	18351.01
657.094	18275.76
657.445	18322.09
657.796	18350.79
658.147	18319.83
658.498	18328.19
658.849	18306.27
659.2	18259.49
659.551	18179.04
659.902	18341.3
660.253	18312.37
660.604	18403.89
660.955	18193.5
661.306	18374.97
661.656	18325.93
662.007	18403.67
662.358	18342.88
662.708	18255.88
663.059	18231.47
663.409	18298.59
663.76	18454.97
664.11	18425.59
664.461	18396.89
664.811	18340.85
665.161	18421.3
665.511	18288.87
665.862	18381.07
666.212	18430.79
666.562	18499.49
666.912	18356.21
667.262	18308.98
667.612	18321.41
667.962	18338.81
668.312	18379.71
668.662	18419.71
669.011	18270.79
669.361	18351.69
669.711	18299.04
670.06	18254.75
670.41	18303.11
670.76	18231.24
671.109	18338.36
671.459	18212.49
671.808	18274.86
672.157	18204.35
672.507	18172.26
672.856	18048.88
673.205	18167.06
673.554	18206.84
673.904	18162.09
674.253	18286.84
674.602	18095.2
674.951	17874.87
675.3	17745.83
675.649	18106.28
675.998	18088.2
676.346	18078.71
676.695	18127.97
677.044	17918.94
677.393	17952.83
677.741	18097.69
678.09	17966.17
678.438	17953.74
678.787	18047.75
679.135	17941.76
679.484	17828.77
679.832	17963.91
680.181	17772.05
680.529	17964.58
680.877	17854.08
681.225	17745.61
681.573	17895.21
681.922	17788.32
682.27	17699.28
682.618	17705.83
682.966	17593.07
683.314	17698.6
683.661	17626.97
684.009	17579.28
684.357	17377.03
684.705	17482.56
685.053	17495.22
685.4	17331.83
685.748	17331.61
686.095	17252.74
686.443	17232.63
686.79	17210.25
687.138	17269.24
687.485	17186.07
687.832	17149.46
688.18	17146.3
688.527	17028.56
688.874	17088
689.221	16971.39
689.568	16897.27
689.915	16878.29
690.262	16848.23
690.609	16810.26
690.956	16671.28
691.303	16725.07
691.65	16572.3
691.997	16583.15
692.344	16522.14
692.69	16485.3
693.037	16503.83
693.383	16399.43
693.73	16512.64
694.077	16336.83
694.423	16316.94
694.769	16242.82
695.116	16230.39
695.462	16233.33
695.808	16126.44
696.155	16082.37
696.501	15940.23
696.847	15922.6
697.193	15904.75
697.539	15891.42
697.885	15743.85
698.231	15629.5
698.577	15668.6
698.923	15655.72
699.269	15609.17
699.614	15442.62
699.96	15435.39
700.306	15424.31
700.651	15350.64
700.997	15231.32
701.342	15215.5
701.688	15254.37
702.033	15094.38
702.379	15140.25
702.724	14994.49
703.069	15030.42
703.415	14874.72
703.76	14846.7
704.105	14878.34
704.45	14921.95
704.795	14785.46
705.14	14728.96
705.485	14656.42
705.83	14665.69
706.175	14635.41
706.52	14570.32
706.865	14446.03
707.209	14575.29
707.554	14443.09
707.899	14518.8
708.243	14325.58
708.588	14315.19
708.932	14300.05
709.277	14211.01
709.621	14192.93
709.966	14078.36
710.31	14117.91
710.654	14054.4
710.998	14037.68
711.342	13978.25
711.687	13902.54
712.031	13818.48
712.375	13806.28
712.719	13813.05
713.063	13819.83
713.407	13830
713.75	13783.45
714.094	13784.58
714.438	13716.11
714.782	13702.1
715.125	13613.29
715.469	13679.5
715.812	13595.21
716.156	13486.06
716.499	13540.75
716.843	13578.03
717.186	13491.26
717.53	13550.91
717.873	13614.87
718.216	13451.03
718.559	13395.21
718.902	13331.49
719.246	13350.47
719.589	13306.63
719.932	13259.4
720.275	13251.04
720.617	13310.7
720.96	13348.89
721.303	13228.66
721.646	13255.56
721.989	13191.83
722.331	13192.28
722.674	13102.34
723.016	13138.04
723.359	13133.3
723.701	13146.41
724.044	13047.65
724.386	13035.45
724.729	13026.63
725.071	13033.41
725.413	13027.54
725.755	13070.7
726.097	13014.88
726.439	12962.68
726.782	12933.53
727.124	13001.55
727.465	12932.17
727.807	12898.95
728.149	12950.48
728.491	12944.15
728.833	12969.24
729.175	12917.94
729.516	12900.99
729.858	12885.62
730.199	12866.41
730.541	12781.44
730.882	12847.2
731.224	12917.26
731.565	12779.18
731.906	12745.06
732.248	12798.62
732.589	12711.16
732.93	12802.91
733.271	12824.61
733.612	12799.07
733.953	12740.09
734.294	12732.86
734.635	12741.44
734.976	12736.47
735.317	12688.56
735.658	12749.81
735.999	12792.97
736.339	12764.49
736.68	12748
737.021	12713.87
737.361	12696.93
737.702	12741.67
738.042	12638.4
738.383	12754.33
738.723	12731.05
739.063	12730.37
739.404	12818.96
739.744	12785.29
740.084	12686.76
740.424	12793.65
740.764	12710.71
741.104	12910.48
741.444	12746.19
741.784	12731.73
742.124	12814.21
742.464	12804.95
742.804	12817.15
743.143	12842.68
743.483	12905.73
743.823	12896.24
744.162	12946.41
744.502	13009.69
744.841	12836.36
745.181	13097.82
745.52	13097.82
745.86	13074.32
746.199	13082.68
746.538	13098.5
746.877	13249.23
747.216	13292.62
747.556	13306.85
747.895	13267.76
748.234	13276.35
748.573	13378.49
748.911	13436.79
749.25	13495.78
749.589	13481.09
749.928	13603.57
750.267	13696.67
750.605	13655.09
750.944	13746.39
751.283	13788.87
751.621	13967.63
751.96	13987.74
752.298	14111.35
752.636	14167.17
752.975	14186.15
753.313	14283.1
753.651	14444.45
753.989	14432.7
754.327	14509.76
754.666	14572.81
755.004	14775.97
755.342	14918.34
755.679	15028.62
756.017	14940.26
756.355	15140.25
756.693	15227.25
