Data from hue_70_FLMS001491_91.txt Node
Date: Mon Feb 06 15:21:45 GMT 2017
User: dcchb
Spectrometer: FLMS00149
Trigger mode: 0
Integration Time (sec): 2.000000E-2
Scans to average: 10
Electric dark correction enabled: true
Nonlinearity correction enabled: false
Boxcar width: 0
XAxis mode: Wavelengths
Number of Pixels in Spectrum: 2048
>>>>>Begin Spectral Data<<<<<
341.393	3.5
341.776	3.5
342.16	3.5
342.543	-70.62
342.927	-69.26
343.31	-78.08
343.693	-83.5
344.077	-71.3
344.46	-41.69
344.843	-57.51
345.226	-69.04
345.61	-20.23
345.993	-7.12
346.376	1.02
346.759	5.08
347.142	31.98
347.525	51.64
347.908	54.35
348.291	68.13
348.674	106.32
349.057	109.94
349.44	124.63
349.823	157.4
350.206	150.62
350.588	215.02
350.971	207.57
351.354	234.91
351.737	257.73
352.119	262.48
352.502	279.65
352.884	276.94
353.267	271.52
353.65	285.76
354.032	292.31
354.414	315.36
354.797	333.66
355.179	308.81
355.562	312.2
355.944	323.72
356.326	337.73
356.709	325.53
357.091	355.81
357.473	343.61
357.855	351.29
358.238	335.47
358.62	324.62
359.002	346.77
359.384	333.66
359.766	342.02
360.148	344.28
360.53	339.31
360.912	321.01
361.294	329.82
361.676	339.54
362.057	337.51
362.439	331.86
362.821	314.68
363.203	318.3
363.584	336.15
363.966	343.15
364.348	324.62
364.729	324.62
365.111	328.92
365.493	327.34
365.874	328.24
366.256	313.78
366.637	310.16
367.019	287.56
367.4	311.07
367.781	303.38
368.163	323.95
368.544	330.27
368.925	327.11
369.306	328.01
369.688	313.33
370.069	321.23
370.45	324.85
370.831	299.54
371.212	313.78
371.593	318.52
371.974	304.96
372.355	305.64
372.736	307.9
373.117	325.3
373.498	337.96
373.879	350.84
374.26	304.29
374.641	304.06
375.021	312.87
375.402	317.39
375.783	314.23
376.163	333.21
376.544	313.1
376.925	323.49
377.305	337.51
377.686	320.1
378.066	321.23
378.447	339.99
378.827	313.78
379.208	337.96
379.588	342.48
379.968	342.7
380.349	349.48
380.729	332.76
381.109	318.97
381.489	313.78
381.87	323.49
382.25	343.15
382.63	329.37
383.01	349.03
383.39	339.54
383.77	343.61
384.15	339.31
384.53	325.53
384.91	342.02
385.29	352.42
385.67	344.28
386.049	351.52
386.429	344.96
386.809	340.67
387.189	354
387.568	355.81
387.948	356.04
388.328	343.15
388.707	352.42
389.087	361.46
389.466	360.56
389.846	350.39
390.225	363.27
390.605	356.49
390.984	350.16
391.363	353.78
391.743	353.55
392.122	380.44
392.501	379.99
392.881	371.63
393.26	352.87
393.639	347.22
394.018	375.47
394.397	369.37
394.776	366.43
395.155	386.09
395.534	365.08
395.913	363.49
396.292	362.59
396.671	370.27
397.05	366.43
397.429	385.19
397.808	379.54
398.186	373.66
398.565	370.27
398.944	363.49
399.323	376.83
399.701	382.93
400.08	373.66
400.458	390.16
400.837	382.93
401.215	401.01
401.594	382.93
401.972	403.94
402.351	407.56
402.729	426.99
403.107	404.85
403.486	409.82
403.864	394
404.242	375.92
404.62	390.61
404.999	406.2
405.377	404.85
405.755	400.1
406.133	412.98
406.511	427.67
406.889	420.89
407.267	417.05
407.645	415.47
408.023	440.33
408.401	419.31
408.779	408.46
409.156	442.14
409.534	412.53
409.912	431.74
410.29	433.77
410.667	432.42
411.045	425.64
411.422	460.21
411.8	434.9
412.178	440.33
412.555	479.65
412.933	443.27
413.31	453.43
413.687	451.17
414.065	471.06
414.442	475.58
414.819	459.08
415.197	466.54
415.574	459.31
415.951	473.32
416.328	453.89
416.705	480.1
417.082	478.97
417.46	504.51
417.837	481.91
418.214	499.76
418.591	489.37
418.967	474.68
419.344	511.96
419.721	501.57
420.098	487.56
420.475	505.64
420.852	510.38
421.228	497.05
421.605	490.95
421.982	524.39
422.358	524.62
422.735	521.23
423.111	522.81
423.488	539.76
423.864	540.21
424.241	546.77
424.617	532.08
424.994	509.93
425.37	531.85
425.746	537.5
426.123	552.87
426.499	557.39
426.875	533.66
427.251	579.53
427.627	570.04
428.003	568.23
428.379	554.9
428.756	572.3
429.132	590.61
429.507	564.17
429.883	614.56
430.259	596.26
430.635	584.05
431.011	568.69
431.387	586.54
431.763	587.89
432.138	620.21
432.514	606.65
432.89	592.19
433.265	611.17
433.641	644.62
434.016	649.14
434.392	642.81
434.767	642.13
435.143	651.62
435.518	651.85
435.894	657.72
436.269	674.67
436.644	662.02
437.02	662.24
437.395	658.85
437.77	680.55
438.145	671.96
438.52	701.79
438.895	692.98
439.271	685.52
439.646	691.39
440.021	723.94
440.395	690.26
440.77	701.34
441.145	732.07
441.52	706.08
441.895	695.24
442.27	735.91
442.645	731.85
443.019	732.52
443.394	739.75
443.769	744.95
444.143	751.96
444.518	730.94
444.892	750.6
445.267	772.07
445.641	752.64
446.016	765.29
446.39	742.01
446.764	782.47
447.139	787.66
447.513	775.23
447.887	776.14
448.262	770.49
448.636	771.39
449.01	819.53
449.384	819.98
449.758	799.64
450.132	811.17
450.506	822.46
450.88	814.1
451.254	822.01
451.628	822.46
452.002	819.53
452.376	863.82
452.75	844.16
453.123	863.59
453.497	867.21
453.871	880.99
454.244	915.12
454.618	881.67
454.992	908.56
455.365	903.82
455.739	941.33
456.112	911.73
456.486	941.11
456.859	919.64
457.232	943.37
457.606	979.75
457.979	979.3
458.352	994.66
458.725	1003.25
459.099	993.53
459.472	1028.79
459.845	1038.28
460.218	1035.11
460.591	1030.37
460.964	1068.11
461.337	1084.6
461.71	1099.52
462.083	1117.6
462.456	1103.81
462.829	1122.34
463.201	1142.68
463.574	1144.94
463.947	1160.31
464.32	1154.88
464.692	1168.22
465.065	1191.95
465.438	1226.3
465.81	1228.33
466.183	1240.76
466.555	1269.01
466.928	1276.92
467.3	1299.29
467.672	1299.29
468.045	1364.37
468.417	1351.04
468.789	1353.52
469.161	1381.77
469.534	1446.63
469.906	1458.15
470.278	1486.85
470.65	1488.21
471.022	1518.04
471.394	1568.66
471.766	1602.33
472.138	1586.06
472.51	1661.09
472.882	1674.42
473.253	1663.8
473.625	1724.81
473.997	1811.14
474.369	1796.22
474.74	1843
475.112	1883.23
475.484	1924.81
475.855	1995.99
476.227	2009.78
476.598	2095.65
476.97	2122.54
477.341	2135.88
477.713	2228.98
478.084	2257.45
478.455	2332.03
478.827	2401.86
479.198	2506.94
479.569	2490.89
479.94	2599.59
480.311	2664.22
480.682	2743.32
481.053	2843.2
481.424	2931.56
481.795	3016.53
482.166	3074.16
482.537	3158.9
482.908	3250.42
483.279	3345.34
483.65	3409.06
484.021	3548.27
484.391	3637.53
484.762	3744.2
485.133	3854.02
485.503	3918.65
485.874	4018.54
486.244	4123.17
486.615	4301.92
486.985	4373.11
487.356	4505.31
487.726	4590.5
488.097	4748.69
488.467	4836.14
488.837	5019.87
489.207	5108.68
489.578	5286.98
489.948	5423.93
490.318	5530.82
490.688	5617.14
491.058	5846.96
491.428	5994.98
491.798	6084.7
492.168	6253.06
492.538	6361.3
492.908	6506.38
493.278	6678.58
493.648	6724.46
494.017	6907.5
494.387	6990.89
494.757	7165.12
495.126	7333.93
495.496	7489.41
495.866	7586.13
496.235	7696.63
496.605	7939.79
496.974	8016.63
497.344	8138.43
497.713	8268.6
498.082	8455.94
498.452	8625.87
498.821	8732.76
499.19	8799.88
499.559	9001.46
499.928	9097.95
500.298	9195.13
500.667	9359.19
501.036	9454.33
501.405	9647.54
501.774	9648.9
502.143	9870.81
502.512	9950.13
502.88	10050.02
503.249	10100.41
503.618	10325.27
503.987	10457.01
504.356	10492.27
504.724	10594.41
505.093	10745.82
505.462	10850.22
505.83	10986.72
506.199	11104
506.567	11265.13
506.936	11288.86
507.304	11451.56
507.672	11521.17
508.041	11701.05
508.409	11793.48
508.777	11888.39
509.145	12024.88
509.514	12092.45
509.882	12282.73
510.25	12349.84
510.618	12457.41
510.986	12505.77
511.354	12659.67
511.722	12746.44
512.09	12940.11
512.458	12938.08
512.826	13119.09
513.193	13230.5
513.561	13308.69
513.929	13355.69
514.297	13564.73
514.664	13562.24
515.032	13667.78
515.4	13867.77
515.767	13870.26
516.135	13941.44
516.502	13894.66
516.869	14237.7
517.237	14155.9
517.604	14159.06
517.972	14403.12
518.339	14512.73
518.706	14510.24
519.073	14548.66
519.44	14665.72
519.808	14882.21
520.175	14828.2
520.542	15057.34
520.909	15096.89
521.276	15141.18
521.643	15265.7
522.009	15304.34
522.376	15447.16
522.743	15514.73
523.11	15688.97
523.477	15786.59
523.843	15923.54
524.21	16007.15
524.577	16168.5
524.943	16109.07
525.31	16256.18
525.676	16356.29
526.043	16533.92
526.409	16504.31
526.776	16722.39
527.142	16744.53
527.508	16804.42
527.874	16984.53
528.241	17111.75
528.607	17020.91
528.973	17161.24
529.339	17122.6
529.705	17288.7
530.071	17375.02
530.437	17482.59
530.803	17480.33
531.169	17596.03
531.535	17577.5
531.901	17674.9
532.267	17715.35
532.632	17796.71
532.998	17850.27
533.364	17978.4
533.73	17903.15
534.095	18047.1
534.461	17995.12
534.826	18159.18
535.192	18183.59
535.557	18351.27
535.923	18230.59
536.288	18294.1
536.653	18402.79
537.019	18335.9
537.384	18410.02
537.749	18460.42
538.114	18369.35
538.479	18426.97
538.845	18528.89
539.21	18367.99
539.575	18555.56
539.94	18596.01
540.305	18559.17
540.67	18589.91
541.034	18722.78
541.399	18701.54
541.764	18723.01
542.129	18761.88
542.494	18753.97
542.858	18783.57
543.223	18839.84
543.587	18936.56
543.952	18838.94
544.316	18977.47
544.681	18860.18
545.045	18941.99
545.41	19003.23
545.774	18982.44
546.138	18983.12
546.503	19036.67
546.867	18905.15
547.231	19100.18
547.595	19066.96
547.959	19122.1
548.324	19127.29
548.688	19112.83
549.052	19101.31
549.416	19091.59
549.779	19106.73
550.143	19127.07
550.507	19338.36
550.871	19323.9
551.235	19295.65
551.599	19327.51
551.962	19492.71
552.326	19439.83
552.689	19474.86
553.053	19408.42
553.417	19384.91
553.78	19668.97
554.143	19600.05
554.507	19453.16
554.87	19492.93
555.234	19808.41
555.597	19670.1
555.96	19546.27
556.323	19751.01
556.686	19733.61
557.05	19871.23
557.413	19845.47
557.776	19915.3
558.139	20008.17
558.502	20065.12
558.865	19928.4
559.228	20198.9
559.59	20171.79
559.953	20161.16
560.316	20376.07
560.679	20280.71
561.041	20338.34
561.404	20461.27
561.767	20490.2
562.129	20372.01
562.492	20574.04
562.854	20598.67
563.217	20602.51
563.579	20637.76
563.941	20732.22
564.304	20854.71
564.666	20999.11
565.028	20900.81
565.39	21072.55
565.753	21213.11
566.115	21143.96
566.477	21183.74
566.839	21299.89
567.201	21355.94
567.563	21334.24
567.925	21439.1
568.287	21404.3
568.648	21505.54
569.01	21647.91
569.372	21734
569.734	21566.78
570.095	21751.18
570.457	21858.75
570.819	21869.82
571.18	21890.61
571.542	21971.51
571.903	21989.82
572.265	21986.88
572.626	22115.46
572.987	22092.19
573.349	22280.66
573.71	22243.37
574.071	22253.09
574.432	22232.3
574.794	22430.71
575.155	22407.66
575.516	22421.22
575.877	22484.49
576.238	22436.59
576.599	22569.01
576.96	22521.1
577.32	22593.19
577.681	22698.05
578.042	22708.89
578.403	22677.48
578.763	22624.38
579.124	22698.05
579.485	22778.95
579.845	22873.41
580.206	22713.64
580.566	22848.1
580.927	22781.21
581.287	22849.23
581.648	22860.53
582.008	22912.5
582.368	22819.4
582.728	22881.09
583.089	22809.91
583.449	22831.6
583.809	22827.54
584.169	22900.75
584.529	22940.98
584.889	22946.4
585.249	22864.37
585.609	22914.09
585.969	22933.07
586.329	22946.18
586.688	22910.7
587.048	22885.84
587.408	22839.96
587.768	22866.86
588.127	22931.71
588.487	22852.85
588.846	23011.03
589.206	22902.56
589.565	22861.66
589.925	23005.38
590.284	22947.31
590.643	22975.55
591.003	23026.85
591.362	22962.22
591.721	22943.92
592.08	23015.1
592.44	22954.09
592.799	22976.23
593.158	22850.36
593.517	22959.74
593.876	22932.62
594.235	23063.46
594.593	22951.15
594.952	23056.46
595.311	22870.92
595.67	22852.85
596.029	23063.69
596.387	23022.11
596.746	23122.67
597.104	22943.92
597.463	22934.43
597.822	22973.29
598.18	23076.12
598.538	22930.58
598.897	23110.24
599.255	22912.5
599.613	23227.07
599.972	23084.7
600.33	23092.39
600.688	23030.24
601.046	23179.39
601.404	23234.08
601.762	23154.53
602.12	23230.01
602.478	23236.11
602.836	23247.41
603.194	23125.83
603.552	23298.26
603.91	23032.73
604.268	23213.74
604.625	23112.27
604.983	23310.69
605.341	23111.82
605.698	23335.32
606.056	23413.96
606.413	23382.32
606.771	23334.64
607.128	23557.01
607.485	23315.66
607.843	23314.53
608.2	23432.72
608.557	23526.95
608.914	23488.53
609.272	23614.18
609.629	23618.93
609.986	23723.78
610.343	23515.65
610.7	23704.12
611.057	23703.22
611.414	23728.08
611.771	23797
612.127	23724.46
612.484	23793.61
612.841	23968.75
613.198	23918.35
613.554	23863.21
613.911	24078.8
614.267	23908.41
614.624	23905.25
614.98	23980.73
615.337	24114.96
615.693	24024.57
616.05	24064.56
616.406	24235.63
616.762	24147.27
617.118	24156.54
617.475	24100.95
617.831	24225.24
618.187	24174.39
618.543	24247.39
618.899	24374.39
619.255	24333.03
619.611	24395.63
619.967	24362.41
620.323	24478.57
620.678	24331.68
621.034	24278.8
621.39	24412.58
621.746	24321.06
622.101	24616.87
622.457	24474.5
622.812	24477.21
623.168	24546.36
623.523	24602.4
623.879	24645.11
624.234	24456.87
624.589	24571.44
624.945	24591.78
625.3	24610.09
625.655	24583.2
626.01	24636.08
626.365	24569.41
626.72	24629.07
627.075	24642.18
627.43	24616.87
627.785	24561.05
628.14	24593.82
628.495	24582.29
628.85	24610.99
629.205	24529.19
629.559	24700.25
629.914	24446.48
630.269	24587.49
630.623	24442.63
630.978	24408.96
631.332	24598.79
631.687	24566.92
632.041	24418.45
632.396	24544.33
632.75	24405.8
633.104	24499.81
633.459	24377.33
633.813	24426.59
634.167	24270.21
634.521	24370.32
634.875	24415.52
635.229	24283.77
635.583	24198.12
635.937	24263.88
636.291	24254.62
636.645	24213.49
636.999	24134.17
637.352	24225.92
637.706	24012.14
638.06	24148.18
638.413	23990.44
638.767	24096.65
639.121	24025.7
639.474	23960.16
639.828	24037.45
640.181	24053.49
640.534	24033.15
640.888	24065.02
641.241	23915.19
641.594	23910.44
641.947	23996.32
642.301	23911.12
642.654	23926.94
643.007	23919.94
643.36	23891.01
643.713	23762.43
644.066	23959.93
644.419	23746.38
644.771	23617.57
645.124	23418.48
645.477	23337.58
645.83	23214.42
646.182	23211.25
646.535	23105.04
646.888	23113.18
647.24	23074.31
647.593	23119.51
647.945	23192.5
648.298	22981.88
648.65	22931.94
649.002	22870.47
649.355	22981.88
649.707	22898.49
650.059	23018.26
650.411	23352.04
650.763	23347.3
651.115	23576.22
651.467	23484.69
651.819	23535.54
652.171	23516.78
652.523	23391.81
652.875	23533.96
653.227	23299.61
653.578	23513.62
653.93	23400.85
654.282	23373.74
654.633	23264.59
654.985	23411.93
655.337	23402.89
655.688	23406.28
656.039	23461.87
656.391	23250.58
656.742	23342.1
657.094	23444.92
657.445	23463.45
657.796	23342.32
658.147	23324.7
658.498	23251.93
658.849	23426.62
659.2	23310.46
659.551	23356.56
659.902	23436.56
660.253	23259.84
660.604	23280.63
660.955	23353.85
661.306	23325.38
661.656	23399.05
662.007	23326.96
662.358	23336.45
662.708	23358.37
663.059	23273.4
663.409	23224.59
663.76	23425.26
664.11	23344.13
664.461	23299.39
664.811	23276.11
665.161	23372.61
665.511	23276.11
665.862	23310.23
666.212	23478.82
666.562	23419.84
666.912	23413.51
667.262	23305.94
667.612	23307.52
667.962	23465.26
668.312	23227.07
668.662	23398.82
669.011	23250.58
669.361	23355.88
669.711	23356.11
670.06	23280.63
670.41	23275.89
670.76	23275.21
671.109	23305.94
671.459	23242.89
671.808	23177.58
672.157	23342.1
672.507	23093.74
672.856	23089.22
673.205	23211.03
673.554	23139.62
673.904	23030.47
674.253	23186.85
674.602	23080.86
674.951	22830.02
675.3	22635.68
675.649	23071.37
675.998	22961.54
676.346	23114.08
676.695	23127.19
677.044	22871.83
677.393	23067.76
677.741	23061.88
678.09	22971.71
678.438	22892.17
678.787	22894.88
679.135	22854.65
679.484	22819.4
679.832	22787.31
680.181	22665.28
680.529	22717.93
680.877	22709.57
681.225	22648.33
681.573	22864.6
681.922	22596.36
682.27	22567.2
682.618	22604.94
682.966	22494.21
683.314	22402.69
683.661	22547.32
684.009	22355.01
684.357	22332.86
684.705	22303.03
685.053	22285.85
685.4	22285.85
685.748	22156.82
686.095	22117.27
686.443	22105.07
686.79	22017.16
687.138	21996.37
687.485	21999.08
687.832	21922.25
688.18	21918.86
688.527	21776.72
688.874	21827.56
689.221	21753.89
689.568	21693.78
689.915	21625.99
690.262	21668.47
690.609	21534.46
690.956	21415.6
691.303	21452.43
691.65	21228.93
691.997	21333.56
692.344	21150.97
692.69	21161.14
693.037	21108.26
693.383	20905.55
693.73	21000.69
694.077	20858.77
694.423	20866.01
694.769	20877.08
695.116	20880.69
695.462	20698.78
695.808	20653.81
696.155	20710.53
696.501	20603.19
696.847	20565.45
697.193	20357.32
697.539	20400.93
697.885	20273.48
698.231	20239.35
698.577	20173.82
698.923	20167.27
699.269	20015.86
699.614	20014.28
699.96	19913.71
700.306	19864.9
700.651	19790.1
700.997	19617.22
701.342	19679.6
701.688	19597.34
702.033	19593.95
702.379	19579.94
702.724	19481.86
703.069	19505.14
703.415	19260.17
703.76	19337.23
704.105	19300.17
704.45	19231.02
704.795	19098.59
705.14	18949.9
705.485	19031.03
705.83	18871.48
706.175	18938.15
706.52	18887.3
706.865	18850.92
707.209	18708.32
707.554	18792.39
707.899	18772.95
708.243	18648.21
708.588	18670.81
708.932	18484.15
709.277	18442.79
709.621	18442.34
709.966	18353.3
710.31	18398.5
710.654	18149.47
710.998	18257.94
711.342	18231.05
711.687	18146.75
712.031	18100.2
712.375	18098.62
712.719	18091.84
713.063	18055.91
713.407	18027.44
713.75	17859.98
714.094	17984.72
714.438	17835.35
714.782	17890.04
715.125	17807.55
715.469	17766.65
715.812	17729.36
716.156	17548.13
716.499	17681.91
716.843	17579.54
717.186	17545.19
717.53	17658.63
717.873	17610.05
718.216	17476.26
718.559	17483.04
718.902	17330.05
719.246	17389.03
719.589	17403.05
719.932	17314.46
720.275	17283.05
720.617	17262.48
720.96	17280.34
721.303	17270.62
721.646	17267.68
721.989	17083.51
722.331	17210.28
722.674	17103.39
723.016	17143.17
723.359	17056.61
723.701	17118.76
724.044	17023.62
724.386	16975.71
724.729	17024.52
725.071	16898.88
725.413	16941.81
725.755	16805.32
726.097	16835.15
726.439	16731.65
726.782	16820.01
727.124	16810.07
727.465	16719.45
727.807	16754.25
728.149	16752.67
728.491	16683.74
728.833	16831.08
729.175	16614.14
729.516	16740.69
729.858	16639.9
730.199	16676.51
730.541	16693.91
730.882	16648.26
731.224	16671.77
731.565	16538.66
731.906	16552.45
732.248	16647.13
732.589	16533.01
732.93	16409.63
733.271	16540.24
733.612	16442.62
733.953	16479.23
734.294	16444.2
734.635	16345.22
734.976	16475.61
735.317	16464.09
735.658	16390.19
735.999	16447.14
736.339	16413.24
736.68	16380.93
737.021	16401.04
737.361	16311.55
737.702	16467.48
738.042	16350.64
738.383	16427.03
738.723	16365.56
739.063	16339.8
739.404	16468.83
739.744	16317.65
740.084	16266.58
740.424	16362.62
740.764	16317.65
741.104	16361.26
741.444	16282.62
741.784	16318.55
742.124	16353.36
742.464	16321.94
742.804	16288.95
743.143	16178.9
743.483	16370.3
743.823	16312.23
744.162	16467.7
744.502	16508.61
744.841	16396.52
745.181	16471.77
745.52	16412.11
745.86	16491.66
746.199	16497.98
746.538	16388.38
746.877	16563.07
747.216	16562.84
747.556	16468.83
747.895	16581.37
748.234	16508.15
748.573	16549.51
748.911	16599
749.25	16711.99
749.589	16618.21
749.928	16773.46
750.267	16790.41
750.605	16724.19
750.944	16881.03
751.283	16904.75
751.621	17043.28
751.96	16958.76
752.298	17003.28
752.636	17066.78
752.975	17121.24
753.313	17131.19
753.651	17283.73
753.989	17211.19
754.327	17333.44
754.666	17329.6
755.004	17497.51
755.342	17554.68
755.679	17592.87
756.017	17573.21
756.355	17637.62
756.693	17655.24
