Data from hue_310_FLMS001491_70.txt Node
Date: Mon Feb 06 15:50:02 GMT 2017
User: dcchb
Spectrometer: FLMS00149
Trigger mode: 0
Integration Time (sec): 2.000000E-2
Scans to average: 10
Electric dark correction enabled: true
Nonlinearity correction enabled: false
Boxcar width: 0
XAxis mode: Wavelengths
Number of Pixels in Spectrum: 2048
>>>>>Begin Spectral Data<<<<<
341.393	-15.61
341.776	-15.61
342.16	-15.61
342.543	-67.13
342.927	-72.78
343.31	-61.48
343.693	-78.2
344.077	-53.12
344.46	-82.95
344.843	-44.53
345.226	-43.4
345.61	-23.74
345.993	-18.09
346.376	14
346.759	4.05
347.142	28.91
347.525	42.24
347.908	41.79
348.291	67.33
348.674	106.42
349.057	100.77
349.44	116.37
349.823	146.87
350.206	154.56
350.588	198.62
350.971	218.29
351.354	236.59
351.737	225.52
352.119	243.37
352.502	250.6
352.884	280.43
353.267	275.01
353.65	302.58
354.032	288.34
354.414	294.89
354.797	319.98
355.179	336.93
355.562	334.44
355.944	317.04
356.326	325.63
356.709	330.82
357.091	338.96
357.473	350.03
357.855	322.92
358.238	343.25
358.62	348.45
359.002	353.87
359.384	327.66
359.766	345.51
360.148	327.89
360.53	359.07
360.912	319.53
361.294	341.45
361.676	347.55
362.057	321.33
362.439	314.78
362.821	331.28
363.203	329.69
363.584	338.73
363.966	329.69
364.348	335.12
364.729	310.94
365.111	321.33
365.493	317.04
365.874	326.76
366.256	315.23
366.637	324.72
367.019	316.14
367.4	333.31
367.781	306.64
368.163	312.97
368.544	315.68
368.925	299.41
369.306	326.98
369.688	303.71
370.069	314.33
370.45	291.5
370.831	310.94
371.212	299.19
371.593	315.68
371.974	309.58
372.355	313.88
372.736	313.2
373.117	331.5
373.498	317.49
373.879	308.68
374.26	299.64
374.641	310.71
375.021	315.91
375.402	317.49
375.783	319.53
376.163	323.14
376.544	323.14
376.925	326.3
377.305	344.38
377.686	319.07
378.066	325.63
378.447	339.86
378.827	327.43
379.208	335.8
379.588	318.85
379.968	344.61
380.349	352.07
380.729	326.98
381.109	337.38
381.489	327.43
381.87	322.24
382.25	336.7
382.63	317.49
383.01	352.52
383.39	332.18
383.77	330.15
384.15	343.25
384.53	338.06
384.91	345.51
385.29	325.4
385.67	353.42
386.049	372.86
386.429	341.45
386.809	361.11
387.189	350.49
387.568	330.15
387.948	338.73
388.328	357.04
388.707	339.41
389.087	369.24
389.466	390.94
389.846	357.26
390.225	367.21
390.605	357.26
390.984	388.22
391.363	353.87
391.743	367.89
392.122	364.72
392.501	351.39
392.881	363.37
393.26	356.13
393.639	372.18
394.018	389.58
394.397	403.82
394.776	365.85
395.155	366.08
395.534	377.15
395.913	386.42
396.292	384.38
396.671	383.93
397.05	381.67
397.429	380.31
397.808	386.42
398.186	392.52
398.565	394.33
398.944	392.52
399.323	383.48
399.701	375.8
400.08	409.24
400.458	395.46
400.837	394.78
401.215	409.01
401.594	394.55
401.972	391.39
402.351	409.92
402.729	415.57
403.107	430.71
403.486	428.9
403.864	428.9
404.242	438.62
404.62	438.62
404.999	442.91
405.377	426.42
405.755	437.04
406.133	444.95
406.511	446.08
406.889	421.67
407.267	454.89
407.645	456.02
408.023	462.35
408.401	477.26
408.779	458.5
409.156	491.27
409.534	513.64
409.912	467.32
410.29	491.05
410.667	489.46
411.045	496.47
411.422	509.8
411.8	518.39
412.178	531.72
412.555	521.78
412.933	550.25
413.31	538.28
413.687	526.98
414.065	542.57
414.442	562
414.819	570.14
415.197	575.34
415.574	568.56
415.951	585.28
416.328	604.72
416.705	584.15
417.082	605.39
417.46	623.7
417.837	599.52
418.214	631.16
418.591	642
418.967	622.12
419.344	644.26
419.721	651.95
420.098	652.62
420.475	640.42
420.852	687.2
421.228	654.66
421.605	679.06
421.982	698.5
422.358	708.22
422.735	691.27
423.111	720.19
423.488	695.33
423.864	718.39
424.241	740.98
424.617	763.36
424.994	762.23
425.37	759.97
425.746	743.02
426.123	767.88
426.499	797.71
426.875	786.18
427.251	785.05
427.627	815.33
428.003	817.14
428.379	849
428.756	816.01
429.132	858.72
429.507	825.95
429.883	859.4
430.259	853.3
430.635	878.83
431.011	881.32
431.387	882.67
431.763	912.73
432.138	926.06
432.514	921.54
432.89	942.56
433.265	951.37
433.641	952.28
434.016	972.62
434.392	966.06
434.767	987.3
435.143	1000.86
435.518	1003.35
435.894	1029.56
436.269	1032.05
436.644	1048.77
437.02	1052.39
437.395	1057.13
437.77	1054.42
438.145	1060.75
438.52	1086.96
438.895	1094.19
439.271	1078.15
439.646	1129.9
440.021	1117.24
440.395	1174.19
440.77	1122.67
441.145	1153.85
441.52	1159.73
441.895	1181.42
442.27	1168.54
442.645	1186.17
443.019	1171.25
443.394	1187.07
443.769	1193.85
444.143	1165.38
444.518	1213.51
444.892	1191.14
445.267	1199.28
445.641	1194.76
446.016	1193.85
446.39	1201.08
446.764	1224.36
447.139	1234.3
447.513	1203.8
447.887	1221.2
448.262	1245.6
448.636	1238.15
449.01	1267.3
449.384	1256.9
449.758	1237.02
450.132	1288.09
450.506	1277.01
450.88	1273.85
451.254	1270.23
451.628	1293.51
452.002	1307.07
452.376	1298.93
452.75	1315.88
453.123	1283.12
453.497	1310.69
453.871	1338.93
454.244	1333.28
454.618	1382.55
454.992	1367.86
455.365	1375.09
455.739	1392.49
456.112	1397.01
456.486	1406.5
456.859	1431.81
457.232	1416.45
457.606	1414.64
457.979	1449.21
458.352	1444.92
458.725	1469.1
459.099	1452.83
459.472	1478.14
459.845	1471.81
460.218	1493.96
460.591	1534.63
460.964	1531.92
461.337	1536.67
461.71	1548.42
462.083	1595.88
462.456	1596.78
462.829	1553.39
463.201	1582.77
463.574	1572.6
463.947	1608.98
464.32	1618.7
464.692	1650.34
465.065	1655.99
465.438	1667.29
465.81	1639.72
466.183	1640.39
466.555	1688.53
466.928	1743.89
467.3	1728.3
467.672	1762.88
468.045	1779.37
468.417	1762.2
468.789	1783.44
469.161	1773.95
469.534	1826.15
469.906	1822.08
470.278	1900.27
470.65	1825.47
471.022	1900.5
471.394	1882.42
471.766	1902.99
472.138	1921.74
472.51	1939.6
472.882	1966.94
473.253	1971.01
473.625	1995.64
473.997	2026.37
474.369	2022.31
474.74	2051.91
475.112	2078.35
475.484	2119.48
475.855	2147.5
476.227	2130.33
476.598	2175.3
476.97	2190.44
477.341	2238.57
477.713	2223.88
478.084	2218.46
478.455	2254.62
478.827	2308.4
479.198	2327.83
479.569	2381.17
479.94	2406.93
480.311	2405.8
480.682	2476.08
481.053	2490.54
481.424	2502.52
481.795	2498.9
482.166	2551.11
482.537	2575.51
482.908	2632.46
483.279	2613.25
483.65	2695.51
484.021	2696.19
484.391	2715.39
484.762	2706.58
485.133	2707.71
485.503	2731.89
485.874	2788.39
486.244	2841.95
486.615	2872
486.985	2926.91
487.356	2904.32
487.726	2924.2
488.097	2956.29
488.467	2997.65
488.837	3040.36
489.207	3055.27
489.578	3074.26
489.948	3082.16
490.318	3143.86
490.688	3136.4
491.058	3174.82
491.428	3210.07
491.798	3274.25
492.168	3273.12
492.538	3297.53
492.908	3326.68
493.278	3353.8
493.648	3352.44
494.017	3367.58
494.387	3386.11
494.757	3449.84
495.126	3432.89
495.496	3504.53
495.866	3456.84
496.235	3471.98
496.605	3500.23
496.974	3540.23
497.344	3533.45
497.713	3540.01
498.082	3549.05
498.452	3623.85
498.821	3573.9
499.19	3583.62
499.559	3621.81
499.928	3685.31
500.298	3630.85
500.667	3699.55
501.036	3726.44
501.405	3730.28
501.774	3704.07
502.143	3742.03
502.512	3767.34
502.88	3818.42
503.249	3762.37
503.618	3801.92
503.987	3822.48
504.356	3851.86
504.724	3811.64
505.093	3892.09
505.462	3857.51
505.83	3897.74
506.199	3900.67
506.567	3965.08
506.936	3897.74
507.304	3951.29
507.672	3940.45
508.041	3993.33
508.409	4019.09
508.777	4043.27
509.145	4031.52
509.514	4001.24
509.882	4065.42
510.25	4089.14
510.618	4050.5
510.986	4120.1
511.354	4125.53
511.722	4144.28
512.09	4126.43
512.458	4149.03
512.826	4172.76
513.193	4150.84
513.561	4165.53
513.929	4162.36
514.297	4227.67
514.664	4210.04
515.032	4228.58
515.4	4271.96
515.767	4266.31
516.135	4281.23
516.502	4219.54
516.869	4310.61
517.237	4314.67
517.604	4341.34
517.972	4305.86
518.339	4350.83
518.706	4276.94
519.073	4363.71
519.44	4323.26
519.808	4415.01
520.175	4370.49
520.542	4412.98
520.909	4400.32
521.276	4437.38
521.643	4461.11
522.009	4492.98
522.376	4482.58
522.743	4502.69
523.11	4545.63
523.477	4575.23
523.843	4611.16
524.21	4603.48
524.577	4659.3
524.943	4654.78
525.31	4644.84
525.676	4708.34
526.043	4712.4
526.409	4734.32
526.776	4750.82
527.142	4751.5
527.508	4781.78
527.874	4764.38
528.241	4836.02
528.607	4849.8
528.973	4905.85
529.339	4907.43
529.705	4955.11
530.071	4951.27
530.437	4929.12
530.803	5029.91
531.169	5008.44
531.535	5022.23
531.901	5045.28
532.267	5101.32
532.632	5153.75
532.998	5136.8
533.364	5172.05
533.73	5106.52
534.095	5236.68
534.461	5179.06
534.826	5250.47
535.192	5249.79
535.557	5306.51
535.923	5308.32
536.288	5336.79
536.653	5354.65
537.019	5323.24
537.384	5365.27
537.749	5405.49
538.114	5387.19
538.479	5376.12
538.845	5432.84
539.21	5437.36
539.575	5440.75
539.94	5536.56
540.305	5514.64
540.67	5503.57
541.034	5561.2
541.399	5571.14
541.764	5556.22
542.129	5596.67
542.494	5661.08
542.858	5649.78
543.223	5682.55
543.587	5703.34
543.952	5762.55
544.316	5763.22
544.681	5755.54
545.045	5882.32
545.41	5815.88
545.774	5867.18
546.138	5834.63
546.503	5874.63
546.867	5906.95
547.231	6002.09
547.595	5913.95
547.959	5990.56
548.324	6012.94
548.688	6042.31
549.052	6049.32
549.416	6075.76
549.779	6108.53
550.143	6099.94
550.507	6162.99
550.871	6128.19
551.235	6113.27
551.599	6209.77
551.962	6182.2
552.326	6252.7
552.689	6232.82
553.053	6227.17
553.417	6267.62
553.78	6357.78
554.143	6293.38
554.507	6298.58
554.87	6357.78
555.234	6375.19
555.597	6338.35
555.96	6417.9
556.323	6412.47
556.686	6365.02
557.05	6484.79
557.413	6481.17
557.776	6490.89
558.139	6554.39
558.502	6553.94
558.865	6567.27
559.228	6583.54
559.59	6620.6
559.953	6553.26
560.316	6665.8
560.679	6647.04
561.041	6738.57
561.404	6732.46
561.767	6801.39
562.129	6754.38
562.492	6791.45
562.854	6830.09
563.217	6840.48
563.579	6822.41
563.941	6894.27
564.304	6863.31
564.666	6911.44
565.028	6896.08
565.39	6959.8
565.753	6975.85
566.115	7005.9
566.477	7012.68
566.839	7025.79
567.201	7096.52
567.563	7070.76
567.925	7177.65
568.287	7146.46
568.648	7160.7
569.01	7165.45
569.372	7305.33
569.734	7202.73
570.095	7285.22
570.457	7341.94
570.819	7323.41
571.18	7344.2
571.542	7405.21
571.903	7487.7
572.265	7494.7
572.626	7500.81
572.987	7530.18
573.349	7610.86
573.71	7670.07
574.071	7694.7
574.432	7814.47
574.794	7784.87
575.155	7883.85
575.516	7905.99
575.877	8002.49
576.238	7988.7
576.599	8110.96
576.96	8142.14
577.32	8207
577.681	8295.36
578.042	8338.75
578.403	8449.03
578.763	8512.76
579.124	8641.79
579.485	8726.99
579.845	8836.59
580.206	8924.05
580.566	9006.53
580.927	9163.13
581.287	9272.06
581.648	9349.57
582.008	9510.24
582.368	9628.89
582.728	9752.05
583.089	9969.22
583.449	10060.06
583.809	10274.74
584.169	10380.73
584.529	10554.96
584.889	10808.74
585.249	10894.61
585.609	11039.24
585.969	11290.08
586.329	11484.66
586.688	11779.56
587.048	11870.18
587.408	12159.21
587.768	12380.45
588.127	12585.64
588.487	12745.64
588.846	13073.31
589.206	13314.44
589.565	13545.84
589.925	13881.2
590.284	14115.09
590.643	14357.35
591.003	14656.55
591.362	14881.4
591.721	15153.26
592.08	15373.37
592.44	15702.62
592.799	16020.58
593.158	16226.9
593.517	16559.32
593.876	16888.58
594.235	17070.5
594.593	17406.08
594.952	17718.62
595.311	17945.95
595.67	18284.93
596.029	18717.23
596.387	18949.32
596.746	19280.38
597.104	19429.76
597.463	19852.35
597.822	20133.47
598.18	20281.71
598.538	20507.7
598.897	21130.96
599.255	21148.58
599.613	21703.37
599.972	21841.22
600.33	22106.52
600.688	22417.02
601.046	22764.81
601.404	23173.39
601.762	23375.87
602.12	23708.06
602.478	23976.53
602.836	24228.28
603.194	24354.15
603.552	24775.15
603.91	24884.98
604.268	25231.86
604.625	25399.77
604.983	25811.96
605.341	25935.12
605.698	26265.28
606.056	26607.2
606.413	26670.92
606.771	27107.97
607.128	27288.31
607.485	27461.18
607.843	27761.74
608.2	28019.36
608.557	28290.77
608.914	28475.85
609.272	28626.35
609.629	28925.1
609.986	29303.17
610.343	29380
610.7	29638.53
611.057	29884.62
611.414	29935.92
611.771	30211.62
612.127	30454.33
612.484	30691.61
612.841	31036.01
613.198	30925.73
613.554	31176.57
613.911	31306.51
614.267	31562.55
614.624	31756.21
614.98	32009.99
615.337	32272.36
615.693	32360.04
616.05	32554.84
616.406	32673.25
616.762	32738.11
617.118	32960.93
617.475	33135.16
617.831	33175.38
618.187	33322.27
618.543	33616.5
618.899	33983.5
619.255	33885.2
619.611	33946.66
619.967	34176.04
620.323	34470.04
620.678	34240.89
621.034	34396.37
621.39	34533.32
621.746	34674.1
622.101	34951.84
622.457	34930.37
622.812	35140.08
623.168	35136.46
623.523	35329.23
623.879	35404.03
624.234	35229.79
624.589	35585.26
624.945	35678.37
625.3	35748.2
625.655	35918.82
626.01	35876.33
626.365	35964.69
626.72	36033.84
627.075	36065.7
627.43	36194.51
627.785	36079.49
628.14	36328.52
628.495	36413.04
628.85	36409.65
629.205	36230.45
629.559	36666.82
629.914	36540.49
630.269	36523.09
630.623	36504.79
630.978	36586.37
631.332	36643.77
631.687	36794.5
632.041	36669.08
632.396	36800.6
632.75	36633.15
633.104	36868.17
633.459	36712.24
633.813	36716.31
634.167	36686.93
634.521	36704.33
634.875	36802.18
635.229	36977.77
635.583	36762.86
635.937	36800.6
636.291	36803.31
636.645	36754.5
636.999	36845.12
637.352	37005.34
637.706	36635.63
638.06	36943.87
638.413	36843.99
638.767	36840.83
639.121	36913.37
639.474	36602.41
639.828	36690.55
640.181	36806.25
640.534	36858.68
640.888	36716.53
641.241	36819.58
641.594	36709.08
641.947	36767.38
642.301	36708.4
642.654	36757.44
643.007	36784.78
643.36	36901.39
643.713	36784.78
644.066	36866.36
644.419	36627.5
644.771	36451.23
645.124	36307.73
645.477	36163.1
645.83	35820.74
646.182	35871.59
646.535	35708.43
646.888	35858.25
647.24	35582.1
647.593	35843.34
647.945	35777.58
648.298	35688.54
648.65	35565.83
649.002	35625.49
649.355	35771.7
649.707	35734.87
650.059	35789.33
650.411	36211.46
650.763	36110.45
651.115	36584.79
651.467	36337.79
651.819	36440.84
652.171	36347.96
652.523	36385.92
652.875	36341.63
653.227	36212.14
653.578	36394.51
653.93	36422.53
654.282	36264.8
654.633	36270.22
654.985	36364.45
655.337	36349.09
655.688	36231.58
656.039	36348.63
656.391	36182.99
656.742	36229.77
657.094	36236.77
657.445	36271.57
657.796	36268.18
658.147	36211.46
658.498	36258.02
658.849	36301.4
659.2	36189.99
659.551	35924.47
659.902	36179.37
660.253	36196.32
660.604	36238.36
660.955	36147.06
661.306	36252.14
661.656	36023.9
662.007	36075.2
662.358	36047.4
662.708	36076.1
663.059	36154.74
663.409	35893.96
663.76	36158.13
664.11	36080.17
664.461	35998.14
664.811	36158.81
665.161	35963.33
665.511	35967.4
665.862	36069.55
666.212	36084.91
666.562	36146.15
666.912	36075.65
667.262	35942.54
667.612	35947.06
667.962	35962.88
668.312	35964.92
668.662	36089.21
669.011	35966.27
669.361	35908.87
669.711	35985.48
670.06	35947.97
670.41	35845.15
670.76	35788.42
671.109	35983.45
671.459	35874.97
671.808	35907.29
672.157	35784.13
672.507	35577.58
672.856	35679.27
673.205	35810.12
673.554	35823.45
673.904	35800.63
674.253	35907.06
674.602	35686.96
674.951	35251.94
675.3	35029.35
675.649	35724.92
675.998	35653.06
676.346	35672.49
676.695	35728.09
677.044	35441.31
677.393	35581.2
677.741	35645.83
678.09	35633.85
678.438	35459.84
678.787	35593.4
679.135	35600.86
679.484	35333.29
679.832	35536.23
680.181	35292.62
680.529	35413.97
680.877	35274.76
681.225	35300.3
681.573	35418.04
681.922	35313.18
682.27	35089.68
682.618	35112.28
682.966	35026.86
683.314	35129.91
683.661	34971.5
684.009	34823.03
684.357	34753.42
684.705	34792.07
685.053	34771.5
685.4	34901.22
685.748	34633.2
686.095	34444.5
686.443	34475.46
686.79	34389.59
687.138	34485.41
687.485	34526.76
687.832	34294.68
688.18	34356.37
688.527	34251.06
688.874	34140.11
689.221	34084.97
689.568	33954.35
689.915	33985.98
690.262	33936.95
690.609	33790.06
690.956	33813.33
691.303	33649.95
691.65	33577.86
691.997	33561.59
692.344	33471.2
692.69	33361.37
693.037	33386.23
693.383	33041.6
693.73	33257.64
694.077	33025.11
694.423	33081.15
694.769	32878.44
695.116	32948.95
695.462	32900.36
695.808	32716.64
696.155	32764.32
696.501	32520.71
696.847	32441.39
697.193	32303.09
697.539	32448.85
697.885	32234.39
698.231	32162.98
698.577	32085.02
698.923	32095.87
699.269	31915.3
699.614	31678.7
699.96	31744.91
700.306	31744.24
700.651	31690.45
700.997	31521.64
701.342	31564.58
701.688	31490.23
702.033	31309.22
702.379	31251.59
702.724	31143.8
703.069	31261.99
703.415	30851.15
703.76	30878.04
704.105	30928.44
704.45	30904.03
704.795	30661.1
705.14	30615.68
705.485	30483.25
705.83	30424.95
706.175	30539.3
706.52	30349.24
706.865	30257.27
707.209	30349.47
707.554	30197.38
707.899	30330.26
708.243	30116.71
708.588	30156.93
708.932	29855.25
709.277	29751.52
709.621	29913.32
709.966	29713.33
710.31	29735.93
710.654	29504.52
710.998	29652.99
711.342	29534.12
711.687	29464.07
712.031	29280.12
712.375	29246.22
712.719	29261.59
713.063	29254.81
713.407	29283.96
713.75	29140.46
714.094	29072.89
714.438	28937.98
714.782	29068.6
715.125	28799.23
715.469	28939.56
715.812	28815.5
716.156	28655.28
716.499	28565.11
716.843	28697.54
717.186	28472.91
717.53	28663.19
717.873	28607.82
718.216	28465.45
718.559	28410.31
718.902	28209.19
719.246	28255.29
719.589	28317.43
719.932	28069.3
720.275	28085.12
720.617	28068.4
720.96	27990.89
721.303	27986.59
721.646	28003.09
721.989	27762.65
722.331	28036.76
722.674	27843.1
723.016	27874.28
723.359	27827.95
723.701	27767.62
724.044	27604.91
724.386	27525.14
724.729	27722.87
725.071	27433.84
725.413	27525.36
725.755	27433.61
726.097	27254.64
726.439	27122.44
726.782	27254.41
727.124	27296.22
727.465	27146.62
727.807	27230.23
728.149	26893.29
728.491	27024.13
728.833	27074.08
729.175	26851.94
729.516	26893.29
729.858	26855.78
730.199	26791.15
730.541	26763.12
730.882	26833.63
731.224	26745.95
731.565	26521.32
731.906	26634.31
732.248	26606.74
732.589	26488.55
732.93	26376.02
733.271	26445.39
733.612	26518.84
733.953	26513.86
734.294	26423.47
734.635	26240.65
734.976	26389.57
735.317	26231.84
735.658	26118.85
735.999	26201.78
736.339	26078.17
736.68	26221.9
737.021	26119.75
737.361	26019.64
737.702	26111.62
738.042	26039.98
738.383	25860.55
738.723	26028.23
739.063	25890.83
739.404	25974.9
739.744	25780.1
740.084	25765.86
740.424	25760.44
740.764	25780.55
741.104	25746.65
741.444	25545.53
741.784	25583.27
742.124	25513.21
742.464	25493.1
742.804	25511.63
743.143	25438.64
743.483	25612.65
743.823	25376.95
744.162	25300.56
744.502	25383.05
744.841	25164.3
745.181	25294.69
745.52	25251.98
745.86	25137.86
746.199	25035.94
746.538	25093.11
746.877	25114.81
747.216	25058.76
747.556	25001.59
747.895	25044.98
748.234	24856.73
748.573	24735.83
748.911	24861.03
749.25	24775.15
749.589	24767.47
749.928	24737.41
750.267	24712.33
750.605	24637.53
750.944	24474.6
751.283	24556.63
751.621	24566.8
751.96	24430.08
752.298	24490.87
752.636	24337.43
752.975	24215.85
753.313	24183.98
753.651	24274.38
753.989	24093.59
754.327	23962.29
754.666	23953.93
755.004	24074.61
755.342	23968.85
755.679	23881.84
756.017	23776.54
756.355	23847.49
756.693	23643.88
757.031	23791
757.368	23632.13
757.706	23534.28
758.044	23464.45
758.381	23543.55
758.719	23464
759.056	23470.33
759.394	23257
759.731	23186.49
760.068	23160.28
