Data from hue_340_FLMS001491_31.txt Node
Date: Mon Feb 06 15:43:01 GMT 2017
User: dcchb
Spectrometer: FLMS00149
Trigger mode: 0
Integration Time (sec): 2.000000E-2
Scans to average: 10
Electric dark correction enabled: true
Nonlinearity correction enabled: false
Boxcar width: 0
XAxis mode: Wavelengths
Number of Pixels in Spectrum: 2048
>>>>>Begin Spectral Data<<<<<
341.393	-20.9
341.776	-20.9
342.16	-20.9
342.543	-60
342.927	-61.58
343.31	-55.48
343.693	-73.78
344.077	-78.3
344.46	-77.4
344.843	-44.18
345.226	-24.52
345.61	-28.13
345.993	-41.69
346.376	-8.25
346.759	6.89
347.142	35.37
347.525	49.6
347.908	63.39
348.291	79.21
348.674	97.06
349.057	100.22
349.44	136.38
349.823	173.22
350.206	170.28
350.588	186.77
350.971	200.79
351.354	232.42
351.737	219.54
352.119	265.42
352.502	246.66
352.884	268.13
353.267	288.47
353.65	292.76
354.032	322.59
354.414	294.79
354.797	295.02
355.179	309.71
355.562	309.26
355.944	323.04
356.326	322.14
356.709	339.31
357.091	323.04
357.473	332.31
357.855	340.89
358.238	336.83
358.62	342.93
359.002	321.46
359.384	351.97
359.766	343.15
360.148	336.83
360.53	350.16
360.912	317.84
361.294	339.54
361.676	337.51
362.057	326.66
362.439	342.7
362.821	335.25
363.203	332.53
363.584	335.47
363.966	315.36
364.348	315.81
364.729	361.23
365.111	313.78
365.493	325.3
365.874	320.56
366.256	292.99
366.637	306.55
367.019	321.46
367.4	320.33
367.781	314.23
368.163	315.13
368.544	300.44
368.925	305.42
369.306	323.04
369.688	294.12
370.069	295.92
370.45	290.73
370.831	312.65
371.212	309.94
371.593	297.28
371.974	302.7
372.355	311.29
372.736	325.3
373.117	317.17
373.498	320.56
373.879	311.74
374.26	293.21
374.641	307.22
375.021	330.95
375.402	301.8
375.783	302.48
376.163	321.69
376.544	304.51
376.925	314
377.305	328.24
377.686	325.08
378.066	305.87
378.447	321.23
378.827	331.86
379.208	301.35
379.588	333.44
379.968	317.39
380.349	330.73
380.729	347
381.109	314.91
381.489	332.08
381.87	349.48
382.25	321.23
382.63	336.15
383.01	339.54
383.39	329.14
383.77	328.92
384.15	311.97
384.53	316.94
384.91	338.41
385.29	331.86
385.67	333.21
386.049	354.91
386.429	342.48
386.809	347.22
387.189	361.46
387.568	338.41
387.948	343.38
388.328	355.58
388.707	330.27
389.087	349.71
389.466	348.58
389.846	357.84
390.225	354
390.605	347.9
390.984	391.29
391.363	356.04
391.743	356.71
392.122	365.08
392.501	368.69
392.881	362.82
393.26	372.76
393.639	354.68
394.018	367.33
394.397	367.11
394.776	348.58
395.155	369.14
395.534	364.4
395.913	352.87
396.292	362.59
396.671	357.39
397.05	356.94
397.429	383.15
397.808	382.93
398.186	361.01
398.565	376.6
398.944	358.52
399.323	389.48
399.701	375.7
400.08	385.64
400.458	374.57
400.837	381.8
401.215	398.29
401.594	402.14
401.972	392.19
402.351	392.65
402.729	387.9
403.107	391.97
403.486	399.42
403.864	395.36
404.242	417.28
404.62	403.27
404.999	392.87
405.377	407.11
405.755	401.91
406.133	409.59
406.511	428.8
406.889	405.98
407.267	403.49
407.645	441.46
408.023	423.38
408.401	427.9
408.779	421.57
409.156	430.38
409.534	431.97
409.912	403.94
410.29	460.89
410.667	424.96
411.045	445.3
411.422	461.12
411.8	441.91
412.178	456.6
412.555	459.08
412.933	466.99
413.31	461.12
413.687	448.46
414.065	473.55
414.442	498.4
414.819	461.34
415.197	497.5
415.574	476.03
415.951	501.12
416.328	505.86
416.705	509.25
417.082	474
417.46	503.6
417.837	507.9
418.214	494.79
418.591	540.66
418.967	530.72
419.344	538.86
419.721	517.16
420.098	540.21
420.475	530.49
420.852	549.25
421.228	540.66
421.605	546.31
421.982	542.47
422.358	578.18
422.735	571.4
423.111	588.57
423.488	589.7
423.864	589.02
424.241	589.25
424.617	589.02
424.994	613.88
425.37	605.97
425.746	580.66
426.123	615.92
426.499	598.29
426.875	625.86
427.251	624.28
427.627	626.99
428.003	624.96
428.379	616.82
428.756	645.52
429.132	641.68
429.507	641.68
429.883	648.46
430.259	668.34
430.635	687.78
431.011	660.43
431.387	663.82
431.763	710.6
432.138	706.31
432.514	695.24
432.89	701.11
433.265	757.38
433.641	732.98
434.016	716.03
434.392	728.68
434.767	737.49
435.143	729.36
435.518	779.3
435.894	720.09
436.269	763.71
436.644	752.64
437.02	751.96
437.395	760.54
437.77	795.8
438.145	787.89
438.52	791.73
438.895	801.67
439.271	789.7
439.646	826.98
440.021	830.83
440.395	833.99
440.77	815.91
441.145	840.09
441.52	833.76
441.895	847.55
442.27	859.98
442.645	877.38
443.019	851.39
443.394	860.66
443.769	882.58
444.143	880.54
444.518	874.89
444.892	882.12
445.267	867.43
445.641	866.76
446.016	899.98
446.39	897.72
446.764	889.36
447.139	904.72
447.513	898.39
447.887	886.64
448.262	910.37
448.636	911.05
449.01	946.08
449.384	934.33
449.758	932.52
450.132	948.11
450.506	942.69
450.88	937.49
451.254	941.56
451.628	951.05
452.002	963.7
452.376	972.29
452.75	969.58
453.123	948.11
453.497	969.81
453.871	1008.67
454.244	1009.35
454.618	994.21
454.992	999.18
455.365	1013.87
455.739	1027.88
456.112	1036.24
456.486	1036.92
456.859	1056.13
457.232	1048.22
457.606	1058.39
457.979	1059.07
458.352	1066.75
458.725	1099.29
459.099	1080.99
459.472	1100.65
459.845	1097.49
460.218	1115.79
460.591	1160.08
460.964	1114.89
461.337	1163.47
461.71	1180.19
462.083	1175.22
462.456	1185.62
462.829	1159.63
463.201	1209.35
463.574	1198.5
463.947	1208.22
464.32	1239.63
464.692	1243.24
465.065	1225.84
465.438	1257.93
465.81	1295.9
466.183	1277.37
466.555	1308.78
466.928	1311.72
467.3	1294.09
467.672	1306.97
468.045	1346.74
468.417	1352.62
468.789	1364.14
469.161	1383.13
469.534	1400.3
469.906	1436.46
470.278	1414.31
470.65	1445.72
471.022	1470.36
471.394	1470.81
471.766	1506.06
472.138	1504.71
472.51	1516.68
472.882	1565.95
473.253	1548.32
473.625	1612.73
473.997	1606.85
474.369	1598.94
474.74	1651.14
475.112	1654.98
475.484	1690.69
475.855	1713.74
476.227	1710.35
476.598	1754.64
476.97	1782.66
477.341	1795.32
477.713	1817.01
478.084	1857.47
478.455	1836.67
478.827	1876.22
479.198	1931.14
479.569	1928.42
479.94	2008.2
480.311	1999.38
480.682	2036.22
481.053	2071.47
481.424	2092.26
481.795	2120.74
482.166	2116.22
482.537	2191.92
482.908	2189.21
483.279	2225.59
483.65	2246.16
484.021	2306.04
484.391	2328.64
484.762	2353.5
485.133	2351.24
485.503	2389.88
485.874	2431.46
486.244	2426.26
486.615	2472.82
486.985	2517.79
487.356	2545.36
487.726	2590.55
488.097	2643.43
488.467	2644.34
488.837	2715.52
489.207	2731.11
489.578	2763.43
489.948	2806.14
490.318	2795.75
490.688	2833.94
491.058	2878.23
491.428	2858.57
491.798	2925.46
492.168	2983.54
492.538	3012.24
492.908	3045.91
493.278	3047.04
493.648	3044.55
494.017	3083.87
494.387	3119.8
494.757	3128.17
495.126	3197.54
495.496	3206.36
495.866	3196.41
496.235	3204.77
496.605	3248.16
496.974	3267.82
497.344	3341.72
497.713	3323.87
498.082	3327.48
498.452	3372.91
498.821	3397.31
499.19	3384.43
499.559	3393.7
499.928	3461.26
500.298	3453.36
500.667	3491.32
501.036	3454.49
501.405	3523.18
501.774	3534.48
502.143	3569.51
502.512	3583.52
502.88	3566.8
503.249	3531.32
503.618	3580.13
503.987	3602.5
504.356	3615.16
504.724	3655.61
505.093	3688.38
505.462	3643.63
505.83	3688.6
506.199	3720.02
506.567	3740.81
506.936	3729.28
507.304	3768.83
507.672	3779.67
508.041	3820.58
508.409	3845.44
508.777	3835.27
509.145	3862.38
509.514	3808.37
509.882	3870.29
510.25	3879.33
510.618	3905.55
510.986	3888.37
511.354	3953.91
511.722	3954.81
512.09	3958.2
512.458	3960.69
512.826	3963.17
513.193	4012.44
513.561	4001.14
513.929	4038.65
514.297	4091.08
514.664	4110.97
515.032	4060.8
515.4	4120
515.767	4130.4
516.135	4141.25
516.502	4098.54
516.869	4184.18
517.237	4174.01
517.604	4166.56
517.972	4197.52
518.339	4209.72
518.706	4176.5
519.073	4199.55
519.44	4258.31
519.808	4265.09
520.175	4241.81
520.542	4337.85
520.909	4314.12
521.276	4320.23
521.643	4342.6
522.009	4314.35
522.376	4351.41
522.743	4418.3
523.11	4413.33
523.477	4446.32
523.843	4471.18
524.21	4497.85
524.577	4548.69
524.943	4542.59
525.31	4535.13
525.676	4584.85
526.043	4606.55
526.409	4654.23
526.776	4650.16
527.142	4667.11
527.508	4661.69
527.874	4716.15
528.241	4672.53
528.607	4733.77
528.973	4785.98
529.339	4731.74
529.705	4841.57
530.071	4818.97
530.437	4865.75
530.803	4860.1
531.169	4898.74
531.535	4879.31
531.901	4890.15
532.267	4910.94
532.632	4979.87
532.998	4966.08
533.364	5009.7
533.73	5063.26
534.095	5069.36
534.461	5059.87
534.826	5106.42
535.192	5151.84
535.557	5135.35
535.923	5205.17
536.288	5198.85
536.653	5172.86
537.019	5188.68
537.384	5245.85
537.749	5317.04
538.114	5267.55
538.479	5319.75
538.845	5286.08
539.21	5311.16
539.575	5373.31
539.94	5350.48
540.305	5385.96
540.67	5353.19
541.034	5428.9
541.399	5452.62
541.764	5412.4
542.129	5487.88
542.494	5521.55
542.858	5496.47
543.223	5596.35
543.587	5581.66
543.952	5574.66
544.316	5608.33
544.681	5629.12
545.045	5631.15
545.41	5657.59
545.774	5716.35
546.138	5743.69
546.503	5787.53
546.867	5789.79
547.231	5788.89
547.595	5824.59
547.959	5845.38
548.324	5858.49
548.688	5877.47
549.052	5899.62
549.416	5923.57
549.779	5891.26
550.143	5926.74
550.507	5967.87
550.871	5959.5
551.235	5982.1
551.599	5983.46
551.962	5995.21
552.326	6065.94
552.689	6050.8
553.053	6049.9
553.417	6020.52
553.78	6147.97
554.143	6151.14
554.507	6183.91
554.87	6150.01
555.234	6219.38
555.597	6230.23
555.96	6251.47
556.323	6231.14
556.686	6264.13
557.05	6284.47
557.413	6303
557.776	6356.56
558.139	6393.39
558.502	6391.13
558.865	6405.14
559.228	6465.03
559.59	6445.14
559.953	6412.37
560.316	6483.56
560.679	6539.83
561.041	6591.35
561.404	6529.66
561.767	6609.88
562.129	6564.23
562.492	6572.14
562.854	6646.27
563.217	6630.22
563.579	6651.24
563.941	6680.16
564.304	6760.84
564.666	6692.14
565.028	6716.55
565.39	6755.87
565.753	6750.22
566.115	6824.11
566.477	6874.28
566.839	6907.05
567.201	6896.65
567.563	6909.31
567.925	6942.98
568.287	6974.17
568.648	6964.45
569.01	7009.42
569.372	7064.56
569.734	7039.7
570.095	7120.6
570.457	7166.25
570.819	7174.16
571.18	7230.88
571.542	7215.97
571.903	7211
572.265	7251.67
572.626	7299.81
572.987	7388.85
573.349	7429.75
573.71	7385.23
574.071	7521.95
574.432	7535.96
574.794	7597.88
575.155	7625.68
575.516	7625.22
575.877	7704.77
576.238	7748.61
576.599	7869.51
576.96	7914.71
577.32	7963.52
577.681	8036.06
578.042	8161.93
578.403	8175.04
578.763	8225.89
579.124	8323.28
579.485	8401.02
579.845	8572.54
580.206	8602.6
580.566	8670.17
580.927	8769.6
581.287	8912.65
581.648	8957.39
582.008	9225.63
582.368	9234.9
582.728	9358.06
583.089	9585.4
583.449	9693.87
583.809	9815.9
584.169	10000.08
584.529	10097.93
584.889	10317.13
585.249	10462.66
585.609	10513.28
585.969	10802.77
586.329	10954.18
586.688	11145.81
587.048	11383.99
587.408	11526.36
587.768	11732.01
588.127	11950.31
588.487	12104.2
588.846	12432.1
589.206	12529.28
589.565	12824.18
589.925	13033.22
590.284	13292.19
590.643	13497.16
591.003	13723.37
591.362	14006.98
591.721	14310.02
592.08	14415.1
592.44	14841.08
592.799	14979.83
593.158	15287.39
593.517	15661.85
593.876	15854.61
594.235	16051.67
594.593	16337.76
594.952	16710.86
595.311	16783.63
595.67	17237.85
596.029	17561.91
596.387	17829.7
596.746	18159.41
597.104	18213.65
597.463	18565.27
597.822	18820.64
598.18	19004.13
598.538	19245.03
598.897	19659.48
599.255	19779.03
599.613	20361.61
599.972	20468.73
600.33	20851.54
600.688	20989.17
601.046	21375.6
601.404	21709.15
601.762	21898.75
602.12	22176.48
602.478	22390.94
602.836	22722.23
603.194	22736.24
603.552	23062.56
603.91	23192.95
604.268	23505.48
604.625	23716.33
604.983	24116.77
605.341	24169.87
605.698	24596.3
606.056	24814.15
606.413	25011.21
606.771	25378.65
607.128	25528.03
607.485	25643.73
607.843	25793.33
608.2	26119.43
608.557	26485.29
608.914	26607.32
609.272	26788.11
609.629	26987.43
609.986	27403.01
610.343	27329.56
610.7	27747.41
611.057	27903.56
611.414	28005.03
611.771	28247.05
612.127	28523.88
612.484	28594.62
612.841	28901.73
613.198	28851.11
613.554	29160.7
613.911	29439.56
614.267	29584.42
614.624	29636.17
614.98	29767.92
615.337	30154.8
615.693	30146.21
616.05	30257.85
616.406	30547.78
616.762	30624.62
617.118	30771.73
617.475	31020.99
617.831	31101.67
618.187	31220.31
618.543	31283.36
618.899	31633.18
619.255	31686.06
619.611	31805.83
619.967	31959.05
620.323	32105.48
620.678	32058.03
621.034	32073.17
621.39	32130.34
621.746	32375.53
622.101	32765.35
622.457	32512.93
622.812	32756.77
623.168	32743.88
623.523	32880.6
623.879	33123.54
624.234	32928.96
624.589	33086.25
624.945	33205.79
625.3	33323.76
625.655	33406.24
626.01	33360.14
626.365	33631.77
626.72	33512.23
627.075	33615.95
627.43	33715.61
627.785	33663.63
628.14	33782.5
628.495	33859.79
628.85	33821.6
629.205	33816.85
629.559	33944.98
629.914	34022.72
630.269	34031.31
630.623	34016.85
630.978	33839.68
631.332	34123.96
631.687	34156.5
632.041	34222.94
632.396	34254.35
632.75	34164.41
633.104	34217.07
633.459	34234.47
633.813	34139.33
634.167	34160.57
634.521	34165.99
634.875	34283.28
635.229	34288.93
635.583	34104.3
635.937	34282.6
636.291	34187.91
636.645	34182.72
636.999	34150.85
637.352	34397.85
637.706	34275.6
638.06	34366.22
638.413	34314.46
638.767	34136.39
639.121	34333.45
639.474	34130.97
639.828	34213.22
640.181	34250.51
640.534	34227.01
640.888	34114.24
641.241	34056.39
641.594	34198.54
641.947	34337.52
642.301	34209.83
642.654	34195.37
643.007	34314.92
643.36	34284.41
643.713	34029.95
644.066	34234.24
644.419	34065.66
644.771	33869.96
645.124	33606.46
645.477	33570.76
645.83	33176.19
646.182	33195.62
646.535	33046.7
646.888	33207.38
647.24	32966.7
647.593	33224.32
647.945	33192.91
648.298	32969.64
648.65	32949.98
649.002	32851.23
649.355	33023.65
649.707	32868.18
650.059	33119.24
650.411	33467.48
650.763	33515.39
651.115	33793.8
651.467	33784.31
651.819	33799
652.171	33774.37
652.523	33659.57
652.875	33674.48
653.227	33561.49
653.578	33732.79
653.93	33661.83
654.282	33568.5
654.633	33487.37
654.985	33486.24
655.337	33568.72
655.688	33476.52
656.039	33617.31
656.391	33439.46
656.742	33515.39
657.094	33354.26
657.445	33638.32
657.796	33406.01
658.147	33464.32
658.498	33377.99
658.849	33619.12
659.2	33523.98
659.551	33352.91
659.902	33645.1
660.253	33382.06
660.604	33416.18
660.955	33335.96
661.306	33445.79
661.656	33317.43
662.007	33446.01
662.358	33273.59
662.708	33422.96
663.059	33329.86
663.409	33056.64
663.76	33448.5
664.11	33400.59
664.461	33417.77
664.811	33407.37
665.161	33327.82
665.511	33274.94
665.862	33304.1
666.212	33386.13
666.562	33307.26
666.912	33323.76
667.262	33197.88
667.612	33303.19
667.962	33257.32
668.312	33217.09
668.662	33348.16
669.011	33289.86
669.361	33212.8
669.711	33261.16
670.06	33142.52
670.41	33102.07
670.76	33184.55
671.109	33189.97
671.459	33138.22
671.808	33113.82
672.157	33323.76
672.507	33014.61
672.856	32963.99
673.205	33088.73
673.554	33260.26
673.904	33034.5
674.253	33356.07
674.602	33220.48
674.951	32574.17
675.3	32502.99
675.649	33192.23
675.998	32924.45
676.346	32933.03
676.695	33028.17
677.044	32738.69
677.393	33059.58
677.741	32965.8
678.09	32811.23
678.438	32820.49
678.787	32892.58
679.135	32914.28
679.484	32747.73
679.832	32748.86
680.181	32495.53
680.529	32672.7
680.877	32563.55
681.225	32462.08
681.573	32721.74
681.922	32507.73
682.27	32367.85
682.618	32530.78
682.966	32308.87
683.314	32286.72
683.661	32308.64
684.009	32120.85
684.357	31958.37
684.705	32085.37
685.053	31980.97
685.4	32025.71
685.748	31909.33
686.095	31926.28
686.443	31637.47
686.79	31761.76
687.138	31682.67
687.485	31762.22
687.832	31595.21
688.18	31627.08
688.527	31518.15
688.874	31545.72
689.221	31394.54
689.568	31399.97
689.915	31341.21
690.262	31331.27
690.609	31193.64
690.956	31091.72
691.303	31096.24
691.65	30984.84
691.997	30940.32
692.344	30763.37
692.69	30756.82
693.037	30843.37
693.383	30517.28
693.73	30630.95
694.077	30415.36
694.423	30473.89
694.769	30293.78
695.116	30225.98
695.462	30179.66
695.808	30053.33
696.155	30154.57
696.501	29941.47
696.847	29902.6
697.193	29671.65
697.539	29877.29
697.885	29523.18
698.231	29491.31
698.577	29569.28
698.923	29419.68
699.269	29254.71
699.614	29213.58
699.96	29147.82
700.306	29265.78
700.651	28979.69
700.997	28910.54
701.342	28858.11
701.688	28891.78
702.033	28913.93
702.379	28732.69
702.724	28647.27
703.069	28791.45
703.415	28403.21
703.76	28590.77
704.105	28412.7
704.45	28387.16
704.795	28266.49
705.14	28046.16
705.485	28103.33
705.83	27936.78
706.175	28048.64
706.52	27914.63
706.865	27842.54
707.209	27775.88
707.554	27700.18
707.899	27816.78
708.243	27595.32
708.588	27677.8
708.932	27517.81
709.277	27353.52
709.621	27414.08
709.966	27157.37
710.31	27290.02
710.654	27072.17
710.998	27245.72
711.342	27092.51
711.687	27075.79
712.031	26945.85
712.375	26709.47
712.719	26895.45
713.063	26713.76
713.407	26843.7
713.75	26730.71
714.094	26751.5
714.438	26570.26
714.782	26621.33
715.125	26465.86
715.469	26567.32
715.812	26348.8
716.156	26187.45
716.499	26246.65
716.843	26290.72
717.186	26109.71
717.53	26297.73
717.873	26227.67
718.216	26144.06
718.559	25953.33
718.902	25874.01
719.246	25952.65
719.589	25866.1
719.932	25699.78
720.275	25789.94
720.617	25678.53
720.96	25575.71
721.303	25618.42
721.646	25512.21
721.989	25447.35
722.331	25546.79
722.674	25489.84
723.016	25480.12
723.359	25420.24
723.701	25396.28
724.044	25359.45
724.386	25149.28
724.729	25170.75
725.071	25211.88
725.413	25156.06
725.755	25099.34
726.097	25010.3
726.439	24864.54
726.782	24867.26
727.124	25003.98
727.465	24826.13
727.807	24933.47
728.149	24810.08
728.491	24742.97
728.833	24648.96
729.175	24720.59
729.516	24596.3
729.858	24601.05
730.199	24596.98
730.541	24585.68
730.882	24585
731.224	24603.08
731.565	24410.54
731.906	24382.75
732.248	24401.51
732.589	24295.97
732.93	24255.52
733.271	24161.96
733.612	24238.35
733.953	24288.97
734.294	24063.21
734.635	24095.52
734.976	24144.79
735.317	24037
735.658	24037.67
735.999	23992.93
736.339	23963.78
736.68	24026.83
737.021	23994.96
737.361	23878.58
737.702	24048.75
738.042	23791.13
738.383	23843.55
738.723	23919.94
739.063	23776.66
739.404	23846.72
739.744	23724.46
740.084	23557.91
740.424	23718.81
740.764	23612.37
741.104	23692.6
741.444	23499.83
741.784	23384.81
742.124	23485.82
742.464	23517.01
742.804	23338.03
743.143	23437.01
743.483	23325.38
743.823	23252.61
744.162	23285.15
744.502	23224.81
744.841	23083.35
745.181	23225.72
745.52	23116.12
745.86	23106.85
746.199	23045.61
746.538	23108.88
746.877	23135.1
747.216	23086.96
747.556	22864.82
747.895	23001.32
748.234	22813.3
748.573	22866.18
748.911	22897.59
749.25	22893.97
749.589	22744.37
749.928	22786.18
750.267	22734.88
750.605	22674.09
750.944	22660.53
751.283	22535.79
751.621	22656.01
751.96	22571.27
752.298	22413.53
752.636	22463.25
752.975	22363.82
753.313	22289.92
753.651	22353.88
753.989	22281.34
754.327	22171.73
754.666	22181.68
755.004	22149.81
755.342	22124.95
755.679	22112.98
756.017	21941.46
756.355	22007.22
756.693	21862.14
757.031	21935.81
757.368	21770.39
757.706	21658.53
758.044	21676.38
758.381	21697.85
758.719	21632.99
759.056	21684.29
759.394	21525.42
759.731	21351.42
760.068	21347.8
760.405	21276.16
760.743	21202.72
