Data from hue_60_FLMS001491_62.txt Node
Date: Mon Feb 06 15:17:43 GMT 2017
User: dcchb
Spectrometer: FLMS00149
Trigger mode: 0
Integration Time (sec): 2.000000E-2
Scans to average: 10
Electric dark correction enabled: true
Nonlinearity correction enabled: false
Boxcar width: 0
XAxis mode: Wavelengths
Number of Pixels in Spectrum: 2048
>>>>>Begin Spectral Data<<<<<
341.393	-9.18
341.776	-9.18
342.16	-9.18
342.543	-50.76
342.927	-69.52
343.31	-74.94
343.693	-67.03
344.077	-65.9
344.46	-62.51
344.843	-63.19
345.226	-69.74
345.61	-20.48
345.993	-19.35
346.376	23.36
346.759	8.45
347.142	27.65
347.525	30.82
347.908	64.72
348.291	85.28
348.674	111.95
349.057	90.93
349.44	135.9
349.823	154.66
350.206	166.86
350.588	187.88
350.971	225.84
351.354	223.58
351.737	234.65
352.119	247.08
352.502	249.8
352.884	260.87
353.267	278.04
353.65	285.73
354.032	307.2
354.414	287.76
354.797	306.29
355.179	331.15
355.562	324.37
355.944	311.04
356.326	345.39
356.709	338.61
357.091	335.44
357.473	337.93
357.855	342.45
358.238	335.9
358.62	355.56
359.002	360.98
359.384	348.55
359.766	335.9
360.148	345.39
360.53	319.4
360.912	334.77
361.294	328.44
361.676	338.15
362.057	330.47
362.439	349.45
362.821	331.38
363.203	316.46
363.584	322.11
363.966	331.6
364.348	324.14
364.729	333.18
365.111	314.65
365.493	315.33
365.874	334.09
366.256	312.84
366.637	333.41
367.019	311.71
367.4	337.48
367.781	330.7
368.163	309.23
368.544	302.9
368.925	316.01
369.306	325.95
369.688	307.42
370.069	325.95
370.45	320.08
370.831	311.49
371.212	323.47
371.593	326.18
371.974	324.14
372.355	316.46
372.736	334.31
373.117	311.49
373.498	327.31
373.879	314.65
374.26	305.84
374.641	303.58
375.021	308.1
375.402	323.69
375.783	335.9
376.163	333.41
376.544	321.88
376.925	322.34
377.305	330.02
377.686	339.74
378.066	335.67
378.447	309
378.827	308.1
379.208	332.05
379.588	332.28
379.968	335.44
380.349	326.18
380.729	345.39
381.109	330.25
381.489	339.28
381.87	349.23
382.25	325.95
382.63	343.13
383.01	352.62
383.39	341.77
383.77	334.99
384.15	331.83
384.53	356.01
384.91	320.75
385.29	341.09
385.67	363.01
386.049	343.13
386.429	362.56
386.809	358.95
387.189	356.91
387.568	350.13
387.948	358.04
388.328	348.1
388.707	356.46
389.087	363.24
389.466	363.47
389.846	370.47
390.225	353.97
390.605	363.47
390.984	359.85
391.363	344.93
391.743	359.62
392.122	360.98
392.501	368.21
392.881	390.13
393.26	367.53
393.639	354.43
394.018	361.21
394.397	345.39
394.776	382
395.155	382.67
395.534	359.85
395.913	354.88
396.292	356.91
396.671	363.47
397.05	383.13
397.429	370.24
397.808	373.18
398.186	373.63
398.565	372.5
398.944	382.22
399.323	377.48
399.701	374.09
400.08	377.93
400.458	374.31
400.837	391.94
401.215	390.58
401.594	393.75
401.972	402.79
402.351	407.08
402.729	386.29
403.107	398.49
403.486	413.18
403.864	389.45
404.242	383.13
404.62	402.11
404.999	407.08
405.377	406.85
405.755	393.75
406.133	407.31
406.511	409.34
406.889	412.05
407.267	412.96
407.645	430.81
408.023	419.51
408.401	444.82
408.779	425.61
409.156	445.27
409.534	401.2
409.912	428.32
410.29	440.98
410.667	440.75
411.045	435.33
411.422	452.5
411.8	457.47
412.178	442.78
412.555	463.58
412.933	439.4
413.31	426.97
413.687	465.16
414.065	449.79
414.442	443.46
414.819	434.42
415.197	468.77
415.574	454.31
415.951	472.39
416.328	457.02
416.705	490.92
417.082	470.58
417.46	483.91
417.837	466.06
418.214	481.65
418.591	482.78
418.967	484.59
419.344	505.38
419.721	501.31
420.098	484.82
420.475	505.38
420.852	494.99
421.228	514.2
421.605	492.05
421.982	495.89
422.358	501.99
422.735	515.78
423.111	513.29
423.488	505.16
423.864	525.95
424.241	530.92
424.617	542.22
424.994	530.92
425.37	529.56
425.746	527.08
426.123	519.17
426.499	519.39
426.875	553.29
427.251	539.51
427.627	564.14
428.003	554.87
428.379	554.19
428.756	604.14
429.132	577.92
429.507	572.95
429.883	590.8
430.259	570.24
430.635	585.15
431.011	593.97
431.387	611.14
431.763	595.1
432.138	618.37
432.514	594.65
432.89	584.25
433.265	633.51
433.641	612.27
434.016	640.07
434.392	614.08
434.767	635.55
435.143	612.27
435.518	632.16
435.894	641.2
436.269	650.46
436.644	659.5
437.02	645.04
437.395	683.68
437.77	649.56
438.145	685.72
438.52	659.28
438.895	666.06
439.271	674.19
439.646	701.08
440.021	689.11
440.395	707.64
440.77	697.02
441.145	717.13
441.52	705.6
441.895	704.92
442.27	702.89
442.645	728.43
443.019	719.61
443.394	719.16
443.769	742.44
444.143	743.12
444.518	720.52
444.892	726.85
445.267	734.98
445.641	750.8
446.016	744.7
446.39	766.39
446.764	738.82
447.139	761.65
447.513	783.79
447.887	772.49
448.262	811.14
448.636	770.46
449.01	782.66
449.384	797.58
449.758	810.46
450.132	819.95
450.506	789.22
450.88	810.46
451.254	796.9
451.628	825.6
452.002	798.03
452.376	822.89
452.75	853.17
453.123	844.81
453.497	840.51
453.871	859.05
454.244	850.68
454.618	885.49
454.992	860.18
455.365	882.77
455.739	908.08
456.112	910.34
456.486	891.81
456.859	942.88
457.232	931.59
457.606	923.22
457.979	941.08
458.352	988.99
458.725	983.11
459.099	960.74
459.472	994.63
459.845	983.11
460.218	1022.88
460.591	1044.13
460.964	1023.56
461.337	1042.32
461.71	1046.61
462.083	1085.93
462.456	1070.57
462.829	1070.79
463.201	1101.52
463.574	1114.41
463.947	1130.22
464.32	1126.61
464.692	1151.47
465.065	1188.53
465.438	1163.22
465.81	1198.7
466.183	1224.23
466.555	1246.83
466.928	1280.05
467.3	1279.15
467.672	1306.27
468.045	1314.63
468.417	1314.85
468.789	1322.99
469.161	1382.2
469.534	1406.83
469.906	1401.63
470.278	1418.13
470.65	1469.42
471.022	1477.56
471.394	1523.66
471.766	1540.61
472.138	1548.97
472.51	1587.39
472.882	1645.92
473.253	1672.13
473.625	1705.12
473.997	1757.78
474.369	1774.28
474.74	1790.09
475.112	1849.75
475.484	1937.66
475.855	1952.12
476.227	1976.53
476.598	2080.26
476.97	2067.6
477.341	2183.53
477.713	2216.52
478.084	2260.59
478.455	2321.38
478.827	2367.48
479.198	2485.22
479.569	2508.04
479.94	2613.35
480.311	2661.03
480.682	2764.98
481.053	2840.91
481.424	2888.14
481.795	3002.49
482.166	3038.65
482.537	3151.41
482.908	3264.41
483.279	3342.82
483.65	3431.41
484.021	3520.9
484.391	3657.84
484.762	3710.27
485.133	3822.81
485.503	3962.24
485.874	4077.72
486.244	4151.16
486.615	4290.37
486.985	4400.2
487.356	4571.94
487.726	4635.67
488.097	4817.81
488.467	4897.81
488.837	5097.8
489.207	5237.46
489.578	5330.11
489.948	5468.87
490.318	5619.37
490.688	5725.58
491.058	5891.91
491.428	6030.89
491.798	6169.87
492.168	6367.83
492.538	6403.76
492.908	6599.01
493.278	6796.97
493.648	6917.42
494.017	7056.4
494.387	7239.67
494.757	7384.52
495.126	7501.81
495.496	7684.18
495.866	7825.64
496.235	7992.42
496.605	8161.45
496.974	8291.84
497.344	8474.44
497.713	8582.46
498.082	8716.01
498.452	8875.11
498.821	9075.78
499.19	9084.82
499.559	9268.09
499.928	9415.66
500.298	9624.92
500.667	9711.69
501.036	9821.75
501.405	9984.45
501.774	10078.01
502.143	10199.82
502.512	10454.95
502.88	10617.21
503.249	10635.74
503.618	10782.63
503.987	10994.82
504.356	11028.95
504.724	11237.53
505.093	11306.45
505.462	11431.2
505.83	11616.95
506.199	11757.97
506.567	11918.87
506.936	12057.17
507.304	12240.89
507.672	12388.91
508.041	12533.77
508.409	12611.5
508.777	12757.72
509.145	12930.37
509.514	13007.65
509.882	13122.9
510.25	13241.77
510.618	13454.87
510.986	13486.06
511.354	13647.18
511.722	13861.64
512.09	13946.84
512.458	14005.82
512.826	14205.36
513.193	14321.52
513.561	14369.65
513.929	14593.6
514.297	14756.53
514.664	14803.54
515.032	14952.23
515.4	15121.5
515.767	15229.29
516.135	15411.66
516.502	15246.01
516.869	15638.32
517.237	15751.08
517.604	15763.74
517.972	15909.04
518.339	16119.66
518.706	16159.21
519.073	16334.12
519.44	16451.4
519.808	16621.79
520.175	16624.73
520.542	16901.34
520.909	16983.14
521.276	16968.9
521.643	17218.39
522.009	17426.29
522.376	17563.92
522.743	17709.68
523.11	17886.62
523.477	18050.23
523.843	18124.58
524.21	18314.63
524.577	18560.5
524.943	18595.98
525.31	18720.27
525.676	18883.66
526.043	19044.78
526.409	19105.57
526.776	19225.57
527.142	19457.2
527.508	19473.25
527.874	19722.05
528.241	19792.78
528.607	19828.26
528.973	20102.16
529.339	20115.71
529.705	20281.59
530.071	20517.96
530.437	20582.14
530.803	20750.05
531.169	20787.79
531.535	20814.23
531.901	21066.88
532.267	21040.21
532.632	21155.91
532.998	21380.54
533.364	21393.87
533.73	21489.92
534.095	21644.49
534.461	21846.29
534.826	21816.46
535.192	21946.17
535.557	22039.28
535.923	22018.04
536.288	22190.24
536.653	22332.15
537.019	22260.52
537.384	22384.13
537.749	22429.1
538.114	22541.64
538.479	22650.11
538.845	22831.12
539.21	22731.01
539.575	22967.62
539.94	22985.47
540.305	23184.56
540.67	23078.12
541.034	23181.62
541.399	23288.06
541.764	23261.17
542.129	23405.35
542.494	23442.86
542.858	23661.84
543.223	23653.7
543.587	23866.8
543.952	23842.85
544.316	23897.54
544.681	23871.77
545.045	23995.39
545.41	24113.58
545.774	24162.61
546.138	24259.56
546.503	24382.27
546.867	24352.89
547.231	24560.57
547.595	24569.83
547.959	24675.14
548.324	24617.74
548.688	24768.25
549.052	24947
549.416	24820.9
549.779	25011.63
550.143	25031.97
550.507	25206.65
550.871	25189.03
551.235	25289.36
551.599	25404.84
551.962	25592.18
552.326	25594.44
552.689	25779.52
553.053	25628.34
553.417	25776.36
553.78	26042.34
554.143	26016.58
554.507	26212.73
554.87	26217.02
555.234	26535.21
555.597	26408.66
555.96	26432.16
556.323	26584.24
556.686	26680.74
557.05	26840.96
557.413	26925.48
557.776	26939.49
558.139	27180.16
558.502	27204.34
558.865	27296.09
559.228	27448.85
559.59	27632.8
559.953	27694.5
560.316	27927.26
560.679	27904.21
561.041	28163.64
561.404	28240.7
561.767	28347.36
562.129	28332.67
562.492	28572.44
562.854	28634.81
563.217	28708.03
563.579	28783.96
563.941	28938.31
564.304	29098.98
564.666	29323.83
565.028	29389.59
565.39	29427.79
565.753	29588.91
566.115	29570.38
566.477	29727.89
566.839	29958.85
567.201	30075.23
567.563	30013.08
567.925	30189.12
568.287	30311.6
568.648	30406.97
569.01	30617.36
569.372	30853.51
569.734	30819.61
570.095	30940.06
570.457	30996.56
570.819	30980.29
571.18	31159.49
571.542	31349.99
571.903	31324.01
572.265	31489.2
572.626	31632.25
572.987	31579.37
573.349	31807.16
573.71	31874.05
574.071	31910.43
574.432	31999.92
574.794	32255.06
575.155	32218.67
575.516	32111.56
575.877	32364.43
576.238	32428.84
576.599	32597.19
576.96	32597.65
577.32	32572.11
577.681	32669.73
578.042	32868.15
578.403	32849.84
578.763	32865.66
579.124	33019.33
579.485	33075.15
579.845	33144.07
580.206	33084.86
580.566	33141.81
580.927	33152.89
581.287	33312.66
581.648	33258.19
582.008	33344.29
582.368	33287.35
582.728	33423.61
583.089	33353.11
583.449	33439.43
583.809	33405.99
584.169	33467.45
584.529	33528.24
584.889	33736.82
585.249	33571.41
585.609	33448.24
585.969	33549.94
586.329	33562.14
586.688	33670.16
587.048	33636.71
587.408	33589.71
587.768	33599.88
588.127	33729.59
588.487	33507.9
588.846	33831.51
589.206	33552.87
589.565	33719.88
589.925	33887.1
590.284	33921.68
590.643	33762.13
591.003	33824.73
591.362	33887.56
591.721	33881.45
592.08	33937.05
592.44	33992.41
592.799	33979.53
593.158	34026.08
593.517	33933.43
593.876	34137.49
594.235	34029.02
594.593	34088.91
594.952	34139.98
595.311	34047.33
595.67	34073.77
596.029	34341.33
596.387	34352.4
596.746	34416.81
597.104	34139.53
597.463	34408.9
597.822	34404.83
598.18	34309.47
598.538	34254.55
598.897	34451.38
599.255	34220.65
599.613	34860.86
599.972	34665.39
600.33	34593.3
600.688	34488.9
601.046	34614.09
601.404	34836.23
601.762	34645.5
602.12	34836.68
602.478	34842.33
602.836	34963.23
603.194	34767.08
603.552	35004.36
603.91	34795.55
604.268	35164.58
604.625	34844.14
604.983	35158.03
605.341	34821.09
605.698	35174.75
606.056	35326.84
606.413	35200.06
606.771	35284.35
607.128	35457.68
607.485	35264.69
607.843	35497
608.2	35565.7
608.557	35724.12
608.914	35604.12
609.272	35648.41
609.629	35768.64
609.986	35907.84
610.343	35743.33
610.7	36163.43
611.057	36040.95
611.414	36007.27
611.771	36158.46
612.127	36149.19
612.484	36270.77
612.841	36355.06
613.198	36287.27
613.554	36297.44
613.911	36491.33
614.267	36475.96
614.624	36475.06
614.98	36668.5
615.337	36774.94
615.693	36699.68
616.05	36662.85
616.406	36927.48
616.762	36760.02
617.118	36731.55
617.475	36894.03
617.831	36991.88
618.187	37026.23
618.543	37074.82
618.899	37287.24
619.255	37300.12
619.611	37354.36
619.967	37503.28
620.323	37564.07
620.678	37286.56
621.034	37316.62
621.39	37328.14
621.746	37317.52
622.101	37705.31
622.457	37599.77
622.812	37542.37
623.168	37687.23
623.523	37509.38
623.879	37818.3
624.234	37462.6
624.589	37689.49
624.945	37658.53
625.3	37875.47
625.655	37678.42
626.01	37956.37
626.365	37875.93
626.72	37794.35
627.075	37807.23
627.43	37734.23
627.785	37700.56
628.14	37859.2
628.495	37903.49
628.85	37828.92
629.205	37816.27
629.559	38146.88
629.914	37765.19
630.269	37887.22
630.623	37723.84
630.978	37804.51
631.332	37922.48
631.687	37960.22
632.041	37788.7
632.396	37929.03
632.75	37773.1
633.104	37826.43
633.459	37749.15
633.813	37665.31
634.167	37717.74
634.521	37689.49
634.875	37573.11
635.229	37605.88
635.583	37474.35
635.937	37447.46
636.291	37484.3
636.645	37546.44
636.999	37386.45
637.352	37582.37
637.706	37343.51
638.06	37438.42
638.413	37378.76
638.767	37401.36
639.121	37357.07
639.474	37180.35
639.828	37260.8
640.181	37275.49
640.534	37199.33
640.888	37146.68
641.241	37121.14
641.594	37085.66
641.947	37214.93
642.301	37093.12
642.654	37216.51
643.007	37134.02
643.36	37197.98
643.713	36957.53
644.066	37146
644.419	36860.58
644.771	36857.65
645.124	36322.52
645.477	36430.99
645.83	36075.29
646.182	36044.79
646.535	36014.28
646.888	35903.1
647.24	35777.9
647.593	35965.01
647.945	35803.44
648.298	35694.29
648.65	35693.16
649.002	35591.47
649.355	35723.89
649.707	35657.68
650.059	35656.77
650.411	36079.14
650.763	36163.43
651.115	36633.47
651.467	36443.19
651.819	36496.75
652.171	36427.15
652.523	36370.43
652.875	36449.07
653.227	36217.89
653.578	36497.43
653.93	36282.97
654.282	36198.68
654.633	36132.24
654.985	36256.76
655.337	36249.75
655.688	36197.55
656.039	36400.26
656.391	36014.96
656.742	36012.02
657.094	36060.15
657.445	36230.09
657.796	36131.56
658.147	36223.09
658.498	36170.21
658.849	36189.64
659.2	35990.1
659.551	35858.58
659.902	36104.45
660.253	35895.41
660.604	36076.88
660.955	35863.77
661.306	36046.82
661.656	36005.01
662.007	35874.85
662.358	35949.2
662.708	36009.31
663.059	35938.8
663.409	35691.8
663.76	35959.82
664.11	35881.18
664.461	35900.61
664.811	35881.18
665.161	35859.71
665.511	35803.89
665.862	35792.14
666.212	35982.42
666.562	35983.77
666.912	35778.13
667.262	35873.49
667.612	35737
667.962	35789.88
668.312	35782.87
668.662	35861.74
669.011	35839.37
669.361	35764.79
669.711	35766.38
670.06	35595.76
670.41	35583.78
670.76	35640.73
671.109	35668.3
671.459	35659.71
671.808	35665.14
672.157	35589.43
672.507	35450.23
672.856	35515.08
673.205	35544.23
673.554	35731.8
673.904	35460.85
674.253	35601.63
674.602	35436.22
674.951	35043.01
675.3	34924.14
675.649	35407.74
675.998	35267.86
676.346	35346.73
676.695	35559.38
677.044	35141.99
677.393	35330.46
677.741	35363.45
678.09	35287.29
678.438	35174.98
678.787	35245.71
679.135	35235.09
679.484	34954.87
679.832	35357.8
680.181	35022.44
680.529	35144.25
680.877	34933.63
681.225	35057.47
681.573	35215.2
681.922	34904.25
682.27	34763.24
682.618	34835.78
682.966	34738.83
683.314	34672.39
683.661	34577.25
684.009	34511.49
684.357	34372.06
684.705	34545.17
685.053	34526.86
685.4	34483.7
685.748	34142.92
686.095	34236.25
686.443	34098.17
686.79	34110.83
687.138	34149.47
687.485	34005.74
687.832	33948.12
688.18	33993.54
688.527	33898.4
688.874	33792.64
689.221	33895.92
689.568	33753.55
689.915	33710.61
690.262	33605.98
690.609	33490.96
690.956	33427.68
691.303	33329.6
691.65	33213
691.997	33239.44
692.344	32910.63
692.69	32970.74
693.037	32934.13
693.383	32701.82
693.73	32880.35
694.077	32565.33
694.423	32708.15
694.769	32465.9
695.116	32531.66
695.462	32465.9
695.808	32409.4
696.155	32394.26
696.501	32191.1
696.847	32022.52
697.193	31935.06
697.539	32075.63
697.885	31795.41
698.231	31727.84
698.577	31870.66
698.923	31628.18
699.269	31489.65
699.614	31426.15
699.96	31283.1
700.306	31421.86
700.651	31310
700.997	31054.86
701.342	31099.15
701.688	30976.22
702.033	30927.41
702.379	31003.34
702.724	30801.08
703.069	30778.71
703.415	30528.32
703.76	30467.31
704.105	30401.77
704.45	30432.05
704.795	30384.6
705.14	30118.16
705.485	30148.44
705.83	30047.2
706.175	30144.83
706.52	29907.32
706.865	29788.45
707.209	29765.18
707.554	29729.47
707.899	29773.99
708.243	29585.97
708.588	29563.83
708.932	29414.23
709.277	29393.66
709.621	29337.39
709.966	29298.07
710.31	29391.4
710.654	29071.64
710.998	29155.7
711.342	29145.99
711.687	29104.18
712.031	28931.53
712.375	28790.51
712.719	28854.02
713.063	28843.17
713.407	28755.94
713.75	28749.84
714.094	28611.76
714.438	28556.17
714.782	28549.16
715.125	28406.57
715.469	28321.37
715.812	28356.4
716.156	28209.96
716.499	28139.68
716.843	28131.77
717.186	27980.59
717.53	28076.41
717.873	28065.11
718.216	27924.55
718.559	27879.8
718.902	27702.63
719.246	27845
719.589	27685.01
719.932	27626.93
720.275	27564.11
720.617	27640.49
720.96	27469.19
721.303	27495.86
721.646	27594.61
721.989	27399.82
722.331	27505.58
722.674	27249.76
723.016	27325.47
723.359	27245.47
723.701	27267.84
724.044	27058.58
724.386	27024.68
724.729	27201.63
725.071	26940.62
725.413	27024.01
725.755	26977.23
726.097	26763.45
726.439	26660.4
726.782	26722.32
727.124	26744.01
727.465	26641.64
727.807	26626.73
728.149	26526.39
728.491	26474.19
728.833	26631.93
729.175	26464.02
729.516	26368.2
729.858	26401.65
730.199	26400.07
730.541	26412.5
730.882	26247.08
731.224	26349.9
731.565	26178.83
731.906	26163.92
732.248	26163.46
732.589	25994.2
732.93	25999.4
733.271	25959.63
733.612	25931.38
733.953	25923.47
734.294	25974.77
734.635	25800.76
734.976	25916.24
735.317	25909.46
735.658	25710.6
735.999	25641.9
736.339	25637.83
736.68	25718.5
737.021	25616.59
737.361	25574.55
737.702	25611.61
738.042	25587.89
738.383	25476.25
738.723	25582.91
739.063	25389.02
739.404	25436.93
739.744	25269.48
740.084	25230.16
740.424	25291.85
740.764	25075.36
741.104	25258.86
741.444	25083.04
741.784	25086.43
742.124	25108.35
742.464	25030.16
742.804	25066.09
743.143	24924.18
743.483	25035.58
743.823	24811.86
744.162	24866.78
744.502	24922.14
744.841	24839.88
745.181	24880.33
745.52	24770.96
745.86	24709.04
746.199	24622.26
746.538	24627.01
746.877	24657.74
747.216	24702.26
747.556	24611.87
747.895	24515.82
748.234	24497.52
748.573	24391.76
748.911	24418.2
749.25	24348.37
749.589	24292.1
749.928	24251.42
750.267	24243.29
750.605	24286.45
750.944	24090.52
751.283	24128.72
751.621	24133.91
751.96	23796.3
752.298	23948.16
752.636	23949.96
752.975	23909.51
753.313	23683.08
753.651	23862.28
753.989	23702.06
754.327	23714.26
754.666	23520.14
755.004	23739.57
755.342	23549.52
755.679	23506.59
756.017	23365.57
756.355	23387.72
756.693	23296.87
