Data from hue_200_FLMS001491_00030.txt Node
Date: Tue Feb 07 16:43:04 GMT 2017
User: dcchb
Spectrometer: FLMS00149
Trigger mode: 0
Integration Time (sec): 2.000000E-2
Scans to average: 10
Electric dark correction enabled: true
Nonlinearity correction enabled: false
Boxcar width: 0
XAxis mode: Wavelengths
Number of Pixels in Spectrum: 2048
>>>>>Begin Spectral Data<<<<<
341.393	-15
341.776	-15
342.16	-15
342.543	-54.09
342.927	-56.35
343.31	-66.52
343.693	-65.39
344.077	-40.76
344.46	-55.22
344.843	-62.68
345.226	-46.64
345.61	-26.07
345.993	-32.63
346.376	-17.94
346.759	1.95
347.142	29.29
347.525	49.86
347.908	70.42
348.291	67.94
348.674	79.91
349.057	114.49
349.44	128.05
349.823	123.98
350.206	157.43
350.588	188.16
350.971	216.63
351.354	237.88
351.737	235.39
352.119	237.65
352.502	277.2
352.884	276.52
353.267	290.98
353.65	296.86
354.032	307.03
354.414	294.37
354.797	334.14
355.179	317.65
355.562	327.14
355.944	316.29
356.326	329.62
356.709	339.57
357.091	342.28
357.473	363.07
357.855	343.41
358.238	344.99
358.62	341.6
359.002	338.44
359.384	342.05
359.766	339.34
360.148	334.6
360.53	338.21
360.912	328.49
361.294	311.77
361.676	317.65
362.057	327.82
362.439	320.13
362.821	340.92
363.203	304.77
363.584	302.96
363.966	315.61
364.348	326.91
364.729	339.12
365.111	325.1
365.493	318.32
365.874	295.95
366.256	295.27
366.637	309.96
367.019	316.52
367.4	301.38
367.781	307.93
368.163	310.87
368.544	300.7
368.925	314.71
369.306	324.43
369.688	323.3
370.069	320.13
370.45	312
370.831	310.19
371.212	309.74
371.593	331.21
371.974	304.99
372.355	337.08
372.736	315.84
373.117	315.39
373.498	303.64
373.879	318.1
374.26	308.38
374.641	325.33
375.021	309.29
375.402	321.04
375.783	321.94
376.163	327.82
376.544	309.74
376.925	313.35
377.305	323.07
377.686	321.26
378.066	342.51
378.447	323.97
378.827	331.43
379.208	323.07
379.588	340.7
379.968	345.89
380.349	341.83
380.729	340.47
381.109	334.82
381.489	335.73
381.87	341.6
382.25	348.83
382.63	336.4
383.01	353.35
383.39	343.64
383.77	350.64
384.15	340.92
384.53	340.25
384.91	344.76
385.29	365.1
385.67	358.1
386.049	347.7
386.429	369.4
386.809	346.57
387.189	343.64
387.568	337.99
387.948	352.9
388.328	367.82
388.707	346.35
389.087	344.09
389.466	360.36
389.846	360.36
390.225	368.49
390.605	364.65
390.984	366.69
391.363	365.56
391.743	364.43
392.122	372.11
392.501	370.75
392.881	377.53
393.26	371.43
393.639	367.14
394.018	383.86
394.397	387.02
394.776	375.72
395.155	383.86
395.534	377.76
395.913	399.68
396.292	397.19
396.671	392
397.05	392
397.429	415.5
397.808	401.49
398.186	395.39
398.565	414.82
398.944	409.62
399.323	409.85
399.701	398.77
400.08	404.65
400.458	439.68
400.837	453.01
401.215	418.44
401.594	416.85
401.972	419.79
402.351	418.44
402.729	418.21
403.107	447.81
403.486	476.29
403.864	449.85
404.242	442.84
404.62	442.62
404.999	471.09
405.377	460.92
405.755	447.59
406.133	462.28
406.511	451.65
406.889	471.09
407.267	469.06
407.645	478.55
408.023	495.95
408.401	477.64
408.779	497.53
409.156	508.83
409.534	513.12
409.912	545.21
410.29	530.3
410.667	568.04
411.045	559.45
411.422	538.21
411.8	575.27
412.178	571.2
412.555	600.58
412.933	595.83
413.31	603.74
413.687	601.48
414.065	631.31
414.442	614.36
414.819	637.86
415.197	640.35
415.574	640.8
415.951	644.64
416.328	659.78
416.705	664.76
417.082	654.81
417.46	701.59
417.837	716.51
418.214	708.82
418.591	722.83
418.967	735.49
419.344	745.43
419.721	743.17
420.098	736.17
420.475	794.47
420.852	794.92
421.228	824.98
421.605	825.66
421.982	812.1
422.358	859.78
422.735	848.03
423.111	875.15
423.488	869.95
423.864	899.1
424.241	935.03
424.617	938.2
424.994	963.05
425.37	941.59
425.746	963.28
426.123	1000.34
426.499	1008.48
426.875	1039.89
427.251	1007.35
427.627	1072.43
428.003	1058.87
428.379	1050.96
428.756	1105.65
429.132	1105.2
429.507	1111.07
429.883	1131.18
430.259	1151.07
430.635	1162.82
431.011	1152.65
431.387	1222.26
431.763	1205.08
432.138	1231.52
432.514	1254.8
432.89	1244.63
433.265	1267.9
433.641	1312.65
434.016	1323.95
434.392	1337.51
434.767	1409.6
435.143	1391.29
435.518	1438.3
435.894	1434.68
436.269	1459.31
436.644	1517.39
437.02	1541.34
437.395	1556.71
437.77	1578.18
438.145	1596.48
438.52	1624.51
438.895	1674.22
439.271	1690.94
439.646	1732.98
440.021	1748.34
440.395	1790.83
440.77	1777.04
441.145	1798.96
441.52	1831.96
441.895	1865.63
442.27	1872.18
442.645	1897.72
443.019	1945.85
443.394	1947.89
443.769	1973.2
444.143	1977.94
444.518	2000.54
444.892	2028.79
445.267	1989.47
445.641	2062.46
446.016	2058.84
446.39	2094.32
446.764	2092.97
447.139	2127.54
447.513	2135.9
447.887	2153.98
448.262	2158.05
448.636	2190.14
449.01	2206.64
449.384	2233.53
449.758	2239.86
450.132	2255.68
450.506	2317.14
450.88	2291.61
451.254	2338.16
451.628	2356.69
452.002	2380.42
452.376	2365.05
452.75	2403.69
453.123	2463.58
453.497	2482.79
453.871	2445.5
454.244	2564.59
454.618	2595.1
454.992	2579.06
455.365	2622.67
455.739	2652.05
456.112	2698.6
456.486	2676.68
456.859	2724.82
457.232	2751.26
457.606	2771.82
457.979	2807.53
458.352	2881.42
458.725	2927.75
459.099	2922.55
459.472	2938.82
459.845	2951.02
460.218	3030.57
460.591	3050
460.964	3018.14
461.337	3134.3
461.71	3194.63
462.083	3233.05
462.456	3216.78
462.829	3231.24
463.201	3332.48
463.574	3332.03
463.947	3331.35
464.32	3432.82
464.692	3416.1
465.065	3505.81
465.438	3533.16
465.81	3581.06
466.183	3606.6
466.555	3710.1
466.928	3694.73
467.3	3705.35
467.672	3788.74
468.045	3839.14
468.417	3908.06
468.789	3927.04
469.161	3945.8
469.534	4035.29
469.906	4077.1
470.278	4098.11
470.65	4134.72
471.022	4224.44
471.394	4297.66
471.766	4359.12
472.138	4335.39
472.51	4441.83
472.882	4521.83
473.253	4566.57
473.625	4629.4
473.997	4712.11
474.369	4718.89
474.74	4797.76
475.112	4877.3
475.484	4955.94
475.855	5013.57
476.227	5052.66
476.598	5157.97
476.97	5185.32
477.341	5366.1
477.713	5374.01
478.084	5418.53
478.455	5561.8
478.827	5614.23
479.198	5763.83
479.569	5755.02
479.94	5940.78
480.311	5914.56
480.682	6034.11
481.053	6193.2
481.424	6280.65
481.795	6322.46
482.166	6393.87
482.537	6444.49
482.908	6530.14
483.279	6631.38
483.65	6751.15
484.021	6886.74
484.391	6916.8
484.762	6982.78
485.133	7023.01
485.503	7108.65
485.874	7197.01
486.244	7282.89
486.615	7385.03
486.985	7488.76
487.356	7610.56
487.726	7721.07
488.097	7846.26
488.467	7786.6
488.837	8052.81
489.207	8036.99
489.578	8148.85
489.948	8190.43
490.318	8311.56
490.688	8333.48
491.058	8402.18
491.428	8536.87
491.798	8553.14
492.168	8719.69
492.538	8740.25
492.908	8817.08
493.278	8975.72
493.648	8940.02
494.017	9040.13
494.387	9107.92
494.757	9087.81
495.126	9215.72
495.496	9227.7
495.866	9260.01
496.235	9358.77
496.605	9446.67
496.974	9476.28
497.344	9544.52
497.713	9547.01
498.082	9580.91
498.452	9682.6
498.821	9685.31
499.19	9726.89
499.559	9796.04
499.928	9855.02
500.298	9819.09
500.667	9909.71
501.036	9837.4
501.405	9930.73
501.774	9981.12
502.143	9973.66
502.512	10096.6
502.88	10099.99
503.249	10076.71
503.618	10099.08
503.987	10156.94
504.356	10150.38
504.724	10248.91
505.093	10234.9
505.462	10176.37
505.83	10289.36
506.199	10344.28
506.567	10407.1
506.936	10436.7
507.304	10449.36
507.672	10490.94
508.041	10508.34
508.409	10566.42
508.777	10564.38
509.145	10675.34
509.514	10551.95
509.882	10719.63
510.25	10624.04
510.618	10698.84
510.986	10656.36
511.354	10732.74
511.722	10769.58
512.09	10764.83
512.458	10748.56
512.826	10843.25
513.193	10849.57
513.561	10873.08
513.929	10848.22
514.297	10791.95
514.664	10926.86
515.032	10980.42
515.4	10903.36
515.767	10953.53
516.135	10965.28
516.502	10875.11
516.869	11031.72
517.237	11033.52
517.604	10910.36
517.972	10977.48
518.339	11041.21
518.706	10973.64
519.073	10988.1
519.44	11030.36
519.808	11062.45
520.175	10986.75
520.542	11157.14
520.909	11064.48
521.276	11007.76
521.643	11158.72
522.009	11069
522.376	11161.43
522.743	11077.59
523.11	11214.31
523.477	11263.57
523.843	11193.75
524.21	11233.29
524.577	11324.14
524.943	11189.23
525.31	11290.92
525.676	11233.52
526.043	11290.01
526.409	11280.97
526.776	11340.18
527.142	11278.94
527.508	11298.15
527.874	11288.43
528.241	11224.93
528.607	11221.54
528.973	11211.15
529.339	11180.41
529.705	11212.05
530.071	11258.38
530.437	11282.78
530.803	11236
531.169	11216.57
531.535	11169.79
531.901	11139.51
532.267	11120.98
532.632	11075.33
532.998	11073.07
533.364	11058.83
533.73	11042.11
534.095	11054.99
534.461	11074.88
534.826	11044.14
535.192	10945.84
535.557	10925.73
535.923	10867.2
536.288	10904.26
536.653	10847.77
537.019	10722.35
537.384	10824.26
537.749	10701.1
538.114	10692.74
538.479	10666.98
538.845	10606.19
539.21	10478.96
539.575	10594.89
539.94	10558.51
540.305	10426.99
540.67	10384.27
541.034	10424.5
541.399	10386.31
541.764	10268.8
542.129	10291.62
542.494	10243.94
542.858	10196.03
543.223	10121.01
543.587	10121.23
543.952	10097.5
544.316	10074.23
544.681	9996.26
545.045	9970.95
545.41	9915.59
545.774	9902.71
546.138	9808.24
546.503	9831.52
546.867	9739.77
547.231	9798.08
547.595	9736.38
547.959	9698.87
548.324	9579.78
548.688	9558.99
549.052	9584.97
549.416	9582.94
549.779	9442.6
550.143	9504.75
550.507	9414.81
550.871	9371.87
551.235	9343.17
551.599	9301.59
551.962	9254.36
552.326	9289.39
552.689	9215.72
553.053	9201.93
553.417	9086.23
553.78	9131.88
554.143	9079.9
554.507	9066.8
554.87	9034.48
555.234	9073.8
555.597	9029.96
555.96	8995.16
556.323	8939.79
556.686	8899.34
557.05	8910.87
557.413	8914.48
557.776	8855.95
558.139	8840.59
558.502	8784.77
558.865	8797.65
559.228	8855.95
559.59	8726.24
559.953	8730.08
560.316	8880.59
560.679	8754.94
561.041	8767.14
561.404	8753.36
561.767	8834.26
562.129	8725.56
562.492	8779.35
562.854	8718.56
563.217	8696.41
563.579	8752.45
563.941	8717.88
564.304	8688.27
564.666	8747.71
565.028	8736.18
565.39	8698.44
565.753	8759.91
566.115	8736.18
566.477	8738.67
566.839	8740.93
567.201	8749.06
567.563	8743.87
567.925	8799.01
568.287	8757.88
568.648	8759.68
569.01	8732.79
569.372	8812.11
569.734	8776.86
570.095	8789.29
570.457	8741.15
570.819	8716.52
571.18	8727.14
571.542	8736.63
571.903	8746.58
572.265	8788.84
572.626	8783.19
572.987	8757.43
573.349	8772.34
573.71	8801.04
574.071	8767.14
574.432	8787.48
574.794	8782.51
575.155	8776.86
575.516	8813.92
575.877	8784.09
576.238	8882.62
576.599	8859.8
576.96	8845.11
577.32	8872.9
577.681	8893.69
578.042	8809.63
578.403	8856.63
578.763	8828.84
579.124	8836.52
579.485	8846.69
579.845	8880.81
580.206	8856.86
580.566	8863.86
580.927	8815.5
581.287	8874.48
581.648	8810.76
582.008	8885.33
582.368	8817.54
582.728	8846.24
583.089	8754.26
583.449	8775.5
583.809	8771.89
584.169	8883.3
584.529	8803.07
584.889	8857.54
585.249	8755.17
585.609	8765.79
585.969	8775.96
586.329	8790.19
586.688	8775.96
587.048	8782.74
587.408	8786.58
587.768	8828.16
588.127	8827.71
588.487	8784.32
588.846	8815.73
589.206	8694.83
589.565	8738.44
589.925	8803.98
590.284	8768.5
590.643	8773.7
591.003	8730.99
591.362	8849.85
591.721	8732.12
592.08	8717.2
592.44	8763.53
592.799	8744.77
593.158	8709.06
593.517	8741.15
593.876	8680.14
594.235	8705.9
594.593	8621.38
594.952	8745.45
595.311	8708.84
595.67	8686.47
596.029	8762.85
596.387	8687.14
596.746	8742.96
597.104	8627.03
597.463	8628.61
597.822	8679.46
598.18	8732.79
598.538	8661.38
598.897	8731.21
599.255	8602.17
599.613	8796.97
599.972	8665.22
600.33	8740.02
600.688	8688.5
601.046	8662.74
601.404	8678.33
601.762	8706.13
602.12	8723.3
602.478	8720.59
602.836	8700.93
603.194	8624.55
603.552	8636.98
603.91	8640.82
604.268	8701.16
604.625	8557.88
604.983	8670.65
605.341	8615.51
605.698	8606.02
606.056	8620.25
606.413	8637.2
606.771	8714.49
607.128	8678.56
607.485	8670.42
607.843	8579.12
608.2	8621.16
608.557	8756.75
608.914	8667.48
609.272	8748.84
609.629	8678.56
609.986	8758.56
610.343	8653.47
610.7	8753.81
611.057	8691.89
611.414	8709.74
611.771	8751.32
612.127	8778.22
612.484	8800.14
612.841	8727.37
613.198	8742.51
613.554	8714.04
613.911	8757.88
614.267	8772.57
614.624	8766.24
614.98	8785.22
615.337	8814.82
615.693	8787.25
616.05	8818.21
616.406	8810.08
616.762	8776.41
617.118	8762.4
617.475	8797.88
617.831	8861.83
618.187	8831.32
618.543	8825.67
618.899	8876.74
619.255	8841.94
619.611	8860.02
619.967	8810.98
620.323	8886.01
620.678	8898.66
621.034	8856.18
621.39	8848.27
621.746	8860.93
622.101	8902.51
622.457	8823.86
622.812	8813.02
623.168	8889.85
623.523	8837.42
623.879	8872.45
624.234	8820.7
624.589	8847.59
624.945	8874.94
625.3	8948.83
625.655	8894.6
626.01	8891.66
626.365	8850.98
626.72	8862.96
627.075	8805.79
627.43	8834.49
627.785	8785.9
628.14	8836.07
628.495	8852.79
628.85	8855.28
629.205	8807.59
629.559	8879.91
629.914	8736.63
630.269	8842.17
630.623	8791.1
630.978	8729.63
631.332	8870.64
631.687	8774.6
632.041	8689.4
632.396	8745.22
632.75	8688.73
633.104	8775.96
633.459	8684.43
633.813	8725.11
634.167	8711.78
634.521	8680.82
634.875	8674.04
635.229	8673.36
635.583	8611.89
635.937	8608.95
636.291	8648.05
636.645	8658.44
636.999	8574.61
637.352	8603.08
637.706	8575.73
638.06	8612.34
638.413	8576.64
638.767	8524.66
639.121	8488.28
639.474	8542.29
639.828	8525.79
640.181	8521.95
640.534	8471.56
640.888	8518.79
641.241	8438.34
641.594	8454.61
641.947	8473.82
642.301	8507.71
642.654	8442.63
643.007	8443.54
643.36	8450.09
643.713	8433.14
644.066	8507.71
644.419	8472.01
644.771	8348.17
645.124	8365.57
645.477	8293.48
645.83	8204.67
646.182	8191.56
646.535	8199.93
646.888	8187.5
647.24	8094.17
647.593	8231.34
647.945	8199.7
648.298	8163.54
648.65	8145.01
649.002	8161.51
649.355	8198.8
649.707	8182.98
650.059	8189.76
650.411	8256.2
650.763	8269.98
651.115	8369.64
651.467	8359.47
651.819	8287.61
652.171	8374.16
652.523	8331
652.875	8287.83
653.227	8244.22
653.578	8318.57
653.93	8361.73
654.282	8291.67
654.633	8283.99
654.985	8336.19
655.337	8313.14
655.688	8329.19
656.039	8300.94
656.391	8236.08
656.742	8266.14
657.094	8308.4
657.445	8361.28
657.796	8302.3
658.147	8328.28
658.498	8317.21
658.849	8320.15
659.2	8340.26
659.551	8347.72
659.902	8329.64
660.253	8371.22
660.604	8363.31
660.955	8328.51
661.306	8366.47
661.656	8342.07
662.007	8391.11
662.358	8401.73
662.708	8349.75
663.059	8366.47
663.409	8391.11
663.76	8417.32
664.11	8406.25
664.461	8445.12
664.811	8348.4
665.161	8382.07
665.511	8312.01
665.862	8359.92
666.212	8394.95
666.562	8459.58
666.912	8371.45
667.262	8356.08
667.612	8361.28
667.962	8399.47
668.312	8377.32
668.662	8430.65
669.011	8375.06
669.361	8364.89
669.711	8304.56
670.06	8350.88
670.41	8358.11
670.76	8382.75
671.109	8362.41
671.459	8293.26
671.808	8353.14
672.157	8323.09
672.507	8341.16
672.856	8334.39
673.205	8266.14
673.554	8313.14
673.904	8341.16
674.253	8295.97
674.602	8291.45
674.951	8175.52
675.3	8059.14
675.649	8259.13
675.998	8242.86
676.346	8245.35
676.695	8269.53
677.044	8262.07
677.393	8240.6
677.741	8254.84
678.09	8148.4
678.438	8203.09
678.787	8204.67
679.135	8238.57
679.484	8144.11
679.832	8205.35
680.181	8102.3
680.529	8150.89
680.877	8093.71
681.225	8078.8
681.573	8189.98
681.922	8042.19
682.27	8041.74
682.618	8043.77
682.966	8045.35
683.314	8037.9
683.661	7997.45
684.009	7940.05
684.357	7945.92
684.705	7922.64
685.053	7881.52
685.4	7862.53
685.748	7905.02
686.095	7927.84
686.443	7875.87
686.79	7807.39
687.138	7863.89
687.485	7840.39
687.832	7770.33
688.18	7823.44
688.527	7692.37
688.874	7754.29
689.221	7776.66
689.568	7667.96
689.915	7696.44
690.262	7676.78
690.609	7639.94
690.956	7578.7
691.303	7558.81
691.65	7499.38
691.997	7577.34
692.344	7453.05
692.69	7514.52
693.037	7451.24
693.383	7344.81
693.73	7352.26
694.077	7323.34
694.423	7325.82
694.769	7288.09
695.116	7296.22
695.462	7292.38
695.808	7256
696.155	7253.74
696.501	7238.37
696.847	7188.2
697.193	7127.41
697.539	7154.08
697.885	7133.29
698.231	7055.55
698.577	7141.65
698.923	7102.1
699.269	7004.93
699.614	6988.21
699.96	6930.35
700.306	7003.8
700.651	6919.51
700.997	6925.16
701.342	6892.39
701.688	6813.75
702.033	6778.49
702.379	6815.56
702.724	6813.3
703.069	6843.58
703.415	6670.93
703.76	6668.21
704.105	6717.7
704.45	6688.55
704.795	6673.86
705.14	6583.92
705.485	6586.18
705.83	6608.56
706.175	6621.89
706.52	6579.63
706.865	6526.3
707.209	6512.96
707.554	6452.63
707.899	6492.17
708.243	6454.43
708.588	6426.19
708.932	6396.36
709.277	6409.69
709.621	6387.77
709.966	6344.16
710.31	6373.08
710.654	6307.55
710.998	6275.46
711.342	6290.82
711.687	6329.01
712.031	6242.91
712.375	6278.85
712.719	6234.78
713.063	6250.82
713.407	6218.28
713.75	6201.79
714.094	6186.19
714.438	6173.76
714.782	6205.85
715.125	6133.09
715.469	6108.91
715.812	6158.62
716.156	6079.53
716.499	6105.07
716.843	6164.72
717.186	6112.3
717.53	6104.39
717.873	6100.55
718.216	6089.47
718.559	6084.73
718.902	5995.69
719.246	6042.47
719.589	5965.41
719.932	6020.32
720.275	5985.07
720.617	6025.75
720.96	6006.54
721.303	5998.85
721.646	5971.74
721.989	5975.58
722.331	6019.64
722.674	5968.35
723.016	5938.06
723.359	5917.73
723.701	5977.84
724.044	5874.34
724.386	5934.45
724.729	5940.78
725.071	5946.2
725.413	5853.32
725.755	5920.89
726.097	5881.57
726.439	5875.92
726.782	5865.07
727.124	5910.72
727.465	5882.92
727.807	5866.88
728.149	5844.51
728.491	5828.24
728.833	5866.2
729.175	5850.38
729.516	5884.28
729.858	5832.53
730.199	5844.96
730.541	5851.96
730.882	5863.04
731.224	5890.83
731.565	5842.02
731.906	5853.32
732.248	5882.7
732.589	5804.96
732.93	5820.1
733.271	5831.63
733.612	5883.15
733.953	5908.91
734.294	5904.62
734.635	5853.55
734.976	5946.2
735.317	5863.72
735.658	5829.14
735.999	5846.54
736.339	5871.63
736.68	5905.3
737.021	5859.65
737.361	5837.73
737.702	5925.18
738.042	5837.73
738.383	5947.1
738.723	5922.7
739.063	5924.73
739.404	5932.64
739.744	5877.73
740.084	5936.93
740.424	6010.38
740.764	5988.91
741.104	6005.18
741.444	5963.37
741.784	6031.17
742.124	6032.52
742.464	5984.16
742.804	6076.37
743.143	6017.38
743.483	6058.74
743.823	6052.41
744.162	6056.93
744.502	6146.65
744.841	6180.54
745.181	6206.76
745.52	6174.89
745.86	6231.62
746.199	6277.04
746.538	6291.05
746.877	6295.79
747.216	6374.66
747.556	6407.88
747.895	6496.92
748.234	6522.68
748.573	6494.21
748.911	6527.65
749.25	6692.39
749.589	6706.41
749.928	6775.33
750.267	6782.11
750.605	6886.29
750.944	6932.16
751.283	6956.57
751.621	7133.96
751.96	7089.22
752.298	7241.98
752.636	7322.43
752.975	7354.07
753.313	7508.87
753.651	7618.92
753.989	7672.03
754.327	7799.03
754.666	7940.05
755.004	8027.95
755.342	8171.9
755.679	8212.81
756.017	8375.29
756.355	8484.66
756.693	8688.27
757.031	8851.43
757.368	8889.63
757.706	9076.06
758.044	9216.85
758.381	9343.85
758.719	9472.66
759.056	9681.47
759.394	9795.14
759.731	9945.19
760.068	10067.9
760.405	10236.03
760.743	10388.12
761.08	10583.14
761.417	10776.81
761.754	10917.14
762.091	11116.69
762.428	11259.05
762.765	11508.77
763.102	11677.12
763.438	11723.22
763.775	11956.21
764.112	12207.96
764.449	12308.97
764.785	12533.37
765.122	12707.38
765.458	12857.66
765.795	12987.6
766.131	13188.95
766.467	13388.04
766.804	13491.76
