Data from hue_00_FLMS001491_31.txt Node
Date: Mon Feb 06 15:29:36 GMT 2017
User: dcchb
Spectrometer: FLMS00149
Trigger mode: 0
Integration Time (sec): 2.000000E-2
Scans to average: 10
Electric dark correction enabled: true
Nonlinearity correction enabled: false
Boxcar width: 0
XAxis mode: Wavelengths
Number of Pixels in Spectrum: 2048
>>>>>Begin Spectral Data<<<<<
341.393	-5.32
341.776	-5.32
342.16	-5.32
342.543	-53.69
342.927	-46.91
343.31	-56.17
343.693	-75.83
344.077	-87.13
344.46	-50.07
344.843	-35.15
345.226	-59.11
345.61	-17.08
345.993	-10.52
346.376	-2.61
346.759	19.53
347.142	46.88
347.525	22.7
347.908	54.56
348.291	70.38
348.674	85.29
349.057	94.33
349.44	145.41
349.823	156.48
350.206	166.65
350.588	205.07
350.971	218.4
351.354	238.96
351.737	232.18
352.119	265.4
352.502	260.43
352.884	270.15
353.267	286.19
353.65	291.16
354.032	300.66
354.414	316.25
354.797	307.44
355.179	336.81
355.562	309.7
355.944	316.02
356.326	326.64
356.709	338.17
357.091	340.2
357.473	330.49
357.855	335.46
358.238	356.47
358.62	339.98
359.002	329.58
359.384	344.04
359.766	347.21
360.148	350.37
360.53	330.94
360.912	354.21
361.294	332.29
361.676	333.65
362.057	330.49
362.439	351.5
362.821	338.85
363.203	329.13
363.584	313.31
363.966	343.37
364.348	346.3
364.729	320.77
365.111	317.83
365.493	326.19
365.874	315.34
366.256	323.25
366.637	326.87
367.019	315.57
367.4	334.55
367.781	307.21
368.163	313.76
368.544	321.45
368.925	315.12
369.306	333.42
369.688	349.92
370.069	287.1
370.45	329.36
370.831	303.14
371.212	324.84
371.593	310.15
371.974	308.11
372.355	314.21
372.736	316.02
373.117	340.65
373.498	324.84
373.879	332.97
374.26	333.2
374.641	325.06
375.021	341.56
375.402	321.22
375.783	332.29
376.163	338.4
376.544	325.06
376.925	331.84
377.305	321.22
377.686	315.8
378.066	312.86
378.447	329.13
378.827	327.77
379.208	340.65
379.588	322.58
379.968	331.16
380.349	309.7
380.729	337.49
381.109	322.8
381.489	335.91
381.87	333.88
382.25	350.15
382.63	349.69
383.01	346.53
383.39	335.01
383.77	343.82
384.15	325.97
384.53	340.43
384.91	323.93
385.29	346.3
385.67	349.92
386.049	354.21
386.429	350.82
386.809	355.57
387.189	355.12
387.568	334.78
387.948	361.9
388.328	353.76
388.707	346.08
389.087	335.91
389.466	366.42
389.846	375.68
390.225	371.61
390.605	345.63
390.984	362.8
391.363	377.04
391.743	375.46
392.122	352.18
392.501	354.67
392.881	376.59
393.26	382.91
393.639	354.44
394.018	372.07
394.397	398.73
394.776	381.56
395.155	354.21
395.534	358.96
395.913	386.76
396.292	381.11
396.671	377.49
397.05	368
397.429	357.83
397.808	396.47
398.186	375
398.565	377.49
398.944	400.54
399.323	398.05
399.701	381.11
400.08	399.64
400.458	386.76
400.837	401.22
401.215	387.21
401.594	402.35
401.972	389.92
402.351	389.24
402.729	377.49
403.107	424.49
403.486	408
403.864	396.02
404.242	410.71
404.62	414.33
404.999	415.46
405.377	393.08
405.755	404.83
406.133	393.31
406.511	403.93
406.889	420.65
407.267	414.55
407.645	405.51
408.023	424.95
408.401	409.13
408.779	436.25
409.156	417.94
409.534	433.31
409.912	418.39
410.29	451.61
410.667	440.99
411.045	452.06
411.422	450.48
411.8	448.67
412.178	472.85
412.555	465.85
412.933	461.56
413.31	483.7
413.687	469.69
414.065	483.25
414.442	454.32
414.819	456.58
415.197	485.06
415.574	492.74
415.951	502.01
416.328	480.76
416.705	481.89
417.082	497.26
417.46	496.58
417.837	501.1
418.214	513.31
418.591	478.5
418.967	506.75
419.344	498.84
419.721	483.48
420.098	517.6
420.475	530.71
420.852	501.78
421.228	526.86
421.605	549.69
421.982	515.11
422.358	537.49
422.735	536.13
423.111	549.69
423.488	555.11
423.864	545.62
424.241	537.26
424.617	536.81
424.994	569.12
425.37	539.07
425.746	561.44
426.123	554.89
426.499	562.12
426.875	581.33
427.251	579.74
427.627	578.61
428.003	598.95
428.379	579.97
428.756	588.78
429.132	603.7
429.507	601.89
429.883	603.47
430.259	598.73
430.635	606.41
431.011	632.85
431.387	611.38
431.763	634.21
432.138	613.87
432.514	620.42
432.89	644.83
433.265	641.44
433.641	665.39
434.016	664.26
434.392	654.77
434.767	671.72
435.143	682.57
435.518	688.89
435.894	672.85
436.269	695.67
436.644	691.83
437.02	690.93
437.395	691.38
437.77	707.2
438.145	733.41
438.52	723.7
438.895	738.61
439.271	719.63
439.646	739.06
440.021	742.45
440.395	755.33
440.77	722.79
441.145	749.23
441.52	779.74
441.895	764.6
442.27	768.89
442.645	765.05
443.019	764.82
443.394	754.2
443.769	792.17
444.143	751.94
444.518	781.55
444.892	776.35
445.267	787.42
445.641	788.55
446.016	787.42
446.39	779.74
446.764	804.37
447.139	802.11
447.513	840.98
447.887	814.54
448.262	815.67
448.636	831.26
449.01	842.11
449.384	816.35
449.758	829
450.132	827.87
450.506	863.58
450.88	848.21
451.254	841.88
451.628	849.57
452.002	876.91
452.376	853.64
452.75	847.31
453.123	907.19
453.497	869.91
453.871	891.15
454.244	893.41
454.618	915.78
454.992	904.93
455.365	928.66
455.739	929.57
456.112	943.12
456.486	932.5
456.859	972.5
457.232	965.95
457.606	971.15
457.979	973.63
458.352	992.39
458.725	986.51
459.099	1012.73
459.472	1024.7
459.845	1004.82
460.218	1018.6
460.591	1008.89
460.964	1035.1
461.337	1030.13
461.71	1087.98
462.083	1095.66
462.456	1092.73
462.829	1080.97
463.201	1080.97
463.574	1117.36
463.947	1106.74
464.32	1162.33
464.692	1138.83
465.065	1143.57
465.438	1171.37
465.81	1196.23
466.183	1197.13
466.555	1201.2
466.928	1205.94
467.3	1227.41
467.672	1248.65
468.045	1266.28
468.417	1285.04
468.789	1274.19
469.161	1302.21
469.534	1327.3
469.906	1364.58
470.278	1377.24
470.65	1372.94
471.022	1403.23
471.394	1364.36
471.766	1416.33
472.138	1424.69
472.51	1458.59
472.882	1498.59
473.253	1471.92
473.625	1499.72
473.997	1554.41
474.369	1546.95
474.74	1592.83
475.112	1623.78
475.484	1634.86
475.855	1668.76
476.227	1686.61
476.598	1734.97
476.97	1742.2
477.341	1788.3
477.713	1801.86
478.084	1795.31
478.455	1875.76
478.827	1883.89
479.198	1932.93
479.569	1968.63
479.94	1976.09
480.311	1992.59
480.682	2049.54
481.053	2095.41
481.424	2144.45
481.795	2159.59
482.166	2198.23
482.537	2226.93
482.908	2268.97
483.279	2309.42
483.65	2335.63
484.021	2372.01
484.391	2424.44
484.762	2470.32
485.133	2455.4
485.503	2506.25
485.874	2572.23
486.244	2610.43
486.615	2642.97
486.985	2723.87
487.356	2772.68
487.726	2789.4
488.097	2832.11
488.467	2846.58
488.837	2903.07
489.207	2936.97
489.578	2983.98
489.948	3033.47
490.318	3057.87
490.688	3047.93
491.058	3167.02
491.428	3164.31
491.798	3242.73
492.168	3272.78
492.538	3284.31
492.908	3325.21
493.278	3357.98
493.648	3406.11
494.017	3370.18
494.387	3474.36
494.757	3537.41
495.126	3548.71
495.496	3569.72
495.866	3595.94
496.235	3629.61
496.605	3634.58
496.974	3673.45
497.344	3681.36
497.713	3728.36
498.082	3771.53
498.452	3797.29
498.821	3776.95
499.19	3845.2
499.559	3878.19
499.928	3926.32
500.298	3906.44
500.667	3922.48
501.036	3947.79
501.405	4002.48
501.774	4022.82
502.143	4013.33
502.512	4009.26
502.88	4064.85
503.249	4036.6
503.618	4101.69
503.987	4172.42
504.356	4181.23
504.724	4160.67
505.093	4193.21
505.462	4179.2
505.83	4230.72
506.199	4287.9
506.567	4316.6
506.936	4290.83
507.304	4322.7
507.672	4363.83
508.041	4354.11
508.409	4343.26
508.777	4390.04
509.145	4445.86
509.514	4420.1
509.882	4452.41
510.25	4453.32
510.618	4484.95
510.986	4550.49
511.354	4550.26
511.722	4564.72
512.09	4577.15
512.458	4569.02
512.826	4599.98
513.193	4624.16
513.561	4625.74
513.929	4690.15
514.297	4660.99
514.664	4718.17
515.032	4731.73
515.4	4713.2
515.767	4736.92
516.135	4804.94
516.502	4749.13
516.869	4833.42
517.237	4834.32
517.604	4760.2
517.972	4874.55
518.339	4882
518.706	4861.21
519.073	4874.1
519.44	4899.63
519.808	4940.76
520.175	4950.93
520.542	4963.81
520.909	4978.05
521.276	5006.97
521.643	5007.65
522.009	5112.05
522.376	5069.12
522.743	5096.24
523.11	5116.8
523.477	5145.5
523.843	5170.81
524.21	5219.85
524.577	5264.82
524.943	5226.85
525.31	5295.33
525.676	5335.78
526.043	5379.84
526.409	5366.51
526.776	5396.34
527.142	5410.13
527.508	5427.3
527.874	5445.38
528.241	5456.68
528.607	5510.46
528.973	5542.33
529.339	5545.72
529.705	5633.4
530.071	5620.06
530.437	5650.35
530.803	5662.77
531.169	5735.32
531.535	5727.86
531.901	5754.98
532.267	5764.02
532.632	5788.42
532.998	5829.1
533.364	5884.24
533.73	5887.4
534.095	5903.45
534.461	5890.79
534.826	5924.46
535.192	5959.72
535.557	6005.14
535.923	6015.08
536.288	6065.02
536.653	6063.67
537.019	6044.91
537.384	6105.7
537.749	6134.63
538.114	6213.27
538.479	6147.96
538.845	6197.9
539.21	6201.52
539.575	6233.38
539.94	6197.45
540.305	6344.56
540.67	6272.48
541.034	6314.96
541.399	6366.94
541.764	6318.12
542.129	6430.89
542.494	6439.48
542.858	6488.52
543.223	6464.79
543.587	6499.36
543.952	6573.71
544.316	6589.76
544.681	6589.08
545.045	6578.91
545.41	6650.77
545.774	6685.57
546.138	6716.53
546.503	6697.55
546.867	6696.87
547.231	6747.49
547.595	6770.09
547.959	6777.77
548.324	6815.06
548.688	6830.88
549.052	6853.7
549.416	6931.22
549.779	6943.65
550.143	6904.55
550.507	6997.2
550.871	6977.54
551.235	6984.77
551.599	7058.67
551.962	7069.07
552.326	7042.85
552.689	7168.05
553.053	7120.59
553.417	7143.87
553.78	7247.59
554.143	7166.24
554.507	7196.97
554.87	7255.95
555.234	7301.83
555.597	7210.98
555.96	7250.08
556.323	7364.65
556.686	7315.84
557.05	7392.9
557.413	7400.13
557.776	7407.59
558.139	7442.84
558.502	7441.71
558.865	7460.69
559.228	7559.45
559.59	7572.33
559.953	7563.97
560.316	7648.49
560.679	7613.46
561.041	7685.77
561.404	7750.63
561.767	7744.98
562.129	7738.2
562.492	7817.07
562.854	7800.8
563.217	7838.08
563.579	7852.55
563.941	7896.39
564.304	7905.88
564.666	7989.49
565.028	7989.04
565.39	7931.42
565.753	8005.31
566.115	8045.31
566.477	8093.9
566.839	8057.06
567.201	8092.99
567.563	8168.92
567.925	8165.99
568.287	8134.12
568.648	8211.41
569.01	8248.24
569.372	8310.84
569.734	8281.92
570.095	8343.83
570.457	8347.9
570.819	8495.47
571.18	8432.87
571.542	8504.51
571.903	8583.15
572.265	8597.39
572.626	8752.86
572.987	8710.38
573.349	8752.19
573.71	8793.09
574.071	8887.32
574.432	8852.52
574.794	8965.96
575.155	8927.55
575.516	9020.88
575.877	9131.61
576.238	9221.55
576.599	9234.21
576.96	9267.2
577.32	9397.37
577.681	9470.58
578.042	9568.89
578.403	9580.86
578.763	9715.32
579.124	9858.37
579.485	9950.35
579.845	10031.47
580.206	10231.69
580.566	10195.31
580.927	10340.39
581.287	10625.13
581.648	10587.39
582.008	10831.68
582.368	10872.13
582.728	11031.45
583.089	11226.47
583.449	11403.41
583.809	11537.2
584.169	11713.01
584.529	11855.15
584.889	12240.23
585.249	12367.68
585.609	12451.75
585.969	12729.48
586.329	12857.16
586.688	13230.71
587.048	13389.8
587.408	13652.85
587.768	13849.9
588.127	14096.45
588.487	14327.41
588.846	14581.64
589.206	14786.38
589.565	15023.21
589.925	15418.9
590.284	15627.94
590.643	15929.85
591.003	16207.36
591.362	16548.14
591.721	16740
592.08	17027.22
592.44	17421.34
592.799	17672.63
593.158	18014.31
593.517	18301.54
593.876	18572.49
594.235	18848.42
594.593	19034.85
594.952	19526.37
595.311	19663.08
595.67	20155.05
596.029	20554.81
596.387	20791.64
596.746	21119.09
597.104	21382.81
597.463	21780.54
597.822	22142.57
598.18	22394.54
598.538	22683.8
598.897	22991.36
599.255	23190.45
599.613	23872.24
599.972	23939.81
600.33	24336.18
600.688	24555.16
601.046	24944.98
601.404	25277.4
601.762	25545.64
602.12	25892.53
602.478	26227.88
602.836	26455.22
603.194	26559.17
603.552	26946.96
603.91	27114.19
604.268	27493.61
604.625	27743.1
604.983	28150.77
605.341	28242.97
605.698	28615.62
606.056	28976.29
606.413	29195.04
606.771	29527.01
607.128	29820.78
607.485	29897.39
607.843	30065.07
608.2	30494.21
608.557	30831.38
608.914	30868.44
609.272	31231.14
609.629	31511.81
609.986	31823.22
610.343	31920.62
610.7	32295.97
611.057	32431.34
611.414	32586.36
611.771	32777.54
612.127	33128.49
612.484	33435.38
612.841	33658.65
613.198	33662.94
613.554	33923.5
613.911	34215.47
614.267	34310.38
614.624	34554.9
614.98	34684.61
615.337	35092.06
615.693	35044.38
616.05	35153.98
616.406	35527.98
616.762	35471.48
617.118	35624.7
617.475	35871.47
617.831	36147.17
618.187	36142.65
618.543	36500.38
618.899	36671.45
619.255	36748.51
619.611	36763.65
619.967	37080.93
620.323	37269.85
620.678	37248.16
621.034	37236.86
621.39	37430.53
621.746	37533.12
622.101	37916.16
622.457	37891.98
622.812	38007.69
623.168	38204.52
623.523	38184.86
623.879	38453.1
624.234	38235.7
624.589	38492.65
624.945	38538.97
625.3	38748.46
625.655	38637.73
626.01	38780.1
626.365	39023.48
626.72	38887.21
627.075	39145.96
627.43	38985.06
627.785	39085.17
628.14	39266.64
628.495	39157.04
628.85	39241.1
629.205	39271.61
629.559	39549.12
629.914	39431.38
630.269	39252.4
630.623	39479.74
630.978	39387.99
631.332	39650.58
631.687	39653.07
632.041	39673.63
632.396	39646.51
632.75	39545.73
633.104	39633.63
633.459	39514.99
633.813	39655.33
634.167	39600.64
634.521	39704.82
634.875	39839.28
635.229	39661.43
635.583	39631.6
635.937	39817.36
636.291	39765.61
636.645	39735.55
636.999	39612.16
637.352	39764.7
637.706	39734.2
638.06	39903.46
638.413	39648.55
638.767	39645.16
639.121	39775.78
639.474	39555.44
639.828	39597.25
640.181	39772.61
640.534	39681.54
640.888	39584.37
641.241	39604.93
641.594	39551.83
641.947	39797.02
642.301	39598.61
642.654	39730.13
643.007	39784.14
643.36	39590.02
643.713	39642.67
644.066	39723.12
644.419	39399.74
644.771	39224.38
645.124	38875.01
645.477	38771.06
645.83	38583.72
646.182	38493.1
646.535	38416.26
646.888	38592.76
647.24	38262.14
647.593	38457.39
647.945	38590.27
648.298	38343.95
648.65	38295.82
649.002	38147.34
649.355	38364.74
649.707	38271.86
650.059	38535.58
650.411	38912.3
650.763	39042.46
651.115	39350.93
651.467	39173.98
651.819	39259.18
652.171	39197.71
652.523	39113.42
652.875	39129.69
653.227	39062.12
653.578	39172.18
653.93	39246.52
654.282	38995.23
654.633	38983.03
654.985	39110.48
655.337	38992.52
655.688	38943.48
656.039	39099.18
656.391	38748.68
656.742	38903.03
657.094	38800.89
657.445	39100.54
657.796	39041.78
658.147	38927.21
658.498	38920.21
658.849	39003.37
659.2	38883.6
659.551	38879.75
659.902	39000.2
660.253	38755.69
660.604	38899.19
660.955	38801.34
661.306	38930.6
661.656	38865.74
662.007	38773.77
662.358	38809.25
662.708	38799.53
663.059	38710.95
663.409	38520.89
663.76	38906.65
664.11	38784.84
664.461	38794.33
664.811	38719.08
665.161	38865.29
665.511	38642.25
665.862	38723.83
666.212	38872.3
666.562	38749.36
666.912	38803.37
667.262	38704.84
667.612	38683.83
667.962	38766.09
668.312	38682.47
668.662	38770.15
669.011	38786.88
669.361	38557.73
669.711	38533.32
670.06	38580.55
670.41	38536.71
670.76	38534.68
671.109	38583.94
671.459	38559.54
671.808	38542.59
672.157	38522.48
672.507	38302.37
672.856	38397.28
673.205	38374.46
673.554	38595.92
673.904	38446.32
674.253	38675.69
674.602	38460.56
674.951	37880.91
675.3	37786.22
675.649	38283.61
675.998	38372.65
676.346	38354.8
676.695	38409.03
677.044	38198.42
677.393	38332.65
677.741	38259.21
678.09	38197.74
678.438	37986.9
678.787	38306.66
679.135	38094.69
679.484	37850.18
679.832	38104.86
680.181	37845.88
680.529	38190.06
680.877	37835.71
681.225	37942.38
681.573	38063.05
681.922	37654.93
682.27	37688.37
682.618	37658.32
682.966	37695.38
683.314	37675.72
683.661	37565.21
684.009	37496.06
684.357	37375.61
684.705	37353.92
685.053	37347.37
685.4	37355.27
685.748	37156.41
686.095	37258.78
686.443	37015.17
686.79	37157.09
687.138	37042.97
687.485	37072.34
687.832	36841.39
688.18	36965.91
688.527	36611.34
688.874	36706.25
689.221	36566.82
689.568	36632.36
689.915	36398.69
690.262	36475.3
690.609	36379.93
690.956	36178.58
691.303	36221.97
691.65	35980.62
691.997	35927.29
692.344	35968.19
692.69	35831.02
693.037	35761.42
693.383	35742.89
693.73	35667.41
694.077	35461.54
694.423	35497.7
694.769	35375.67
695.116	35269.91
695.462	35231.04
695.808	35189
696.155	35118.27
696.501	34887.77
696.847	34946.52
697.193	34648.91
697.539	34814.78
697.885	34475.8
698.231	34365.07
698.577	34448.46
698.923	34267.45
699.269	34280.55
699.614	34120.78
699.96	34160.78
700.306	34094.57
700.651	33913.78
700.997	33718.76
701.342	33856.38
701.688	33658.2
702.033	33655.94
702.379	33587.69
702.724	33402.16
703.069	33545.43
703.415	33094.82
703.76	33251.43
704.105	33114.48
704.45	33023.19
704.795	32921.95
705.14	32987.48
705.485	32719.01
705.83	32859.8
706.175	32563.08
706.52	32553.37
706.865	32547.49
707.209	32411.45
707.554	32433.6
707.899	32454.16
708.243	32409.19
708.588	32238.8
708.932	31998.81
709.277	31966.04
709.621	32068.41
709.966	31817.34
710.31	32014.4
710.654	31602.21
710.998	31576.44
711.342	31607.63
711.687	31570.57
712.031	31403.34
712.375	31317.69
712.719	31442.89
713.063	31255.77
713.407	31395.66
713.75	31226.4
714.094	31319.28
714.438	31013.97
714.782	31053.07
715.125	30868.44
715.469	30960.87
715.812	30869.8
716.156	30703.92
716.499	30643.59
716.843	30639.97
717.186	30467.09
717.53	30567.2
717.873	30618.05
718.216	30431.16
718.559	30438.17
718.902	30263.71
719.246	30289.92
719.589	30197.27
719.932	30081.79
720.275	30076.37
720.617	30056.48
720.96	30037.05
721.303	29980.78
721.646	29918.18
721.989	29775.36
722.331	29844.06
722.674	29718.87
723.016	29890.61
723.359	29624.86
723.701	29647.68
724.044	29444.75
724.386	29403.85
724.729	29522.94
725.071	29440.68
725.413	29439.1
725.755	29403.85
726.097	29229.84
726.439	29065.1
726.782	29120.01
727.124	29230.06
727.465	29026.45
727.807	29100.58
728.149	28948.72
728.491	28945.78
728.833	28998.43
729.175	28952.11
729.516	28756.86
729.858	28776.07
730.199	28812.45
730.541	28724.32
730.882	28675.96
731.224	28781.49
731.565	28538.78
731.906	28581.95
732.248	28614.49
732.589	28419.24
732.93	28369.52
733.271	28333.14
733.612	28259.02
733.953	28263.54
734.294	28160.26
734.635	28130.21
734.976	28253.59
735.317	28045.46
735.658	28093.6
735.999	28195.29
736.339	28085.69
736.68	28141.96
737.021	27947.84
737.361	27863.32
737.702	28056.31
738.042	27905.81
738.383	27820.61
738.723	27892.92
739.063	27716.66
739.404	27896.31
739.744	27661.52
740.084	27614.97
740.424	27566.83
740.764	27548.08
741.104	27585.14
741.444	27499.26
741.784	27494.74
742.124	27461.98
742.464	27393.73
742.804	27255.43
743.143	27321.41
743.483	27389.66
743.823	27246.39
744.162	27118.48
744.502	27110.57
744.841	27012.27
745.181	27178.37
745.52	27045.26
745.86	27038.71
746.199	26964.59
746.538	26978.15
746.877	26899.05
747.216	26890.24
747.556	26821.99
747.895	26844.14
748.234	26793.52
748.573	26602.79
748.911	26580.42
749.25	26600.53
749.589	26440.31
749.928	26627.87
750.267	26552.4
750.605	26396.24
750.944	26437.37
751.283	26365.96
751.621	26346.52
751.96	26210.71
752.298	26291.84
752.636	26180.43
752.975	26057.94
753.313	26104.95
753.651	26300.88
753.989	25960.77
754.327	26021.56
754.666	25892.07
755.004	25879.42
755.342	25808.91
755.679	25800.1
756.017	25700.21
756.355	25681.01
756.693	25576.83
757.031	25652.53
757.368	25471.07
757.706	25425.19
758.044	25393.56
758.381	25339.77
758.719	25308.13
759.056	25317.4
759.394	25232.66
759.731	25018.2
760.068	25052.77
760.405	24885.77
760.743	24908.14
