Data from hue_240_FLMS001491_00091.txt Node
Date: Tue Feb 07 16:36:11 GMT 2017
User: dcchb
Spectrometer: FLMS00149
Trigger mode: 0
Integration Time (sec): 2.000000E-2
Scans to average: 10
Electric dark correction enabled: true
Nonlinearity correction enabled: false
Boxcar width: 0
XAxis mode: Wavelengths
Number of Pixels in Spectrum: 2048
>>>>>Begin Spectral Data<<<<<
341.393	-21.88
341.776	-21.88
342.16	-21.88
342.543	-65.27
342.927	-73.63
343.31	-72.05
343.693	-69.79
344.077	-72.95
344.46	-61.42
344.843	-53.74
345.226	-51.26
345.61	-21.2
345.993	-22.1
346.376	-16.68
346.759	2.98
347.142	32.13
347.525	47.72
347.908	60.15
348.291	83.88
348.674	88.4
349.057	125.91
349.44	138.12
349.823	148.06
350.206	165.01
350.588	174.28
350.971	214.73
351.354	212.47
351.737	252.01
352.119	260.83
352.502	239.81
352.884	269.19
353.267	270.54
353.65	285.68
354.032	278.45
354.414	301.05
354.797	289.07
355.179	322.97
355.562	328.62
355.944	330.66
356.326	314.84
356.709	347.38
357.091	319.58
357.473	344.67
357.855	339.02
358.238	347.15
358.62	324.78
359.002	332.24
359.384	330.66
359.766	318.68
360.148	319.58
360.53	329.07
360.912	334.72
361.294	329.53
361.676	318.45
362.057	339.69
362.439	318
362.821	324.33
363.203	316.19
363.584	307.15
363.966	329.98
364.348	335.85
364.729	311.9
365.111	312.12
365.493	309.86
365.874	326.36
366.256	309.41
366.637	328.17
367.019	318.23
367.4	299.24
367.781	305.35
368.163	286.81
368.544	312.35
368.925	321.16
369.306	311.22
369.688	293.82
370.069	289.53
370.45	329.53
370.831	307.6
371.212	296.53
371.593	315.06
371.974	321.39
372.355	311.22
372.736	299.47
373.117	304.44
373.498	305.35
373.879	329.3
374.26	315.97
374.641	334.5
375.021	300.83
375.402	311.9
375.783	309.41
376.163	333.82
376.544	322.52
376.925	340.82
377.305	317.77
377.686	326.36
378.066	314.16
378.447	309.19
378.827	331.11
379.208	326.59
379.588	335.17
379.968	329.98
380.349	322.52
380.729	343.76
381.109	309.86
381.489	349.19
381.87	302.86
382.25	317.32
382.63	353.71
383.01	342.41
383.39	333.14
383.77	356.64
384.15	368.17
384.53	331.79
384.91	338.34
385.29	329.75
385.67	347.38
386.049	350.09
386.429	328.17
386.809	350.77
387.189	357.77
387.568	348.73
387.948	349.19
388.328	357.77
388.707	353.03
389.087	356.19
389.466	358.23
389.846	358.45
390.225	368.17
390.605	355.06
390.984	358
391.363	356.42
391.743	376.53
392.122	376.3
392.501	366.13
392.881	361.61
393.26	359.58
393.639	391.44
394.018	381.73
394.397	376.08
394.776	378.11
395.155	385.79
395.534	391.44
395.913	381.73
396.292	377.21
396.671	391.9
397.05	386.7
397.429	394.83
397.808	378.79
398.186	392.8
398.565	407.94
398.944	405.46
399.323	401.84
399.701	430.31
400.08	414.72
400.458	433.7
400.837	414.72
401.215	409.07
401.594	412.23
401.972	428.96
402.351	429.18
402.729	439.13
403.107	426.92
403.486	418.11
403.864	420.82
404.242	434.38
404.62	447.04
404.999	439.8
405.377	437.54
405.755	432.57
406.133	446.58
406.511	461.27
406.889	473.7
407.267	478.22
407.645	463.31
408.023	481.61
408.401	448.17
408.779	479.8
409.156	486.13
409.534	469.41
409.912	506.92
410.29	531.78
410.667	496.53
411.045	513.7
411.422	542.18
411.8	495.62
412.178	519.58
412.555	548.05
412.933	570.87
413.31	545.56
413.687	578.56
414.065	578.56
414.442	596.64
414.819	577.43
415.197	590.76
415.574	593.93
415.951	606.81
416.328	614.04
416.705	606.81
417.082	610.42
417.46	590.76
417.837	620.14
418.214	609.29
418.591	616.98
418.967	642.29
419.344	630.08
419.721	673.47
420.098	659.91
420.475	648.16
420.852	675.73
421.228	671.44
421.605	699.01
421.982	707.59
422.358	719.57
422.735	715.5
423.111	722.51
423.488	726.8
423.864	754.82
424.241	723.64
424.617	773.13
424.994	759.57
425.37	770.19
425.746	784.88
426.123	799.8
426.499	813.35
426.875	818.1
427.251	817.2
427.627	854.26
428.003	853.81
428.379	879.12
428.756	830.75
429.132	887.7
429.507	908.27
429.883	891.54
430.259	923.63
430.635	900.13
431.011	920.92
431.387	972.22
431.763	946.01
432.138	946.46
432.514	958.89
432.89	966.57
433.265	1003.63
433.641	1019.68
434.016	1018.32
434.392	1034.14
434.767	1060.58
435.143	1047.47
435.518	1076.85
435.894	1088.15
436.269	1101.93
436.644	1120.46
437.02	1136.74
437.395	1134.93
437.77	1138.77
438.145	1142.39
438.52	1198.43
438.895	1227.13
439.271	1212.21
439.646	1257.18
440.021	1266.22
440.395	1286.56
440.77	1248.15
441.145	1268.94
441.52	1283.85
441.895	1320.46
442.27	1333.11
442.645	1322.27
443.019	1352.55
443.394	1369.72
443.769	1376.5
444.143	1372.21
444.518	1397.29
444.892	1388.71
445.267	1405.43
445.641	1428.71
446.016	1413.56
446.39	1415.37
446.764	1433.45
447.139	1442.49
447.513	1486.33
447.887	1496.5
448.262	1497.63
448.636	1500.79
449.01	1540.79
449.384	1536.27
449.758	1515.93
450.132	1556.61
450.506	1518.65
450.88	1567.46
451.254	1585.54
451.628	1600.45
452.002	1619.89
452.376	1645.42
452.75	1612.2
453.123	1656.04
453.497	1686.55
453.871	1682.48
454.244	1683.16
454.618	1709.83
454.992	1765.19
455.365	1741.92
455.739	1765.42
456.112	1772.43
456.486	1799.32
456.859	1826.89
457.232	1842.71
457.606	1838.86
457.979	1870.95
458.352	1894.23
458.725	1925.87
459.099	1962.02
459.472	1988.24
459.845	2002.7
460.218	1996.83
460.591	2045.86
460.964	2005.87
461.337	2064.17
461.71	2100.78
462.083	2114.56
462.456	2105.75
462.829	2151.17
463.201	2156.82
463.574	2220.55
463.947	2212.87
464.32	2271.62
464.692	2261.23
465.065	2254.45
465.438	2321.56
465.81	2346.87
466.183	2369.02
466.555	2401.34
466.928	2436.81
467.3	2406.98
467.672	2522.46
468.045	2511.16
468.417	2488.56
468.789	2543.03
469.161	2560.43
469.534	2576.25
469.906	2648.33
470.278	2683.14
470.65	2666.19
471.022	2745.51
471.394	2801.1
471.766	2858.72
472.138	2838.61
472.51	2876.35
472.882	2915.22
473.253	2976.69
473.625	2980.98
473.997	3026.63
474.369	3018.95
474.74	3093.97
475.112	3121.32
475.484	3154.31
475.855	3234.31
476.227	3254.42
476.598	3351.14
476.97	3379.16
477.341	3460.29
477.713	3464.81
478.084	3466.62
478.455	3604.69
478.827	3573.28
479.198	3692.6
479.569	3689.89
479.94	3753.16
480.311	3764.46
480.682	3855.53
481.053	4006.72
481.424	4020.95
481.795	4006.94
482.166	4139.82
482.537	4147.5
482.908	4244
483.279	4261.4
483.65	4352.7
484.021	4406.03
484.391	4438.57
484.762	4452.58
485.133	4532.58
485.503	4576.87
485.874	4640.15
486.244	4719.24
486.615	4787.49
486.985	4825.23
487.356	4866.81
487.726	4870.65
488.097	5002.85
488.467	4992
488.837	5092.56
489.207	5185.44
489.578	5212.33
489.948	5268.15
490.318	5313.57
490.688	5317.42
491.058	5376.85
491.428	5469.73
491.798	5560.57
492.168	5631.31
492.538	5625.66
492.908	5679.89
493.278	5706.11
493.648	5784.3
494.017	5858.87
494.387	5880.11
494.757	5878.31
495.126	5876.72
495.496	5991.98
495.866	5998.98
496.235	6028.81
496.605	6131.41
496.974	6129.6
497.344	6201.91
497.713	6144.29
498.082	6259.09
498.452	6334.57
498.821	6355.81
499.19	6363.49
499.559	6349.48
499.928	6403.49
500.298	6398.97
500.667	6481.23
501.036	6456.82
501.405	6569.59
501.774	6477.61
502.143	6602.35
502.512	6573.88
502.88	6642.58
503.249	6640.09
503.618	6689.81
503.987	6690.94
504.356	6739.07
504.724	6811.39
505.093	6778.62
505.462	6784.04
505.83	6809.58
506.199	6939.29
506.567	6921.67
506.936	6977.49
507.304	6977.49
507.672	6988.79
508.041	7022
508.409	7077.6
508.777	7079.86
509.145	7181.32
509.514	7089.8
509.882	7191.72
510.25	7173.64
510.618	7231.26
510.986	7224.71
511.354	7267.42
511.722	7390.81
512.09	7354.88
512.458	7369.34
512.826	7439.39
513.193	7461.54
513.561	7416.12
513.929	7450.24
514.297	7493.86
514.664	7563.01
515.032	7530.47
515.4	7585.15
515.767	7581.09
516.135	7611.37
516.502	7588.32
516.869	7725.26
517.237	7718.48
517.604	7674.42
517.972	7691.82
518.339	7732.27
518.706	7803.23
519.073	7799.16
519.44	7826.96
519.808	7802.32
520.175	7782.44
520.542	7931.81
520.909	7958.93
521.276	7898.59
521.643	7937.23
522.009	7974.52
522.376	8014.97
522.743	8078.02
523.11	8079.15
523.477	8096.1
523.843	8104.69
524.21	8180.62
524.577	8226.27
524.943	8214.06
525.31	8264.23
525.676	8274.85
526.043	8288.64
526.409	8322.31
526.776	8322.54
527.142	8362.53
527.508	8376.55
527.874	8409.76
528.241	8431.91
528.607	8437.33
528.973	8478.69
529.339	8468.97
529.705	8490.67
530.071	8507.62
530.437	8491.8
530.803	8516.2
531.169	8582.19
531.535	8540.16
531.901	8499.71
532.267	8565.92
532.632	8608.63
532.998	8565.69
533.364	8605.92
533.73	8596.65
534.095	8656.09
534.461	8692.47
534.826	8646.82
535.192	8677.1
535.557	8722.07
535.923	8715.75
536.288	8746.71
536.653	8711
537.019	8665.35
537.384	8686.82
537.749	8712.13
538.114	8667.84
538.479	8651.79
538.845	8669.42
539.21	8623.54
539.575	8678.23
539.94	8704.22
540.305	8711.23
540.67	8640.04
541.034	8640.72
541.399	8752.58
541.764	8721.85
542.129	8665.13
542.494	8655.41
542.858	8662.41
543.223	8619.25
543.587	8687.95
543.952	8675.75
544.316	8669.19
544.681	8640.95
545.045	8675.29
545.41	8655.41
545.774	8661.74
546.138	8698.8
546.503	8682.53
546.867	8621.96
547.231	8658.8
547.595	8613.83
547.959	8648.85
548.324	8675.97
548.688	8561.4
549.052	8695.18
549.416	8621.96
549.779	8660.61
550.143	8619.02
550.507	8669.64
550.871	8650.89
551.235	8596.65
551.599	8645.24
551.962	8647.72
552.326	8627.84
552.689	8679.14
553.053	8630.78
553.417	8687.5
553.78	8759.59
554.143	8658.8
554.507	8700.38
554.87	8732.92
555.234	8778.34
555.597	8722.98
555.96	8672.13
556.323	8732.02
556.686	8732.47
557.05	8799.13
557.413	8683.88
557.776	8757.1
558.139	8795.97
558.502	8729.53
558.865	8739.47
559.228	8791
559.59	8801.17
559.953	8858.11
560.316	8923.65
560.679	8839.13
561.041	8914.38
561.404	8925.46
561.767	8909.64
562.129	8908.28
562.492	8984.89
562.854	8985.12
563.217	8955.51
563.579	8957.55
563.941	8958.22
564.304	9096.53
564.666	9106.24
565.028	9114.38
565.39	9136.75
565.753	9106.47
566.115	9095.4
566.477	9164.1
566.839	9152.8
567.201	9292
567.563	9260.59
567.925	9248.39
568.287	9307.14
568.648	9299.68
569.01	9309.4
569.372	9458.32
569.734	9342.17
570.095	9401.15
570.457	9420.59
570.819	9398.67
571.18	9439.57
571.542	9532.67
571.903	9448.16
572.265	9537.87
572.626	9565.89
572.987	9558.89
573.349	9584.88
573.71	9587.81
574.071	9642.27
574.432	9695.38
574.794	9755.94
575.155	9688.83
575.516	9709.84
575.877	9733.35
576.238	9741.48
576.599	9768.6
576.96	9795.49
577.32	9804.76
577.681	9781.03
578.042	9838.43
578.403	9887.92
578.763	9852.89
579.124	9912.55
579.485	10004.75
579.845	9993.23
580.206	9933.57
580.566	9984.64
580.927	9960.91
581.287	9946.45
581.648	9966.56
582.008	10033.45
582.368	9982.38
582.728	10101.02
583.089	9980.34
583.449	10103.28
583.809	10099.66
584.169	10182.15
584.529	10148.48
584.889	10180.79
585.249	10159.32
585.609	10141.92
585.969	10270.51
586.329	10134.01
586.688	10211.3
587.048	10181.02
587.408	10123.39
587.768	10191.19
588.127	10168.14
588.487	10161.81
588.846	10246.33
589.206	10079.1
589.565	10132.66
589.925	10221.47
590.284	10246.33
590.643	10257.63
591.003	10285.2
591.362	10282.94
591.721	10276.83
592.08	10272.09
592.44	10302.14
592.799	10329.94
593.158	10238.64
593.517	10297.4
593.876	10263.05
594.235	10243.39
594.593	10289.72
594.952	10353.22
595.311	10278.87
595.67	10295.14
596.029	10401.35
596.387	10368.58
596.746	10431.41
597.104	10334.69
597.463	10368.81
597.822	10442.25
598.18	10354.12
598.538	10335.82
598.897	10367.68
599.255	10346.44
599.613	10484.96
599.972	10479.77
600.33	10419.88
600.688	10397.74
601.046	10432.76
601.404	10471.41
601.762	10441.8
602.12	10484.96
602.478	10499.2
602.836	10582.59
603.194	10506.21
603.552	10449.94
603.91	10428.02
604.268	10518.41
604.625	10518.41
604.983	10502.14
605.341	10470.5
605.698	10551.18
606.056	10517.73
606.413	10557.05
606.771	10534
607.128	10568.35
607.485	10537.17
607.843	10481.57
608.2	10598.86
608.557	10581.91
608.914	10508.69
609.272	10658.75
609.629	10558.18
609.986	10633.21
610.343	10576.71
610.7	10640.89
611.057	10698.52
611.414	10647.9
611.771	10677.73
612.127	10733.32
612.484	10735.35
612.841	10684.51
613.198	10695.81
613.554	10690.61
613.911	10702.36
614.267	10737.61
614.624	10778.52
614.98	10760.44
615.337	10748.23
615.693	10767.22
616.05	10838.4
616.406	10850.38
616.762	10778.52
617.118	10790.95
617.475	10751.17
617.831	10798.63
618.187	10834.33
618.543	10809.7
618.899	10895.8
619.255	10898.06
619.611	10911.17
619.967	10886.08
620.323	10931.05
620.678	10851.28
621.034	10919.08
621.39	10844.05
621.746	10824.39
622.101	10955.01
622.457	10852.86
622.812	10928.34
623.168	10931.05
623.523	10856.25
623.879	11013.31
624.234	10876.14
624.589	10910.94
624.945	10881.56
625.3	10926.99
625.655	10924.73
626.01	10864.39
626.365	10916.59
626.72	10920.89
627.075	10844.05
627.43	10832.53
627.785	10795.92
628.14	10947.55
628.495	10950.94
628.85	10898.29
629.205	10767.44
629.559	10922.47
629.914	10874.11
630.269	10860.55
630.623	10804.73
630.978	10795.24
631.332	10822.58
631.687	10876.14
632.041	10734.45
632.396	10815.13
632.75	10822.58
633.104	10736.71
633.459	10672.08
633.813	10691.29
634.167	10759.08
634.521	10635.02
634.875	10675.47
635.229	10703.49
635.583	10689.7
635.937	10648.8
636.291	10664.17
636.645	10574.45
636.999	10546.43
637.352	10567
637.706	10569.03
638.06	10575.13
638.413	10571.74
638.767	10546.43
639.121	10547.11
639.474	10444.51
639.828	10535.58
640.181	10524.29
640.534	10447.45
640.888	10482.93
641.241	10405.87
641.594	10488.58
641.947	10441.58
642.301	10388.02
642.654	10463.04
643.007	10417.4
643.36	10402.03
643.713	10360.45
644.066	10387.11
644.419	10356.38
644.771	10364.74
645.124	10202.71
645.477	10206.78
645.83	10112.09
646.182	10066.44
646.535	10059.89
646.888	10058.99
647.24	9957.07
647.593	10011.98
647.945	9976.96
648.298	9968.82
648.65	9929.95
649.002	9940.57
649.355	10011.53
649.707	9974.7
650.059	10018.99
650.411	10098.53
650.763	10154.58
651.115	10232.09
651.467	10138.98
651.819	10215.82
652.171	10208.59
652.523	10139.66
652.875	10172.88
653.227	10135.82
653.578	10174.24
653.93	10154.13
654.282	10102.38
654.633	10102.15
654.985	10156.61
655.337	10154.8
655.688	10124.75
656.039	10135.37
656.391	10089.49
656.742	10142.37
657.094	10035.71
657.445	10168.81
657.796	10175.82
658.147	10109.83
658.498	10149.38
658.849	10167.68
659.2	10110.29
659.551	10074.58
659.902	10088.82
660.253	10139.66
660.604	10116.84
660.955	10112.77
661.306	10126.56
661.656	10021.7
662.007	10124.07
662.358	10128.82
662.708	10148.25
663.059	10146.67
663.409	10140.34
663.76	10090.62
664.11	10135.6
664.461	10127.69
664.811	10102.15
665.161	10109.83
665.511	10080.68
665.862	10116.39
666.212	10102.83
666.562	10165.2
666.912	10055.82
667.262	10100.34
667.612	10082.72
667.962	10086.56
668.312	10100.34
668.662	10113.22
669.011	10136.27
669.361	10149.15
669.711	10096.5
670.06	10087.46
670.41	10077.52
670.76	10063.51
671.109	10038.42
671.459	10042.04
671.808	10032.55
672.157	10009.72
672.507	10016.73
672.856	10002.94
673.205	9965.43
673.554	10042.49
673.904	10007.24
674.253	10016.05
674.602	9999.78
674.951	9834.13
675.3	9830.07
675.649	9931.08
675.998	9930.18
676.346	9938.09
676.695	9912.55
677.044	9887.69
677.393	9953.23
677.741	9913.45
678.09	9930.85
678.438	9892.21
678.787	9915.94
679.135	9873.91
679.484	9802.95
679.832	9860.8
680.181	9768.37
680.529	9863.06
680.877	9765.21
681.225	9754.36
681.573	9784.87
681.922	9785.55
682.27	9723.85
682.618	9715.95
682.966	9685.44
683.314	9723.18
683.661	9658.32
684.009	9521.6
684.357	9594.37
684.705	9578.55
685.053	9598.66
685.4	9611.99
685.748	9512.33
686.095	9529.28
686.443	9498.32
686.79	9487.25
687.138	9492.9
687.485	9476.4
687.832	9448.16
688.18	9418.1
688.527	9429.17
688.874	9368.84
689.221	9375.16
689.568	9314.15
689.915	9315.73
690.262	9268.73
690.609	9255.17
690.956	9226.24
691.303	9190.99
691.65	9167.03
691.997	9117.54
692.344	9120.03
692.69	9068.5
693.037	9086.81
693.383	8999.35
693.73	9022.86
694.077	8983.99
694.423	8939.69
694.769	8935.17
695.116	8900.37
695.462	8819.92
695.808	8816.31
696.155	8837.1
696.501	8754.84
696.847	8762.3
697.193	8740.38
697.539	8730.43
697.885	8643.2
698.231	8637.33
698.577	8636.65
698.923	8605.01
699.269	8582.87
699.614	8496.77
699.96	8463.55
700.306	8456.32
700.651	8427.84
700.997	8423.32
701.342	8373.61
701.688	8412.25
702.033	8374.06
702.379	8354.17
702.724	8309.43
703.069	8300.84
703.415	8271.01
703.76	8227.62
704.105	8179.26
704.45	8221.97
704.795	8144.91
705.14	8175.65
705.485	8111.69
705.83	8085.71
706.175	8173.61
706.52	8079.6
706.865	8054.75
707.209	8006.84
707.554	7941.53
707.899	8006.16
708.243	7929.1
708.588	7899.95
708.932	7855.2
709.277	7894.75
709.621	7903.11
709.966	7818.59
710.31	7808.42
710.654	7721.42
710.998	7750.35
711.342	7744.47
711.687	7706.51
712.031	7718.48
712.375	7650.46
712.719	7709.67
713.063	7694.76
713.407	7773.4
713.75	7642.1
714.094	7635.55
714.438	7609.56
714.782	7600.75
715.125	7583.8
715.469	7523.23
715.812	7573.18
716.156	7506.29
716.499	7504.03
716.843	7487.76
717.186	7442.56
717.53	7466.06
717.873	7463.35
718.216	7456.57
718.559	7436.23
718.902	7398.04
719.246	7405.05
719.589	7377.7
719.932	7402.79
720.275	7330.02
720.617	7354.65
720.96	7347.65
721.303	7382.67
721.646	7308.78
721.989	7278.72
722.331	7301.77
722.674	7305.84
723.016	7343.13
723.359	7303.35
723.701	7300.42
724.044	7275.11
724.386	7209.8
724.729	7274.88
725.071	7210.7
725.413	7223.36
725.755	7228.78
726.097	7139.74
726.439	7169.8
726.782	7147.88
727.124	7221.77
727.465	7237.14
727.807	7134.77
728.149	7177.25
728.491	7068.78
728.833	7130.48
729.175	7087.09
729.516	7173.41
729.858	7089.57
730.199	7131.83
730.541	7127.31
730.882	7076.69
731.224	7149.68
731.565	7063.59
731.906	7109.01
732.248	7069.01
732.589	7026.52
732.93	7068.33
733.271	7058.84
733.612	7079.63
733.953	7075.34
734.294	7033.53
734.635	7001.21
734.976	7106.3
735.317	7040.31
735.658	7026.07
735.999	7055
736.339	7044.6
736.68	7059.97
737.021	7045.96
737.361	7047.31
737.702	7030.82
738.042	6985.17
738.383	7015.23
738.723	7035.11
739.063	7026.75
739.404	7087.99
739.744	7061.78
740.084	7052.06
740.424	7080.08
740.764	7041.89
741.104	7018.39
741.444	7066.3
741.784	7030.37
742.124	7168.89
742.464	7085.73
742.804	6996.92
743.143	7050.25
743.483	7074.43
743.823	7124.6
744.162	7154.66
744.502	7136.58
744.841	7113.98
745.181	7200.98
745.52	7163.92
745.86	7231.04
746.199	7230.36
746.538	7238.72
746.877	7267.65
747.216	7309.68
747.556	7254.09
747.895	7300.42
748.234	7299.29
748.573	7386.74
748.911	7405.72
749.25	7418.83
749.589	7403.24
749.928	7520.3
750.267	7537.02
750.605	7591.03
750.944	7632.84
751.283	7705.38
751.621	7794.64
751.96	7731.59
752.298	7798.48
752.636	7916.9
752.975	7959.38
753.313	7934.75
753.651	8068.98
753.989	8103.56
754.327	8183.78
754.666	8153.27
755.004	8225.36
755.342	8374.29
755.679	8458.58
756.017	8437.56
756.355	8555.3
756.693	8612.92
757.031	8742.19
757.368	8749.87
757.706	8861.5
758.044	8931.11
758.381	9077.32
758.719	9055.85
759.056	9156.19
759.394	9291.32
759.731	9367.48
760.068	9447.7
760.405	9552.79
760.743	9631.65
761.08	9685.89
761.417	9769.73
761.754	9837.07
762.091	9984.64
762.428	9961.14
762.765	10060.57
763.102	10271.18
763.438	10304.63
763.775	10355.7
764.112	10506.66
764.449	10587.33
