Data from hue_240_FLMS001491_00030.txt Node
Date: Tue Feb 07 16:35:16 GMT 2017
User: dcchb
Spectrometer: FLMS00149
Trigger mode: 0
Integration Time (sec): 2.000000E-2
Scans to average: 10
Electric dark correction enabled: true
Nonlinearity correction enabled: false
Boxcar width: 0
XAxis mode: Wavelengths
Number of Pixels in Spectrum: 2048
>>>>>Begin Spectral Data<<<<<
341.393	-24.63
341.776	-24.63
342.16	-24.63
342.543	-73.22
342.927	-64.63
343.31	-54.01
343.693	-73.44
344.077	-46.55
344.46	-81.58
344.843	-74.35
345.226	-59.43
345.61	-37.06
345.993	-18.98
346.376	-8.81
346.759	9.94
347.142	30.51
347.525	50.62
347.908	69.6
348.291	72.31
348.674	104.86
349.057	116.38
349.44	111.18
349.823	136.04
350.206	171.97
350.588	196.61
350.971	211.75
351.354	202.71
351.737	238.64
352.119	243.38
352.502	246.77
352.884	273.89
353.267	268.92
353.65	269.15
354.032	281.8
354.414	294
354.797	310.95
355.179	308.69
355.562	319.31
355.944	311.63
356.326	319.99
356.709	299.43
357.091	333.55
357.473	351.4
357.855	354.34
358.238	338.52
358.62	335.36
359.002	337.62
359.384	353.21
359.766	323.16
360.148	340.33
360.53	315.47
360.912	310.27
361.294	325.87
361.676	327.9
362.057	337.39
362.439	330.61
362.821	330.16
363.203	308.92
363.584	327.45
363.966	308.69
364.348	337.84
364.729	315.47
365.111	303.72
365.493	313.89
365.874	303.95
366.256	324.29
366.637	292.87
367.019	301.24
367.4	307.79
367.781	284.06
368.163	302.82
368.544	305.08
368.925	283.61
369.306	305.75
369.688	301.01
370.069	290.39
370.45	302.82
370.831	314.34
371.212	323.16
371.593	313.66
371.974	315.47
372.355	307.11
372.736	321.8
373.117	296.72
373.498	305.98
373.879	300.11
374.26	307.56
374.641	307.11
375.021	319.31
375.402	334
375.783	322.48
376.163	339.2
376.544	329.71
376.925	327.22
377.305	314.57
377.686	315.7
378.066	297.85
378.447	302.82
378.827	322.48
379.208	327.45
379.588	322.03
379.968	341.23
380.349	319.77
380.729	327.45
381.109	336.26
381.489	325.64
381.87	337.84
382.25	312.76
382.63	335.36
383.01	312.99
383.39	329.26
383.77	329.71
384.15	362.02
384.53	335.81
384.91	313.89
385.29	358.18
385.67	349.6
386.049	359.31
386.429	338.52
386.809	347.56
387.189	338.52
387.568	355.92
387.948	352.31
388.328	358.18
388.707	363.83
389.087	359.31
389.466	352.99
389.846	349.37
390.225	359.31
390.605	337.62
390.984	365.87
391.363	371.52
391.743	358.63
392.122	350.5
392.501	374.45
392.881	366.77
393.26	371.06
393.639	378.97
394.018	365.87
394.397	366.32
394.776	375.81
395.155	369.48
395.534	394.57
395.913	379.43
396.292	400.67
396.671	393.44
397.05	402.93
397.429	381.68
397.808	393.44
398.186	392.31
398.565	382.36
398.944	392.76
399.323	388.01
399.701	386.43
400.08	416.49
400.458	403.61
400.837	425.07
401.215	421.68
401.594	396.15
401.972	415.36
402.351	414
402.729	408.35
403.107	426.2
403.486	418.97
403.864	419.2
404.242	425.75
404.62	433.43
404.999	426.43
405.377	410.38
405.755	439.76
406.133	472.76
406.511	436.37
406.889	457.62
407.267	440.89
407.645	478.41
408.023	462.81
408.401	471.63
408.779	466.65
409.156	505.98
409.534	491.96
409.912	474.79
410.29	504.62
410.667	512.98
411.045	486.77
411.422	527.44
411.8	522.02
412.178	527.9
412.555	538.29
412.933	542.81
413.31	537.84
413.687	537.39
414.065	545.97
414.442	565.63
414.819	579.65
415.197	560.21
415.574	561.12
415.951	590.72
416.328	588.69
416.705	596.14
417.082	608.8
417.46	639.76
417.837	591.62
418.214	606.54
418.591	642.24
418.967	600.89
419.344	658.29
419.721	635.24
420.098	668.01
420.475	655.35
420.852	682.47
421.228	674.33
421.605	691.51
421.982	670.72
422.358	703.26
422.735	704.39
423.111	717.5
423.488	717.5
423.864	740.77
424.241	747.78
424.617	754.78
424.994	754.56
425.37	754.78
425.746	774.22
426.123	795.01
426.499	783.71
426.875	800.2
427.251	811.96
427.627	822.8
428.003	836.36
428.379	816.02
428.756	862.58
429.132	859.86
429.507	883.59
429.883	893.08
430.259	892.63
430.635	908
431.011	896.47
431.387	922.24
431.763	947.55
432.138	914.1
432.514	959.97
432.89	978.28
433.265	1020.76
433.641	973.31
434.016	967.66
434.392	1024.38
434.767	1046.75
435.143	1046.07
435.518	1076.36
435.894	1088.11
436.269	1105.96
436.644	1106.41
437.02	1112.29
437.395	1147.09
437.77	1161.33
438.145	1175.79
438.52	1209.69
438.895	1180.53
439.271	1193.41
439.646	1237.71
440.021	1242.23
440.395	1274.09
440.77	1256.24
441.145	1255.11
441.52	1301.66
441.895	1298.27
442.27	1286.97
442.645	1307.08
443.019	1332.17
443.394	1338.95
443.769	1361.77
444.143	1362.45
444.518	1353.41
444.892	1353.86
445.267	1376.91
445.641	1390.25
446.016	1416.69
446.39	1405.39
446.764	1444.26
447.139	1407.65
447.513	1449
447.887	1464.82
448.262	1465.5
448.636	1476.35
449.01	1499.17
449.384	1504.82
449.758	1517.7
450.132	1530.81
450.506	1535.55
450.88	1542.56
451.254	1528.1
451.628	1563.8
452.002	1592.27
452.376	1608.09
452.75	1631.6
453.123	1649.9
453.497	1644.25
453.871	1645.83
454.244	1679.05
454.618	1673.18
454.992	1738.03
455.365	1696.68
455.739	1753.4
456.112	1812.16
456.486	1805.6
456.859	1761.54
457.232	1835.88
457.606	1826.84
457.979	1834.75
458.352	1918.59
458.725	1896.9
459.099	1907.75
459.472	1953.39
459.845	1970.8
460.218	1949.33
460.591	2000.4
460.964	2039.72
461.337	2060.74
461.71	2085.37
462.083	2098.25
462.456	2129.89
462.829	2093.05
463.201	2150.45
463.574	2146.84
463.947	2175.99
464.32	2238.13
464.692	2227.29
465.065	2252.14
465.438	2279.49
465.81	2312.26
466.183	2340.28
466.555	2400.39
466.928	2393.61
467.3	2385.25
467.672	2436.09
468.045	2464.34
468.417	2520.16
468.789	2495.3
469.161	2520.39
469.534	2572.81
469.906	2627.28
470.278	2638.35
470.65	2653.49
471.022	2676.99
471.394	2745.46
471.766	2772.13
472.138	2797.89
472.51	2855.07
472.882	2860.04
473.253	2871.56
473.625	2918.57
473.997	2977.1
474.369	3001.05
474.74	3046.47
475.112	3085.57
475.484	3164.44
475.855	3189.97
476.227	3243.98
476.598	3249.41
476.97	3308.84
477.341	3346.35
477.713	3413.47
478.084	3419.57
478.455	3464.32
478.827	3529.62
479.198	3610.3
479.569	3589.06
479.94	3690.07
480.311	3721.26
480.682	3862.72
481.053	3876.73
481.424	3960.12
481.795	3983.4
482.166	3989.05
482.537	4077.86
482.908	4149.95
483.279	4151.76
483.65	4242.83
484.021	4295.71
484.391	4329.15
484.762	4365.08
485.133	4413.9
485.503	4468.36
485.874	4581.12
486.244	4566.21
486.615	4648.92
486.985	4689.14
487.356	4775.02
487.726	4772.3
488.097	4893.88
488.467	4899.08
488.837	5000.77
489.207	5044.39
489.578	5083.48
489.948	5163.71
490.318	5178.39
490.688	5224.04
491.058	5298.62
491.428	5320.09
491.798	5407.32
492.168	5431.5
492.538	5518.27
492.908	5585.62
493.278	5615.45
493.648	5608.44
494.017	5689.79
494.387	5741.77
494.757	5820.19
495.126	5810.02
495.496	5816.34
495.866	5835.33
496.235	5926.62
496.605	5945.83
496.974	6003.23
497.344	5998.03
497.713	6084.81
498.082	6075.55
498.452	6110.8
498.821	6150.8
499.19	6169.1
499.559	6215.2
499.928	6238.71
500.298	6268.31
500.667	6360.74
501.036	6342.66
501.405	6380.85
501.774	6401.41
502.143	6419.04
502.512	6452.03
502.88	6473.28
503.249	6440.96
503.618	6535.87
503.987	6535.65
504.356	6577.91
504.724	6622.88
505.093	6619.71
505.462	6642.09
505.83	6593.5
506.199	6733.38
506.567	6737.68
506.936	6757.34
507.304	6841.4
507.672	6839.14
508.041	6852.02
508.409	6897.67
508.777	6908.74
509.145	6900.61
509.514	6953.49
509.882	6995.97
510.25	6975.64
510.618	6981.74
510.986	6991
511.354	7102.41
511.722	7116.42
512.09	7101.28
512.458	7095.86
512.826	7186.03
513.193	7216.53
513.561	7204.33
513.929	7238.23
514.297	7288.62
514.664	7244.33
515.032	7307.6
515.4	7350.77
515.767	7370.88
516.135	7378.56
516.502	7327.04
516.869	7452.46
517.237	7463.53
517.604	7422.4
517.972	7465.57
518.339	7470.09
518.706	7522.74
519.073	7462.4
519.44	7532.68
519.808	7562.74
520.175	7624.21
520.542	7616.75
520.909	7615.17
521.276	7593.47
521.643	7712.79
522.009	7698.1
522.376	7723.41
522.743	7789.85
523.11	7755.5
523.477	7823.75
523.843	7823.07
524.21	7884.54
524.577	7872.11
524.943	7948.04
525.31	7891.32
525.676	8007.02
526.043	7966.34
526.409	7957.08
526.776	8052.22
527.142	8084.31
527.508	8086.34
527.874	8102.61
528.241	8095.15
528.607	8108.26
528.973	8152.1
529.339	8110.52
529.705	8149.16
530.071	8189.84
530.437	8245.88
530.803	8257.64
531.169	8253.79
531.535	8223.51
531.901	8240.01
532.267	8236.39
532.632	8229.84
532.998	8224.19
533.364	8251.08
533.73	8283.85
534.095	8306.9
534.461	8328.59
534.826	8279.1
535.192	8293.12
535.557	8355.94
535.923	8315.94
536.288	8247.92
536.653	8359.33
537.019	8272.1
537.384	8340.57
537.749	8353
538.114	8260.8
538.479	8304.19
538.845	8327.46
539.21	8275.71
539.575	8328.59
539.94	8252.89
540.305	8343.51
540.67	8307.13
541.034	8319.33
541.399	8312.78
541.764	8313.23
542.129	8361.36
542.494	8269.39
542.858	8334.02
543.223	8262.61
543.587	8335.83
543.952	8304.64
544.316	8294.02
544.681	8243.63
545.045	8314.36
545.41	8330.63
545.774	8315.71
546.138	8260.57
546.503	8281.59
546.867	8214.25
547.231	8356.84
547.595	8284.08
547.959	8280.01
548.324	8226.68
548.688	8197.07
549.052	8257.41
549.416	8247.92
549.779	8317.75
550.143	8259.67
550.507	8278.2
550.871	8239.78
551.235	8290.18
551.599	8272.78
551.962	8264.19
552.326	8302.83
552.689	8238.88
553.053	8226.9
553.417	8213.57
553.78	8298.76
554.143	8244.3
554.507	8245.88
554.87	8269.84
555.234	8315.26
555.597	8286.11
555.96	8291.08
556.323	8348.26
556.686	8326.33
557.05	8342.83
557.413	8279.56
557.776	8358.2
558.139	8338.76
558.502	8354.13
558.865	8394.58
559.228	8424.86
559.59	8361.81
559.953	8433.68
560.316	8501.02
560.679	8483.39
561.041	8545.99
561.404	8471.87
561.767	8535.14
562.129	8517.06
562.492	8562.71
562.854	8554.35
563.217	8510.51
563.579	8587.8
563.941	8664.63
564.304	8593.22
564.666	8692.65
565.028	8600.23
565.39	8689.49
565.753	8683.39
566.115	8741.92
566.477	8815.14
566.839	8781.92
567.201	8809.49
567.563	8823.72
567.925	8874.57
568.287	8874.12
568.648	8877.96
569.01	8866.43
569.372	9016.03
569.734	8847
570.095	9029.82
570.457	8988.24
570.819	9032.76
571.18	8978.52
571.542	9052.19
571.903	9095.81
572.265	9121.12
572.626	9128.8
572.987	9148.46
573.349	9108.46
573.71	9201.34
574.071	9193.66
574.432	9194.79
574.794	9297.38
575.155	9285.41
575.516	9214.67
575.877	9294.22
576.238	9287.44
576.599	9357.04
576.96	9340.77
577.32	9357.04
577.681	9404.27
578.042	9391.62
578.403	9425.06
578.763	9488.11
579.124	9474.33
579.485	9521.33
579.845	9501.9
580.206	9583.7
580.566	9551.16
580.927	9587.77
581.287	9600.65
581.648	9598.17
582.008	9604.27
582.368	9595.23
582.728	9589.58
583.089	9624.15
583.449	9578.96
583.809	9648.11
584.169	9632.06
584.529	9692.85
584.889	9696.47
585.249	9602.91
585.609	9628
585.969	9762.68
586.329	9684.49
586.688	9740.99
587.048	9676.58
587.408	9720.87
587.768	9756.35
588.127	9729.01
588.487	9715
588.846	9809.46
589.206	9768.1
589.565	9777.37
589.925	9865.73
590.284	9732.63
590.643	9830.7
591.003	9877.71
591.362	9866.41
591.721	9820.98
592.08	9840.42
592.44	9875.45
592.799	9918.38
593.158	9798.39
593.517	9821.89
593.876	9866.18
594.235	9802
594.593	9829.35
594.952	9902.34
595.311	9865.28
595.67	9922
596.029	9903.02
596.387	9990.25
596.746	9982.34
597.104	9885.16
597.463	9912.96
597.822	9990.02
598.18	9933.52
598.538	9891.27
598.897	9924.94
599.255	9898.5
599.613	10048.32
599.972	9937.59
600.33	9993.41
600.688	9937.59
601.046	10026.85
601.404	10022.56
601.762	10035.67
602.12	9987.53
602.478	10060.53
602.836	10084.25
603.194	10038.15
603.552	10033.18
603.91	9964.26
604.268	10065.5
604.625	9965.61
604.983	10046.06
605.341	10026.85
605.698	10052.62
606.056	10071.6
606.413	10159.73
606.771	10053.97
607.128	10075.44
607.485	10117.47
607.843	10062.11
608.2	10165.16
608.557	10107.3
608.914	10123.35
609.272	10121.09
609.629	10171.94
609.986	10259.17
610.343	10109.11
610.7	10236.34
611.057	10228.43
611.414	10083.58
611.771	10228.66
612.127	10236.34
612.484	10249.9
612.841	10328.77
613.198	10215.1
613.554	10298.26
613.911	10267.07
614.267	10227.98
614.624	10307.07
614.98	10307.3
615.337	10316.34
615.693	10313.4
616.05	10341.2
616.406	10392.72
616.762	10405.83
617.118	10327.19
617.475	10394.75
617.831	10384.13
618.187	10340.75
618.543	10408.09
618.899	10453.96
619.255	10435.21
619.611	10437.69
619.967	10561.3
620.323	10512.27
620.678	10451.93
621.034	10435.88
621.39	10433.17
621.746	10445.15
622.101	10521.08
622.457	10405.83
622.812	10406.51
623.168	10457.35
623.523	10409.67
623.879	10467.52
624.234	10392.04
624.589	10406.73
624.945	10423.23
625.3	10425.71
625.655	10401.99
626.01	10513.62
626.365	10539.16
626.72	10489.89
627.075	10390.24
627.43	10502.55
627.785	10441.99
628.14	10434.75
628.495	10467.75
628.85	10402.21
629.205	10395.66
629.559	10386.17
629.914	10373.29
630.269	10395.43
630.623	10317.24
630.978	10326.96
631.332	10353.85
631.687	10378.03
632.041	10286.51
632.396	10323.57
632.75	10251.03
633.104	10300.07
633.459	10267.07
633.813	10268.66
634.167	10223.46
634.521	10227.75
634.875	10251.48
635.229	10190.01
635.583	10139.39
635.937	10166.29
636.291	10120.41
636.645	10154.31
636.999	10118.38
637.352	10134.2
637.706	10096.91
638.06	10159.96
638.413	10074.54
638.767	10046.52
639.121	10108.66
639.474	10034.76
639.828	10072.73
640.181	10083.8
640.534	10069.79
640.888	9968.1
641.241	9970.81
641.594	10017.82
641.947	10000.42
642.301	10013.3
642.654	9947.31
643.007	9996.57
643.36	9947.99
643.713	9893.75
644.066	9973.98
644.419	9874.54
644.771	9853.75
645.124	9767.65
645.477	9761.55
645.83	9725.85
646.182	9632.74
646.535	9607.21
646.888	9623.48
647.24	9545.96
647.593	9585.28
647.945	9572.63
648.298	9545.74
648.65	9575.57
649.002	9492.63
649.355	9537.38
649.707	9598.62
650.059	9646.3
650.411	9705.96
650.763	9704.38
651.115	9813.3
651.467	9802.91
651.819	9807.2
652.171	9784.38
652.523	9772.62
652.875	9752.29
653.227	9683.81
653.578	9797.26
653.93	9746.41
654.282	9696.24
654.633	9678.62
654.985	9748.9
655.337	9683.59
655.688	9739.63
656.039	9823.24
656.391	9642.91
656.742	9692.85
657.094	9682.23
657.445	9730.82
657.796	9703.7
658.147	9665.73
658.498	9675.23
658.849	9693.98
659.2	9674.55
659.551	9692.17
659.902	9747.54
660.253	9705.06
660.604	9655.57
660.955	9649.24
661.306	9750.93
661.656	9690.14
662.007	9690.37
662.358	9701.21
662.708	9724.26
663.059	9640.42
663.409	9644.04
663.76	9688.56
664.11	9754.77
664.461	9696.69
664.811	9655.79
665.161	9626.19
665.511	9657.15
665.862	9638.39
666.212	9652.63
666.562	9673.19
666.912	9684.04
667.262	9685.4
667.612	9616.7
667.962	9670.93
668.312	9644.04
668.662	9658.28
669.011	9611.27
669.361	9617.6
669.711	9709.58
670.06	9612.4
670.41	9651.05
670.76	9642.46
671.109	9595
671.459	9639.07
671.808	9603.82
672.157	9618.05
672.507	9523.59
672.856	9588.67
673.205	9543.93
673.554	9573.31
673.904	9581.44
674.253	9597.26
674.602	9578.51
674.951	9451.28
675.3	9383.71
675.649	9563.59
675.998	9487.43
676.346	9553.2
676.695	9582.12
677.044	9474.78
677.393	9506.87
677.741	9516.81
678.09	9471.39
678.438	9468
678.787	9454.44
679.135	9426.42
679.484	9358.17
679.832	9444.27
680.181	9405.63
680.529	9384.39
680.877	9283.82
681.225	9337.61
681.573	9395.46
681.922	9309.13
682.27	9271.85
682.618	9301.45
682.966	9288.12
683.314	9277.95
683.661	9229.59
684.009	9229.59
684.357	9116.14
684.705	9214.22
685.053	9170.61
685.4	9184.17
685.748	9067.56
686.095	9067.33
686.443	9034.79
686.79	9057.61
687.138	9068.24
687.485	9108.24
687.832	9053.77
688.18	9009.93
688.527	8956.15
688.874	8965.41
689.221	8963.61
689.568	8875.25
689.915	8893.1
690.262	8879.77
690.609	8802.71
690.956	8837.06
691.303	8813.78
691.65	8772.42
691.997	8765.42
692.344	8703.5
692.69	8746.21
693.037	8708.7
693.383	8608.81
693.73	8611.98
694.077	8582.6
694.423	8580.11
694.769	8501.02
695.116	8566.33
695.462	8507.12
695.808	8451.3
696.155	8454.24
696.501	8442.49
696.847	8413.56
697.193	8360.91
697.539	8415.6
697.885	8338.09
698.231	8269.39
698.577	8266
698.923	8263.29
699.269	8162.5
699.614	8186.68
699.96	8164.31
700.306	8185.1
700.651	8091.31
700.997	8083.63
701.342	8026.91
701.688	8071.2
702.033	7967.47
702.379	7976.51
702.724	7952.79
703.069	7984.2
703.415	7931.54
703.76	7900.81
704.105	7959.11
704.45	7867.59
704.795	7854.03
705.14	7846.8
705.485	7787.37
705.83	7741.04
706.175	7758.89
706.52	7697.2
706.865	7722.06
707.209	7675.5
707.554	7648.16
707.899	7687.03
708.243	7574.49
708.588	7571.55
708.932	7578.11
709.277	7532.68
709.621	7497.66
709.966	7505.11
710.31	7534.27
710.654	7405
710.998	7439.13
711.342	7395.51
711.687	7458.11
712.031	7395.29
712.375	7390.77
712.719	7369.07
713.063	7313.93
713.407	7320.49
713.75	7311.67
714.094	7275.06
714.438	7283.42
714.782	7279.13
715.125	7180.15
715.469	7205.01
715.812	7221.28
716.156	7199.13
716.499	7178.12
716.843	7120.04
717.186	7200.04
717.53	7190.55
717.873	7181.96
718.216	7142.41
718.559	7113.03
718.902	7072.36
719.246	7114.62
719.589	7107.61
719.932	7094.28
720.275	7060.61
720.617	7090.89
720.96	7045.01
721.303	7084.11
721.646	7044.79
721.989	6960.72
722.331	7018.57
722.674	6954.39
723.016	6999.36
723.359	7029.87
723.701	7021.74
724.044	6943.77
724.386	6941.29
724.729	6958.46
725.071	6984
725.413	6996.43
725.755	6944.68
726.097	6928.41
726.439	6910.33
726.782	6929.76
727.124	6941.74
727.465	6841.63
727.807	6855.64
728.149	6893.38
728.491	6875.75
728.833	6817.45
729.175	6849.99
729.516	6814.51
729.858	6878.46
730.199	6830.55
730.541	6866.94
730.882	6835.53
731.224	6834.17
731.565	6795.75
731.906	6802.53
732.248	6828.3
732.589	6821.97
732.93	6740.61
733.271	6796.88
733.612	6786.71
733.953	6734.51
734.294	6743.78
734.635	6788.3
734.976	6771.8
735.317	6791.69
735.658	6747.39
735.999	6741.29
736.339	6725.47
736.68	6752.82
737.021	6837.11
737.361	6758.69
737.702	6741.97
738.042	6819.71
738.383	6771.35
738.723	6780.39
739.063	6761.63
739.404	6789.88
739.744	6751.46
740.084	6804.34
740.424	6760.95
740.764	6788.75
741.104	6823.78
741.444	6761.18
741.784	6772.93
742.124	6817.22
742.464	6836.2
742.804	6895.64
743.143	6809.54
743.483	6847.5
743.823	6802.31
744.162	6876.66
744.502	6802.08
744.841	6865.58
745.181	6909.2
745.52	6875.07
745.86	6950.33
746.199	6930.44
746.538	6963.66
746.877	7020.83
747.216	7025.35
747.556	7019.25
747.895	7061.51
748.234	7070.32
748.573	7081.85
748.911	7177.89
749.25	7151.9
749.589	7140.83
749.928	7250.88
750.267	7277.77
750.605	7282.07
750.944	7380.6
751.283	7388.51
751.621	7426.47
751.96	7445.45
752.298	7496.3
752.636	7514.83
752.975	7564.32
753.313	7589.63
753.651	7786.91
753.989	7708.27
754.327	7804.09
754.666	7910.75
755.004	8004.31
755.342	8036.4
755.679	8083.63
756.017	8174.93
756.355	8244.53
756.693	8301.48
757.031	8414.47
757.368	8411.3
757.706	8596.61
758.044	8648.59
758.381	8768.13
758.719	8823.27
759.056	8930.61
759.394	8928.35
759.731	8991.18
760.068	9072.53
760.405	9200.21
760.743	9311.62
761.08	9423.48
761.417	9480.2
761.754	9588.22
762.091	9670.25
762.428	9692.85
762.765	9764.26
763.102	9911.83
763.438	9954.31
763.775	10057.36
764.112	10213.97
764.449	10318.37
764.785	10345.94
765.122	10368.99
765.458	10432.27
765.795	10536.9
766.131	10585.71
766.467	10726.95
766.804	10738.02
767.14	10748.87
767.476	10835.87
767.812	10924.68
