Data from hue_90_FLMS001491_60.txt Node
Date: Mon Feb 06 15:25:21 GMT 2017
User: dcchb
Spectrometer: FLMS00149
Trigger mode: 0
Integration Time (sec): 2.000000E-2
Scans to average: 10
Electric dark correction enabled: true
Nonlinearity correction enabled: false
Boxcar width: 0
XAxis mode: Wavelengths
Number of Pixels in Spectrum: 2048
>>>>>Begin Spectral Data<<<<<
341.393	-6.31
341.776	-6.31
342.16	-6.31
342.543	-60.78
342.927	-74.33
343.31	-67.78
343.693	-83.83
344.077	-88.57
344.46	-66.88
344.843	-34.11
345.226	-32.75
345.61	-41.34
345.993	-27.56
346.376	-0.44
346.759	16.51
347.142	25.78
347.525	57.64
347.908	61.26
348.291	76.17
348.674	82.05
349.057	123.85
349.44	120.46
349.823	116.85
350.206	156.17
350.588	181.7
350.971	212.89
351.354	220.12
351.737	235.94
352.119	241.59
352.502	244.98
352.884	269.61
353.267	266
353.65	292.89
354.032	286.56
354.414	318.65
354.797	324.53
355.179	292.66
355.562	333.79
355.944	315.94
356.326	329.27
356.709	311.87
357.091	337.41
357.473	327.69
357.855	339.67
358.238	324.75
358.62	364.3
359.002	338.08
359.384	328.14
359.766	308.25
360.148	349.16
360.53	327.24
360.912	338.76
361.294	327.24
361.676	322.94
362.057	341.93
362.439	323.17
362.821	326.33
363.203	332.43
363.584	334.92
363.966	329.95
364.348	320.68
364.729	309.38
365.111	314.58
365.493	312.77
365.874	314.13
366.256	302.38
366.637	321.59
367.019	310.74
367.4	303.28
367.781	286.56
368.163	318.42
368.544	320.46
368.925	292.21
369.306	319.1
369.688	306.9
370.069	319.1
370.45	295.37
370.831	313.45
371.212	289.72
371.593	299.89
371.974	312.1
372.355	309.38
372.736	315.26
373.117	300.12
373.498	319.78
373.879	303.28
374.26	330.85
374.641	308.48
375.021	310.51
375.402	315.03
375.783	295.83
376.163	324.98
376.544	348.25
376.925	339.21
377.305	341.7
377.686	335.37
378.066	327.46
378.447	326.79
378.827	313.68
379.208	327.24
379.588	334.69
379.968	315.71
380.349	321.59
380.729	330.4
381.109	309.84
381.489	328.14
381.87	347.35
382.25	325.88
382.63	327.01
383.01	312.55
383.39	327.92
383.77	327.46
384.15	327.92
384.53	338.31
384.91	332.66
385.29	345.99
385.67	343.73
386.049	350.74
386.429	349.61
386.809	328.82
387.189	359.55
387.568	349.38
387.948	358.87
388.328	343.06
388.707	356.61
389.087	335.37
389.466	332.89
389.846	350.29
390.225	343.96
390.605	362.04
390.984	352.1
391.363	359.55
391.743	346.67
392.122	334.69
392.501	356.39
392.881	355.49
393.26	353.9
393.639	365.43
394.018	363.62
394.397	355.03
394.776	384.86
395.155	371.3
395.534	378.76
395.913	373.34
396.292	379.67
396.671	360.68
397.05	358.65
397.429	381.25
397.808	390.96
398.186	369.5
398.565	391.64
398.944	387.35
399.323	394.81
399.701	377.86
400.08	390.74
400.458	385.54
400.837	367.69
401.215	373.79
401.594	418.99
401.972	382.15
402.351	417.4
402.729	404.98
403.107	401.59
403.486	398.42
403.864	394.58
404.242	398.65
404.62	403.62
404.999	392.09
405.377	405.43
405.755	404.98
406.133	407.46
406.511	425.99
406.889	423.73
407.267	416.95
407.645	426.44
408.023	423.05
408.401	421.25
408.779	427.12
409.156	416.73
409.534	434.35
409.912	420.57
410.29	437.29
410.667	431.19
411.045	445.88
411.422	439.55
411.8	461.24
412.178	450.4
412.555	455.14
412.933	467.8
413.31	465.54
413.687	459.44
414.065	469.83
414.442	463.96
414.819	449.27
415.197	461.02
415.574	463.05
415.951	506.89
416.328	489.04
416.705	490.4
417.082	475.48
417.46	469.38
417.837	491.53
418.214	496.27
418.591	489.94
418.967	505.54
419.344	516.84
419.721	515.93
420.098	497.63
420.475	515.03
420.852	497.18
421.228	519.77
421.605	506.22
421.982	513.45
422.358	513.45
422.735	532.43
423.111	516.61
423.488	557.29
423.864	534.46
424.241	515.25
424.617	546.21
424.994	523.84
425.37	569.94
425.746	555.93
426.123	568.13
426.499	561.13
426.875	585.76
427.251	571.07
427.627	580.34
428.003	555.48
428.379	596.61
428.756	583.28
429.132	583.05
429.507	601.35
429.883	584.41
430.259	601.35
430.635	603.61
431.011	585.54
431.387	614.01
431.763	605.42
432.138	617.4
432.514	639.77
432.89	630.05
433.265	650.39
433.641	646.1
434.016	669.83
434.392	647.91
434.767	674.35
435.143	645.65
435.518	676.61
435.894	659.43
436.269	677.28
436.644	669.38
437.02	666.66
437.395	690.84
437.77	682.93
438.145	703.27
438.52	706.89
438.895	728.36
439.271	722.71
439.646	726.1
440.021	733.78
440.395	731.75
440.77	737.85
441.145	759.32
441.52	760.45
441.895	765.42
442.27	752.76
442.645	756.15
443.019	774.68
443.394	787.79
443.769	771.52
444.143	768.13
444.518	778.52
444.892	788.02
445.267	775.36
445.641	796.6
446.016	839.54
446.39	791.63
446.764	814
447.139	814
447.513	819.65
447.887	830.73
448.262	820.11
448.636	835.92
449.01	828.69
449.384	853.33
449.758	845.19
450.132	877.05
450.506	865.53
450.88	855.13
451.254	839.31
451.628	884.06
452.002	881.12
452.376	899.43
452.75	906.2
453.123	908.92
453.497	895.58
453.871	941.23
454.244	937.16
454.618	949.82
454.992	936.03
455.365	938.29
455.739	981.46
456.112	977.39
456.486	969.93
456.859	994.56
457.232	1008.35
457.606	1038.18
457.979	1039.99
458.352	1040.66
458.725	1046.54
459.099	1073.21
459.472	1076.6
459.845	1087.67
460.218	1107.33
460.591	1122.92
460.964	1112.98
461.337	1148.01
461.71	1152.98
462.083	1167.44
462.456	1203.15
462.829	1196.14
463.201	1188.68
463.574	1226.2
463.947	1230.49
464.32	1267.78
464.692	1264.39
465.065	1276.59
465.438	1308.45
465.81	1329.02
466.183	1333.31
466.555	1353.65
466.928	1362.24
467.3	1370.83
467.672	1391.16
468.045	1432.97
468.417	1468.9
468.789	1479.75
469.161	1478.62
469.534	1567.66
469.906	1537.6
470.278	1559.75
470.65	1593.87
471.022	1618.95
471.394	1643.59
471.766	1696.47
472.138	1717.71
472.51	1757.93
472.882	1785.28
473.253	1807.2
473.625	1847.42
473.997	1914.77
474.369	1923.13
474.74	1985.27
475.112	2011.26
475.484	2049.9
475.855	2135.33
476.227	2168.09
476.598	2194.98
476.97	2259.62
477.341	2340.97
477.713	2387.75
478.084	2449.89
478.455	2469.1
478.827	2526.73
479.198	2683.56
479.569	2699.6
479.94	2741.86
480.311	2814.86
480.682	2913.61
481.053	3000.16
481.424	3056.43
481.795	3145.02
482.166	3254.17
482.537	3302.53
482.908	3421.62
483.279	3458.45
483.65	3562.86
484.021	3677.88
484.391	3725.79
484.762	3868.61
485.133	3929.18
485.503	4017.99
485.874	4161.71
486.244	4281.26
486.615	4380.92
486.985	4490.74
487.356	4587.24
487.726	4682.6
488.097	4828.59
488.467	4871.3
488.837	5122.14
489.207	5178.64
489.578	5360.33
489.948	5407.1
490.318	5558.06
490.688	5571.39
491.058	5737.94
491.428	5895.68
491.798	5997.82
492.168	6172.28
492.538	6254.76
492.908	6353.75
493.278	6521.2
493.648	6599.61
494.017	6763.68
494.387	6895.88
494.757	6908.53
495.126	7085.7
495.496	7201.86
495.866	7237.79
496.235	7464.68
496.605	7543.32
496.974	7697.89
497.344	7805.91
497.713	7896.98
498.082	7993.02
498.452	8138.11
498.821	8206.58
499.19	8302.85
499.559	8417.19
499.928	8460.36
500.298	8521.6
500.667	8703.51
501.036	8746
501.405	8850.18
501.774	8890.85
502.143	9004.75
502.512	9076.61
502.88	9233.22
503.249	9297.4
503.618	9376.72
503.987	9404.96
504.356	9515.7
504.724	9597.5
505.093	9707.56
505.462	9726.09
505.83	9723.6
506.199	9911.39
506.567	9974.67
506.936	9991.39
507.304	10216.24
507.672	10213.08
508.041	10185.96
508.409	10321.78
508.777	10376.24
509.145	10443.81
509.514	10499.85
509.882	10550.7
510.25	10628.89
510.618	10717.7
510.986	10741.43
511.354	10761.31
511.722	10901.65
512.09	10936
512.458	11002.44
512.826	11008.99
513.193	11162.21
513.561	11118.82
513.929	11192.71
514.297	11268.64
514.664	11284.92
515.032	11374.18
515.4	11379.15
515.767	11362.43
516.135	11495.31
516.502	11366.04
516.869	11608.97
517.237	11582.53
517.604	11521.29
517.972	11679.93
518.339	11674.74
518.706	11615.75
519.073	11742.3
519.44	11756.32
519.808	11882.41
520.175	11791.34
520.542	11954.95
520.909	11941.85
521.276	11962.64
521.643	12062.07
522.009	12009.64
522.376	12090.09
522.743	12138.45
523.11	12182.29
523.477	12207.15
523.843	12369.86
524.21	12354.27
524.577	12458.22
524.943	12395.62
525.31	12451.44
525.676	12571.89
526.043	12520.59
526.409	12494.37
526.776	12592
527.142	12689.17
527.508	12575.5
527.874	12650.3
528.241	12617.54
528.607	12682.62
528.973	12791.09
529.339	12715.84
529.705	12737.53
530.071	12814.37
530.437	12783.63
530.803	12869.05
531.169	12840.58
531.535	12814.37
531.901	12709.06
532.267	12764.88
532.632	12832.22
532.998	12785.44
533.364	12864.08
533.73	12842.61
534.095	12783.86
534.461	12892.1
534.826	12889.17
535.192	12833.35
535.557	12805.1
535.923	12743.86
536.288	12727.36
536.653	12778.66
537.019	12679
537.384	12687.59
537.749	12680.36
538.114	12755.84
538.479	12616.86
538.845	12710.87
539.21	12564.43
539.575	12626.8
539.94	12629.51
540.305	12607.14
540.67	12587.71
541.034	12514.26
541.399	12488.27
541.764	12463.19
542.129	12494.15
542.494	12421.16
542.858	12445.56
543.223	12401.95
543.587	12366.69
543.952	12299.35
544.316	12376.19
544.681	12237.88
545.045	12273.59
545.41	12276.53
545.774	12238.79
546.138	12265.23
546.503	12181.84
546.867	12161.05
547.231	12154.72
547.595	12107.04
547.959	12190.2
548.324	12071.11
548.688	12061.17
549.052	11996.31
549.416	12030.66
549.779	12031.79
550.143	12016.42
550.507	12027.27
550.871	11937.55
551.235	11910.44
551.599	11957.21
551.962	11892.58
552.326	11867.95
552.689	11947.5
553.053	11850.78
553.417	11804
553.78	11783.89
554.143	11711.34
554.507	11713.15
554.87	11719.71
555.234	11865.92
555.597	11692.81
555.96	11600.16
556.323	11783.89
556.686	11616.88
557.05	11702.98
557.413	11717.22
557.776	11641.97
558.139	11723.1
558.502	11625.92
558.865	11617.34
559.228	11671.57
559.59	11609.43
559.953	11596.55
560.316	11712.02
560.679	11696.43
561.041	11724.9
561.404	11682.87
561.767	11636.09
562.129	11630.89
562.492	11817.33
562.854	11711.12
563.217	11665.02
563.579	11688.52
563.941	11689.65
564.304	11780.95
564.666	11775.3
565.028	11847.84
565.39	11761.51
565.753	11775.52
566.115	11810.33
566.477	11822.75
566.839	11847.39
567.201	11871.57
567.563	11830.66
567.925	11814.62
568.287	11775.98
568.648	11855.07
569.01	11954.28
569.372	11928.29
569.734	11837.44
570.095	11941.62
570.457	11936.88
570.819	12001.28
571.18	11909.76
571.542	12007.16
571.903	11919.25
572.265	12081.5
572.626	12027.04
572.987	11992.24
573.349	12016.65
573.71	12005.12
574.071	12046.48
574.432	12057.55
574.794	12149.07
575.155	12073.82
575.516	12072.47
575.877	12175.97
576.238	12061.62
576.599	12098
576.96	12126.93
577.32	12111.56
577.681	12189.3
578.042	12134.61
578.403	12144.55
578.763	12091.45
579.124	12131.67
579.485	12127.6
579.845	12156.08
580.206	12153.14
580.566	12121.5
580.927	12136.19
581.287	12199.02
581.648	12168.28
582.008	12169.86
582.368	12133.03
582.728	12137.55
583.089	12107.27
583.449	12116.98
583.809	12140.71
584.169	12185.68
584.529	12111.33
584.889	12151.56
585.249	12080.15
585.609	12066.82
585.969	12110.2
586.329	12005.35
586.688	12057.55
587.048	12034.95
587.408	12040.38
587.768	12003.99
588.127	11996.99
588.487	11992.02
588.846	12103.42
589.206	11940.04
589.565	12015.97
589.925	12044.9
590.284	11988.63
590.643	11912.7
591.003	12062.97
591.362	12062.07
591.721	11918.57
592.08	11996.53
592.44	12011.9
592.799	11974.61
593.158	12005.12
593.517	11895.29
593.876	11922.86
594.235	11898.91
594.593	11959.02
594.952	11926.48
595.311	11860.49
595.67	11915.63
596.029	12014.39
596.387	11899.14
596.746	11972.35
597.104	11905.92
597.463	11822.3
597.822	11878.57
598.18	11840.15
598.538	11809.87
598.897	11942.98
599.255	11813.04
599.613	11950.21
599.972	11814.17
600.33	11928.06
600.688	11806.03
601.046	11963.32
601.404	11869.76
601.762	11898.01
602.12	11965.58
602.478	11893.26
602.836	11917.21
603.194	11919.93
603.552	11876.54
603.91	11820.72
604.268	11887.61
604.625	11809.42
604.983	11942.98
605.341	11881.96
605.698	11896.2
606.056	11940.94
606.413	11886.26
606.771	11907.05
607.128	11943.43
607.485	11843.32
607.843	11946.14
608.2	11849.19
608.557	11973.26
608.914	11926.25
609.272	11942.52
609.629	11973.03
609.986	11992.24
610.343	11925.35
610.7	12077.44
611.057	12021.62
611.414	11976.42
611.771	12088.74
612.127	12020.04
612.484	12013.71
612.841	12050.77
613.198	12080.6
613.554	12045.12
613.911	12056.19
614.267	12030.88
614.624	12036.99
614.98	12043.09
615.337	12149.07
615.693	12138
616.05	12001.05
616.406	12147.49
616.762	12080.83
617.118	12167.38
617.475	12099.13
617.831	12226.36
618.187	12209.18
618.543	12112.46
618.899	12236.3
619.255	12208.28
619.611	12129.19
619.967	12273.59
620.323	12243.76
620.678	12218.68
621.034	12166.7
621.39	12155.17
621.746	12187.04
622.101	12306.36
622.457	12160.82
622.812	12265.68
623.168	12208.96
623.523	12284.89
623.879	12265.23
624.234	12200.37
624.589	12252.35
624.945	12281.05
625.3	12229.07
625.655	12219.58
626.01	12209.86
626.365	12261.39
626.72	12239.01
627.075	12232.69
627.43	12180.26
627.785	12079.24
628.14	12248.28
628.495	12163.99
628.85	12200.82
629.205	12152.24
629.559	12163.08
629.914	12164.44
630.269	12114.95
630.623	12145.91
630.978	12139.36
631.332	12155.63
631.687	12166.7
632.041	12070.88
632.396	12163.99
632.75	12076.76
633.104	12138.45
633.459	12013.71
633.813	12069.3
634.167	12041.73
634.521	12010.77
634.875	12042.18
635.229	11879.48
635.583	11958.57
635.937	11907.05
636.291	11849.42
636.645	11928.97
636.999	11938.68
637.352	11918.57
637.706	11839.25
638.06	11904.79
638.413	11845.35
638.767	11822.98
639.121	11817.33
639.474	11737.78
639.828	11778.69
640.181	11742.53
640.534	11845.8
640.888	11785.47
641.241	11724.45
641.594	11710.44
641.947	11774.85
642.301	11704.11
642.654	11765.81
643.007	11800.16
643.36	11708.63
643.713	11620.27
644.066	11758.8
644.419	11605.58
644.771	11608.97
645.124	11508.64
645.477	11405.82
645.83	11435.87
646.182	11367.17
646.535	11290.34
646.888	11244.92
647.24	11261.86
647.593	11381.64
647.945	11289.21
648.298	11317
648.65	11192.71
649.002	11104.58
649.355	11244.01
649.707	11193.84
650.059	11334.18
650.411	11379.6
650.763	11502.76
651.115	11554.74
651.467	11508.64
651.819	11573.95
652.171	11447.62
652.523	11470.67
652.875	11506.15
653.227	11424.57
653.578	11541.18
653.93	11442.2
654.282	11447.85
654.633	11427.06
654.985	11464.35
655.337	11440.84
655.688	11450.79
656.039	11609.43
656.391	11471.58
656.742	11466.83
657.094	11434.29
657.445	11481.75
657.796	11474.29
658.147	11475.19
658.498	11495.76
658.849	11458.47
659.2	11525.59
659.551	11474.06
659.902	11607.62
660.253	11519.03
660.604	11561.52
660.955	11458.02
661.306	11469.77
661.656	11561.29
662.007	11614.62
662.358	11535.53
662.708	11548.41
663.059	11558.13
663.409	11545.02
663.76	11615.3
664.11	11599.03
664.461	11548.19
664.811	11484.01
665.161	11582.99
665.511	11580.27
665.862	11603.78
666.212	11634.74
666.562	11636.09
666.912	11656.2
667.262	11566.49
667.612	11592.7
667.962	11548.64
668.312	11553.16
668.662	11611.69
669.011	11584.57
669.361	11502.54
669.711	11550.9
670.06	11555.42
670.41	11431.58
670.76	11477.45
671.109	11563.78
671.459	11472.03
671.808	11544.57
672.157	11609.88
672.507	11467.74
672.856	11440.62
673.205	11448.07
673.554	11511.35
673.904	11387.29
674.253	11535.53
674.602	11441.75
674.951	11339.15
675.3	11272.71
675.649	11448.07
675.998	11431.13
676.346	11378.02
676.695	11399.94
677.044	11406.49
677.393	11384.12
677.741	11475.42
678.09	11411.01
678.438	11279.27
678.787	11385.03
679.135	11340.73
679.484	11227.74
679.832	11267.74
680.181	11221.87
680.529	11308.42
680.877	11215.76
681.225	11173.05
681.573	11250.57
681.922	11120.17
682.27	11071.14
682.618	11100.29
682.966	11043.79
683.314	11125.37
683.661	11060.51
684.009	11027.29
684.357	10948.43
684.705	10985.04
685.053	10952.95
685.4	10903.46
685.748	10877.69
686.095	10919.73
686.443	10903.46
686.79	10816.45
687.138	10866.4
687.485	10806.51
687.832	10762.44
688.18	10816.45
688.527	10700.52
688.874	10714.53
689.221	10711.37
689.568	10694.87
689.915	10580.98
690.262	10556.57
690.609	10576.69
690.956	10529.23
691.303	10536.01
691.65	10486.52
691.997	10405.62
692.344	10354.77
692.69	10421.89
693.037	10354.54
693.383	10235.68
693.73	10312.51
694.077	10188.45
694.423	10214.43
694.769	10181.22
695.116	10165.62
695.462	10087.88
695.808	10078.85
696.155	10075.23
696.501	9979.64
696.847	9964.5
697.193	9937.38
697.539	9948.68
697.885	9832.52
698.231	9872.3
698.577	9812.64
698.923	9771.06
699.269	9733.09
699.614	9709.59
699.96	9582.81
700.306	9673.66
700.651	9576.94
700.997	9548.24
701.342	9566.09
701.688	9474.57
702.033	9445.42
702.379	9470.05
702.724	9427.56
703.069	9390.28
703.415	9327.68
703.76	9310.28
704.105	9307.34
704.45	9310.73
704.795	9184.63
705.14	9117.06
705.485	9180.56
705.83	9135.82
706.175	9151.19
706.52	9073
706.865	9037.29
707.209	9080.23
707.554	9057.86
707.899	9122.94
708.243	8993.68
708.588	8971.08
708.932	8876.84
709.277	8928.59
709.621	8844.53
709.966	8863.51
710.31	8802.72
710.654	8799.56
710.998	8730.41
711.342	8782.61
711.687	8746.9
712.031	8611.31
712.375	8607.92
712.719	8613.8
713.063	8626.91
713.407	8681.59
713.75	8589.62
714.094	8633.69
714.438	8548.72
714.782	8552.33
715.125	8455.84
715.469	8494.71
715.812	8472.11
716.156	8456.51
716.499	8495.16
716.843	8543.29
717.186	8390.53
717.53	8411.09
717.873	8483.41
718.216	8405.67
718.559	8362.73
718.902	8350.53
719.246	8375.84
719.589	8369.96
719.932	8330.19
720.275	8272.79
720.617	8299.46
720.96	8274.82
721.303	8307.59
721.646	8266.24
721.989	8269.85
722.331	8261.49
722.674	8244.77
723.016	8169.29
723.359	8228.95
723.701	8175.17
724.044	8172.23
724.386	8148.95
724.729	8156.86
725.071	8155.05
725.413	8160.7
725.755	8133.13
726.097	8135.17
726.439	8099.01
726.782	8148.27
727.124	8124.32
727.465	8064.66
727.807	8105.34
728.149	8062.4
728.491	8125
728.833	8159.57
729.175	8063.98
729.516	8077.32
729.858	8058.79
730.199	8109.18
730.541	8125.9
730.882	8080.03
731.224	8084.1
731.565	8060.82
731.906	8067.82
732.248	8117.77
732.589	8070.08
732.93	8044.77
733.271	8091.1
733.612	8016.75
733.953	8097.88
734.294	8020.59
734.635	8034.38
734.976	8111.21
735.317	8023.53
735.658	8046.13
735.999	8031.44
736.339	8016.75
736.68	8110.08
737.021	8072.57
737.361	8054.27
737.702	8116.64
738.042	8065.79
738.383	8035.28
738.723	8087.94
739.063	8131.55
739.404	8159.12
739.744	8150.31
740.084	8089.74
740.424	8135.62
740.764	8147.82
741.104	8133.81
741.444	8067.6
741.784	8090.87
742.124	8208.84
742.464	8189.63
742.804	8172.91
743.143	8213.81
743.483	8290.42
743.823	8252.68
744.162	8278.67
744.502	8245.45
744.841	8285.22
745.181	8303.52
745.52	8376.52
745.86	8431.66
746.199	8441.83
746.538	8455.84
746.877	8449.28
747.216	8544.2
747.556	8573.35
747.895	8607.02
748.234	8594.14
748.573	8719.33
748.911	8724.3
749.25	8742.61
749.589	8769.28
749.928	8909.38
750.267	8957.07
750.605	9058.53
750.944	9103.28
751.283	9137.85
751.621	9279.32
751.96	9232.31
752.298	9384.85
752.636	9459.43
752.975	9497.39
753.313	9618.07
753.651	9684.05
753.989	9790.49
754.327	9884.73
754.666	9932.86
755.004	10082.23
755.342	10191.16
755.679	10357.71
756.017	10342.12
756.355	10546.63
756.693	10655.55
757.031	10690.35
757.368	10767.64
757.706	10968.31
758.044	11104.13
758.381	11153.85
758.719	11275.88
759.056	11474.06
759.394	11613.72
759.731	11687.84
760.068	11814.84
