Data from hue_80_FLMS001491_42.txt Node
Date: Mon Feb 06 15:23:02 GMT 2017
User: dcchb
Spectrometer: FLMS00149
Trigger mode: 0
Integration Time (sec): 2.000000E-2
Scans to average: 10
Electric dark correction enabled: true
Nonlinearity correction enabled: false
Boxcar width: 0
XAxis mode: Wavelengths
Number of Pixels in Spectrum: 2048
>>>>>Begin Spectral Data<<<<<
341.393	-18.49
341.776	-18.49
342.16	-18.49
342.543	-54.19
342.927	-77.24
343.31	-85.61
343.693	-57.13
344.077	-50.8
344.46	-60.3
344.843	-46.06
345.226	-48.54
345.61	-36.57
345.993	-3.12
346.376	-19.17
346.759	15.18
347.142	16.09
347.525	49.98
347.908	64.22
348.291	69.65
348.674	83.66
349.057	108.51
349.44	124.11
349.823	159.13
350.206	152.58
350.588	195.74
350.971	190.55
351.354	195.29
351.737	238.68
352.119	226.93
352.502	265.8
352.884	262.41
353.267	267.61
353.65	266.02
354.032	288.85
354.414	305.8
354.797	327.49
355.179	312.35
355.562	332.69
355.944	332.46
356.326	329.98
356.709	317.77
357.091	333.14
357.473	339.24
357.855	344.89
358.238	350.99
358.62	342.18
359.002	330.43
359.384	343.08
359.766	334.95
360.148	330.66
360.53	316.87
360.912	337.43
361.294	319.13
361.676	334.27
362.057	319.58
362.439	333.14
362.821	304.67
363.203	334.72
363.584	338.34
363.966	322.29
364.348	320.26
364.729	308.51
365.111	327.94
365.493	321.84
365.874	327.27
366.256	313.48
366.637	300.6
367.019	315.51
367.4	308.51
367.781	302.41
368.163	298.57
368.544	308.28
368.925	314.84
369.306	328.17
369.688	307.83
370.069	320.49
370.45	290.2
370.831	320.71
371.212	313.71
371.593	318.68
371.974	310.54
372.355	326.14
372.736	313.03
373.117	345.57
373.498	332.69
373.879	299.7
374.26	301.5
374.641	333.37
375.021	305.8
375.402	316.19
375.783	302.63
376.163	303.99
376.544	313.25
376.925	323.2
377.305	315.06
377.686	332.24
378.066	299.02
378.447	334.04
378.827	308.51
379.208	324.1
379.588	324.78
379.968	326.14
380.349	323.2
380.729	318.23
381.109	326.36
381.489	345.34
381.87	311.9
382.25	332.24
382.63	344.89
383.01	324.1
383.39	334.5
383.77	338.11
384.15	334.27
384.53	349.19
384.91	349.41
385.29	332.24
385.67	343.99
386.049	358.68
386.429	352.58
386.809	346.02
387.189	362.07
387.568	314.16
387.948	349.41
388.328	330.2
388.707	352.8
389.087	362.07
389.466	337.21
389.846	356.42
390.225	365.91
390.605	388.51
390.984	363.2
391.363	354.16
391.743	351.45
392.122	361.84
392.501	358.45
392.881	343.08
393.26	363.2
393.639	354.84
394.018	385.12
394.397	372.91
394.776	368.62
395.155	384.67
395.534	370.2
395.913	387.6
396.292	380.6
396.671	360.71
397.05	379.24
397.429	382.18
397.808	389.64
398.186	387.6
398.565	384.67
398.944	372.01
399.323	372.69
399.701	380.37
400.08	388.96
400.458	402.07
400.837	402.29
401.215	377.43
401.594	408.85
401.972	386.7
402.351	393.93
402.729	417.21
403.107	412.23
403.486	399.81
403.864	423.76
404.242	394.83
404.62	416.98
404.999	412.46
405.377	416.75
405.755	406.36
406.133	418.34
406.511	419.47
406.889	406.36
407.267	398.45
407.645	433.25
408.023	425.79
408.401	431.22
408.779	413.82
409.156	450.65
409.534	435.29
409.912	458.11
410.29	429.86
410.667	467.37
411.045	445.23
411.422	435.29
411.8	463.08
412.178	463.76
412.555	451.1
412.933	446.81
413.31	447.26
413.687	489.52
414.065	470.09
414.442	478.45
414.819	459.92
415.197	477.54
415.574	486.13
415.951	485
416.328	491.1
416.705	482.29
417.082	488.84
417.46	506.02
417.837	498.79
418.214	513.7
418.591	523.19
418.967	521.38
419.344	497.2
419.721	525.45
420.098	528.84
420.475	507.83
420.852	524.1
421.228	526.36
421.605	532.01
421.982	508.73
422.358	527.03
422.735	569.29
423.111	552.8
423.488	534.27
423.864	527.71
424.241	551.44
424.617	550.76
424.994	550.54
425.37	558.67
425.746	555.73
426.123	552.8
426.499	579.24
426.875	586.02
427.251	601.83
427.627	590.31
428.003	586.92
428.379	573.13
428.756	576.75
429.132	608.16
429.507	594.83
429.883	593.02
430.259	610.42
430.635	626.01
431.011	602.96
431.387	631.44
431.763	637.09
432.138	642.06
432.514	662.85
432.89	652.68
433.265	667.14
433.641	664.21
434.016	668.73
434.392	661.49
434.767	668.05
435.143	673.25
435.518	695.62
435.894	693.81
436.269	678.67
436.644	701.04
437.02	706.69
437.395	689.06
437.77	720.25
438.145	731.55
438.52	726.12
438.895	748.72
439.271	738.78
439.646	739.91
440.021	742.17
440.395	746.69
440.77	746.69
441.145	768.38
441.52	753.92
441.895	771.77
442.27	808.61
442.645	765.67
443.019	758.89
443.394	779.91
443.769	787.82
444.143	792.11
444.518	798.89
444.892	810.64
445.267	816.74
445.641	852.22
446.016	825.33
446.39	833.69
446.764	832.34
447.139	835.95
447.513	855.39
447.887	840.7
448.262	863.3
448.636	862.39
449.01	873.47
449.384	868.04
449.758	876.63
450.132	874.14
450.506	872.11
450.88	903.3
451.254	898.1
451.628	945.1
452.002	918.66
452.376	939.23
452.75	947.59
453.123	936.06
453.497	949.17
453.871	946.23
454.244	974.93
454.618	958.21
454.992	988.26
455.365	991.65
455.739	1005.89
456.112	1011.99
456.486	1019.68
456.859	1023.29
457.232	1059.45
457.606	1076.17
457.979	1049.05
458.352	1060.81
458.725	1099.9
459.099	1091.77
459.472	1110.75
459.845	1118.21
460.218	1150.07
460.591	1140.58
460.964	1164.76
461.337	1173.8
461.71	1183.51
462.083	1229.61
462.456	1213.34
462.829	1220.58
463.201	1253.57
463.574	1256.73
463.947	1288.14
464.32	1294.92
464.692	1318.2
465.065	1335.6
465.438	1322.27
465.81	1328.14
466.183	1362.49
466.555	1394.58
466.928	1411.98
467.3	1414.24
467.672	1451.3
468.045	1512.32
468.417	1508.48
468.789	1486.33
469.161	1547.35
469.534	1575.14
469.906	1603.39
470.278	1614.92
470.65	1670.96
471.022	1692.43
471.394	1711.41
471.766	1742.14
472.138	1797.96
472.51	1820.56
472.882	1849.26
473.253	1856.49
473.625	1912.76
473.997	1962.7
474.369	2002.25
474.74	2031.4
475.112	2086.32
475.484	2120.21
475.855	2174.9
476.227	2194.56
476.598	2262.58
476.97	2337.61
477.341	2411.28
477.713	2457.38
478.084	2528.56
478.455	2592.97
478.827	2636.58
479.198	2724.26
479.569	2760.65
479.94	2846.52
480.311	2928.78
480.682	2993.41
481.053	3066.4
481.424	3170.58
481.795	3271.14
482.166	3418.03
482.537	3438.6
482.908	3565.15
483.279	3604.02
483.65	3722.66
484.021	3830
484.391	3947.51
484.762	4010.11
485.133	4072.48
485.503	4193.83
485.874	4335.52
486.244	4480.83
486.615	4599.92
486.985	4696.87
487.356	4808.28
487.726	4922.62
488.097	5021.83
488.467	5132.56
488.837	5328.49
489.207	5414.59
489.578	5572.55
489.948	5646.45
490.318	5834.69
490.688	5955.82
491.058	6071.75
491.428	6197.39
491.798	6361.01
492.168	6504.96
492.538	6620.21
492.908	6779.75
493.278	6939.07
493.648	7031.04
494.017	7147.2
494.387	7324.6
494.757	7381.09
495.126	7533.4
495.496	7673.51
495.866	7776.34
496.235	8004.13
496.605	8139.49
496.974	8278.92
497.344	8369.31
497.713	8532.25
498.082	8679.59
498.452	8807.04
498.821	8910.32
499.19	8966.81
499.559	9147.37
499.928	9264.88
500.298	9245.9
500.667	9495.39
501.036	9491.77
501.405	9706
501.774	9723.4
502.143	9911.87
502.512	9993.23
502.88	10144.86
503.249	10175.14
503.618	10305.53
503.987	10321.58
504.356	10534
504.724	10640.44
505.093	10707.33
505.462	10745.75
505.83	10918.4
506.199	11018.51
506.567	11169.47
506.936	11209.69
507.304	11309.58
507.672	11403.81
508.041	11472.74
508.409	11665.72
508.777	11640.64
509.145	11820.97
509.514	11858.49
509.882	11973.51
510.25	11994.3
510.618	12096.45
510.986	12157.91
511.354	12374.86
511.722	12469.09
512.09	12562.65
512.458	12541.41
512.826	12661.63
513.193	12696.21
513.561	12801.51
513.929	12831.12
514.297	12963.32
514.664	13050.55
515.032	13083.54
515.4	13212.58
515.767	13330.77
516.135	13255.06
516.502	13331.44
516.869	13595.84
517.237	13536.41
517.604	13571.21
517.972	13728.04
518.339	13757.87
518.706	13797.19
519.073	13854.37
519.44	13882.39
519.808	14011.43
520.175	14001.48
520.542	14200.35
520.909	14234.47
521.276	14260.46
521.643	14359.89
522.009	14447.35
522.376	14516.04
522.743	14627.68
523.11	14741.35
523.477	14766.66
523.843	14837.84
524.21	14949.71
524.577	15092.3
524.943	15104.28
525.31	15162.13
525.676	15176.59
526.043	15306.31
526.409	15388.34
526.776	15467.43
527.142	15427.89
527.508	15555.79
527.874	15601.67
528.241	15689.12
528.607	15703.58
528.973	15818.84
529.339	15734.54
529.705	15880.08
530.071	15998.04
530.437	15994.2
530.803	15991.94
531.169	16067.87
531.535	16023.58
531.901	16011.6
532.267	16051.82
532.632	16200.29
532.998	16123.46
533.364	16224.47
533.73	16304.25
534.095	16342.44
534.461	16329.56
534.826	16426.28
535.192	16445.03
535.557	16443.9
535.923	16326.17
536.288	16456.78
536.653	16511.47
537.019	16524.35
537.384	16472.38
537.749	16546.95
538.114	16463.79
538.479	16457.46
538.845	16504.92
539.21	16412.27
539.575	16467.18
539.94	16449.78
540.305	16536.56
540.67	16577.01
541.034	16533.84
541.399	16567.97
541.764	16623.11
542.129	16625.59
542.494	16567.29
542.858	16569.78
543.223	16574.3
543.587	16558.93
543.952	16536.1
544.316	16633.05
544.681	16486.84
545.045	16624.69
545.41	16530.68
545.774	16606.61
546.138	16500.63
546.503	16588.31
546.867	16525.48
547.231	16690
547.595	16580.85
547.959	16583.34
548.324	16577.91
548.688	16613.62
549.052	16636.22
549.416	16611.13
549.779	16497.91
550.143	16561.19
550.507	16636.44
550.871	16628.53
551.235	16641.86
551.599	16584.47
551.962	16713.73
552.326	16676.44
552.689	16747.62
553.053	16626.72
553.417	16655.42
553.78	16827.4
554.143	16690.22
554.507	16641.41
554.87	16689.32
555.234	16915.53
555.597	16667.17
555.96	16652.94
556.323	16736.55
556.686	16621.98
557.05	16789.43
557.413	16799.15
557.776	16788.53
558.139	16851.35
558.502	16885.7
558.865	16873.05
559.228	16951.46
559.59	17045.24
559.953	17013.83
560.316	17134.51
560.679	17102.64
561.041	17147.16
561.404	17137.22
561.767	17213.6
562.129	17066.71
562.492	17255.41
562.854	17277.78
563.217	17256.99
563.579	17312.81
563.941	17288.63
564.304	17359.81
564.666	17483.65
565.028	17400.49
565.39	17386.25
565.753	17448.62
566.115	17608.84
566.477	17565.23
566.839	17657.66
567.201	17802.51
567.563	17687.03
567.925	17791.21
568.287	17844.77
568.648	17713.25
569.01	17938.33
569.372	17937.42
569.734	17835.96
570.095	18007.48
570.457	17950.76
570.819	18076.18
571.18	18010.64
571.542	18109.62
571.903	18066.69
572.265	18227.36
572.626	18131.77
572.987	18099.45
573.349	18117.08
573.71	18205.67
574.071	18322.95
574.432	18287.25
574.794	18383.29
575.155	18319.56
575.516	18362.5
575.877	18321.37
576.238	18367.47
576.599	18453.57
576.96	18389.16
577.32	18403.4
577.681	18584.86
578.042	18575.6
578.403	18516.17
578.763	18511.19
579.124	18571.53
579.485	18529.27
579.845	18655.6
580.206	18547.8
580.566	18536.73
580.927	18604.3
581.287	18691.75
581.648	18637.74
582.008	18639.1
582.368	18640
582.728	18667.35
583.089	18585.32
583.449	18618.31
583.809	18563.4
584.169	18654.24
584.529	18573.57
584.889	18740.11
585.249	18562.27
585.609	18598.88
585.969	18634.58
586.329	18583.51
586.688	18618.54
587.048	18547.13
587.408	18510.52
587.768	18515.26
588.127	18530.18
588.487	18507.58
588.846	18520.69
589.206	18489.5
589.565	18558.65
589.925	18506.9
590.284	18411.76
590.643	18541.93
591.003	18557.07
591.362	18629.84
591.721	18492.89
592.08	18501.7
592.44	18507.8
592.799	18485.21
593.158	18463.74
593.517	18473.45
593.876	18475.94
594.235	18463.51
594.593	18494.02
594.952	18538.76
595.311	18437.52
595.67	18555.94
596.029	18577.63
596.387	18547.8
596.746	18563.4
597.104	18493.34
597.463	18587.35
597.822	18505.77
598.18	18485.66
598.538	18390.75
598.897	18567.92
599.255	18371.08
599.613	18689.72
599.972	18515.26
600.33	18620.8
600.688	18431.42
601.046	18529.5
601.404	18703.96
601.762	18531.98
602.12	18654.02
602.478	18682.49
602.836	18647.01
603.194	18628.25
603.552	18543.51
603.91	18571.53
604.268	18630.74
604.625	18606.56
604.983	18637.29
605.341	18510.74
605.698	18704.18
606.056	18721.58
606.413	18666.9
606.771	18715.48
607.128	18621.47
607.485	18613.79
607.843	18627.35
608.2	18711.87
608.557	18763.39
608.914	18697.4
609.272	18836.38
609.629	18816.72
609.986	18997.06
610.343	18771.53
610.7	18846.1
611.057	18882.94
611.414	18833.45
611.771	18982.82
612.127	18986.66
612.484	18938.3
612.841	19010.62
613.198	18952.31
613.554	19040.67
613.911	19068.47
614.267	19083.83
614.624	18962.03
614.98	19006.55
615.337	19142.14
615.693	19119.77
616.05	19083.16
616.406	19273.89
616.762	19146.43
617.118	19153.44
617.475	19179.88
617.831	19227.33
618.187	19216.71
618.543	19364.73
618.899	19336.94
619.255	19224.62
619.611	19257.39
619.967	19461.68
620.323	19397.27
620.678	19257.84
621.034	19314.56
621.39	19312.08
621.746	19292.87
622.101	19397.27
622.457	19224.62
622.812	19387.78
623.168	19431.17
623.523	19442.92
623.879	19458.51
624.234	19233.43
624.589	19332.64
624.945	19450.38
625.3	19457.38
625.655	19526.08
626.01	19472.3
626.365	19406.31
626.72	19407.44
627.075	19418.74
627.43	19502.81
627.785	19419.42
628.14	19392.75
628.495	19393.2
628.85	19491.96
629.205	19353.66
629.559	19494.67
629.914	19408.12
630.269	19377.61
630.623	19337.16
630.978	19242.7
631.332	19325.86
631.687	19375.8
632.041	19277.73
632.396	19315.92
632.75	19201.57
633.104	19303.94
633.459	19175.81
633.813	19263.26
634.167	19179.88
634.521	19124.51
634.875	19185.98
635.229	19019.66
635.583	19099.65
635.937	19051.29
636.291	19059.88
636.645	18955.93
636.999	18964.06
637.352	19030.05
637.706	18925.65
638.06	18839.55
638.413	19067.11
638.767	18890.17
639.121	18932.43
639.474	18817.63
639.828	18879.55
640.181	18886.55
640.534	18840.22
640.888	18847.68
641.241	18750.51
641.594	18691.53
641.947	18848.81
642.301	18711.41
642.654	18756.84
643.007	18705.09
643.36	18815.59
643.713	18708.93
644.066	18802.94
644.419	18605.88
644.771	18542.15
645.124	18482.95
645.477	18362.72
645.83	18276.62
646.182	18231.65
646.535	18129.74
646.888	18237.3
647.24	18059
647.593	18130.19
647.945	18069.62
648.298	18044.54
648.65	18053.8
649.002	17936.52
649.355	18148.49
649.707	18037.53
650.059	18159.56
650.411	18326.34
650.763	18372.21
651.115	18561.81
651.467	18466.68
651.819	18529.72
652.171	18495.15
652.523	18426.45
652.875	18523.62
653.227	18381.25
653.578	18547.35
653.93	18393.46
654.282	18411.76
654.633	18295.83
654.985	18473
655.337	18414.25
655.688	18442.72
656.039	18496.51
656.391	18449.05
656.742	18340.35
657.094	18437.3
657.445	18420.57
657.796	18315.94
658.147	18455.6
658.498	18398.65
658.849	18489.27
659.2	18445.66
659.551	18334.02
659.902	18437.52
660.253	18459.9
660.604	18513.45
660.955	18396.62
661.306	18487.69
661.656	18397.07
662.007	18428.03
662.358	18383.29
662.708	18513.23
663.059	18456.05
663.409	18368.15
663.76	18492.89
664.11	18500.12
664.461	18584.41
664.811	18483.4
665.161	18440.01
665.511	18412.44
665.862	18461.48
666.212	18510.29
666.562	18538.31
666.912	18446.79
667.262	18495.15
667.612	18479.56
667.962	18488.6
668.312	18462.61
668.662	18530.18
669.011	18480.91
669.361	18385.55
669.711	18420.35
670.06	18436.85
670.41	18256.06
670.76	18382.61
671.109	18293.35
671.459	18293.57
671.808	18333.57
672.157	18265.32
672.507	18184.2
672.856	18265.1
673.205	18314.59
673.554	18401.82
673.904	18208.38
674.253	18421.7
674.602	18252.67
674.951	18009.51
675.3	17906.24
675.649	18224.65
675.998	18152.56
676.346	18275.95
676.695	18274.14
677.044	18145.55
677.393	18080.7
677.741	18207.02
678.09	18150.07
678.438	18095.39
678.787	18129.28
679.135	18151.2
679.484	17912.79
679.832	18066.69
680.181	17904.88
680.529	17959.8
680.877	17894.94
681.225	17823.3
681.573	17955.28
681.922	17838.44
682.27	17849.29
682.618	17772.91
682.966	17683.65
683.314	17731.78
683.661	17712.12
684.009	17663.98
684.357	17522.29
684.705	17503.31
685.053	17602.07
685.4	17513.71
685.748	17463.76
686.095	17412.01
686.443	17363.43
686.79	17309.87
687.138	17378.34
687.485	17313.49
687.832	17181.74
688.18	17294.28
688.527	17061.97
688.874	17115.52
689.221	17081.4
689.568	17023.1
689.915	16967.73
690.262	17002.53
690.609	16866.49
690.956	16868.53
691.303	16795.08
691.65	16740.39
691.997	16759.38
692.344	16598.25
692.69	16628.53
693.037	16618.59
693.383	16491.81
693.73	16460.17
694.077	16420.85
694.423	16392.83
694.769	16320.07
695.116	16297.92
695.462	16282.55
695.808	16146.74
696.155	16184.93
696.501	16079.62
696.847	16024.71
697.193	15930.7
697.539	15977.25
697.885	15901.55
698.231	15783.13
698.577	15889.79
698.923	15830.81
699.269	15660.42
699.614	15595.11
699.96	15636.24
700.306	15567.99
700.651	15479.86
700.997	15356.93
701.342	15396.25
701.688	15271.05
702.033	15242.81
702.379	15231.51
702.724	15163.71
703.069	15194.45
703.415	14963.26
703.76	14982.02
704.105	14912.42
704.45	14977.5
704.795	14834
705.14	14794.23
705.485	14859.76
705.83	14708.81
706.175	14698.86
706.52	14745.42
706.865	14712.88
707.209	14606.44
707.554	14440.79
707.899	14564.63
708.243	14490.73
708.588	14448.25
708.932	14300.91
709.277	14366.44
709.621	14364.86
709.966	14215.71
710.31	14197.18
710.654	14159.9
710.998	14195.83
711.342	14161.7
711.687	14151.76
712.031	14005.55
712.375	14002.84
712.719	14062.05
713.063	13915.16
713.407	13991.76
713.75	13886
714.094	13859.34
714.438	13877.87
714.782	13884.88
715.125	13780.7
715.469	13775.27
715.812	13730.08
716.156	13692.79
716.499	13664.32
716.843	13663.64
717.186	13629.51
717.53	13593.81
717.873	13607.82
718.216	13584.77
718.559	13474.26
718.902	13543.19
719.246	13459.8
719.589	13497.77
719.932	13346.13
720.275	13428.39
720.617	13371.22
720.96	13401.72
721.303	13410.76
721.646	13362.85
721.989	13305.23
722.331	13332.57
722.674	13304.33
723.016	13256.42
723.359	13287.83
723.701	13294.16
724.044	13252.12
724.386	13127.61
724.729	13235.17
725.071	13162.41
725.413	13174.39
725.755	13176.87
726.097	13159.92
726.439	13069.3
726.782	13034.73
727.124	13073.37
727.465	12959.93
727.807	13024.78
728.149	13020.49
728.491	13043.09
728.833	12973.94
729.175	12976.88
729.516	12931.68
729.858	12942.75
730.199	12961.51
730.541	12981.62
730.882	12884.9
731.224	12976.42
731.565	12899.59
731.906	12917.22
732.248	12924.45
732.589	12856.2
732.93	12855.75
733.271	12885.35
733.612	12872.47
733.953	12927.16
734.294	12792.93
734.635	12810.1
734.976	12860.95
735.317	12790.44
735.658	12827.05
735.999	12879.93
736.339	12925.35
736.68	12927.61
737.021	12770.33
737.361	12781.85
737.702	12873.15
738.042	12967.84
738.383	12899.82
738.723	12826.15
739.063	12863.88
739.404	12952.02
739.744	12873.6
740.084	12929.65
740.424	12898.46
740.764	12894.17
741.104	12923.32
741.444	12874.05
741.784	12932.58
742.124	12976.65
742.464	12963.32
742.804	12955.18
743.143	12927.61
743.483	12995.63
743.823	12986.82
744.162	12988.63
744.502	13058.23
744.841	12936.2
745.181	13148.17
745.52	13087.83
745.86	13139.81
746.199	13147.04
746.538	13191.79
746.877	13250.77
747.216	13230.2
747.556	13281.5
747.895	13241.73
748.234	13327.15
748.573	13345
748.911	13439.46
749.25	13415.96
749.589	13504.09
749.928	13592
750.267	13668.61
750.605	13674.71
750.944	13762.39
751.283	13831.32
751.621	13933.91
751.96	13949.96
752.298	14019.33
752.636	14161.25
752.975	14174.58
753.313	14172.33
753.651	14321.02
753.989	14394.92
754.327	14422.71
754.666	14535.48
755.004	14718.3
755.342	14779.54
755.679	14829.93
756.017	14867.9
756.355	15070.83
756.693	15049.14
757.031	15217.04
