Data from hue_350_FLMS001491_57.txt Node
Date: Mon Feb 06 15:38:13 GMT 2017
User: dcchb
Spectrometer: FLMS00149
Trigger mode: 0
Integration Time (sec): 2.000000E-2
Scans to average: 10
Electric dark correction enabled: true
Nonlinearity correction enabled: false
Boxcar width: 0
XAxis mode: Wavelengths
Number of Pixels in Spectrum: 2048
>>>>>Begin Spectral Data<<<<<
341.393	-13.02
341.776	-13.02
342.16	-13.02
342.543	-47.82
342.927	-53.7
343.31	-85.11
343.693	-81.95
344.077	-50.76
344.46	-46.02
344.843	-39.91
345.226	-61.61
345.61	-29.29
345.993	-10.54
346.376	3.25
346.759	13.42
347.142	7.32
347.525	51.38
347.908	72.17
348.291	64.04
348.674	83.25
349.057	110.36
349.44	118.95
349.823	134.32
350.206	162.57
350.588	196.46
350.971	198.95
351.354	220.87
351.737	231.27
352.119	260.19
352.502	242.11
352.884	276.01
353.267	276.24
353.65	282.56
354.032	311.94
354.414	298.83
354.797	328.89
355.179	311.71
355.562	311.26
355.944	306.74
356.326	342.67
356.709	340.64
357.091	331.15
357.473	337.48
357.855	322.56
358.238	353.07
358.62	350.13
359.002	341.09
359.384	322.79
359.766	344.48
360.148	336.8
360.53	339.28
360.912	334.99
361.294	331.38
361.676	325.73
362.057	325.73
362.439	325.27
362.821	338.61
363.203	327.99
363.584	324.37
363.966	323.47
364.348	321.43
364.729	322.56
365.111	324.14
365.493	306.97
365.874	316.23
366.256	325.05
366.637	317.59
367.019	310.13
367.4	312.39
367.781	307.42
368.163	319.4
368.544	302.68
368.925	320.75
369.306	299.29
369.688	304.71
370.069	315.1
370.45	331.6
370.831	309.46
371.212	297.25
371.593	307.42
371.974	300.64
372.355	316.23
372.736	304.94
373.117	339.51
373.498	331.6
373.879	319.62
374.26	327.76
374.641	298.38
375.021	307.65
375.402	305.39
375.783	308.33
376.163	333.86
376.544	327.08
376.925	321.21
377.305	330.25
377.686	326.18
378.066	314.43
378.447	334.77
378.827	323.92
379.208	348.32
379.588	323.01
379.968	308.55
380.349	318.04
380.729	320.53
381.109	325.27
381.489	355.78
381.87	324.6
382.25	323.01
382.63	299.29
383.01	346.06
383.39	351.04
383.77	328.89
384.15	341.77
384.53	324.14
384.91	344.93
385.29	349.23
385.67	351.26
386.049	351.26
386.429	343.13
386.809	351.71
387.189	348.1
387.568	321.88
387.948	329.57
388.328	345.39
388.707	353.97
389.087	341.54
389.466	339.96
389.846	376.35
390.225	346.74
390.605	344.03
390.984	344.48
391.363	357.36
391.743	364.82
392.122	344.71
392.501	353.75
392.881	359.17
393.26	359.17
393.639	355.56
394.018	367.98
394.397	390.58
394.776	374.99
395.155	377.48
395.534	373.86
395.913	392.84
396.292	358.49
396.671	384.26
397.05	356.23
397.429	372.73
397.808	369.79
398.186	390.81
398.565	376.8
398.944	377.48
399.323	380.87
399.701	376.35
400.08	383.8
400.458	383.13
400.837	386.06
401.215	384.48
401.594	388.32
401.972	393.29
402.351	391.26
402.729	384.93
403.107	377.48
403.486	370.24
403.864	392.84
404.242	394.88
404.62	372.5
404.999	395.55
405.377	396.91
405.755	393.97
406.133	410.47
406.511	398.94
406.889	411.83
407.267	417.7
407.645	387.42
408.023	419.06
408.401	403.24
408.779	424.48
409.156	445.5
409.534	429.23
409.912	430.58
410.29	424.93
410.667	426.74
411.045	442.33
411.422	436.68
411.8	430.58
412.178	453.18
412.555	442.33
412.933	468.32
413.31	478.26
413.687	447.3
414.065	447.3
414.442	466.51
414.819	472.16
415.197	483.91
415.574	475.55
415.951	485.27
416.328	469.22
416.705	464.71
417.082	452.05
417.46	501.09
417.837	476.68
418.214	505.61
418.591	499.28
418.967	492.05
419.344	498.6
419.721	512.16
420.098	515.1
420.475	530.24
420.852	491.15
421.228	519.17
421.605	505.61
421.982	518.04
422.358	525.95
422.735	542.44
423.111	508.09
423.488	535.21
423.864	531.14
424.241	551.03
424.617	547.19
424.994	549.22
425.37	568.88
425.746	545.83
426.123	553.97
426.499	561.2
426.875	558.71
427.251	574.53
427.627	569.34
428.003	561.65
428.379	574.53
428.756	582.22
429.132	587.87
429.507	610.24
429.883	592.84
430.259	603.23
430.635	592.61
431.011	602.33
431.387	615.66
431.763	638.94
432.138	628.32
432.514	621.99
432.89	636.68
433.265	631.93
433.641	634.87
434.016	662.67
434.392	654.3
434.767	656.79
435.143	669.67
435.518	676.9
435.894	682.55
436.269	698.15
436.644	695.66
437.02	707.64
437.395	673.97
437.77	692.04
438.145	701.76
438.52	718.26
438.895	705.15
439.271	706.96
439.646	736.56
440.021	740.18
440.395	741.53
440.77	741.76
441.145	730.91
441.52	730.46
441.895	756.45
442.27	744.7
442.645	759.61
443.019	783.12
443.394	742.44
443.769	763
444.143	773.85
444.518	784.7
444.892	784.02
445.267	792.15
445.641	788.99
446.016	791.93
446.39	805.94
446.764	799.16
447.139	791.48
447.513	786.28
447.887	831.48
448.262	817.46
448.636	831.02
449.01	813.4
449.384	808.43
449.758	821.08
450.132	812.49
450.506	821.98
450.88	835.54
451.254	825.83
451.628	832.61
452.002	840.97
452.376	875.77
452.75	853.17
453.123	857.69
453.497	854.07
453.871	886.62
454.244	875.77
454.618	880.29
454.992	899.27
455.365	912.6
455.739	893.39
456.112	910.57
456.486	934.98
456.859	925.26
457.232	947.86
457.606	965.48
457.979	944.69
458.352	946.95
458.725	989.44
459.099	955.99
459.472	981.53
459.845	1003.67
460.218	1006.61
460.591	1001.41
460.964	1008.19
461.337	1026.95
461.71	1037.35
462.083	1033.73
462.456	1057.23
462.829	1053.62
463.201	1059.49
463.574	1047.06
463.947	1084.8
464.32	1082.09
464.692	1098.59
465.065	1102.2
465.438	1122.54
465.81	1119.38
466.183	1129.55
466.555	1156.21
466.928	1144.91
467.3	1171.13
467.672	1195.76
468.045	1199.83
468.417	1233.05
468.789	1210.45
469.161	1242.99
469.534	1238.92
469.906	1263.55
470.278	1312.37
470.65	1272.37
471.022	1289.99
471.394	1337
471.766	1327.28
472.138	1351.46
472.51	1347.85
472.882	1385.36
473.253	1413.61
473.625	1414.06
473.997	1454.51
474.369	1499.93
474.74	1451.57
475.112	1499.03
475.484	1522.3
475.855	1592.13
476.227	1565.02
476.598	1606.82
476.97	1605.69
477.341	1669.42
477.713	1647.5
478.084	1696.09
478.455	1713.26
478.827	1735.63
479.198	1826.7
479.569	1792.81
479.94	1844.78
480.311	1867.61
480.682	1884.33
481.053	1922.97
481.424	1948.28
481.795	2005.68
482.166	2009.07
482.537	2037.09
482.908	2092.23
483.279	2102.4
483.65	2171.55
484.021	2161.38
484.391	2175.39
484.762	2188.05
485.133	2258.56
485.503	2240.48
485.874	2335.84
486.244	2368.38
486.615	2393.24
486.985	2396.86
487.356	2461.94
487.726	2508.95
488.097	2541.71
488.467	2537.19
488.837	2597.76
489.207	2631.88
489.578	2676.4
489.948	2714.82
490.318	2709.39
490.688	2726.11
491.058	2787.58
491.428	2797.53
491.798	2851.76
492.168	2901.25
492.538	2944.41
492.908	2977.86
493.278	3025.09
493.648	2993
494.017	3068.93
494.387	3060.8
494.757	3068.93
495.126	3165.2
495.496	3116.84
495.866	3158.87
496.235	3199.77
496.605	3261.69
496.974	3220.57
497.344	3308.7
497.713	3304.4
498.082	3347.34
498.452	3300.11
498.821	3337.85
499.19	3340.11
499.559	3380.33
499.928	3421.01
500.298	3418.98
500.667	3455.36
501.036	3477.51
501.405	3499.2
501.774	3539.65
502.143	3542.82
502.512	3543.49
502.88	3566.09
503.249	3601.8
503.618	3609.93
503.987	3640.22
504.356	3649.48
504.724	3658.97
505.093	3683.83
505.462	3722.92
505.83	3717.28
506.199	3736.71
506.567	3773.09
506.936	3784.84
507.304	3767.67
507.672	3799.53
508.041	3816.93
508.409	3878.63
508.777	3826.42
509.145	3874.33
509.514	3856.93
509.882	3913.43
510.25	3946.42
510.618	3920.89
510.986	3967.21
511.354	3975.8
511.722	3975.12
512.09	4019.41
512.458	4009.24
512.826	4051.28
513.193	4048.11
513.561	4040.43
513.929	4066.42
514.297	4089.02
514.664	4095.34
515.032	4119.98
515.4	4157.04
515.767	4176.47
516.135	4168.11
516.502	4207.21
516.869	4173.31
517.237	4204.72
517.604	4206.98
517.972	4218.96
518.339	4233.87
518.706	4238.84
519.073	4277.49
519.44	4284.27
519.808	4292.4
520.175	4306.64
520.542	4304.15
520.909	4351.38
521.276	4348.22
521.643	4374.21
522.009	4384.83
522.376	4402.45
522.743	4452.62
523.11	4448.1
523.477	4466.63
523.843	4470.7
524.21	4499.63
524.577	4563.58
524.943	4552.28
525.31	4574.43
525.676	4629.34
526.043	4684.26
526.409	4667.76
526.776	4688.1
527.142	4703.46
527.508	4665.5
527.874	4684.48
528.241	4759.96
528.607	4767.87
528.973	4812.84
529.339	4859.17
529.705	4879.05
530.071	4871.37
530.437	4903.91
530.803	4943.91
531.169	4908.43
531.535	4925.6
531.901	4950.01
532.267	5002.89
532.632	5023.46
532.998	5021.65
533.364	5074.98
533.73	5057.8
534.095	5127.63
534.461	5098.03
534.826	5156.11
535.192	5197.46
535.557	5166.05
535.923	5194.07
536.288	5240.17
536.653	5247.63
537.019	5265.93
537.384	5266.61
537.749	5306.61
538.114	5330.79
538.479	5265.93
538.845	5356.1
539.21	5376.67
539.575	5399.26
539.94	5381.86
540.305	5410.11
540.67	5417.12
541.034	5498.92
541.399	5456.89
541.764	5492.82
542.129	5508.87
542.494	5591.35
542.858	5576.66
543.223	5605.59
543.587	5623.21
543.952	5621.18
544.316	5705.02
544.681	5622.31
545.045	5687.62
545.41	5709.54
545.774	5730.33
546.138	5776.43
546.503	5785.92
546.867	5832.93
547.231	5860.04
547.595	5844.9
547.959	5885.58
548.324	5850.78
548.688	5938.23
549.052	5954.28
549.416	5961.74
549.779	5931.91
550.143	5957.44
550.507	5994.28
550.871	6062.52
551.235	6044.22
551.599	6111.34
551.962	6077.44
552.326	6093.48
552.689	6161.73
553.053	6158.57
553.417	6163.54
553.78	6182.52
554.143	6227.49
554.507	6207.83
554.87	6206.48
555.234	6275.63
555.597	6208.06
555.96	6367.6
556.323	6335.96
556.686	6309.75
557.05	6412.57
557.413	6367.6
557.776	6424.32
558.139	6464.1
558.502	6415.28
558.865	6469.07
559.228	6488.5
559.59	6538.22
559.953	6568.95
560.316	6565.34
560.679	6570.08
561.041	6554.71
561.404	6576.63
561.767	6634.94
562.129	6589.97
562.492	6714.94
562.854	6653.02
563.217	6698.44
563.579	6759
563.941	6789.28
564.304	6731.43
564.666	6829.28
565.028	6829.51
565.39	6841.49
565.753	6809.62
566.115	6908.83
566.477	6963.29
566.839	6959
567.201	7010.07
567.563	6960.81
567.925	7071.09
568.287	7039.45
568.648	7015.72
569.01	7130.97
569.372	7153.34
569.734	7112.44
570.095	7153.79
570.457	7195.83
570.819	7249.16
571.18	7246.45
571.542	7301.81
571.903	7292.32
572.265	7311.53
572.626	7401.25
572.987	7427.23
573.349	7402.6
573.71	7535.03
574.071	7584.74
574.432	7628.58
574.794	7748.36
575.155	7697.51
575.516	7731.18
575.877	7830.84
576.238	7885.08
576.599	7956.71
576.96	8015.47
577.32	8056.82
577.681	8190.6
578.042	8236.93
578.403	8280.09
578.763	8351.73
579.124	8439.64
579.485	8592.63
579.845	8661.78
580.206	8729.8
580.566	8834.2
580.927	8967.76
581.287	9111.94
581.648	9169.56
582.008	9327.07
582.368	9459.27
582.728	9561.87
583.089	9712.15
583.449	9873.72
583.809	10006.83
584.169	10236.2
584.529	10337.44
584.889	10572.24
585.249	10688.62
585.609	10839.8
585.969	11088.15
586.329	11291.99
586.688	11491.99
587.048	11682.26
587.408	11868.02
587.768	12069.82
588.127	12300.33
588.487	12557.27
588.846	12796.58
589.206	13017.82
589.565	13254.88
589.925	13579.84
590.284	13773.51
590.643	14021.41
591.003	14312.48
591.362	14610.77
591.721	14807.15
592.08	15084.21
592.44	15330.3
592.799	15618.21
593.158	15939.1
593.517	16246.21
593.876	16486.66
594.235	16758.51
594.593	17020.65
594.952	17415.9
595.311	17601.2
595.67	17933.4
596.029	18269.66
596.387	18656.77
596.746	18892.24
597.104	19181.73
597.463	19423.53
597.822	19807.93
598.18	20045.66
598.538	20293.34
598.897	20701.46
599.255	20900.1
599.613	21484.04
599.972	21621.89
600.33	21878.83
600.688	22107.75
601.046	22461.64
601.404	22849.43
601.762	23106.6
602.12	23397.44
602.478	23678.33
602.836	23977.76
603.194	24091.43
603.552	24439.89
603.91	24682.83
604.268	24996.26
604.625	25150.38
604.983	25625.17
605.341	25705.4
605.698	26057.7
606.056	26383.8
606.413	26575.88
606.771	26781.3
607.128	27111.91
607.485	27245.7
607.843	27439.59
608.2	27828.28
608.557	28137.65
608.914	28162.96
609.272	28619.67
609.629	28864.41
609.986	29176.94
610.343	29097.62
610.7	29578.29
611.057	29751.39
611.414	29900.32
611.771	30009.24
612.127	30364.94
612.484	30475.67
612.841	30771.71
613.198	30856.67
613.554	31037.69
613.911	31389.32
614.267	31516.09
614.624	31577.11
614.98	31861.39
615.337	32100.48
615.693	32168.5
616.05	32413.24
616.406	32666.12
616.762	32698.66
617.118	32873.34
617.475	32921.7
617.831	33230.17
618.187	33273.56
618.543	33691.18
618.899	33804.39
619.255	33804.85
619.611	33942.47
619.967	34082.13
620.323	34333.19
620.678	34427.65
621.034	34278.05
621.39	34332.06
621.746	34609.12
622.101	35008.88
622.457	34798.49
622.812	35006.4
623.168	35178.37
623.523	35093.17
623.879	35421.07
624.234	35156
624.589	35466.72
624.945	35637.11
625.3	35687.96
625.655	35740.61
626.01	35835.3
626.365	35960.04
626.72	35971.34
627.075	36090.66
627.43	36221.96
627.785	36037.78
628.14	36272.58
628.495	36308.96
628.85	36299.02
629.205	36181.51
629.559	36548.5
629.914	36397.77
630.269	36486.81
630.623	36333.59
630.978	36407.72
631.332	36610.2
631.687	36806.12
632.041	36566.13
632.396	36698.1
632.75	36611.55
633.104	36690.65
633.459	36604.77
633.813	36593.25
634.167	36675.73
634.521	36745.11
634.875	36852.45
635.229	36623.08
635.583	36601.16
635.937	36628.95
636.291	36670.53
636.645	36772
636.999	36687.26
637.352	36769.29
637.706	36543.98
638.06	36848.61
638.413	36624.43
638.767	36623.3
639.121	36791.43
639.474	36426.92
639.828	36623.53
640.181	36710.76
640.534	36681.38
640.888	36506.02
641.241	36427.83
641.594	36548.05
641.947	36730.87
642.301	36623.08
642.654	36621.27
643.007	36586.92
643.36	36565.23
643.713	36563.42
644.066	36640.48
644.419	36468.28
644.771	36227.38
645.124	35983.09
645.477	35832.59
645.83	35621.3
646.182	35607.06
646.535	35456.55
646.888	35632.37
647.24	35411.13
647.593	35665.36
647.945	35589.88
648.298	35462.66
648.65	35354.64
649.002	35337.91
649.355	35432.83
649.707	35409.1
650.059	35589.66
650.411	35994.62
650.763	35970.89
651.115	36391.44
651.467	36206.59
651.819	36169.76
652.171	36210.43
652.523	36217.21
652.875	36082.07
653.227	36139.02
653.578	36202.52
653.93	36085.46
654.282	35906.49
654.633	35972.7
654.985	36016.54
655.337	35957.56
655.688	35920.04
656.039	36083.66
656.391	35798.24
656.742	35884.56
657.094	35868.07
657.445	35900.38
657.796	35877.11
658.147	35859.93
658.498	35948.07
658.849	35919.14
659.2	36000.95
659.551	35922.3
659.902	36052.24
660.253	35831.23
660.604	36017.67
660.955	35729.31
661.306	35889.54
661.656	35875.07
662.007	35898.58
662.358	35819.48
662.708	35792.82
663.059	35793.04
663.409	35646.83
663.76	35928.41
664.11	35927.05
664.461	35805.92
664.811	35871.68
665.161	35794.4
665.511	35690.22
665.862	35764.57
666.212	35811.35
666.562	35746.94
666.912	35821.52
667.262	35630.79
667.612	35796.88
667.962	35759.37
668.312	35635.31
668.662	35904.9
669.011	35589.66
669.361	35624.23
669.711	35628.3
670.06	35493.39
670.41	35584.69
670.76	35456.1
671.109	35762.76
671.459	35501.52
671.808	35484.58
672.157	35787.62
672.507	35422.2
672.856	35373.84
673.205	35535.42
673.554	35650.22
673.904	35385.6
674.253	35674.4
674.602	35475.31
674.951	34993.29
675.3	34814.76
675.649	35387.85
675.998	35344.24
676.346	35312.6
676.695	35309.21
677.044	35185.83
677.393	35412.03
677.741	35298.14
678.09	35203.9
678.438	35112.83
678.787	35216.33
679.135	35238.03
679.484	34935.21
679.832	35198.71
680.181	34961.2
680.529	35067.64
680.877	35066.28
681.225	34831.03
681.573	35188.31
681.922	34784.48
682.27	34829.9
682.618	34744.93
682.966	34654.54
683.314	34853.18
683.661	34627.2
684.009	34514.21
684.357	34523.47
684.705	34424.26
685.053	34459.74
685.4	34406.64
685.748	34205.74
686.095	34222.01
686.443	34036.7
686.79	33944.28
687.138	34074.67
687.485	34185.4
687.832	33928.91
688.18	33982.92
688.527	33848.69
688.874	33799.87
689.221	33684.17
689.568	33653.66
689.915	33722.81
690.262	33597.39
690.609	33500.45
690.956	33333.22
691.303	33306.1
691.65	33222.94
691.997	33274.46
692.344	33066.33
692.69	32989.27
693.037	33018.65
693.383	32723.97
693.73	32865.66
694.077	32815.72
694.423	32640.81
694.769	32502.73
695.116	32572.34
695.462	32349.06
695.808	32341.83
696.155	32464.77
696.501	32165.79
696.847	32150.65
697.193	31675.86
697.539	31977.78
697.885	31803.99
698.231	31708.18
698.577	31729.42
698.923	31615.3
699.269	31482.65
699.614	31298.7
699.96	31207.63
700.306	31333.5
700.651	31171.24
700.997	31047.63
701.342	31056.67
701.688	31090.79
702.033	30872.49
702.379	30898.26
702.724	30681.54
703.069	30785.49
703.415	30542.56
703.76	30437.7
704.105	30500.3
704.45	30341.89
704.795	30293.3
705.14	30226.63
705.485	30127.65
705.83	30026.64
706.175	30132.4
706.52	29969.69
706.865	29879.07
707.209	29785.06
707.554	29730.38
707.899	29769.7
708.243	29628.68
708.588	29614.22
708.932	29364.96
709.277	29325.87
709.621	29531.74
709.966	29260.11
710.31	29362.7
710.654	29073.9
710.998	29051.98
711.342	29115.03
711.687	29027.12
712.031	28969.27
712.375	28748.03
712.719	28924.3
713.063	28864.86
713.407	28845.43
713.75	28612.44
714.094	28625.55
714.438	28522.05
714.782	28563.63
715.125	28398.66
715.469	28437.3
715.812	28232.56
716.156	28220.81
716.499	28205.22
716.843	28214.03
717.186	28034.38
717.53	28123.19
717.873	28151.43
718.216	28050.42
718.559	27863.08
718.902	27742.18
719.246	27768.62
719.589	27664.89
719.932	27640.94
720.275	27646.14
720.617	27585.8
720.96	27412.92
721.303	27529.3
721.646	27493.83
721.989	27344.22
722.331	27513.49
722.674	27320.5
723.016	27298.58
723.359	27309.42
723.701	27345.58
724.044	27108.75
724.386	26967.51
724.729	27115.98
725.071	27021.07
725.413	26918.02
725.755	27045.02
726.097	26993.95
726.439	26769.78
726.782	26733.62
727.124	26919.83
727.465	26662.89
727.807	26754.18
728.149	26643.9
728.491	26501.31
728.833	26571.82
729.175	26492.27
729.516	26476.22
729.858	26344.7
730.199	26527.52
730.541	26337.92
730.882	26356.23
731.224	26422.21
731.565	26256.57
731.906	26231.94
732.248	26174.31
732.589	26070.36
732.93	25983.81
733.271	26045.5
733.612	26073.52
733.953	26159.85
734.294	25905.84
734.635	25976.35
734.976	25885.28
735.317	25788.11
735.658	25884.83
735.999	25754.66
736.339	25838.73
736.68	25695.91
737.021	25685.06
737.361	25542.69
737.702	25692.52
738.042	25458.85
738.383	25500.66
738.723	25527.1
739.063	25442.58
739.404	25460.21
739.744	25432.41
740.084	25330.04
740.424	25216.6
740.764	25316.48
741.104	25354.45
741.444	25142.7
741.784	25101.35
742.124	25164.17
742.464	25217.73
742.804	25162.14
743.143	25035.13
743.483	25024.06
743.823	24757.85
744.162	24891.63
744.502	24944.06
744.841	24744.74
745.181	24930.73
745.52	24782.48
745.86	24744.29
746.199	24743.84
746.538	24719.89
746.877	24799.66
747.216	24711.53
747.556	24647.57
747.895	24566.22
748.234	24525.77
748.573	24456.84
748.911	24482.38
749.25	24468.14
749.589	24303.63
749.928	24345.21
750.267	24425.88
750.605	24300.69
750.944	24148.83
751.283	24213.46
751.621	24293.46
751.96	24061.82
752.298	24091.2
752.636	24045.78
752.975	23842.85
753.313	23843.07
753.651	23972.11
753.989	23775.5
754.327	23785.9
754.666	23611.44
755.004	23722.4
755.342	23650.76
755.679	23501.39
756.017	23372.13
756.355	23498
756.693	23451.9
757.031	23361.28
757.368	23257.1
757.706	23339.81
758.044	23331.22
758.381	23219.14
758.719	23091.91
759.056	23094.62
759.394	23081.74
759.731	22927.17
760.068	22968.07
760.405	22867.96
760.743	22820.73
761.08	22798.13
