Data from hue_240_FLMS001491_00011.txt Node
Date: Tue Feb 07 16:35:06 GMT 2017
User: dcchb
Spectrometer: FLMS00149
Trigger mode: 0
Integration Time (sec): 2.000000E-2
Scans to average: 10
Electric dark correction enabled: true
Nonlinearity correction enabled: false
Boxcar width: 0
XAxis mode: Wavelengths
Number of Pixels in Spectrum: 2048
>>>>>Begin Spectral Data<<<<<
341.393	-9.01
341.776	-9.01
342.16	-9.01
342.543	-61.89
342.927	-81.33
343.31	-70.7
343.693	-71.61
344.077	-65.96
344.46	-57.37
344.843	-55.79
345.226	-29.35
345.61	-32.74
345.993	-3.36
346.376	-1.33
346.759	2.29
347.142	11.33
347.525	30.99
347.908	53.59
348.291	94.49
348.674	97.2
349.057	98.33
349.44	113.25
349.823	136.07
350.206	155.05
350.588	177.65
350.971	186.01
351.354	218.55
351.737	237.54
352.119	238.21
352.502	246.58
352.884	257.65
353.267	280.02
353.65	307.59
354.032	301.49
354.414	290.87
354.797	295.84
355.179	303.3
355.562	320.47
355.944	321.38
356.326	333.13
356.709	317.08
357.091	329.96
357.473	316.63
357.855	327.7
358.238	322.05
358.62	324.09
359.002	342.62
359.384	334.48
359.766	319.12
360.148	329.96
360.53	331.32
360.912	318.89
361.294	337.65
361.676	332.22
362.057	315.27
362.439	302.17
362.821	332.45
363.203	327.03
363.584	330.19
363.966	296.97
364.348	306.91
364.729	320.25
365.111	283.86
365.493	307.59
365.874	292.9
366.256	295.16
366.637	298.33
367.019	300.13
367.4	312.11
367.781	286.12
368.163	284.99
368.544	300.36
368.925	307.14
369.306	309.62
369.688	285.44
370.069	294.48
370.45	308.49
370.831	314.14
371.212	298.33
371.593	322.96
371.974	327.48
372.355	311.88
372.736	315.95
373.117	303.07
373.498	310.3
373.879	338.1
374.26	316.4
374.641	307.14
375.021	311.43
375.402	314.37
375.783	305.1
376.163	314.37
376.544	321.38
376.925	317.08
377.305	338.55
377.686	325.44
378.066	320.7
378.447	333.35
378.827	315.05
379.208	316.4
379.588	325.9
379.968	308.95
380.349	344.43
380.729	325.67
381.109	350.3
381.489	321.15
381.87	306.91
382.25	324.77
382.63	314.6
383.01	330.64
383.39	351.88
383.77	342.17
384.15	341.26
384.53	324.99
384.91	338.55
385.29	319.57
385.67	334.93
386.049	355.95
386.429	338.32
386.809	361.6
387.189	358.66
387.568	345.78
387.948	353.92
388.328	340.81
388.707	351.43
389.087	364.31
389.466	384.2
389.846	360.24
390.225	355.73
390.605	370.19
390.984	372.9
391.363	349.85
391.743	394.37
392.122	362.73
392.501	347.14
392.881	372
393.26	366.8
393.639	367.7
394.018	369.51
394.397	368.38
394.776	386.91
395.155	368.15
395.534	373.58
395.913	367.48
396.292	380.36
396.671	395.05
397.05	382.39
397.429	377.19
397.808	386.23
398.186	390.53
398.565	383.52
398.944	393.01
399.323	397.98
399.701	373.13
400.08	399.11
400.458	401.83
400.837	416.06
401.215	405.44
401.594	411.54
401.972	401.37
402.351	416.74
402.729	418.1
403.107	418.1
403.486	406.12
403.864	436.63
404.242	416.06
404.62	408.83
404.999	454.25
405.377	426.01
405.755	441.37
406.133	451.09
406.511	444.99
406.889	450.86
407.267	459.9
407.645	444.76
408.023	433.24
408.401	466.46
408.779	463.74
409.156	491.09
409.534	463.52
409.912	492.22
410.29	483.63
410.667	480.24
411.045	506.68
411.422	511.88
411.8	493.57
412.178	516.4
412.555	524.76
412.933	521.82
413.31	569.28
413.687	535.83
414.065	552.1
414.442	557.53
414.819	543.06
415.197	552.56
415.574	570.41
415.951	575.83
416.328	605.89
416.705	583.06
417.082	572.89
417.46	606.79
417.837	608.37
418.214	611.76
418.591	626.45
418.967	627.13
419.344	625.77
419.721	620.58
420.098	646.79
420.475	642.27
420.852	646.79
421.228	663.51
421.605	678.2
421.982	674.36
422.358	702.16
422.735	721.14
423.111	699.9
423.488	712.1
423.864	715.94
424.241	736.28
424.617	729.27
424.994	752.78
425.37	746.68
425.746	766.79
426.123	783.51
426.499	780.8
426.875	801.36
427.251	828.03
427.627	811.08
428.003	807.46
428.379	820.8
428.756	849.72
429.132	849.5
429.507	854.47
429.883	887.24
430.259	866.22
430.635	885.43
431.011	901.02
431.387	942.38
431.763	904.19
432.138	927.91
432.514	927.91
432.89	957.97
433.265	988.48
433.641	966.56
434.016	993.67
434.392	1008.59
434.767	1021.02
435.143	1025.09
435.518	1040.45
435.894	1057.85
436.269	1082.03
436.644	1098.08
437.02	1120.45
437.395	1106.67
437.77	1134.91
438.145	1147.79
438.52	1173.1
438.895	1189.15
439.271	1186.44
439.646	1220.79
440.021	1207.23
440.395	1223.95
440.77	1228.24
441.145	1237.74
441.52	1292.88
441.895	1253.33
442.27	1291.97
442.645	1274.57
443.019	1290.39
443.394	1302.14
443.769	1319.32
444.143	1322.93
444.518	1349.37
444.892	1369.94
445.267	1345.08
445.641	1367.68
446.016	1374
446.39	1401.12
446.764	1412.65
447.139	1379.65
447.513	1436.37
447.887	1421.46
448.262	1435.24
448.636	1438.86
449.01	1465.3
449.384	1468.92
449.758	1482.93
450.132	1528.12
450.506	1520.67
450.88	1516.82
451.254	1498.97
451.628	1529.93
452.002	1533.32
452.376	1552.76
452.75	1572.87
453.123	1582.59
453.497	1623.71
453.871	1596.37
454.244	1643.15
454.618	1614.68
454.992	1654.22
455.365	1662.81
455.739	1704.62
456.112	1716.14
456.486	1735.8
456.859	1713.88
457.232	1783.71
457.606	1802.92
457.979	1813.31
458.352	1843.37
458.725	1852.18
459.099	1847.44
459.472	1872.07
459.845	1936.25
460.218	1915.91
460.591	1945.51
460.964	1926.98
461.337	1993.42
461.71	1984.38
462.083	2013.31
462.456	2044.04
462.829	2056.7
463.201	2088.33
463.574	2112.06
463.947	2127.2
464.32	2153.42
464.692	2170.82
465.065	2192.06
465.438	2227.31
465.81	2212.4
466.183	2284.94
466.555	2307.99
466.928	2269.57
467.3	2323.58
467.672	2347.54
468.045	2401.1
468.417	2402.22
468.789	2398.16
469.161	2435.67
469.534	2468.66
469.906	2549.79
470.278	2534.88
470.65	2560.64
471.022	2626.17
471.394	2671.82
471.766	2671.6
472.138	2662.78
472.51	2748.66
472.882	2796.56
473.253	2815.77
473.625	2858.71
473.997	2890.12
474.369	2957.24
474.74	2939.16
475.112	2975.32
475.484	3030.91
475.855	3087.4
476.227	3086.73
476.598	3159.95
476.97	3165.37
477.341	3233.39
477.713	3312.26
478.084	3298.47
478.455	3378.47
478.827	3408.75
479.198	3493.5
479.569	3514.74
479.94	3621.18
480.311	3647.16
480.682	3629.09
481.053	3768.52
481.424	3820.94
481.795	3839.93
482.166	3857.78
482.537	3912.02
482.908	3997.44
483.279	3989.98
483.65	4069.3
484.021	4138
484.391	4227.26
484.762	4232.23
485.133	4272.01
485.503	4307.26
485.874	4380.25
486.244	4423.87
486.615	4467.48
486.985	4508.38
487.356	4605.56
487.726	4615.5
488.097	4705.67
488.467	4742.73
488.837	4840.8
489.207	4820.01
489.578	4953.57
489.948	5001.03
490.318	5012.78
490.688	4994.7
491.058	5087.35
491.428	5137.97
491.798	5171.64
492.168	5277.86
492.538	5264.3
492.908	5311.08
493.278	5428.59
493.648	5374.58
494.017	5434.46
494.387	5482.6
494.757	5544.29
495.126	5624.29
495.496	5556.27
495.866	5635.59
496.235	5678.07
496.605	5726.88
496.974	5715.58
497.344	5756.49
497.713	5814.56
498.082	5819.99
498.452	5892.75
498.821	5920.1
499.19	5989.7
499.559	5982.47
499.928	5985.41
500.298	6044.62
500.667	6077.61
501.036	6060.89
501.405	6085.74
501.774	6113.99
502.143	6186.76
502.512	6174.33
502.88	6226.31
503.249	6245.97
503.618	6256.36
503.987	6286.19
504.356	6306.53
504.724	6371.39
505.093	6358.96
505.462	6338.84
505.83	6382.01
506.199	6424.04
506.567	6490.71
506.936	6530.48
507.304	6550.82
507.672	6589.69
508.041	6597.82
508.409	6614.09
508.777	6673.3
509.145	6622.45
509.514	6661.32
509.882	6673.75
510.25	6740.19
510.618	6761.21
510.986	6713.52
511.354	6806.85
511.722	6843.69
512.09	6798.49
512.458	6864.71
512.826	6882.11
513.193	6949.68
513.561	6944.03
513.929	6948.09
514.297	7021.09
514.664	6965.95
515.032	6996
515.4	7111.71
515.767	7120.52
516.135	7077.13
516.502	7031.03
516.869	7163
517.237	7165.04
517.604	7082.33
517.972	7120.52
518.339	7225.6
518.706	7184.7
519.073	7219.05
519.44	7187.64
519.808	7334.52
520.175	7245.26
520.542	7254.3
520.909	7323.9
521.276	7297.46
521.643	7385.6
522.009	7344.69
522.376	7455.43
522.743	7414.52
523.11	7436.89
523.477	7558.7
523.843	7545.37
524.21	7517.12
524.577	7574.07
524.943	7633.5
525.31	7645.02
525.676	7700.16
526.043	7735.19
526.409	7741.52
526.776	7743.1
527.142	7733.84
527.508	7774.97
527.874	7800.5
528.241	7784.46
528.607	7826.72
528.973	7915.75
529.339	7825.81
529.705	7865.13
530.071	7932.7
530.437	7919.37
530.803	7934.51
531.169	7935.86
531.535	7969.99
531.901	7974.06
532.267	7993.94
532.632	8002.3
532.998	7982.87
533.364	7979.25
533.73	7954.85
534.095	8027.61
534.461	7970.89
534.826	8024.45
535.192	7991.91
535.557	8038.01
535.923	8022.64
536.288	8077.78
536.653	8119.14
537.019	8024.9
537.384	8016.54
537.749	8057.9
538.114	7955.07
538.479	8061.96
538.845	8001.17
539.21	8032.59
539.575	8028.97
539.94	8058.12
540.305	8003.43
540.67	8000.27
541.034	8018.8
541.399	8068.52
541.764	7991.91
542.129	8069.19
542.494	8035.98
542.858	7992.81
543.223	8041.62
543.587	8067.61
543.952	7961.63
544.316	8036.65
544.681	7985.81
545.045	7971.57
545.41	8028.29
545.774	7994.39
546.138	8007.05
546.503	8074.84
546.867	7978.58
547.231	8014.73
547.595	8025.81
547.959	8007.28
548.324	7946.49
548.688	7993.49
549.052	8018.12
549.416	7992.36
549.779	7972.25
550.143	7986.71
550.507	8049.76
550.871	8082.3
551.235	7949.42
551.599	8009.99
551.962	8014.05
552.326	7955.75
552.689	8040.72
553.053	8003.66
553.417	7990.33
553.78	8049.76
554.143	7979.03
554.507	8030.78
554.87	8030.33
555.234	8076.88
555.597	7991.23
555.96	8019.7
556.323	8024.9
556.686	8020.61
557.05	8130.66
557.413	8074.39
557.776	8128.85
558.139	8063.55
558.502	8101.74
558.865	8136.31
559.228	8152.58
559.59	8192.58
559.953	8119.36
560.316	8197.1
560.679	8160.49
561.041	8233.71
561.404	8251.11
561.767	8309.19
562.129	8279.13
562.492	8300.37
562.854	8322.3
563.217	8274.16
563.579	8286.36
563.941	8431.9
564.304	8419.02
564.666	8368.85
565.028	8381.73
565.39	8411.56
565.753	8455.4
566.115	8438.68
566.477	8482.07
566.839	8461.27
567.201	8533.82
567.563	8540.14
567.925	8593.7
568.287	8578.33
568.648	8579.46
569.01	8637.32
569.372	8669.63
569.734	8566.81
570.095	8671.89
570.457	8691.1
570.819	8696.97
571.18	8747.14
571.542	8721.83
571.903	8719.8
572.265	8822.85
572.626	8797.99
572.987	8804.99
573.349	8841.83
573.71	8876.63
574.071	8909.85
574.432	8851.55
574.794	8969.96
575.155	8967.48
575.516	8966.12
575.877	8987.14
576.238	8982.84
576.599	9039.11
576.96	8973.35
577.32	9007.02
577.681	9069.85
578.042	9082.73
578.403	9109.39
578.763	9133.12
579.124	9133.35
579.485	9173.35
579.845	9216.06
580.206	9202.5
580.566	9187.13
580.927	9175.38
581.287	9256.51
581.648	9247.47
582.008	9312.1
582.368	9246.34
582.728	9269.39
583.089	9250.41
583.449	9282.04
583.809	9303.06
584.169	9272.78
584.529	9326.34
584.889	9384.19
585.249	9337.18
585.609	9386.22
585.969	9421.93
586.329	9333.12
586.688	9398.43
587.048	9388.03
587.408	9358.88
587.768	9400.46
588.127	9376.73
588.487	9393.23
588.846	9501.47
589.206	9437.97
589.565	9400.46
589.925	9433
590.284	9400.91
590.643	9459.67
591.003	9516.61
591.362	9500.12
591.721	9469.16
592.08	9494.92
592.44	9532.66
592.799	9561.81
593.158	9521.13
593.517	9615.14
593.876	9507.12
594.235	9542.6
594.593	9574.69
594.952	9553
595.311	9595.93
595.67	9508.48
596.029	9608.59
596.387	9678.64
596.746	9583.05
597.104	9586.67
597.463	9583.73
597.822	9656.72
598.18	9550.74
598.538	9606.33
598.897	9695.37
599.255	9581.7
599.613	9731.07
599.972	9642.94
600.33	9708.02
600.688	9640.23
601.046	9684.52
601.404	9777.4
601.762	9685.42
602.12	9686.55
602.478	9686.55
602.836	9762.48
603.194	9711.64
603.552	9756.16
603.91	9646.1
604.268	9747.34
604.625	9695.82
604.983	9739.43
605.341	9725.2
605.698	9753.67
606.056	9817.17
606.413	9787.12
606.771	9841.58
607.128	9808.13
607.485	9724.29
607.843	9747.79
608.2	9830.73
608.557	9858.98
608.914	9857.17
609.272	9880.45
609.629	9863.95
609.986	9933.33
610.343	9842.71
610.7	9915.7
611.057	9881.35
611.414	9894.68
611.771	9880.45
612.127	9935.81
612.484	9953.21
612.841	9991.18
613.198	9891.07
613.554	9949.82
613.911	10041.57
614.267	10037.96
614.624	10039.09
614.98	10051.06
615.337	10006.32
615.693	10035.02
616.05	10000.9
616.406	10045.19
616.762	9973.78
617.118	9972.42
617.475	9988.24
617.831	10046.32
618.187	10058.52
618.543	10026.43
618.899	10109.37
619.255	10124.73
619.611	10064.62
619.967	10117.28
620.323	10129.93
620.678	10109.82
621.034	10039.76
621.39	9987.11
621.746	10042.7
622.101	10173.55
622.457	10026.43
622.812	10060.55
623.168	10105.3
623.523	10073.21
623.879	10176.71
624.234	10077.73
624.589	10098.75
624.945	10084.51
625.3	10149.59
625.655	10046.77
626.01	10030.05
626.365	10062.14
626.72	10013.32
627.075	10082.02
627.43	10080.22
627.785	9989.82
628.14	10055.81
628.495	10114.34
628.85	10034.57
629.205	10005.41
629.559	10101.46
629.914	10028.01
630.269	9970.16
630.623	10040.89
630.978	10004.51
631.332	10054
631.687	10014
632.041	9985.53
632.396	10004.74
632.75	9970.61
633.104	10007.22
633.459	9945.76
633.813	9934.68
634.167	9900.33
634.521	9990.5
634.875	9863.95
635.229	9879.77
635.583	9817.4
635.937	9853.1
636.291	9769.26
636.645	9811.07
636.999	9844.74
637.352	9845.65
637.706	9801.35
638.06	9870.28
638.413	9774.01
638.767	9693.11
639.121	9781.01
639.474	9734.91
639.828	9719.32
640.181	9749.15
640.534	9721.58
640.888	9706.67
641.241	9646.33
641.594	9607.46
641.947	9688.81
642.301	9746.44
642.654	9681.58
643.007	9677.97
643.36	9639.32
643.713	9638.42
644.066	9651.75
644.419	9628.02
644.771	9544.18
645.124	9447.24
645.477	9460.12
645.83	9374.7
646.182	9370.63
646.535	9329.95
646.888	9346.68
647.24	9254.93
647.593	9348.71
647.945	9315.94
648.298	9271.2
648.65	9270.97
649.002	9206.57
649.355	9291.99
649.707	9246.34
650.059	9316.85
650.411	9355.04
650.763	9381.25
651.115	9426.9
651.467	9451.98
651.819	9462.15
652.171	9490.63
652.523	9375.15
652.875	9400.46
653.227	9323.17
653.578	9472.55
653.93	9435.26
654.282	9414.7
654.633	9354.13
654.985	9406.56
655.337	9371.53
655.688	9364.98
656.039	9406.11
656.391	9322.95
656.742	9425.54
657.094	9410.18
657.445	9416.28
657.796	9398.88
658.147	9386.9
658.498	9419.89
658.849	9401.36
659.2	9321.37
659.551	9412.89
659.902	9392.55
660.253	9369.95
660.604	9414.02
660.955	9298.77
661.306	9446.56
661.656	9401.59
662.007	9435.26
662.358	9341.93
662.708	9408.14
663.059	9373.79
663.409	9323.4
663.76	9375.37
664.11	9408.59
664.461	9429.16
664.811	9428.25
665.161	9372.44
665.511	9423.74
665.862	9435.71
666.212	9380.35
666.562	9371.53
666.912	9444.53
667.262	9362.04
667.612	9393.68
667.962	9384.64
668.312	9334.02
668.662	9368.82
669.011	9389.61
669.361	9312.78
669.711	9399.33
670.06	9353.45
670.41	9342.16
670.76	9309.39
671.109	9374.47
671.459	9304.19
671.808	9283.63
672.157	9324.75
672.507	9248.37
672.856	9262.38
673.205	9271.42
673.554	9254.93
673.904	9272.1
674.253	9278.43
674.602	9319.56
674.951	9183.06
675.3	9120.47
675.649	9264.42
675.998	9293.57
676.346	9157.98
676.695	9189.62
677.044	9159.79
677.393	9174.48
677.741	9134.03
678.09	9146.68
678.438	9205.89
678.787	9147.36
679.135	9161.6
679.484	9070.3
679.832	9170.18
680.181	9043.41
680.529	9066.68
680.877	9080.69
681.225	9004.09
681.573	9088.15
681.922	8955.72
682.27	9016.97
682.618	8983.97
682.966	8995.5
683.314	8964.99
683.661	8901.04
684.009	8913.47
684.357	8903.3
684.705	8869.17
685.053	8837.31
685.4	8803.64
685.748	8781.94
686.095	8739.69
686.443	8808.84
686.79	8740.36
687.138	8774.71
687.485	8776.29
687.832	8741.95
688.18	8728.16
688.527	8678.44
688.874	8722.28
689.221	8710.76
689.568	8619.46
689.915	8594.6
690.262	8656.07
690.609	8553.25
690.956	8494.04
691.303	8541.27
691.65	8483.87
691.997	8430.09
692.344	8437.77
692.69	8496.08
693.037	8404.33
693.383	8358.45
693.73	8392.8
694.077	8297.21
694.423	8280.71
694.769	8267.83
695.116	8225.12
695.462	8238.91
695.808	8199.81
696.155	8193.71
696.501	8127.72
696.847	8190.1
697.193	8103.32
697.539	8108.29
697.885	8018.57
698.231	8009.31
698.577	8013.38
698.923	7951.68
699.269	7938.8
699.614	7885.47
699.96	7895.64
700.306	7864
700.651	7836.43
700.997	7823.55
701.342	7806.83
701.688	7766.38
702.033	7788.07
702.379	7726.38
702.724	7658.13
703.069	7764.8
703.415	7633.73
703.76	7629.21
704.105	7553.95
704.45	7598.92
704.795	7521.86
705.14	7580.62
705.485	7510.34
705.83	7524.12
706.175	7474.86
706.52	7475.31
706.865	7434.64
707.209	7417.46
707.554	7360.96
707.899	7382.43
708.243	7330.01
708.588	7368.87
708.932	7278.03
709.277	7322.55
709.621	7281.19
709.966	7196.45
710.31	7232.38
710.654	7192.61
710.998	7175.21
711.342	7162.55
711.687	7194.42
712.031	7066.74
712.375	7091.37
712.719	7120.97
713.063	7073.06
713.407	7108.32
713.75	7141.31
714.094	7094.53
714.438	7044.14
714.782	7036
715.125	7027.41
715.469	7062.89
715.812	7002.78
716.156	6937.7
716.499	6943.35
716.843	7005.95
717.186	6951.48
717.53	6948.55
717.873	6964.82
718.216	6923.01
718.559	6924.37
718.902	6865.38
719.246	6891.82
719.589	6827.65
719.932	6822.45
720.275	6797.59
720.617	6805.95
720.96	6836.46
721.303	6862.9
721.646	6779.06
721.989	6748.55
722.331	6786.06
722.674	6763.69
723.016	6747.87
723.359	6784.03
723.701	6702.68
724.044	6697.25
724.386	6658.16
724.729	6751.94
725.071	6735.22
725.413	6681.66
725.755	6751.72
726.097	6693.19
726.439	6642.79
726.782	6642.79
727.124	6704.26
727.465	6658.16
727.807	6641.66
728.149	6649.12
728.491	6635.11
728.833	6693.19
729.175	6628.55
729.516	6585.17
729.858	6598.05
730.199	6613.41
730.541	6619.06
730.882	6582
731.224	6659.51
731.565	6638.72
731.906	6567.99
732.248	6620.19
732.589	6525.73
732.93	6521.66
733.271	6583.81
733.612	6584.49
733.953	6655.9
734.294	6563.7
734.635	6583.36
734.976	6586.3
735.317	6543.13
735.658	6560.99
735.999	6519.4
736.339	6566.41
736.68	6610.02
737.021	6565.28
737.361	6555.79
737.702	6634.43
738.042	6595.34
738.383	6532.29
738.723	6563.25
739.063	6545.39
739.404	6627.42
739.744	6578.16
740.084	6554.66
740.424	6529.12
740.764	6562.57
741.104	6591.27
741.444	6640.08
741.784	6628.1
742.124	6654.32
742.464	6585.39
742.804	6644.83
743.143	6661.55
743.483	6651.38
743.823	6636.24
744.162	6661.1
744.502	6699.06
744.841	6704.48
745.181	6711.04
745.52	6707.2
745.86	6763.47
746.199	6734.31
746.538	6784.03
746.877	6805.27
747.216	6813.63
747.556	6799.85
747.895	6891.15
748.234	6808.44
748.573	6935.67
748.911	6978.83
749.25	6974.99
749.589	6956.23
749.928	7024.25
750.267	7098.82
750.605	7059.96
750.944	7139.5
751.283	7148.54
751.621	7279.16
751.96	7283
752.298	7329.78
752.636	7369.33
752.975	7433.28
753.313	7465.14
753.651	7554.18
753.989	7525.93
754.327	7611.13
754.666	7697.45
755.004	7803.89
755.342	7868.07
755.679	7955.98
756.017	8001.63
756.355	8109.42
756.693	8201.85
757.031	8229.87
757.368	8306.25
757.706	8336.31
758.044	8430.54
758.381	8527.49
758.719	8637.32
759.056	8697.43
759.394	8765
759.731	8853.81
760.068	8905.56
760.405	9037.53
760.743	9061.48
761.08	9291.31
761.417	9240.24
761.754	9374.92
762.091	9460.34
762.428	9560.68
762.765	9636.84
763.102	9735.59
763.438	9822.59
763.775	9814.69
764.112	9934.46
764.449	10131.97
764.785	10088.35
765.122	10244.28
765.458	10192.08
765.795	10363.15
766.131	10441.56
766.467	10487.44
766.804	10453.54
767.14	10609.24
767.476	10612.18
767.812	10728.11
768.148	10869.35
768.485	10849.46
768.821	10839.07
