Data from hue_270_FLMS001491_00033.txt Node
Date: Tue Feb 07 15:57:06 GMT 2017
User: dcchb
Spectrometer: FLMS00149
Trigger mode: 0
Integration Time (sec): 2.000000E-2
Scans to average: 10
Electric dark correction enabled: true
Nonlinearity correction enabled: false
Boxcar width: 0
XAxis mode: Wavelengths
Number of Pixels in Spectrum: 2048
>>>>>Begin Spectral Data<<<<<
341.393	-21.31
341.776	-21.31
342.16	-21.31
342.543	-74.87
342.927	-69
343.31	-63.57
343.693	-59.5
344.077	-61.76
344.46	-80.97
344.843	-46.17
345.226	-36
345.61	-30.13
345.993	-5.04
346.376	2.19
346.759	-3.69
347.142	26.14
347.525	34.05
347.908	56.43
348.291	67.27
348.674	90.1
349.057	110.66
349.44	141.39
349.823	136.87
350.206	163.31
350.588	188.4
350.971	211.45
351.354	204.9
351.737	219.36
352.119	219.81
352.502	250.54
352.884	257.55
353.267	280.6
353.65	282.63
354.032	304.1
354.414	299.81
354.797	308.62
355.179	322.18
355.562	311.56
355.944	314.5
356.326	325.12
356.709	320.15
357.091	304.33
357.473	331.9
357.855	323.76
358.238	323.99
358.62	336.19
359.002	319.69
359.384	333.71
359.766	315.18
360.148	313.59
360.53	328.51
360.912	320.15
361.294	308.17
361.676	323.99
362.057	333.71
362.439	306.14
362.821	306.81
363.203	311.33
363.584	312.46
363.966	309.3
364.348	289.41
364.729	302.29
365.111	296.64
365.493	297.77
365.874	302.97
366.256	300.71
366.637	290.54
367.019	295.97
367.4	310.66
367.781	297.77
368.163	286.02
368.544	292.8
368.925	299.58
369.306	311.11
369.688	284.89
370.069	304.78
370.45	291.22
370.831	286.48
371.212	304.33
371.593	296.42
371.974	304.78
372.355	312.69
372.736	291.45
373.117	286.02
373.498	288.06
373.879	302.29
374.26	304.55
374.641	298
375.021	313.82
375.402	309.98
375.783	321.95
376.163	321.5
376.544	307.94
376.925	317.21
377.305	310.66
377.686	303.2
378.066	328.96
378.447	297.32
378.827	304.78
379.208	314.5
379.588	325.12
379.968	312.69
380.349	314.5
380.729	311.33
381.109	314.72
381.489	312.69
381.87	302.75
382.25	314.72
382.63	327.83
383.01	327.83
383.39	331.22
383.77	320.6
384.15	327.83
384.53	301.62
384.91	333.48
385.29	327.6
385.67	313.82
386.049	351.56
386.429	331.9
386.809	338
387.189	331.22
387.568	355.4
387.948	319.47
388.328	339.81
388.707	324.67
389.087	350.65
389.466	338
389.846	322.86
390.225	358.56
390.605	338.68
390.984	343.88
391.363	370.54
391.743	356.98
392.122	345.01
392.501	375.29
392.881	350.2
393.26	363.76
393.639	368.73
394.018	362.18
394.397	368.06
394.776	382.29
395.155	373.25
395.534	378.45
395.913	369.86
396.292	386.13
396.671	362.18
397.05	372.12
397.429	371.67
397.808	390.65
398.186	392.01
398.565	372.35
398.944	385.91
399.323	378.22
399.701	410.77
400.08	402.63
400.458	391.33
400.837	388.17
401.215	387.94
401.594	391.33
401.972	394.95
402.351	416.19
402.729	403.08
403.107	409.18
403.486	415.29
403.864	416.42
404.242	427.49
404.62	422.07
404.999	443.99
405.377	429.97
405.755	430.88
406.133	431.33
406.511	428.17
406.889	424.33
407.267	446.92
407.645	436.08
408.023	465.23
408.401	462.06
408.779	491.89
409.156	495.51
409.534	479.46
409.912	485.11
410.29	468.84
410.667	492.12
411.045	500.93
411.422	508.39
411.8	502.74
412.178	500.26
412.555	520.59
412.933	523.08
413.31	524.44
413.687	527.37
414.065	542.74
414.442	540.25
414.819	535.28
415.197	544.55
415.574	577.99
415.951	573.47
416.328	603.76
416.705	575.73
417.082	599.24
417.46	613.02
417.837	632.68
418.214	602.63
418.591	630.2
418.967	612.57
419.344	620.7
419.721	631.78
420.098	653.92
420.475	650.76
420.852	669.06
421.228	675.39
421.605	672
421.982	682.62
422.358	700.48
422.735	667.26
423.111	701.83
423.488	729.18
423.864	717.2
424.241	744.77
424.617	742.73
424.994	744.09
425.37	753.58
425.746	769.63
426.123	776.63
426.499	780.47
426.875	788.38
427.251	785.45
427.627	820.02
428.003	848.27
428.379	825.22
428.756	860.02
429.132	864.09
429.507	869.06
429.883	906.35
430.259	900.47
430.635	919.23
431.011	926.91
431.387	910.19
431.763	944.54
432.138	954.48
432.514	980.02
432.89	984.99
433.265	988.38
433.641	1002.84
434.016	1003.29
434.392	1049.62
434.767	1075.16
435.143	1067.92
435.518	1083.74
435.894	1096.85
436.269	1106.79
436.644	1107.47
437.02	1146.11
437.395	1163.51
437.77	1175.72
438.145	1148.83
438.52	1208.03
438.895	1202.84
439.271	1222.5
439.646	1258.2
440.021	1287.81
440.395	1290.97
440.77	1279.9
441.145	1281.25
441.52	1329.39
441.895	1301.14
442.27	1329.16
442.645	1325.54
443.019	1350.63
443.394	1358.31
443.769	1385.2
444.143	1376.39
444.518	1406.67
444.892	1390.63
445.267	1386.33
445.641	1417.29
446.016	1434.24
446.39	1444.64
446.764	1425.88
447.139	1437.41
447.513	1456.39
447.887	1463.62
448.262	1468.59
448.636	1488.25
449.01	1530.51
449.384	1523.96
449.758	1516.5
450.132	1543.62
450.506	1537.74
450.88	1545.2
451.254	1549.27
451.628	1591.3
452.002	1564.86
452.376	1602.37
452.75	1605.54
453.123	1652.99
453.497	1624.52
453.871	1663.16
454.244	1705.2
454.618	1680.56
454.992	1676.95
455.365	1723.5
455.739	1729.38
456.112	1755.36
456.486	1782.26
456.859	1770.73
457.232	1811.63
457.606	1829.49
457.979	1831.29
458.352	1870.84
458.725	1895.92
459.099	1881.91
459.472	1915.81
459.845	1928.92
460.218	1937.05
460.591	1947.9
460.964	1952.87
461.337	2011.85
461.71	2048.46
462.083	2081.68
462.456	2041.91
462.829	2046.66
463.201	2059.99
463.574	2106.09
463.947	2102.7
464.32	2175.24
464.692	2158.74
465.065	2189.7
465.438	2222.24
465.81	2229.93
466.183	2252.75
466.555	2280.77
466.928	2304.73
467.3	2332.75
467.672	2348.34
468.045	2380.66
468.417	2385.63
468.789	2423.14
469.161	2424.5
469.534	2451.39
469.906	2497.49
470.278	2507.66
470.65	2513.76
471.022	2572.74
471.394	2583.14
471.766	2626.08
472.138	2651.39
472.51	2708.78
472.882	2750.59
473.253	2754.66
473.625	2768.9
473.997	2808.9
474.369	2873.07
474.74	2901.1
475.112	2917.37
475.484	2970.92
475.855	2986.07
476.227	3012.96
476.598	3065.39
476.97	3144.71
477.341	3146.29
477.713	3225.16
478.084	3201.2
478.455	3255.66
478.827	3295.89
479.198	3365.72
479.569	3336.11
479.94	3454.3
480.311	3483
480.682	3524.58
481.053	3565.03
481.424	3624.24
481.795	3659.27
482.166	3708.08
482.537	3716.22
482.908	3788.76
483.279	3792.6
483.65	3915.31
484.021	3944.91
484.391	3988.53
484.762	4041.63
485.133	4017.68
485.503	4061.07
485.874	4131.35
486.244	4171.8
486.615	4214.73
486.985	4274.62
487.356	4336.76
487.726	4352.58
488.097	4392.58
488.467	4425.58
488.837	4527.49
489.207	4605.23
489.578	4569.3
489.948	4652.24
490.318	4694.95
490.688	4713.93
491.058	4784.44
491.428	4766.58
491.798	4837.32
492.168	4914.15
492.538	4915.51
492.908	4923.19
493.278	5047.71
493.648	5034.37
494.017	5097.2
494.387	5127.25
494.757	5111.89
495.126	5158.44
495.496	5190.08
495.866	5224.42
496.235	5219.45
496.605	5302.84
496.974	5329.28
497.344	5345.33
497.713	5400.24
498.082	5391.2
498.452	5462.84
498.821	5461.71
499.19	5431.65
499.559	5530.63
499.928	5492.89
500.298	5558.43
500.667	5616.96
501.036	5569.27
501.405	5611.99
501.774	5665.54
502.143	5645.66
502.512	5703.96
502.88	5706.45
503.249	5742.15
503.618	5758.2
503.987	5731.08
504.356	5802.04
504.724	5814.47
505.093	5781.25
505.462	5821.7
505.83	5892.2
506.199	5827.8
506.567	5915.93
506.936	5919.55
507.304	5927.46
507.672	5967
508.041	5961.13
508.409	6012.43
508.777	6018.98
509.145	6079.54
509.514	6083.39
509.882	6047.23
510.25	6070.05
510.618	6118.19
510.986	6087.9
511.354	6151.63
511.722	6159.09
512.09	6157.06
512.458	6130.39
512.826	6193.21
513.193	6228.24
513.561	6247
513.929	6282.93
514.297	6286.54
514.664	6294
515.032	6287.67
515.4	6366.77
515.767	6343.94
516.135	6343.94
516.502	6303.72
516.869	6391.85
517.237	6390.04
517.604	6345.75
517.972	6421
518.339	6445.64
518.706	6359.76
519.073	6416.26
519.44	6413.32
519.808	6504.62
520.175	6411.29
520.542	6469.59
520.909	6533.54
521.276	6513.2
521.643	6570.38
522.009	6642.47
522.376	6574.9
522.743	6610.6
523.11	6621.22
523.477	6654.67
523.843	6720.66
524.21	6718.85
524.577	6752.75
524.943	6725.85
525.31	6743.48
525.676	6756.14
526.043	6836.36
526.409	6825.29
526.776	6840.65
527.142	6860.77
527.508	6815.57
527.874	6855.34
528.241	6876.36
528.607	6877.04
528.973	6945.96
529.339	6871.61
529.705	6991.61
530.071	6973.53
530.437	6998.62
530.803	7025.06
531.169	7054.43
531.535	7046.98
531.901	7058.27
532.267	7095.11
532.632	7112.28
532.998	7016.69
533.364	7070.48
533.73	7142.79
534.095	7097.6
534.461	7123.13
534.826	7176.46
535.192	7150.7
535.557	7168.1
535.923	7169.01
536.288	7137.37
536.653	7142.57
537.019	7146.41
537.384	7098.05
537.749	7187.54
538.114	7177.82
538.479	7175.56
538.845	7217.14
539.21	7172.85
539.575	7147.09
539.94	7136.92
540.305	7239.74
540.67	7181.21
541.034	7193.19
541.399	7201.1
541.764	7229.12
542.129	7180.98
542.494	7234.09
542.858	7253.98
543.223	7246.74
543.587	7237.71
543.952	7235.45
544.316	7248.1
544.681	7237.71
545.045	7252.39
545.41	7256.46
545.774	7222.79
546.138	7267.99
546.503	7232.28
546.867	7289.68
547.231	7298.95
547.595	7302.11
547.959	7299.17
548.324	7270.92
548.688	7272.96
549.052	7329.45
549.416	7284.71
549.779	7296.23
550.143	7327.87
550.507	7351.37
550.871	7337.36
551.235	7348.44
551.599	7365.84
551.962	7348.66
552.326	7353.63
552.689	7403.35
553.053	7313.18
553.417	7298.72
553.78	7388.89
554.143	7394.54
554.507	7361.54
554.87	7365.39
555.234	7485.38
555.597	7442.9
555.96	7489.68
556.323	7465.72
556.686	7513.4
557.05	7434.54
557.413	7475.89
557.776	7533.29
558.139	7503.46
558.502	7498.94
558.865	7505.04
559.228	7617.81
559.59	7589.11
559.953	7561.54
560.316	7607.86
560.679	7670.01
561.041	7602.44
561.404	7669.78
561.767	7764.02
562.129	7704.36
562.492	7755.43
562.854	7722.44
563.217	7789.78
563.579	7799.27
563.941	7858.93
564.304	7804.92
564.666	7848.99
565.028	7878.37
565.39	7922.43
565.753	7906.39
566.115	7945.94
566.477	7940.29
566.839	8016.89
567.201	8043.33
567.563	8028.64
567.925	8099.38
568.287	8089.43
568.648	8061.41
569.01	8133.5
569.372	8130.56
569.734	8167.62
570.095	8218.47
570.457	8276.77
570.819	8245.81
571.18	8256.21
571.542	8358.81
571.903	8318.13
572.265	8354.51
572.626	8394.06
572.987	8408.97
573.349	8430.67
573.71	8456.88
574.071	8505.47
574.432	8459.37
574.794	8580.04
575.155	8596.31
575.516	8609.87
575.877	8633.83
576.238	8611.91
576.599	8715.63
576.96	8686.25
577.32	8681.96
577.681	8718.57
578.042	8791.79
578.403	8792.47
578.763	8818.45
579.124	8831.79
579.485	8815.06
579.845	8963.08
580.206	8907.27
580.566	8879.47
580.927	8952.24
581.287	9036.98
581.648	8990.65
582.008	9060.93
582.368	9075.4
582.728	9089.86
583.089	9076.07
583.449	9094.61
583.809	9105.9
584.169	9202.85
584.529	9138.45
584.889	9193.59
585.249	9246.47
585.609	9247.14
585.969	9305.9
586.329	9325.33
586.688	9335.5
587.048	9281.04
587.408	9401.49
587.768	9446.23
588.127	9411.43
588.487	9375.5
588.846	9468.38
589.206	9460.7
589.565	9509.06
589.925	9600.13
590.284	9544.31
590.643	9628.15
591.003	9631.77
591.362	9616.85
591.721	9678.77
592.08	9651.2
592.44	9763.51
592.799	9784.3
593.158	9788.15
593.517	9737.53
593.876	9794.47
594.235	9791.31
594.593	9817.52
594.952	9879.67
595.311	9868.14
595.67	9935.26
596.029	9887.58
596.387	9961.25
596.746	9929.39
597.104	9909.95
597.463	9989.72
597.822	10029.5
598.18	9951.98
598.538	9983.4
598.897	10040.12
599.255	9923.28
599.613	10026.11
599.972	10077.18
600.33	10058.42
600.688	10038.99
601.046	10146.33
601.404	10186.78
601.762	10156.5
602.12	10241.24
602.478	10235.82
602.836	10178.19
603.194	10235.82
603.552	10153.79
603.91	10130.28
604.268	10229.49
604.625	10216.84
604.983	10260
605.341	10216.84
605.698	10301.58
606.056	10294.12
606.413	10252.09
606.771	10386.55
607.128	10368.02
607.485	10233.78
607.843	10262.48
608.2	10350.62
608.557	10389.26
608.914	10387.68
609.272	10378.64
609.629	10406.21
609.986	10503.38
610.343	10443.04
610.7	10544.06
611.057	10510.16
611.414	10488.69
611.771	10445.08
612.127	10521.91
612.484	10556.94
612.841	10554.45
613.198	10506.55
613.554	10630.16
613.911	10587.67
614.267	10589.26
614.624	10557.62
614.98	10661.34
615.337	10655.02
615.693	10639.2
616.05	10650.5
616.406	10651.63
616.762	10666.54
617.118	10737.05
617.475	10655.47
617.831	10602.36
618.187	10710.61
618.543	10709.93
618.899	10784.05
619.255	10795.8
619.611	10720.78
619.967	10744.28
620.323	10806.2
620.678	10714
621.034	10758.29
621.39	10794.45
621.746	10730.95
622.101	10859.53
622.457	10761.23
622.812	10820.66
623.168	10822.7
623.523	10843.03
623.879	10859.53
624.234	10784.28
624.589	10808.68
624.945	10780.21
625.3	10784.73
625.655	10758.74
626.01	10794.22
626.365	10800.55
626.72	10783.6
627.075	10813.66
627.43	10713.09
627.785	10719.42
628.14	10772.75
628.495	10821.57
628.85	10711.29
629.205	10729.82
629.559	10812.3
629.914	10742.47
630.269	10731.85
630.623	10763.04
630.978	10725.52
631.332	10698.18
631.687	10739.31
632.041	10772.3
632.396	10740.66
632.75	10718.74
633.104	10667.45
633.459	10713.77
633.813	10620.44
634.167	10646.2
634.521	10621.35
634.875	10554
635.229	10593.1
635.583	10509.26
635.937	10496.38
636.291	10474.91
636.645	10558.52
636.999	10483.95
637.352	10559.2
637.706	10439.65
638.06	10526.66
638.413	10443.27
638.767	10429.49
639.121	10382.48
639.474	10340.9
639.828	10385.65
640.181	10421.12
640.534	10459.32
640.888	10375.48
641.241	10321.01
641.594	10271.75
641.947	10361.46
642.301	10393.33
642.654	10433.33
643.007	10331.86
643.36	10351.07
643.713	10335.93
644.066	10328.7
644.419	10284.63
644.771	10260
645.124	10184.07
645.477	10150.4
645.83	10114.92
646.182	9942.27
646.535	9978.88
646.888	9946.56
647.24	9882.16
647.593	9984.98
647.945	9970.29
648.298	9905.43
648.65	9991.98
649.002	9872.21
649.355	9979.55
649.707	9966.9
650.059	9989.05
650.411	10170.06
650.763	10124.86
651.115	10236.04
651.467	10267.68
651.819	10226.33
652.171	10147.69
652.523	10154.92
652.875	10169.83
653.227	10146.78
653.578	10185.2
653.93	10238.98
654.282	10157.4
654.633	10128.48
654.985	10185.2
655.337	10194.46
655.688	10229.72
656.039	10175.93
656.391	10131.19
656.742	10160.34
657.094	10134.58
657.445	10185.42
657.796	10149.27
658.147	10178.19
658.498	10175.03
658.849	10150.17
659.2	10130.06
659.551	10129.38
659.902	10156.95
660.253	10157.85
660.604	10190.17
660.955	10135.48
661.306	10177.51
661.656	10174.8
662.007	10181.81
662.358	10172.32
662.708	10192.88
663.059	10238.98
663.409	10034.69
663.76	10182.71
664.11	10216.84
664.461	10147.91
664.811	10173.67
665.161	10188.36
665.511	10151.07
665.862	10183.16
666.212	10180.68
666.562	10216.84
666.912	10195.37
667.262	10123.73
667.612	10128.25
667.962	10218.87
668.312	10163.28
668.662	10219.32
669.011	10222.03
669.361	10189.27
669.711	10095.03
670.06	10140.68
670.41	10145.43
670.76	10046.67
671.109	10126.67
671.459	10162.83
671.808	10104.3
672.157	10126.22
672.507	10008.48
672.856	10071.3
673.205	10145.88
673.554	10121.92
673.904	10039.21
674.253	10079.66
674.602	10019.33
674.951	9923.96
675.3	9890.97
675.649	10065.88
675.998	10002.83
676.346	10035.37
676.695	10004.86
677.044	9912.89
677.393	9972.32
677.741	9917.18
678.09	9962.83
678.438	9916.28
678.787	9901.36
679.135	9942.27
679.484	9822.5
679.832	9930.74
680.181	9902.04
680.529	9917.63
680.877	9799.45
681.225	9858.88
681.573	9866.56
681.922	9790.86
682.27	9869.27
682.618	9783.85
682.966	9719.9
683.314	9800.12
683.661	9746.11
684.009	9626.34
684.357	9727.81
684.705	9639.68
685.053	9713.57
685.4	9688.49
685.748	9668.83
686.095	9611.2
686.443	9555.61
686.79	9508.83
687.138	9555.38
687.485	9527.14
687.832	9529.85
688.18	9490.75
688.527	9422.96
688.874	9440.59
689.221	9362.62
689.568	9392.45
689.915	9305.67
690.262	9374.37
690.609	9326.46
690.956	9257.31
691.303	9256.64
691.65	9178.22
691.997	9189.97
692.344	9112.46
692.69	9107.71
693.037	9169.63
693.383	8988.62
693.73	9103.42
694.077	8981.16
694.423	9025.91
694.769	8951.56
695.116	8931.9
695.462	8925.34
695.808	8873.59
696.155	8886.48
696.501	8855.74
696.847	8807.83
697.193	8768.96
697.539	8775.74
697.885	8755.63
698.231	8647.16
698.577	8644
698.923	8600.83
699.269	8587.95
699.614	8575.3
699.96	8487.16
700.306	8542.76
700.651	8442.87
700.997	8375.98
701.342	8358.13
701.688	8417.56
702.033	8354.51
702.379	8346.15
702.724	8341.18
703.069	8300.73
703.415	8171.47
703.76	8265.02
704.105	8238.58
704.45	8287.62
704.795	8126.95
705.14	8165.36
705.485	8130.34
705.83	8095.54
706.175	8091.92
706.52	8072.94
706.865	8066.84
707.209	8009.44
707.554	7995.2
707.899	8051.47
708.243	7886.95
708.588	7962.88
708.932	7861.87
709.277	7900.06
709.621	7812.15
709.966	7739.84
710.31	7780.74
710.654	7807.41
710.998	7784.58
711.342	7724.92
711.687	7653.51
712.031	7675.43
712.375	7719.05
712.719	7716.11
713.063	7727.86
713.407	7715.88
713.75	7642.67
714.094	7577.81
714.438	7557.7
714.782	7579.39
715.125	7561.54
715.469	7551.14
715.812	7548.88
716.156	7520.18
716.499	7550.47
716.843	7421.88
717.186	7459.17
717.53	7522.67
717.873	7500.07
718.216	7456.91
718.559	7423.24
718.902	7382.33
719.246	7407.19
719.589	7319.96
719.932	7361.77
720.275	7416.68
720.617	7381.2
720.96	7330.58
721.303	7425.27
721.646	7373.97
721.989	7343.24
722.331	7305.27
722.674	7306.18
723.016	7311.83
723.359	7355.67
723.701	7227.76
724.044	7240.42
724.386	7238.38
724.729	7247.87
725.071	7228.21
725.413	7197.25
725.755	7293.07
726.097	7159.29
726.439	7175.79
726.782	7174.2
727.124	7168.55
727.465	7159.06
727.807	7201.32
728.149	7155
728.491	7149.35
728.833	7227.08
729.175	7203.58
729.516	7154.77
729.858	7183.47
730.199	7179.18
730.541	7172.17
730.882	7116.13
731.224	7198.38
731.565	7104.6
731.906	7151.38
732.248	7160.87
732.589	7118.61
732.93	7044.49
733.271	7145.73
733.612	7097.14
733.953	7105.28
734.294	7119.52
734.635	7162.68
734.976	7169.68
735.317	7090.59
735.658	7124.94
735.999	7130.59
736.339	7089.69
736.68	7145.5
737.021	7087.88
737.361	7065.05
737.702	7106.86
738.042	7164.94
738.383	7120.87
738.723	7203.36
739.063	7130.14
739.404	7139.4
739.744	7148.89
740.084	7118.61
740.424	7288.33
740.764	7161.77
741.104	7149.12
741.444	7207.42
741.784	7196.8
742.124	7207.2
742.464	7235.45
742.804	7254.65
743.143	7237.25
743.483	7300.08
743.823	7288.55
744.162	7277.93
744.502	7298.27
744.841	7313.64
745.181	7375.55
745.52	7422.11
745.86	7448.32
746.199	7461.88
746.538	7453.97
746.877	7564.25
747.216	7556.34
747.556	7553.18
747.895	7628.2
748.234	7681.08
748.573	7662.1
748.911	7717.01
749.25	7805.37
749.589	7835.2
749.928	7841.76
750.267	7994.07
750.605	7991.13
750.944	8082.65
751.283	8104.8
751.621	8139.15
751.96	8197.91
752.298	8351.35
752.636	8447.84
752.975	8534.62
753.313	8571.23
753.651	8648.06
753.989	8727.84
754.327	8815.52
754.666	8809.87
755.004	8976.87
755.342	9115.17
755.679	9180.93
756.017	9366.24
756.355	9422.96
756.693	9534.37
757.031	9748.15
757.368	9823.17
757.706	9920.12
758.044	10064.98
758.381	10294.57
758.719	10389.49
759.056	10495.92
759.394	10604.17
759.731	10754.45
760.068	10850.49
760.405	10989.24
760.743	11083.48
761.08	11288.9
761.417	11444.15
761.754	11564.37
762.091	11677.14
762.428	11902.22
762.765	11966.85
763.102	12184.69
763.438	12313.28
763.775	12477.57
764.112	12590.56
764.449	12828.74
764.785	12894.51
765.122	13035.07
765.458	13144.67
