Data from hue_00_FLMS001491_16.txt Node
Date: Mon Feb 06 15:29:20 GMT 2017
User: dcchb
Spectrometer: FLMS00149
Trigger mode: 0
Integration Time (sec): 2.000000E-2
Scans to average: 10
Electric dark correction enabled: true
Nonlinearity correction enabled: false
Boxcar width: 0
XAxis mode: Wavelengths
Number of Pixels in Spectrum: 2048
>>>>>Begin Spectral Data<<<<<
341.393	-9.05
341.776	-9.05
342.16	-9.05
342.543	-47.02
342.927	-75.04
343.31	-64.19
343.693	-54.7
344.077	-73.23
344.46	-72.33
344.843	-46.34
345.226	-33.01
345.61	-33.69
345.993	-24.65
346.376	4.96
346.759	31.62
347.142	13.32
347.525	51.06
347.908	41.57
348.291	75.46
348.674	82.92
349.057	101.23
349.44	145.07
349.823	143.94
350.206	153.43
350.588	191.39
350.971	191.62
351.354	209.47
351.737	261.45
352.119	219.19
352.502	263.93
352.884	271.62
353.267	284.5
353.65	295.12
354.032	285.85
354.414	296.02
354.797	324.5
355.179	317.04
355.562	292.41
355.944	321.33
356.326	300.99
356.709	317.49
357.091	331.05
357.473	331.28
357.855	327.66
358.238	344.84
358.62	327.43
359.002	340.09
359.384	332.86
359.766	334.44
360.148	322.24
360.53	337.6
360.912	322.01
361.294	333.76
361.676	344.61
362.057	329.02
362.439	314.78
362.821	338.73
363.203	358.39
363.584	328.11
363.966	316.36
364.348	311.84
364.729	320.2
365.111	307.55
365.493	321.56
365.874	286.98
366.256	312.07
366.637	323.37
367.019	312.07
367.4	306.19
367.781	317.94
368.163	298.06
368.544	333.76
368.925	319.75
369.306	320.2
369.688	306.64
370.069	305.74
370.45	317.94
370.831	322.69
371.212	300.54
371.593	308.68
371.974	339.64
372.355	318.4
372.736	324.05
373.117	315.68
373.498	319.3
373.879	305.74
374.26	321.11
374.641	299.19
375.021	301.45
375.402	320.66
375.783	312.29
376.163	331.28
376.544	332.18
376.925	309.58
377.305	319.98
377.686	301.45
378.066	335.8
378.447	337.6
378.827	341.67
379.208	314.78
379.588	322.92
379.968	312.52
380.349	308
380.729	324.72
381.109	314.55
381.489	307.77
381.87	327.66
382.25	319.3
382.63	312.29
383.01	335.12
383.39	327.43
383.77	331.73
384.15	325.4
384.53	363.37
384.91	343.71
385.29	334.89
385.67	346.19
386.049	351.16
386.429	342.58
386.809	334.44
387.189	362.46
387.568	353.65
387.948	337.83
388.328	340.09
388.707	346.64
389.087	331.73
389.466	356.36
389.846	349.13
390.225	362.69
390.605	353.65
390.984	329.02
391.363	357.26
391.743	361.56
392.122	344.38
392.501	341.9
392.881	359.07
393.26	364.95
393.639	362.01
394.018	372.41
394.397	361.78
394.776	356.59
395.155	365.17
395.534	368.79
395.913	363.59
396.292	364.5
396.671	385.29
397.05	388.45
397.429	366.3
397.808	373.76
398.186	382.12
398.565	391.16
398.944	373.76
399.323	368.11
399.701	376.93
400.08	380.77
400.458	383.25
400.837	393.65
401.215	386.64
401.594	391.16
401.972	388
402.351	420.09
402.729	399.52
403.107	384.61
403.486	387.32
403.864	396.59
404.242	420.09
404.62	413.31
404.999	390.26
405.377	417.15
405.755	398.62
406.133	415.57
406.511	406.3
406.889	426.64
407.267	408.11
407.645	433.42
408.023	410.14
408.401	398.39
408.779	412.86
409.156	418.05
409.534	417.6
409.912	439.07
410.29	405.17
410.667	416.7
411.045	433.65
411.422	423.7
411.8	449.47
412.178	440.88
412.555	463.48
412.933	453.08
413.31	451.5
413.687	450.37
414.065	447.66
414.442	458.73
414.819	456.47
415.197	485.85
415.574	485.17
415.951	485.4
416.328	477.49
416.705	472.97
417.082	491.05
417.46	504.61
417.837	489.24
418.214	508.9
418.591	492.4
418.967	492.63
419.344	511.61
419.721	494.44
420.098	505.96
420.475	514.32
420.852	509.35
421.228	508.45
421.605	515.45
421.982	522.01
422.358	543.7
422.735	511.61
423.111	531.27
423.488	526.3
423.864	553.87
424.241	543.7
424.617	543.93
424.994	550.93
425.37	548.9
425.746	569.01
426.123	541.44
426.499	543.02
426.875	591.16
427.251	572.4
427.627	569.91
428.003	594.09
428.379	581.89
428.756	584.83
429.132	592.96
429.507	568.33
429.883	596.35
430.259	602
430.635	622.34
431.011	617.14
431.387	643.81
431.763	621.21
432.138	617.6
432.514	637.03
432.89	637.26
433.265	639.29
433.641	668.22
434.016	639.29
434.392	640.42
434.767	662.57
435.143	657.14
435.518	691.27
435.894	697.59
436.269	670.93
436.644	693.3
437.02	698.72
437.395	684.04
437.77	677.93
438.145	695.33
438.52	701.89
438.895	703.47
439.271	719.06
439.646	730.59
440.021	739.63
440.395	724.03
440.77	733.98
441.145	736.92
441.52	747.54
441.895	753.86
442.27	743.7
442.645	765.84
443.019	751.38
443.394	751.38
443.769	760.42
444.143	770.36
444.518	773.07
444.892	785.28
445.267	798.38
445.641	789.12
446.016	790.47
446.39	765.39
446.764	797.48
447.139	797.93
447.513	810.13
447.887	797.03
448.262	804.03
448.636	820.76
449.01	831.83
449.384	815.33
449.758	820.76
450.132	828.44
450.506	845.16
450.88	836.8
451.254	853.52
451.628	857.82
452.002	874.54
452.376	863.69
452.75	884.03
453.123	872.28
453.497	880.41
453.871	899.62
454.244	900.53
454.618	907.08
454.992	900.08
455.365	905.05
455.739	918.83
456.112	938.72
456.486	943.92
456.859	964.71
457.232	950.47
457.606	949.11
457.979	980.3
458.352	985.5
458.725	978.94
459.099	998.6
459.472	999.06
459.845	1038.15
460.218	1033.86
460.591	1034.76
460.964	1036.34
461.337	1052.61
461.71	1078.83
462.083	1060.52
462.456	1065.49
462.829	1104.14
463.201	1123.12
463.574	1121.76
463.947	1102.33
464.32	1117.47
464.692	1148.88
465.065	1134.65
465.438	1169.22
465.81	1184.36
466.183	1204.7
466.555	1230.91
466.928	1241.99
467.3	1221.87
467.672	1255.09
468.045	1299.39
468.417	1270.01
468.789	1270.01
469.161	1300.74
469.534	1328.09
469.906	1351.14
470.278	1358.82
470.65	1380.06
471.022	1401.98
471.394	1409.89
471.766	1407.63
472.138	1432.26
472.51	1448.76
472.882	1477.01
473.253	1487.18
473.625	1506.16
473.997	1576.22
474.369	1555.2
474.74	1572.6
475.112	1639.94
475.484	1641.52
475.855	1666.61
476.227	1657.8
476.598	1706.83
476.97	1759.04
477.341	1769.43
477.713	1825.25
478.084	1785.48
478.455	1867.28
478.827	1891.91
479.198	1918.35
479.569	1934.4
479.94	1969.2
480.311	1998.58
480.682	2041.97
481.053	2091.46
481.424	2120.83
481.795	2160.38
482.166	2193.6
482.537	2231.11
482.908	2258.01
483.279	2309.08
483.65	2336.2
484.021	2399.47
484.391	2409.19
484.762	2461.16
485.133	2452.58
485.503	2488.96
485.874	2564.44
486.244	2567.38
486.615	2614.83
486.985	2648.73
487.356	2701.38
487.726	2733.25
488.097	2790.42
488.467	2806.47
488.837	2845.56
489.207	2887.37
489.578	2965.11
489.948	2979.34
490.318	3048.49
490.688	3032.22
491.058	3078.32
491.428	3131.88
491.798	3154.03
492.168	3203.07
492.538	3241.26
492.908	3291.88
493.278	3348.37
493.648	3326.68
494.017	3359.67
494.387	3415.94
494.757	3413
495.126	3490.74
495.496	3475.37
495.866	3554.69
496.235	3542.72
496.605	3558.99
496.974	3604.18
497.344	3631.75
497.713	3679.89
498.082	3684.41
498.452	3728.93
498.821	3747.46
499.19	3745.42
499.559	3809.38
499.928	3806.67
500.298	3796.04
500.667	3876.04
501.036	3878.3
501.405	3923.27
501.774	3907.23
502.143	3961.01
502.512	3984.74
502.88	4030.16
503.249	4027.45
503.618	4019.99
503.987	4069.71
504.356	4043.72
504.724	4125.08
505.093	4142.48
505.462	4131.4
505.83	4162.36
506.199	4201.23
506.567	4257.95
506.936	4273.09
507.304	4252.08
507.672	4263.83
508.041	4311.28
508.409	4332.53
508.777	4356.71
509.145	4375.69
509.514	4407.33
509.882	4453.65
510.25	4436.48
510.618	4409.36
510.986	4459.98
511.354	4474.9
511.722	4553.09
512.09	4567.32
512.458	4539.98
512.826	4564.16
513.193	4608.68
513.561	4609.13
513.929	4639.19
514.297	4610.94
514.664	4712.18
515.032	4656.59
515.4	4721.44
515.767	4713.99
516.135	4764.83
516.502	4776.36
516.869	4812.29
517.237	4819.97
517.604	4799.18
517.972	4861.55
518.339	4854.32
518.706	4860.2
519.073	4936.81
519.44	4910.14
519.808	4944.49
520.175	4930.7
520.542	4948.56
520.909	4964.6
521.276	4979.52
521.643	5065.16
522.009	5108.55
522.376	5094.09
522.743	5090.93
523.11	5153.97
523.477	5235.33
523.843	5214.31
524.21	5221.77
524.577	5235.33
524.943	5253.41
525.31	5302.9
525.676	5344.7
526.043	5348.55
526.409	5398.26
526.776	5427.64
527.142	5435.1
527.508	5456.79
527.874	5513.74
528.241	5551.25
528.607	5529.78
528.973	5613.62
529.339	5579.05
529.705	5591.7
530.071	5661.08
530.437	5705.37
530.803	5715.99
531.169	5791.25
531.535	5809.78
531.901	5715.54
532.267	5837.12
532.632	5850.68
532.998	5855.88
533.364	5916.44
533.73	5917.12
534.095	5984.24
534.461	5941.07
534.826	6016.78
535.192	6005.48
535.557	6047.06
535.923	6064.69
536.288	6099.26
536.653	6086.83
537.019	6132.71
537.384	6123.89
537.749	6177.9
538.114	6117.34
538.479	6180.39
538.845	6217.22
539.21	6249.31
539.575	6283.66
539.94	6293.61
540.305	6398.69
540.67	6396.88
541.034	6334.06
541.399	6486.37
541.764	6390.33
542.129	6460.38
542.494	6436.65
542.858	6500.38
543.223	6503.32
543.587	6616.99
543.952	6577.89
544.316	6619.7
544.681	6645.23
545.045	6656.31
545.41	6710.54
545.774	6706.02
546.138	6750.54
546.503	6745.12
546.867	6760.94
547.231	6803.42
547.595	6862.4
547.959	6825.57
548.324	6837.55
548.688	6873.7
549.052	6936.53
549.416	6944.89
549.779	6962.74
550.143	6934.72
550.507	7019.01
550.871	7040.48
551.235	7063.75
551.599	7049.29
551.962	7116.86
552.326	7124.09
552.689	7215.84
553.053	7162.96
553.417	7202.96
553.78	7270.08
554.143	7242.06
554.507	7338.32
554.87	7294.48
555.234	7375.16
555.597	7313.47
555.96	7359.34
556.323	7387.59
556.686	7392.79
557.05	7418.32
557.413	7416.97
557.776	7461.94
558.139	7460.58
558.502	7525.21
558.865	7563.63
559.228	7605.89
559.59	7592.1
559.953	7618.77
560.316	7673.23
560.679	7684.53
561.041	7700.57
561.404	7735.15
561.767	7832.1
562.129	7792.32
562.492	7901.47
562.854	7844.75
563.217	7902.83
563.579	7876.84
563.941	7962.04
564.304	7995.03
564.666	7983.73
565.028	8005.88
565.39	8048.59
565.753	8138.08
566.115	8148.7
566.477	8202.03
566.839	8151.64
567.201	8259.88
567.563	8256.94
567.925	8247.9
568.287	8347.79
568.648	8314.12
569.01	8383.95
569.372	8376.26
569.734	8374.23
570.095	8472.98
570.457	8479.31
570.819	8498.75
571.18	8524.28
571.542	8626.43
571.903	8653.09
572.265	8709.81
572.626	8732.19
572.987	8757.27
573.349	8794.1
573.71	8868.23
574.071	8896.93
574.432	8965.4
574.794	8984.16
575.155	9019.41
575.516	9053.08
575.877	9130.59
576.238	9190.03
576.599	9290.82
576.96	9332.62
577.32	9394.09
577.681	9498.04
578.042	9573.07
578.403	9702.78
578.763	9648.77
579.124	9773.06
579.485	9919.05
579.845	9986.84
580.206	10020.29
580.566	10233.84
580.927	10214.63
581.287	10435.19
581.648	10540.27
582.008	10576.43
582.368	10710.66
582.728	10861.4
583.089	10977.78
583.449	11090.77
583.809	11286.47
584.169	11480.59
584.529	11551.32
584.889	11862.72
585.249	11971.87
585.609	12102.04
585.969	12262.71
586.329	12377.97
586.688	12668.81
587.048	12877.61
587.408	13061.11
587.768	13205.97
588.127	13429.69
588.487	13624.26
588.846	13891.15
589.206	14047.07
589.565	14254.98
589.925	14482.54
590.284	14714.85
590.643	14896.54
591.003	15206.82
591.362	15518.22
591.721	15637.31
592.08	16034.59
592.44	16216.06
592.799	16427.12
593.158	16736.72
593.517	16960.67
593.876	17280.44
594.235	17458.28
594.593	17712.06
594.952	18002.45
595.311	18198.6
595.67	18504.58
596.029	18958.81
596.387	19019.6
596.746	19425.46
597.104	19574.16
597.463	19795.85
597.822	20191.77
598.18	20464.31
598.538	20637.41
598.897	20983.61
599.255	21114.23
599.613	21636.93
599.972	21716.25
600.33	21997.15
600.688	22326.86
601.046	22530.69
601.404	22885.49
601.762	23075.99
602.12	23398.92
602.478	23611.79
602.836	23900.15
603.194	23917.1
603.552	24290.19
603.91	24456.29
604.268	24786
604.625	24896.28
604.983	25293.11
605.341	25421.92
605.698	25717.05
606.056	26032.07
606.413	26299.41
606.771	26409.23
607.128	26643.81
607.485	26745.72
607.843	27032.5
608.2	27330.11
608.557	27619.37
608.914	27683.78
609.272	27862.08
609.629	28129.19
609.986	28383.87
610.343	28489.18
610.7	28869.06
611.057	28961.71
611.414	29136.39
611.771	29287.58
612.127	29618.87
612.484	29674.23
612.841	29953.77
613.198	29901.57
613.554	30102.7
613.911	30488.22
614.267	30494.33
614.624	30706.3
614.98	30909.23
615.337	31204.82
615.693	31252.95
616.05	31320.07
616.406	31623.11
616.762	31500.63
617.118	31749.21
617.475	32009.99
617.831	32121.63
618.187	32261.96
618.543	32291.57
618.899	32498.79
619.255	32624.66
619.611	32795.96
619.967	33026.46
620.323	33110.53
620.678	33088.38
621.034	33204.76
621.39	33139.45
621.746	33274.82
622.101	33764.75
622.457	33454.7
622.812	33618.76
623.168	33910.05
623.523	33818.98
623.879	34086.77
624.234	33913.9
624.589	34041.12
624.945	34283.6
625.3	34285.64
625.655	34393.66
626.01	34454.9
626.365	34530.6
626.72	34526.76
627.075	34667.32
627.43	34631.39
627.785	34551.62
628.14	34714.1
628.495	34815.79
628.85	34881.1
629.205	34780.09
629.559	35028.9
629.914	34832.52
630.269	34980.54
630.623	34931.5
630.978	34963.36
631.332	35181.89
631.687	35213.75
632.041	35083.58
632.396	35075.45
632.75	35025.28
633.104	35134.66
633.459	35085.62
633.813	35134.88
634.167	35195.9
634.521	35211.49
634.875	35199.51
635.229	35170.13
635.583	35022.79
635.937	35122.9
636.291	35246.52
636.645	35085.62
636.999	35139.85
637.352	35216.01
637.706	35184.37
638.06	35219.62
638.413	35138.27
638.767	35096.69
639.121	35192.96
639.474	35046.52
639.828	35133.07
640.181	35220.08
640.534	35266.86
640.888	35169.23
641.241	34950.71
641.594	35052.4
641.947	35228.21
642.301	34990.93
642.654	35085.17
643.007	35139.4
643.36	35108.89
643.713	35023.47
644.066	35247.42
644.419	35058.05
644.771	34727.89
645.124	34306.65
645.477	34436.37
645.83	34176.49
646.182	34183.95
646.535	33992.76
646.888	33961.13
647.24	34041.58
647.593	34066.66
647.945	34052.88
648.298	33967.68
648.65	33874.8
649.002	33798.42
649.355	33908.92
649.707	33917.06
650.059	34015.81
650.411	34326.09
650.763	34406.54
651.115	34672.52
651.467	34558.4
651.819	34771.5
652.171	34509.13
652.523	34535.12
652.875	34543.48
653.227	34552.98
653.578	34702.35
653.93	34658.28
654.282	34408.8
654.633	34326.99
654.985	34533.32
655.337	34522.24
655.688	34517.5
656.039	34606.31
656.391	34340.1
656.742	34489.02
657.094	34442.47
657.445	34521.34
657.796	34477.72
658.147	34501.68
658.498	34435.24
658.849	34447.89
659.2	34334
659.551	34174.23
659.902	34535.35
660.253	34362.7
660.604	34456.71
660.955	34294.68
661.306	34309.59
661.656	34334
662.007	34338.97
662.358	34343.26
662.708	34239.76
663.059	34209.71
663.409	34207.67
663.76	34374.9
664.11	34419.87
664.461	34358.86
664.811	34372.64
665.161	34217.39
665.511	34145.53
665.862	34255.36
666.212	34354.11
666.562	34455.58
666.912	34292.87
667.262	34382.58
667.612	34320.67
667.962	34265.53
668.312	34170.84
668.662	34425.07
669.011	34220.33
669.361	34196.83
669.711	34226.88
670.06	34079.32
670.41	34012.42
670.76	34043.84
671.109	34100.33
671.459	33972.88
671.808	34041.12
672.157	34148.01
672.507	33893.33
672.856	34062.82
673.205	33925.87
673.554	34196.37
673.904	34100.56
674.253	34075.93
674.602	34031.18
674.951	33498.77
675.3	33334.93
675.649	33886.78
675.998	33900.79
676.346	33862.15
676.695	33985.98
677.044	33762.49
677.393	33840.68
677.741	33952.99
678.09	33721.59
678.438	33764.97
678.787	33863.73
679.135	33781.02
679.484	33535.83
679.832	33888.59
680.181	33597.75
680.529	33614.92
680.877	33577.18
681.225	33298.77
681.573	33751.64
681.922	33571.08
682.27	33340.8
682.618	33394.14
682.966	33274.37
683.314	33280.69
683.661	33202.5
684.009	33143.75
684.357	33132.45
684.705	33054.48
685.053	33072.34
685.4	32925.67
685.748	32831.44
686.095	32811.55
686.443	32715.74
686.79	32626.25
687.138	32821.27
687.485	32585.8
687.832	32642.52
688.18	32550.09
688.527	32471.9
688.874	32386.25
689.221	32340.15
689.568	32228.97
689.915	32250.44
690.262	32167.73
690.609	32102.42
690.956	31906.04
691.303	31952.14
691.65	31820.62
691.997	31812.48
692.344	31654.97
692.69	31756.44
693.037	31600.74
693.383	31442.1
693.73	31494.75
694.077	31418.14
694.423	31429.22
694.769	31274.42
695.116	31146.06
695.462	31195.55
695.808	30947.87
696.155	31044.14
696.501	30729.12
696.847	30867.2
697.193	30602.8
697.539	30689.57
697.885	30590.59
698.231	30520.77
698.577	30466.08
698.923	30209.36
699.269	30124.62
699.614	30004.17
699.96	30006.2
700.306	30088.23
700.651	29947.9
700.997	29845.98
701.342	29781.35
701.688	29751.52
702.033	29714.23
702.379	29734.57
702.724	29546.78
703.069	29641.69
703.415	29335.94
703.76	29194.47
704.105	29242.15
704.45	29276.73
704.795	28979.79
705.14	29009.17
705.485	28931.2
705.83	28941.82
706.175	28960.35
706.52	28708.16
706.865	28696.41
707.209	28684.88
707.554	28469.97
707.899	28634.49
708.243	28453.25
708.588	28410.76
708.932	28071.56
709.277	28182.52
709.621	28269.3
709.966	27987.72
710.31	28112.24
710.654	27897.78
710.998	27973.49
711.342	28018.01
711.687	27825.69
712.031	27730.78
712.375	27656.21
712.719	27635.64
713.063	27640.16
713.407	27640.84
713.75	27418.47
714.094	27416.89
714.438	27367.4
714.782	27382.99
715.125	27141.87
715.469	27379.15
715.812	27131.7
716.156	27054.19
716.499	26965.83
716.843	27098.93
717.186	26997.24
717.53	27146.62
717.873	27004.7
718.216	26953.85
718.559	26778.72
718.902	26710.47
719.246	26703.69
719.589	26567.42
719.932	26625.05
720.275	26553.64
720.617	26492.17
720.96	26508.67
721.303	26372.4
721.646	26328.79
721.989	26173.31
722.331	26299.63
722.674	26331.72
723.016	26256.92
723.359	26172.86
723.701	26192.29
724.044	26061.9
724.386	25942.58
724.729	25918.85
725.071	26035.01
725.413	25828.69
725.755	25822.58
726.097	25771.96
726.439	25645.41
726.782	25760.44
727.124	25733.77
727.465	25665.75
727.807	25538.75
728.149	25464.4
728.491	25642.93
728.833	25561.35
729.175	25355.48
729.516	25308.7
729.858	25419.88
730.199	25341.01
730.541	25311.86
730.882	25213.11
731.224	25343.27
731.565	25156.61
731.906	25132.66
732.248	25113.9
732.589	25052.66
732.93	24963.4
733.271	25007.24
733.612	25042.04
733.953	25007.01
734.294	24901.7
734.635	24811.31
734.976	24842.27
735.317	24736.74
735.658	24735.61
735.999	24644.99
736.339	24778.09
736.68	24807.02
737.021	24666.68
737.361	24564.31
737.702	24696.29
738.042	24544.88
738.383	24535.16
738.723	24576.51
739.063	24360.7
739.404	24471.21
739.744	24519.79
740.084	24233.02
740.424	24445.67
740.764	24329.74
741.104	24422.62
741.444	24302.4
741.784	24150.54
742.124	24309.18
742.464	24151.89
742.804	24088.39
743.143	24147.37
743.483	24116.19
743.823	23964.33
744.162	23981.28
744.502	23885.46
744.841	23852.01
745.181	23992.12
745.52	23811.11
745.86	23849.53
746.199	23769.76
746.538	23812.02
746.877	23867.15
747.216	23936.76
747.556	23791.68
747.895	23692.7
748.234	23655.18
748.573	23636.65
748.911	23572.25
749.25	23510.1
749.589	23428.07
749.928	23423.1
750.267	23492.93
750.605	23381.97
750.944	23236.44
751.283	23288.64
751.621	23389.88
751.96	23118.25
752.298	23088.87
752.636	23134.74
752.975	23036.89
753.313	22971.81
753.651	23046.61
753.989	22991.92
754.327	22837.35
754.666	22800.06
755.004	22807.97
755.342	22775.43
755.679	22705.83
756.017	22703.57
756.355	22591.26
756.693	22655.66
757.031	22589
757.368	22479.39
757.706	22360.98
758.044	22427.87
758.381	22326.18
758.719	22350.58
759.056	22316.01
759.394	22256.8
759.731	22119.18
760.068	22114.88
760.405	22022.01
760.743	21892.74
761.08	21857.94
