Data from hue_120_FLMS001491_00083.txt Node
Date: Tue Feb 07 17:00:08 GMT 2017
User: dcchb
Spectrometer: FLMS00149
Trigger mode: 0
Integration Time (sec): 2.000000E-2
Scans to average: 10
Electric dark correction enabled: true
Nonlinearity correction enabled: false
Boxcar width: 0
XAxis mode: Wavelengths
Number of Pixels in Spectrum: 2048
>>>>>Begin Spectral Data<<<<<
341.393	-4.42
341.776	-4.42
342.16	-4.42
342.543	-62.72
342.927	-74.48
343.31	-60.46
343.693	-78.09
344.077	-81.71
344.46	-72.44
344.843	-51.2
345.226	-66.79
345.61	-32.89
345.993	-9.62
346.376	-8.26
346.759	22.7
347.142	25.41
347.525	51.17
347.908	69.48
348.291	83.71
348.674	99.76
349.057	109.25
349.44	134.11
349.823	134.78
350.206	167.55
350.588	190.6
350.971	210.94
351.354	223.6
351.737	227.66
352.119	251.62
352.502	266.98
352.884	281.22
353.267	268.57
353.65	305.85
354.032	297.94
354.414	302.24
354.797	319.64
355.179	334.78
355.562	336.36
355.944	330.49
356.326	344.95
356.709	327.55
357.091	316.02
357.473	338.85
357.855	339.98
358.238	345.4
358.62	343.37
359.002	337.94
359.384	325.97
359.766	342.01
360.148	333.88
360.53	331.62
360.912	343.37
361.294	332.29
361.676	328.23
362.057	325.29
362.439	338.4
362.821	327.77
363.203	335.91
363.584	325.51
363.966	327.77
364.348	336.59
364.729	341.78
365.111	330.03
365.493	342.01
365.874	324.16
366.256	345.4
366.637	331.16
367.019	323.48
367.4	323.25
367.781	309.92
368.163	297.27
368.544	340.2
368.925	308.79
369.306	328.45
369.688	319.19
370.069	339.52
370.45	309.47
370.831	329.13
371.212	312.18
371.593	324.61
371.974	322.35
372.355	304.05
372.736	336.36
373.117	336.59
373.498	334.78
373.879	328.9
374.26	306.76
374.641	317.15
375.021	321.67
375.402	334.55
375.783	348.34
376.163	334.33
376.544	328
376.925	342.24
377.305	344.04
377.686	314.89
378.066	338.17
378.447	358.73
378.827	344.27
379.208	338.4
379.588	328.23
379.968	337.27
380.349	352.41
380.729	343.37
381.109	353.76
381.489	346.76
381.87	360.09
382.25	345.85
382.63	340.65
383.01	340.2
383.39	350.15
383.77	352.18
384.15	345.63
384.53	344.72
384.91	334.1
385.29	381.56
385.67	350.82
386.049	363.71
386.429	363.25
386.809	380.2
387.189	365.51
387.568	358.51
387.948	363.03
388.328	387.43
388.707	370.94
389.087	377.49
389.466	358.06
389.846	362.12
390.225	378.62
390.605	368.45
390.984	385.17
391.363	392.18
391.743	401.9
392.122	404.61
392.501	370.03
392.881	389.02
393.26	391.73
393.639	387.89
394.018	404.16
394.397	400.99
394.776	413.65
395.155	384.95
395.534	423.36
395.913	392.4
396.292	407.55
396.671	397.38
397.05	425.85
397.429	440.09
397.808	426.08
398.186	420.43
398.565	418.17
398.944	412.52
399.323	419.3
399.701	448.67
400.08	411.16
400.458	423.36
400.837	436.92
401.215	427.21
401.594	438.05
401.972	427.21
402.351	413.65
402.729	443.93
403.107	455
403.486	441.67
403.864	433.08
404.242	474.89
404.62	474.44
404.999	469.69
405.377	446.41
405.755	463.14
406.133	453.42
406.511	464.95
406.889	484.15
407.267	458.17
407.645	467.43
408.023	495.91
408.401	478.05
408.779	472.63
409.156	470.82
409.534	490.48
409.912	492.29
410.29	480.54
410.667	518.73
411.045	502.01
411.422	471.95
411.8	513.31
412.178	527.77
412.555	534.55
412.933	522.12
413.31	511.05
413.687	527.32
414.065	536.81
414.442	520.54
414.819	522.35
415.197	523.47
415.574	559.63
415.951	558.73
416.328	566.19
416.705	556.24
417.082	569.58
417.46	555.56
417.837	559.63
418.214	564.6
418.591	551.04
418.967	570.03
419.344	584.94
419.721	595.11
420.098	599.63
420.475	590.14
420.852	619.74
421.228	582.68
421.605	605.96
421.982	616.35
422.358	619.29
422.735	610.48
423.111	599.63
423.488	608.44
423.864	615.68
424.241	631.04
424.617	633.75
424.994	632.85
425.37	639.86
425.746	640.53
426.123	647.77
426.499	671.49
426.875	653.87
427.251	660.65
427.627	696.8
428.003	690.25
428.379	700.65
428.756	698.84
429.132	688.44
429.507	713.75
429.883	714.88
430.259	732.28
430.635	721.66
431.011	731.61
431.387	724.83
431.763	771.38
432.138	728.67
432.514	742.68
432.89	759.17
433.265	765.5
433.641	755.79
434.016	760.53
434.392	796.24
434.767	787.2
435.143	789.23
435.518	818.61
435.894	798.04
436.269	829
436.644	828.55
437.02	844.37
437.395	854.99
437.77	862.68
438.145	866.06
438.52	863.58
438.895	906.74
439.271	866.29
439.646	892.28
440.021	902
440.395	889.57
440.77	898.15
441.145	905.61
441.52	923.01
441.895	918.72
442.27	929.11
442.645	946.29
443.019	945.16
443.394	951.94
443.769	976.8
444.143	958.94
444.518	986.51
444.892	958.94
445.267	993.07
445.641	993.97
446.016	1011.15
446.39	1009.56
446.764	1031.71
447.139	1007.98
447.513	1058.15
447.887	1002.11
448.262	1003.91
448.636	1028.32
449.01	1047.98
449.384	1055.21
449.758	1073.74
450.132	1048.21
450.506	1087.3
450.88	1114.65
451.254	1092.5
451.628	1098.83
452.002	1118.71
452.376	1115.55
452.75	1120.52
453.123	1138.6
453.497	1174.76
453.871	1174.76
454.244	1167.53
454.618	1188.32
454.992	1198.71
455.365	1181.76
455.739	1233.06
456.112	1236.22
456.486	1254.08
456.859	1268.99
457.232	1281.42
457.606	1295.43
457.979	1297.24
458.352	1319.39
458.725	1330.01
459.099	1361.42
459.472	1373.85
459.845	1379.05
460.218	1414.98
460.591	1403.23
460.964	1408.2
461.337	1454.75
461.71	1462.43
462.083	1495.43
462.456	1497.23
462.829	1521.19
463.201	1544.69
463.574	1546.27
463.947	1574.97
464.32	1611.58
464.692	1602.99
465.065	1627.63
465.438	1708.75
465.81	1686.83
466.183	1682.31
466.555	1742.2
466.928	1762.76
467.3	1778.81
467.672	1779.49
468.045	1844.57
468.417	1850.9
468.789	1899.48
469.161	1892.93
469.534	1941.97
469.906	2000.72
470.278	2004.79
470.65	2032.81
471.022	2078.91
471.394	2133.6
471.766	2173.15
472.138	2219.48
472.51	2262.86
472.882	2262.19
473.253	2328.63
473.625	2384.44
473.997	2422.63
474.369	2459.02
474.74	2524.55
475.112	2575.17
475.484	2638.67
475.855	2695.62
476.227	2713.93
476.598	2800.48
476.97	2853.81
477.341	2934.48
477.713	3009.74
478.084	3068.72
478.455	3186.46
478.827	3244.99
479.198	3343.06
479.569	3389.16
479.94	3483.85
480.311	3634.13
480.682	3716.39
481.053	3818.53
481.424	3909.15
481.795	3984.85
482.166	4073.89
482.537	4192.08
482.908	4302.13
483.279	4389.59
483.65	4515.23
484.021	4641.33
484.391	4740.09
484.762	4815.57
485.133	4960.65
485.503	5059.17
485.874	5235.89
486.244	5312.95
486.615	5468.88
486.985	5628.88
487.356	5756.56
487.726	5920.4
488.097	6079.04
488.467	6180.05
488.837	6291.23
489.207	6418.01
489.578	6588.85
489.948	6764.89
490.318	6893.25
490.688	7015.73
491.058	7104.77
491.428	7357.19
491.798	7473.57
492.168	7705.66
492.538	7739.1
492.908	7977.74
493.278	8154.91
493.648	8216.15
494.017	8431.74
494.387	8517.84
494.757	8597.84
495.126	8812.52
495.496	8947.66
495.866	9016.58
496.235	9166.64
496.605	9337.03
496.974	9432.17
497.344	9605.5
497.713	9712.84
498.082	9882.1
498.452	9994.41
498.821	10085.71
499.19	10178.59
499.559	10321.64
499.928	10458.35
500.298	10541.29
500.667	10782.87
501.036	10714.85
501.405	10964.1
501.774	10991.45
502.143	11105.34
502.512	11187.38
502.88	11316.41
503.249	11323.64
503.618	11444.54
503.987	11553.24
504.356	11679.79
504.724	11753.91
505.093	11783.29
505.462	11876.62
505.83	11961.82
506.199	12148.03
506.567	12273.22
506.936	12294.69
507.304	12417.63
507.672	12505.76
508.041	12569.71
508.409	12589.6
508.777	12724.28
509.145	12780.33
509.514	12848.12
509.882	12975.58
510.25	12974.9
510.618	13084.27
510.986	13151.62
511.354	13214.44
511.722	13328.79
512.09	13366.75
512.458	13370.82
512.826	13563.13
513.193	13561.55
513.561	13563.58
513.929	13688.55
514.297	13802
514.664	13759.74
515.032	13876.34
515.4	13968.09
515.767	13994.76
516.135	14042.67
516.502	13961.31
516.869	14224.36
517.237	14152.72
517.604	14197.47
517.972	14284.7
518.339	14332.83
518.706	14308.42
519.073	14353.62
519.44	14472.71
519.808	14551.81
520.175	14554.97
520.542	14639.49
520.909	14739.6
521.276	14622.77
521.643	14810.1
522.009	14834.06
522.376	14871.8
522.743	14935.07
523.11	15043.32
523.477	15080.83
523.843	15114.96
524.21	15274.5
524.577	15234.73
524.943	15374.84
525.31	15374.61
525.676	15418
526.043	15413.48
526.409	15485.34
526.776	15643.98
527.142	15532.8
527.508	15495.74
527.874	15517.43
528.241	15662.06
528.607	15645.56
528.973	15733.92
529.339	15710.19
529.705	15805.33
530.071	15827.71
530.437	15874.71
530.803	15871.32
531.169	15909.96
531.535	15796.75
531.901	15752.68
532.267	15837.42
532.632	15901.15
532.998	15869.74
533.364	15909.74
533.73	15843.3
534.095	15919.23
534.461	15975.5
534.826	15902.73
535.192	15947.02
535.557	15932.56
535.923	15924.43
536.288	15911.77
536.653	15929.17
537.019	15775.73
537.384	15852.34
537.749	15784.99
538.114	15786.8
538.479	15721.95
538.845	15778.89
539.21	15695.28
539.575	15723.98
539.94	15713.58
540.305	15783.19
540.67	15642.85
541.034	15648.73
541.399	15718.33
541.764	15654.15
542.129	15610.99
542.494	15608.73
542.858	15585.23
543.223	15561.72
543.587	15471.56
543.952	15484.21
544.316	15497.32
544.681	15366.47
545.045	15469.3
545.41	15414.83
545.774	15424.55
546.138	15384.55
546.503	15378.23
546.867	15258.45
547.231	15357.89
547.595	15298.23
547.959	15246.7
548.324	15260.26
548.688	15159.93
549.052	15205.12
549.416	15191.56
549.779	15208.51
550.143	15072.24
550.507	15217.78
550.871	15091.23
551.235	14993.38
551.599	15128.29
551.962	14992.25
552.326	15055.52
552.689	14993.6
553.053	14904.79
553.417	14878.35
553.78	15082.64
554.143	14844
554.507	14930.55
554.87	14929.42
555.234	15010.1
555.597	15017.33
555.96	14846.04
556.323	14957.67
556.686	14918.35
557.05	14912.02
557.413	14930.55
557.776	14904.57
558.139	14881.29
558.502	14886.71
558.865	14871.12
559.228	14887.39
559.59	14920.16
559.953	14954.51
560.316	14953.38
560.679	15032.7
561.041	14985.02
561.404	14941.85
561.767	15065.24
562.129	14946.15
562.492	15067.27
562.854	15014.17
563.217	14991.34
563.579	15105.01
563.941	15108.85
564.304	15164.67
564.666	15283.09
565.028	15069.31
565.39	15185.91
565.753	15234.05
566.115	15169.19
566.477	15253.26
566.839	15282.63
567.201	15373.25
567.563	15305.23
567.925	15399.02
568.287	15315.63
568.648	15402.41
569.01	15345.68
569.372	15328.06
569.734	15328.74
570.095	15508.62
570.457	15464.1
570.819	15428.17
571.18	15510.88
571.542	15517.43
571.903	15517.43
572.265	15549.07
572.626	15582.74
572.987	15631.78
573.349	15565.57
573.71	15662.96
574.071	15732.79
574.432	15754.94
574.794	15860.02
575.155	15712.23
575.516	15642.4
575.877	15755.62
576.238	15723.98
576.599	15762.17
576.96	15693.47
577.32	15792.68
577.681	15845.33
578.042	15828.84
578.403	15814.6
578.763	15799.23
579.124	15789.29
579.485	15850.3
579.845	15899.34
580.206	15862.73
580.566	15850.08
580.927	15887.36
581.287	15880.36
581.648	15832.9
582.008	15950.41
582.368	15856.63
582.728	15899.12
583.089	15902.05
583.449	15865.22
583.809	15862.05
584.169	15814.15
584.529	15756.29
584.889	15847.37
585.249	15755.84
585.609	15738.22
585.969	15728.5
586.329	15704.09
586.688	15743.19
587.048	15797.2
587.408	15715.62
587.768	15676.97
588.127	15639.91
588.487	15675.62
588.846	15754.26
589.206	15639.24
589.565	15636.52
589.925	15712.68
590.284	15672.91
590.643	15724.88
591.003	15731.89
591.362	15707.48
591.721	15651.44
592.08	15672
592.44	15685.34
592.799	15689.63
593.158	15640.59
593.517	15711.1
593.876	15782.51
594.235	15624.55
594.593	15581.84
594.952	15712
595.311	15615.96
595.67	15587.03
596.029	15699.35
596.387	15740.7
596.746	15730.53
597.104	15664.32
597.463	15620.48
597.822	15611.21
598.18	15606.47
598.538	15553.59
598.897	15703.19
599.255	15493.93
599.613	15769.63
599.972	15584.32
600.33	15631.55
600.688	15590.2
601.046	15678.78
601.404	15737.31
601.762	15634.49
602.12	15681.04
602.478	15585
602.836	15589.52
603.194	15607.6
603.552	15634.94
603.91	15542.97
604.268	15632
604.625	15610.99
604.983	15668.39
605.341	15560.59
605.698	15632.46
606.056	15576.41
606.413	15602.17
606.771	15711.78
607.128	15629.29
607.485	15575.96
607.843	15667.71
608.2	15702.74
608.557	15776.63
608.914	15724.66
609.272	15798.78
609.629	15764.43
609.986	15852.56
610.343	15716.07
610.7	15795.39
611.057	15873.13
611.414	15792.68
611.771	15851.21
612.127	15895.5
612.484	15859.79
612.841	15911.09
613.198	15818.67
613.554	15853.69
613.911	15908.38
614.267	15935.73
614.624	15919.68
614.98	15970.53
615.337	15987.25
615.693	15988.83
616.05	16020.47
616.406	16072.22
616.762	15912.22
617.118	16062.05
617.475	15956.52
617.831	16030.19
618.187	16115.16
618.543	16075.16
618.899	16167.36
619.255	16162.84
619.611	16041.71
619.967	16104.99
620.323	16159.22
620.678	16171.43
621.034	16163.97
621.39	16095.49
621.746	16064.08
622.101	16286.9
622.457	16146.34
622.812	16172.33
623.168	16134.14
623.523	16106.12
623.879	16257.75
624.234	16076.74
624.589	16215.27
624.945	16225.43
625.3	16173.91
625.655	16156.74
626.01	16109.51
626.365	16195.38
626.72	16158.32
627.075	16125.32
627.43	16126.91
627.785	16107.47
628.14	16191.54
628.495	16181.59
628.85	16190.86
629.205	16102.5
629.559	16133.46
629.914	16080.35
630.269	16064.76
630.623	16029.06
630.978	16000.36
631.332	16052.78
631.687	16091.65
632.041	16042.39
632.396	15996.51
632.75	16012.79
633.104	15989.06
633.459	15933.24
633.813	15836.97
634.167	15944.99
634.521	15861.38
634.875	15914.48
635.229	15857.31
635.583	15746.58
635.937	15795.84
636.291	15775.73
636.645	15738.89
636.999	15688.05
637.352	15705
637.706	15611.44
638.06	15713.13
638.413	15712
638.767	15666.35
639.121	15706.35
639.474	15594.72
639.828	15704.32
640.181	15603.76
640.534	15675.17
640.888	15592.23
641.241	15497.77
641.594	15571.89
641.947	15649.4
642.301	15592.23
642.654	15590.65
643.007	15589.97
643.36	15537.09
643.713	15541.84
644.066	15492.12
644.419	15468.39
644.771	15423.87
645.124	15257.55
645.477	15236.53
645.83	15069.99
646.182	15050.1
646.535	14941.17
646.888	15030.44
647.24	14934.4
647.593	15012.36
647.945	14987.95
648.298	14867.28
648.65	14874.96
649.002	14843.1
649.355	14994.96
649.707	14969.2
650.059	15009.65
650.411	15206.48
650.763	15193.82
651.115	15400.6
651.467	15223.43
651.819	15219.59
652.171	15307.49
652.523	15222.98
652.875	15221.62
653.227	15171.9
653.578	15333.26
653.93	15248.74
654.282	15078.12
654.633	15231.34
654.985	15124.9
655.337	15229.08
655.688	15214.84
656.039	15259.36
656.391	15097.33
656.742	15151.79
657.094	15236.31
657.445	15285.12
657.796	15230.43
658.147	15159.7
658.498	15225.69
658.849	15235.18
659.2	15162.64
659.551	15142.07
659.902	15135.29
660.253	15180.04
660.604	15276.08
660.955	15194.5
661.306	15177.33
661.656	15181.39
662.007	15135.97
662.358	15231.79
662.708	15286.25
663.059	15209.42
663.409	15256.65
663.76	15284.67
664.11	15209.19
664.461	15345.23
664.811	15317.89
665.161	15290.09
665.511	15179.59
665.862	15236.31
666.212	15279.7
666.562	15201.06
666.912	15217.33
667.262	15201.28
667.612	15152.92
667.962	15315.85
668.312	15201.96
668.662	15340.49
669.011	15178.23
669.361	15236.31
669.711	15243.99
670.06	15187.95
670.41	15167.38
670.76	15192.92
671.109	15179.59
671.459	15164.9
671.808	15238.12
672.157	15152.02
672.507	15018.01
672.856	15065.69
673.205	15073.6
673.554	15072.7
673.904	15003.32
674.253	15122.41
674.602	14986.6
674.951	14871.57
675.3	14767.17
675.649	15108.63
675.998	15008.52
676.346	15006.48
676.695	15071.79
677.044	14922.87
677.393	14985.92
677.741	15004.45
678.09	15024.79
678.438	14842.42
678.787	14943.89
679.135	15015.75
679.484	14854.17
679.832	14926.94
680.181	14833.38
680.529	14798.81
680.877	14717
681.225	14705.47
681.573	14897.56
681.922	14731.24
682.27	14627.51
682.618	14651.47
682.966	14584.35
683.314	14546.84
683.661	14586.61
684.009	14493.73
684.357	14466.16
684.705	14515.88
685.053	14498.25
685.4	14468.19
685.748	14388.42
686.095	14378.48
686.443	14267.07
686.79	14348.87
687.138	14355.2
687.485	14378.48
687.832	14227.97
688.18	14265.94
688.527	14139.84
688.874	14129.22
689.221	14210.35
689.568	14094.19
689.915	14089.67
690.262	14090.12
690.609	14007.19
690.956	13861.88
691.303	13945.95
691.65	13842.45
691.997	13765.61
692.344	13675.22
692.69	13730.59
693.037	13718.61
693.383	13586.86
693.73	13595.9
694.077	13486.52
694.423	13495.34
694.769	13425.73
695.116	13421.21
695.462	13314.55
695.808	13383.25
696.155	13303.03
696.501	13228.68
696.847	13276.81
697.193	13129.02
697.539	13198.85
697.885	13050.83
698.231	13019.87
698.577	12984.39
698.923	12982.58
699.269	12865.3
699.614	12849.7
699.96	12818.97
700.306	12714.79
700.651	12748.46
700.997	12706.66
701.342	12623.27
701.688	12586.43
702.033	12541.69
702.379	12508.24
702.724	12523.16
703.069	12522.03
703.415	12240.45
703.76	12329.27
704.105	12322.26
704.45	12228.03
704.795	12240
705.14	12120.68
705.485	12121.14
705.83	12107.35
706.175	12162.04
706.52	12044.3
706.865	12002.27
707.209	11990.52
707.554	11946.68
707.899	12010.86
708.243	11883.85
708.588	11923.4
708.932	11767.93
709.277	11792.33
709.621	11789.39
709.966	11648.15
710.31	11663.3
710.654	11614.71
710.998	11612.45
711.342	11646.12
711.687	11554.82
712.031	11577.2
712.375	11480.02
712.719	11533.58
713.063	11441.15
713.407	11450.65
713.75	11379.69
714.094	11391.66
714.438	11394.15
714.782	11449.29
715.125	11288.16
715.469	11330.65
715.812	11294.94
716.156	11218.33
716.499	11198.45
716.843	11240.03
717.186	11180.82
717.53	11222.18
717.873	11200.26
718.216	11176.75
718.559	11123.65
718.902	11065.8
719.246	11085.91
719.589	11049.07
719.932	10952.13
720.275	11017.89
720.617	10988.51
720.96	11022.41
721.303	10986.48
721.646	11009.07
721.989	10920.72
722.331	10998.45
722.674	10851.11
723.016	10926.82
723.359	10905.57
723.701	10834.16
724.044	10833.26
724.386	10805.69
724.729	10835.75
725.071	10847.72
725.413	10857.44
725.755	10893.6
726.097	10798.68
726.439	10761.4
726.782	10773.37
727.124	10788.74
727.465	10807.95
727.807	10791.23
728.149	10709.2
728.491	10706.71
728.833	10719.82
729.175	10654.73
729.516	10708.74
729.858	10735.18
730.199	10756.88
730.541	10659.25
730.882	10652.93
731.224	10640.72
731.565	10549.65
731.906	10575.87
732.248	10708.07
732.589	10590.33
732.93	10532.25
733.271	10568.63
733.612	10612.25
733.953	10674.62
734.294	10544.23
734.635	10683.43
734.976	10712.36
735.317	10567.5
735.658	10607.5
735.999	10590.78
736.339	10611.57
736.68	10567.96
737.021	10604.57
737.361	10599.82
737.702	10641.4
738.042	10630.78
738.383	10631.46
738.723	10534.74
739.063	10649.76
739.404	10690.44
739.744	10600.27
740.084	10642.3
740.424	10688.63
740.764	10711.23
741.104	10699.93
741.444	10637.79
741.784	10626.03
742.124	10744.68
742.464	10686.37
742.804	10745.13
743.143	10738.57
743.483	10678.46
743.823	10748.29
744.162	10760.04
744.502	10782.19
744.841	10795.97
745.181	10867.16
745.52	10830.77
745.86	10936.99
746.199	10952.81
746.538	10944.67
746.877	11008.62
747.216	11061.28
747.556	11100.82
747.895	11142.63
748.234	11155.51
748.573	11209.75
748.911	11234.61
749.25	11332.23
749.589	11379.01
749.928	11420.36
750.267	11527.93
750.605	11621.94
750.944	11579.46
751.283	11712.11
751.621	11814.03
751.96	11833.46
752.298	11996.62
752.636	12110.29
752.975	12134.92
753.313	12160.01
753.651	12341.47
753.989	12380.56
754.327	12517.74
754.666	12595.7
755.004	12783.94
755.342	12863.49
755.679	12990.94
756.017	13079.3
