Data from hue_00_FLMS001491_51.txt Node
Date: Mon Feb 06 15:29:54 GMT 2017
User: dcchb
Spectrometer: FLMS00149
Trigger mode: 0
Integration Time (sec): 2.000000E-2
Scans to average: 10
Electric dark correction enabled: true
Nonlinearity correction enabled: false
Boxcar width: 0
XAxis mode: Wavelengths
Number of Pixels in Spectrum: 2048
>>>>>Begin Spectral Data<<<<<
341.393	-4.83
341.776	-4.83
342.16	-4.83
342.543	-71.72
342.927	-58.16
343.31	-67.2
343.693	-70.59
344.077	-68.11
344.46	-47.09
344.843	-42.8
345.226	-35.79
345.61	-24.94
345.993	-23.36
346.376	-2.12
346.759	20.03
347.142	30.42
347.525	11.89
347.908	42.4
348.291	48.73
348.674	97.09
349.057	131.44
349.44	122.62
349.823	149.52
350.206	176.86
350.588	189.29
350.971	214.15
351.354	223.86
351.737	238.55
352.119	244.65
352.502	274.71
352.884	257.31
353.267	283.98
353.65	296.63
354.032	303.18
354.414	292.34
354.797	283.98
355.179	320.13
355.562	314.03
355.944	326.69
356.326	317.42
356.709	316.97
357.091	336.4
357.473	344.31
357.855	334.14
358.238	339.34
358.62	322.39
359.002	354.48
359.384	345.67
359.766	366.01
360.148	323.52
360.53	344.54
360.912	364.43
361.294	341.38
361.676	331.21
362.057	339.12
362.439	330.53
362.821	297.99
363.203	316.74
363.584	314.26
363.966	331.66
364.348	331.43
364.729	303.64
365.111	321.49
365.493	310.64
365.874	305.22
366.256	307.7
366.637	319.23
367.019	320.13
367.4	305.9
367.781	314.94
368.163	316.97
368.544	304.77
368.925	305.67
369.306	331.43
369.688	310.64
370.069	323.3
370.45	317.2
370.831	317.65
371.212	304.77
371.593	297.53
371.974	295.95
372.355	322.84
372.736	318.78
373.117	307.03
373.498	300.7
373.879	308.16
374.26	306.12
374.641	307.48
375.021	296.86
375.402	304.09
375.783	315.84
376.163	324.65
376.544	317.65
376.925	326.46
377.305	331.88
377.686	300.47
378.066	331.66
378.447	316.74
378.827	328.72
379.208	335.95
379.588	320.36
379.968	338.21
380.349	331.66
380.729	334.82
381.109	341.15
381.489	333.24
381.87	332.56
382.25	333.24
382.63	331.21
383.01	321.71
383.39	323.07
383.77	349.51
384.15	327.36
384.53	346.8
384.91	331.66
385.29	328.72
385.67	354.26
386.049	350.64
386.429	342.28
386.809	355.84
387.189	346.8
387.568	332.34
387.948	331.21
388.328	337.08
388.707	348.61
389.087	384.99
389.466	356.29
389.846	378.89
390.225	341.15
390.605	352.22
390.984	337.31
391.363	346.57
391.743	344.09
392.122	368.04
392.501	359.91
392.881	379.79
393.26	356.29
393.639	368.72
394.018	382.05
394.397	358.32
394.776	365.1
395.155	370.3
395.534	372.11
395.913	344.76
396.292	369.4
396.671	360.81
397.05	358.78
397.429	366.46
397.808	386.57
398.186	367.36
398.565	362.39
398.944	378.21
399.323	372.79
399.701	389.06
400.08	368.72
400.458	376.85
400.837	377.08
401.215	369.62
401.594	390.87
401.972	392.9
402.351	370.53
402.729	392
403.107	383.18
403.486	393.58
403.864	393.35
404.242	399
404.62	400.36
404.999	386.8
405.377	400.81
405.755	396.97
406.133	409.4
406.511	399
406.889	407.14
407.267	434.03
407.645	401.26
408.023	424.31
408.401	409.85
408.779	420.7
409.156	425.89
409.534	457.76
409.912	422.5
410.29	433.8
410.667	432.45
411.045	448.49
411.422	441.71
411.8	417.53
412.178	424.76
412.555	460.02
412.933	457.76
413.31	450.3
413.687	464.54
414.065	451.2
414.442	457.3
414.819	447.36
415.197	441.26
415.574	453.46
415.951	440.13
416.328	453.24
416.705	471.54
417.082	460.92
417.46	470.19
417.837	483.97
418.214	494.82
418.591	471.54
418.967	479
419.344	502.27
419.721	480.13
420.098	504.31
420.475	479.22
420.852	505.89
421.228	509.73
421.605	507.7
421.982	490.3
422.358	500.47
422.735	508.6
423.111	510.18
423.488	525.1
423.864	515.38
424.241	521.03
424.617	527.13
424.994	509.73
425.37	517.87
425.746	538.88
426.123	543.4
426.499	532.33
426.875	539.11
427.251	552.22
427.627	516.74
428.003	568.49
428.379	556.28
428.756	547.7
429.132	556.74
429.507	570.3
429.883	578.43
430.259	565.55
430.635	589.05
431.011	591.54
431.387	608.26
431.763	571.88
432.138	615.49
432.514	609.16
432.89	589.5
433.265	626.11
433.641	621.37
434.016	633.12
434.392	623.4
434.767	615.49
435.143	640.12
435.518	628.37
435.894	636.06
436.269	650.75
436.644	629.05
437.02	656.4
437.395	671.99
437.77	666.11
438.145	679.22
438.52	670.41
438.895	671.76
439.271	698.2
439.646	686.68
440.021	686.45
440.395	691.87
440.77	666.56
441.145	689.16
441.52	680.8
441.895	698.65
442.27	733.23
442.645	689.61
443.019	696.39
443.394	723.29
443.769	745.66
444.143	727.35
444.518	731.42
444.892	731.42
445.267	728.94
445.641	741.59
446.016	742.49
446.39	746.34
446.764	751.76
447.139	741.82
447.513	746.56
447.887	774.13
448.262	753.12
448.636	755.15
449.01	769.39
449.384	774.13
449.758	767.58
450.132	779.56
450.506	805.09
450.88	805.54
451.254	789.05
451.628	786.34
452.002	795.83
452.376	801.02
452.75	830.18
453.123	832.66
453.497	839.89
453.871	830.85
454.244	846.22
454.618	860.23
454.992	857.07
455.365	849.84
455.739	860.23
456.112	862.04
456.486	890.74
456.859	888.93
457.232	903.17
457.606	884.19
457.979	908.14
458.352	927.12
458.725	919.89
459.099	931.87
459.472	949.04
459.845	957.4
460.218	949.27
460.591	973.67
460.964	944.07
461.337	973.67
461.71	985.65
462.083	995.82
462.456	993.34
462.829	1009.15
463.201	1020.91
463.574	1028.14
463.947	1029.94
464.32	1029.94
464.692	1064.52
465.065	1085.76
465.438	1069.27
465.81	1078.08
466.183	1094.35
466.555	1123.05
466.928	1120.79
467.3	1114.69
467.672	1148.13
468.045	1167.79
468.417	1149.94
468.789	1165.76
469.161	1199.21
469.534	1192.2
469.906	1215.02
470.278	1234.46
470.65	1241.24
471.022	1268.13
471.394	1289.15
471.766	1298.41
472.138	1301.12
472.51	1340.9
472.882	1369.6
473.253	1362.82
473.625	1390.61
473.997	1388.81
474.369	1396.94
474.74	1429.48
475.112	1462.7
475.484	1471.06
475.855	1514.68
476.227	1543.83
476.598	1576.82
476.97	1579.99
477.341	1594.68
477.713	1635.8
478.084	1653.21
478.455	1677.61
478.827	1686.88
479.198	1740.21
479.569	1774.78
479.94	1783.6
480.311	1844.39
480.682	1873.99
481.053	1888.91
481.424	1904.72
481.795	1942.92
482.166	1978.39
482.537	1978.39
482.908	2055
483.279	2047.55
483.65	2141.78
484.021	2151.5
484.391	2157.82
484.762	2195.56
485.133	2208.44
485.503	2256.35
485.874	2328.67
486.244	2323.92
486.615	2356.69
486.985	2425.16
487.356	2470.58
487.726	2475.78
488.097	2514.65
488.467	2531.6
488.837	2581.32
489.207	2610.92
489.578	2639.62
489.948	2685.72
490.318	2738.83
490.688	2732.5
491.058	2791.71
491.428	2825.6
491.798	2876.9
492.168	2922.55
492.538	2940.4
492.908	2950.35
493.278	2965.71
493.648	2991.48
494.017	3050
494.387	3094.75
494.757	3104.01
495.126	3136.33
495.496	3161.64
495.866	3158.93
496.235	3179.49
496.605	3249.1
496.974	3290.45
497.344	3328.64
497.713	3280.73
498.082	3347.62
498.452	3381.52
498.821	3396.21
499.19	3390.79
499.559	3432.59
499.928	3474.85
500.298	3451.8
500.667	3514.85
501.036	3532.25
501.405	3551.69
501.774	3563.66
502.143	3605.02
502.512	3569.76
502.88	3633.72
503.249	3654.96
503.618	3683.89
503.987	3728.86
504.356	3689.08
504.724	3737.44
505.093	3744
505.462	3754.84
505.83	3818.12
506.199	3755.07
506.567	3840.27
506.936	3810.66
507.304	3877.55
507.672	3867.38
508.041	3930.66
508.409	3877.33
508.777	3965.01
509.145	3960.49
509.514	3972.24
509.882	3974.95
510.25	3995.29
510.618	4002.97
510.986	3990.77
511.354	4029.87
511.722	4069.19
512.09	4091.79
512.458	4113.03
512.826	4092.69
513.193	4125.68
513.561	4103.08
513.929	4130.2
514.297	4199.35
514.664	4205
515.032	4231.44
515.4	4209.07
515.767	4214.95
516.135	4255.85
516.502	4231.89
516.869	4285.45
517.237	4326.58
517.604	4336.98
517.972	4390.31
518.339	4346.92
518.706	4404.77
519.073	4413.81
519.44	4414.94
519.808	4411.78
520.175	4455.17
520.542	4499.23
520.909	4513.69
521.276	4494.71
521.643	4543.52
522.009	4469.85
522.376	4539.91
522.743	4569.51
523.11	4632.11
523.477	4614.26
523.843	4668.27
524.21	4709.85
524.577	4709.17
524.943	4758.21
525.31	4746.68
525.676	4808.15
526.043	4804.76
526.409	4840.47
526.776	4890.63
527.142	4854.02
527.508	4871.43
527.874	4878.21
528.241	4937.41
528.607	4990.29
528.973	5016.96
529.339	5004.3
529.705	5032.55
530.071	5055.6
530.437	5103.51
530.803	5104.19
531.169	5127.01
531.535	5082.49
531.901	5179.21
532.267	5179.44
532.632	5200.68
532.998	5218.31
533.364	5245.65
533.73	5258.99
534.095	5322.26
534.461	5272.77
534.826	5336.95
535.192	5358.42
535.557	5402.94
535.923	5440.45
536.288	5473.44
536.653	5473.22
537.019	5455.14
537.384	5471.41
537.749	5486.55
538.114	5542.59
538.479	5529.49
538.845	5573.33
539.21	5577.17
539.575	5582.82
539.94	5640.9
540.305	5646.32
540.67	5607.23
541.034	5649.71
541.399	5715.7
541.764	5703.72
542.129	5684.29
542.494	5762.02
542.858	5834.11
543.223	5779.65
543.587	5881.34
543.952	5856.48
544.316	5876.14
544.681	5881.12
545.045	5945.3
545.41	5997.72
545.774	6002.7
546.138	5971.96
546.503	6000.44
546.867	6047.21
547.231	6033.43
547.595	6108.23
547.959	6085.86
548.324	6162.47
548.688	6180.09
549.052	6180.32
549.416	6168.11
549.779	6154.1
550.143	6218.28
550.507	6268.45
550.871	6324.04
551.235	6313.87
551.599	6297.15
551.962	6307.32
552.326	6353.87
552.689	6387.77
553.053	6372.86
553.417	6364.04
553.78	6454.89
554.143	6494.21
554.507	6453.08
554.87	6465.96
555.234	6564.71
555.597	6537.37
555.96	6560.42
556.323	6540.99
556.686	6588.22
557.05	6647.42
557.413	6588.44
557.776	6672.96
558.139	6694.43
558.502	6683.13
558.865	6684.94
559.228	6765.61
559.59	6862.79
559.953	6762.68
560.316	6840.64
560.679	6862.33
561.041	6870.24
561.404	6931.94
561.767	6936.46
562.129	6878.15
562.492	6920.41
562.854	6985.72
563.217	6923.58
563.579	6996.12
563.941	7066.4
564.304	7069.79
564.666	7085.6
565.028	7068.88
565.39	7155.43
565.753	7182.33
566.115	7168.54
566.477	7216.22
566.839	7230.23
567.201	7288.09
567.563	7253.74
567.925	7340.29
568.287	7376.44
568.648	7353.85
569.01	7446.95
569.372	7471.36
569.734	7432.49
570.095	7557.46
570.457	7562.88
570.819	7584.35
571.18	7579.6
571.542	7627.06
571.903	7629.77
572.265	7719.71
572.626	7773.72
572.987	7776.21
573.349	7846.71
573.71	7906.15
574.071	7961.97
574.432	7974.62
574.794	8017.78
575.155	8089.87
575.516	8060.72
575.877	8180.72
576.238	8258.46
576.599	8254.84
576.96	8343.65
577.32	8377.1
577.681	8451.67
578.042	8550.42
578.403	8598.33
578.763	8730.53
579.124	8751.78
579.485	8876.07
579.845	8945.44
580.206	9005.33
580.566	9143.86
580.927	9206.9
581.287	9337.52
581.648	9448.25
582.008	9589.27
582.368	9648.48
582.728	9878.53
583.089	9858.64
583.449	10043.27
583.809	10183.83
584.169	10396.93
584.529	10509.24
584.889	10743.36
585.249	10787.65
585.609	10979.29
585.969	11209.79
586.329	11292.05
586.688	11593.73
587.048	11828.98
587.408	11924.8
587.768	12147.62
588.127	12314.62
588.487	12567.49
588.846	12856.3
589.206	12979.46
589.565	13144.65
589.925	13562.5
590.284	13652.89
590.643	13768.14
591.003	14075.93
591.362	14413.32
591.721	14593.2
592.08	14869.13
592.44	15186.41
592.799	15477.93
593.158	15700.97
593.517	15899.61
593.876	16199.26
594.235	16447.84
594.593	16767.61
594.952	17011.45
595.311	17249.18
595.67	17573.92
596.029	17920.57
596.387	18188.82
596.746	18514.23
597.104	18751.06
597.463	18936.37
597.822	19305.85
598.18	19543.81
598.538	19731.15
598.897	20201.87
599.255	20287.97
599.613	20793.27
599.972	20930.89
600.33	21293.59
600.688	21502.4
601.046	21785.78
601.404	22120.46
601.762	22434.58
602.12	22733.1
602.478	22987.11
602.836	23185.29
603.194	23406.31
603.552	23652.17
603.91	23896.01
604.268	24105.95
604.625	24289.22
604.983	24738.02
605.341	24778.02
605.698	25228.4
606.056	25456.42
606.413	25556.53
606.771	25907.71
607.128	26156.74
607.485	26339.11
607.843	26548.82
608.2	26918.98
608.557	27132.76
608.914	27391.51
609.272	27643.26
609.629	27819.52
609.986	28057.03
610.343	28104.71
610.7	28605.26
611.057	28676.9
611.414	28832.38
611.771	28980.62
612.127	29330.67
612.484	29449.76
612.841	29744.67
613.198	29707.61
613.554	29848.17
613.911	30211.78
614.267	30412
614.624	30564.99
614.98	30656.51
615.337	30903.28
615.693	30965.65
616.05	31248.13
616.406	31583.72
616.762	31461.01
617.118	31585.75
617.475	31706.88
617.831	31851.96
618.187	31992.29
618.543	32190.48
618.899	32500.08
619.255	32508.44
619.611	32742.33
619.967	32765.83
620.323	32940.97
620.678	32957.01
621.034	33003.79
621.39	32990.91
621.746	33185.26
622.101	33640.84
622.457	33561.07
622.812	33580.05
623.168	33872.02
623.523	33869.53
623.879	33924.9
624.234	33809.87
624.589	34146.81
624.945	34036.08
625.3	34316.08
625.655	34309.07
626.01	34444.43
626.365	34481.27
626.72	34530.53
627.075	34550.87
627.43	34629.51
627.785	34749.74
628.14	34741.15
628.495	34736.63
628.85	34876.96
629.205	34808.27
629.559	35100.01
629.914	34800.58
630.269	35052.78
630.623	35037.86
630.978	34879.68
631.332	35078.99
631.687	35250.97
632.041	35193.79
632.396	35209.16
632.75	35098.2
633.104	35307.91
633.459	35123.06
633.813	35132.78
634.167	35053.68
634.521	35149.27
634.875	35176.62
635.229	35248.71
635.583	35004.19
635.937	35231.98
636.291	35270.85
636.645	35175.26
636.999	35241.7
637.352	35336.84
637.706	35142.49
638.06	35297.52
638.413	35128.26
638.767	35144.75
639.121	35347.23
639.474	35130.52
639.828	35264.52
640.181	35152.44
640.534	35319.66
640.888	35204.19
641.241	35019.79
641.594	35036.06
641.947	35334.35
642.301	35058.43
642.654	35125.77
643.007	35058.2
643.36	35128.48
643.713	35085.77
644.066	35267.24
644.419	34980.46
644.771	34756.29
645.124	34465.9
645.477	34419.58
645.83	34260.48
646.182	34174.16
646.535	34035.63
646.888	34178.9
647.24	33946.59
647.593	34239.92
647.945	34040.15
648.298	33945.46
648.65	33844.68
649.002	33933.26
649.355	33984.33
649.707	33979.13
650.059	34104.1
650.411	34502.74
650.763	34552.68
651.115	34960.8
651.467	34734.14
651.819	34777.98
652.171	34600.81
652.523	34576.18
652.875	34594.26
653.227	34495.73
653.578	34775.5
653.93	34619.8
654.282	34583.64
654.633	34435.39
654.985	34608.95
655.337	34475.39
655.688	34634.94
656.039	34739.11
656.391	34410.99
656.742	34355.85
657.094	34546.8
657.445	34650.53
657.796	34512
658.147	34493.92
658.498	34393.59
658.849	34571.44
659.2	34592.9
659.551	34364.44
659.902	34630.19
660.253	34417.77
660.604	34459.35
660.955	34316.98
661.306	34494.38
661.656	34394.27
662.007	34415.51
662.358	34246.47
662.708	34340.71
663.059	34336.87
663.409	34174.16
663.76	34358.33
664.11	34283.08
664.461	34458.9
664.811	34315.17
665.161	34321.72
665.511	34205.8
665.862	34328.5
666.212	34305.23
666.562	34303.42
666.912	34172.58
667.262	34244.21
667.612	34283.76
667.962	34319.69
668.312	34146.81
668.662	34336.64
669.011	34283.99
669.361	34124.22
669.711	34182.97
670.06	34210.77
670.41	34181.39
670.76	34095.74
671.109	34240.37
671.459	34179.36
671.808	34126.02
672.157	34032.92
672.507	33975.29
672.856	33945.46
673.205	34088.06
673.554	34113.14
673.904	33888.97
674.253	34249.86
674.602	34050.09
674.951	33600.84
675.3	33451.47
675.649	33852.36
675.998	33995.18
676.346	33913.6
676.695	34018.91
677.044	33759.03
677.393	33887.39
677.741	33927.61
678.09	33867.73
678.438	33777.11
678.787	33758.8
679.135	33826.14
679.484	33477.45
679.832	33703.89
680.181	33521.07
680.529	33568.07
680.877	33503.67
681.225	33484.23
681.573	33599.94
681.922	33386.61
682.27	33355.65
682.618	33272.03
682.966	33232.71
683.314	33147.74
683.661	33263.45
684.009	33121.53
684.357	33132.83
684.705	32985.94
685.053	33044.47
685.4	33001.53
685.748	32771.26
686.095	32823.46
686.443	32699.39
686.79	32663.46
687.138	32766.06
687.485	32707.08
687.832	32661.2
688.18	32586.86
688.527	32378.27
688.874	32447.2
689.221	32387.09
689.568	32419.85
689.915	32195.9
690.262	32090.6
690.609	32012.41
690.956	31934.89
691.303	31864.84
691.65	31680.44
691.997	31817.84
692.344	31575.13
692.69	31651.29
693.037	31713.66
693.383	31426.89
693.73	31443.61
694.077	31320.45
694.423	31311.86
694.769	31198.19
695.116	31043.17
695.462	31030.96
695.808	30981.93
696.155	30888.37
696.501	30845.43
696.847	30763.85
697.193	30681.14
697.539	30820.35
697.885	30445.67
698.231	30436.86
698.577	30374.94
698.923	30310.76
699.269	30166.58
699.614	30032.12
699.96	29994.15
700.306	30021.5
700.651	29833.48
700.997	29854.5
701.342	29757.1
701.688	29639.81
702.033	29635.07
702.379	29524.56
702.724	29597.56
703.069	29412.25
703.415	29103.56
703.76	29189.43
704.105	29263.55
704.45	29061.98
704.795	29025.82
705.14	28932.71
705.485	28940.62
705.83	28742.44
706.175	28754.64
706.52	28799.38
706.865	28540.18
707.209	28636.68
707.554	28508.77
707.899	28502.67
708.243	28375.89
708.588	28396.46
708.932	28211.15
709.277	28138.16
709.621	28219.06
709.966	28043.7
710.31	28134.54
710.654	27855
710.998	27959.63
711.342	27927.32
711.687	27829.69
712.031	27651.17
712.375	27579.76
712.719	27745.17
713.063	27534.78
713.407	27686.42
713.75	27481.68
714.094	27574.56
714.438	27392.42
714.782	27315.36
715.125	27278.29
715.469	27244.85
715.812	27061.8
716.156	27024.52
716.499	26970.05
716.843	26930.73
717.186	26852.32
717.53	27096.38
717.873	26990.39
718.216	26870.4
718.559	26713.34
718.902	26665.2
719.246	26655.49
719.589	26569.84
719.932	26442.61
720.275	26454.36
720.617	26482.16
720.96	26447.58
721.303	26344.08
721.646	26279.45
721.989	26251.2
722.331	26252.33
722.674	26165.33
723.016	26148.61
723.359	26170.07
723.701	26149.06
724.044	25951.78
724.386	25783.19
724.729	25982.51
725.071	25893.25
725.413	25997.42
725.755	25807.6
726.097	25691.22
726.439	25557.44
726.782	25655.06
727.124	25695.28
727.465	25582.75
727.807	25495.29
728.149	25428.85
728.491	25485.8
728.833	25544.55
729.175	25465.69
729.516	25374.39
729.858	25272.47
730.199	25354.05
730.541	25263.43
730.882	25216.88
731.224	25333.94
731.565	25077
731.906	25077.22
732.248	25176.43
732.589	25067.96
732.93	24917.68
733.271	24915.87
733.612	24896.89
733.953	24935.08
734.294	24781.86
734.635	24778.92
734.976	24825.48
735.317	24605.14
735.658	24761.52
735.999	24660.28
736.339	24647.4
736.68	24667.97
737.021	24551.36
737.361	24505.03
737.702	24646.95
738.042	24498.93
738.383	24460.74
738.723	24436.11
739.063	24266.17
739.404	24446.28
739.744	24242.67
740.084	24260.52
740.424	24233.4
740.764	24274.31
741.104	24380.07
741.444	24108.43
741.784	24101.65
742.124	24125.83
742.464	24154.53
742.804	24007.42
743.143	23998.15
743.483	23925.39
743.823	23859.4
744.162	23891.26
744.502	23971.71
744.841	23792.28
745.181	23876.12
745.52	23784.15
745.86	23818.95
746.199	23624.83
746.538	23724.49
746.877	23818.5
747.216	23625.51
747.556	23618.05
747.895	23586.64
748.234	23553.65
748.573	23516.81
748.911	23530.37
749.25	23399.53
749.589	23298.96
749.928	23328.12
750.267	23372.63
750.605	23279.08
750.944	23274.78
751.283	23193.66
751.621	23302.58
751.96	23137.61
752.298	23079.76
752.636	23108.23
752.975	22999.08
753.313	22943.94
753.651	23054.22
753.989	22795.25
754.327	22981.01
754.666	22797.28
755.004	22854.23
755.342	22778.98
755.679	22676.83
756.017	22516.84
756.355	22634.57
756.693	22553.45
757.031	22468.48
757.368	22486.33
757.706	22403.17
758.044	22284.53
758.381	22352.32
758.719	22249.27
759.056	22219.44
759.394	22101.26
759.731	22032.78
760.068	22049.5
760.405	21978.77
760.743	21912.33
761.08	21956.63
761.417	21810.87
