Data from hue_22_FLMS001491_00073.txt Node
Date: Tue Feb 07 17:10:37 GMT 2017
User: dcchb
Spectrometer: FLMS00149
Trigger mode: 0
Integration Time (sec): 2.000000E-2
Scans to average: 10
Electric dark correction enabled: true
Nonlinearity correction enabled: false
Boxcar width: 0
XAxis mode: Wavelengths
Number of Pixels in Spectrum: 2048
>>>>>Begin Spectral Data<<<<<
341.393	-34.86
341.776	-34.86
342.16	-34.86
342.543	-67.63
342.927	-66.27
343.31	-59.94
343.693	-68.3
344.077	-52.26
344.46	-59.94
344.843	-45.93
345.226	-52.48
345.61	-41.41
345.993	-19.94
346.376	1.07
346.759	8.53
347.142	29.77
347.525	56.67
347.908	66.16
348.291	66.38
348.674	78.81
349.057	92.82
349.44	112.26
349.823	160.62
350.206	150.45
350.588	196.1
350.971	208.07
351.354	229.32
351.737	246.04
352.119	254.17
352.502	260.28
352.884	289.65
353.267	280.84
353.65	298.01
354.032	305.47
354.414	294.4
354.797	319.71
355.179	307.96
355.562	328.52
355.944	325.36
356.326	329.2
356.709	319.48
357.091	330.78
357.473	346.15
357.855	355.87
358.238	341.63
358.62	330.56
359.002	347.73
359.384	346.6
359.766	343.21
360.148	318.81
360.53	328.07
360.912	336.43
361.294	326.49
361.676	324
362.057	321.07
362.439	319.03
362.821	336.21
363.203	315.87
363.584	300.27
363.966	324.23
364.348	325.13
364.729	322.65
365.111	322.19
365.493	338.92
365.874	326.94
366.256	312.48
366.637	297.79
367.019	324.23
367.4	315.42
367.781	321.74
368.163	304.57
368.544	328.52
368.925	302.76
369.306	313.16
369.688	321.29
370.069	320.39
370.45	308.18
370.831	319.26
371.212	307.28
371.593	316.55
371.974	318.35
372.355	331.01
372.736	338.24
373.117	295.3
373.498	322.42
373.879	321.07
374.26	320.16
374.641	318.35
375.021	324.91
375.402	324
375.783	318.81
376.163	326.71
376.544	340.05
376.925	357.45
377.305	330.78
377.686	326.26
378.066	337.56
378.447	323.55
378.827	332.59
379.208	354.51
379.588	355.19
379.968	322.87
380.349	333.04
380.729	331.01
381.109	342.08
381.489	325.81
381.87	321.29
382.25	357.9
382.63	349.76
383.01	352.48
383.39	344.57
383.77	333.72
384.15	343.89
384.53	357.45
384.91	331.46
385.29	348.18
385.67	325.81
386.049	359.48
386.429	358.8
386.809	357.45
387.189	338.92
387.568	355.41
387.948	359.71
388.328	344.12
388.707	360.39
389.087	382.98
389.466	348.63
389.846	363.78
390.225	376.66
390.605	365.58
390.984	352.02
391.363	366.49
391.743	377.56
392.122	357.22
392.501	367.84
392.881	355.87
393.26	365.13
393.639	359.48
394.018	371.91
394.397	401.29
394.776	378.46
395.155	385.02
395.534	382.98
395.913	377.56
396.292	379.59
396.671	392.02
397.05	397.67
397.429	374.85
397.808	367.84
398.186	392.48
398.565	395.41
398.944	385.24
399.323	398.13
399.701	411.91
400.08	391.12
400.458	390.22
400.837	380.5
401.215	397.22
401.594	387.05
401.972	401.97
402.351	398.35
402.729	394.96
403.107	414.85
403.486	417.11
403.864	411.91
404.242	405.36
404.62	408.07
404.999	406.71
405.377	401.51
405.755	420.95
406.133	401.06
406.511	406.94
406.889	425.92
407.267	439.93
407.645	411.46
408.023	446.71
408.401	435.64
408.779	435.41
409.156	439.03
409.534	427.73
409.912	448.75
410.29	458.01
410.667	458.46
411.045	454.39
411.422	456.65
411.8	467.05
412.178	444.9
412.555	481.29
412.933	463.66
413.31	463.43
413.687	468.41
414.065	469.76
414.442	475.19
414.819	468.18
415.197	488.97
415.574	498.01
415.951	479.03
416.328	467.73
416.705	487.84
417.082	473.15
417.46	493.49
417.837	507.27
418.214	485.58
418.591	508.86
418.967	495.75
419.344	499.59
419.721	504.34
420.098	516.99
420.475	517.44
420.852	515.41
421.228	524.9
421.605	516.99
421.982	533.94
422.358	561.06
422.735	539.14
423.111	551.57
423.488	537.1
423.864	550.21
424.241	553.15
424.617	541.85
424.994	559.25
425.37	572.13
425.746	565.35
426.123	564
426.499	547.05
426.875	548.18
427.251	566.48
427.627	573.04
428.003	582.98
428.379	576.65
428.756	571.45
429.132	574.62
429.507	569.19
429.883	582.53
430.259	588.85
430.635	609.19
431.011	604.22
431.387	608.74
431.763	620.94
432.138	633.37
432.514	635.63
432.89	641.06
433.265	629.53
433.641	660.72
434.016	672.92
434.392	642.41
434.767	646.93
435.143	664.33
435.518	673.6
435.894	664.56
436.269	688.29
436.644	681.28
437.02	668.17
437.395	699.36
437.77	695.29
438.145	701.17
438.52	698.46
438.895	705.69
439.271	705.91
439.646	736.2
440.021	703.65
440.395	750.43
440.77	732.81
441.145	752.24
441.52	747.27
441.895	752.24
442.27	761.28
442.645	757.21
443.019	771.22
443.394	742.97
443.769	766.48
444.143	783.65
444.518	774.61
444.892	778.68
445.267	788.17
445.641	764.9
446.016	781.39
446.39	783.65
446.764	819.81
447.139	804.89
447.513	789.3
447.887	814.61
448.262	828.62
448.636	829.07
449.01	825.46
449.384	843.99
449.758	863.65
450.132	866.81
450.506	846.47
450.88	850.54
451.254	843.31
451.628	864.33
452.002	882.41
452.376	866.59
452.75	876.76
453.123	893.03
453.497	928.28
453.871	896.87
454.244	926.02
454.618	910.65
454.992	934.38
455.365	929.64
455.739	963.76
456.112	941.16
456.486	958.34
456.859	959.47
457.232	992.01
457.606	951.33
457.979	980.93
458.352	1044.66
458.725	1019.8
459.099	1024.1
459.472	1026.36
459.845	1033.36
460.218	1070.88
460.591	1047.83
460.964	1064.1
461.337	1094.83
461.71	1110.65
462.083	1116.07
462.456	1160.14
462.829	1137.09
463.201	1129.86
463.574	1147.03
463.947	1159.01
464.32	1177.31
464.692	1195.62
465.065	1207.37
465.438	1195.62
465.81	1230.87
466.183	1264.77
466.555	1245.33
466.928	1266.12
467.3	1269.29
467.672	1283.75
468.045	1309.29
468.417	1320.81
468.789	1357.42
469.161	1371.21
469.534	1392.9
469.906	1394.71
470.278	1403.75
470.65	1432
471.022	1455.5
471.394	1441.94
471.766	1509.96
472.138	1523.75
472.51	1519.9
472.882	1563.97
473.253	1562.39
473.625	1589.73
473.997	1591.77
474.369	1660.46
474.74	1652.33
475.112	1693.91
475.484	1733.68
475.855	1734.14
476.227	1751.54
476.598	1826.34
476.97	1834.47
477.341	1880.57
477.713	1914.7
478.084	1948.59
478.455	1967.8
478.827	2009.61
479.198	2020.46
479.569	2040.79
479.94	2121.7
480.311	2136.38
480.682	2197.17
481.053	2256.83
481.424	2299.32
481.795	2294.35
482.166	2326.44
482.537	2371.41
482.908	2445.75
483.279	2441.46
483.65	2476.26
484.021	2588.8
484.391	2600.78
484.762	2597.84
485.133	2665.18
485.503	2692.08
485.874	2734.56
486.244	2829.93
486.615	2815.69
486.985	2914.22
487.356	2931.84
487.726	2963.71
488.097	3009.13
488.467	3059.07
488.837	3130.71
489.207	3200.76
489.578	3209.12
489.948	3255.9
490.318	3312.85
490.688	3342
491.058	3414.54
491.428	3390.81
491.798	3477.82
492.168	3542.22
492.538	3552.17
492.908	3598.04
493.278	3678.49
493.648	3660.41
494.017	3706.29
494.387	3761.43
494.757	3765.95
495.126	3844.14
495.496	3861.76
495.866	3919.61
496.235	3938.37
496.605	3929.11
496.974	4000.52
497.344	4026.96
497.713	4092.94
498.082	4071.7
498.452	4120.97
498.821	4139.95
499.19	4162.55
499.559	4169.1
499.928	4262.66
500.298	4257.68
500.667	4307.17
501.036	4296.33
501.405	4358.92
501.774	4417.23
502.143	4408.19
502.512	4425.82
502.88	4448.41
503.249	4486.15
503.618	4455.87
503.987	4544
504.356	4539.71
504.724	4572.93
505.093	4619.48
505.462	4604.12
505.83	4625.58
506.199	4711.46
506.567	4736.54
506.936	4726.15
507.304	4803.43
507.672	4845.24
508.041	4834.39
508.409	4890.44
508.777	4852.92
509.145	4927.5
509.514	4923.66
509.882	4960.94
510.25	4955.07
510.618	5000.49
510.986	4967.95
511.354	5073.93
511.722	5037.33
512.09	5109.19
512.458	5064.9
512.826	5146.93
513.193	5156.42
513.561	5228.96
513.929	5222.63
514.297	5265.12
514.664	5269.41
515.032	5296.3
515.4	5336.53
515.767	5307.6
516.135	5334.72
516.502	5374.49
516.869	5437.09
517.237	5432.12
517.604	5409.29
517.972	5467.82
518.339	5491.78
518.706	5485
519.073	5548.95
519.44	5513.47
519.808	5559.8
520.175	5616.74
520.542	5628.27
520.909	5646.57
521.276	5607.25
521.643	5735.39
522.009	5675.05
522.376	5689.51
522.743	5748.72
523.11	5796.85
523.477	5848.38
523.843	5880.24
524.21	5917.08
524.577	5996.17
524.943	5976.06
525.31	6005.44
525.676	6024.64
526.043	6085.66
526.409	6169.27
526.776	6147.35
527.142	6162.72
527.508	6214.02
527.874	6264.86
528.241	6265.99
528.607	6247.01
528.973	6371.75
529.339	6372.21
529.705	6404.75
530.071	6546.66
530.437	6505.99
530.803	6454.24
531.169	6534.23
531.535	6535.59
531.901	6560.67
532.267	6545.31
532.632	6609.49
532.998	6619.43
533.364	6742.14
533.73	6754.57
534.095	6791.4
534.461	6791.4
534.826	6830.72
535.192	6800.44
535.557	6872.53
535.923	6897.84
536.288	6921.57
536.653	6916.37
537.019	7002.02
537.384	6990.04
537.749	7082.24
538.114	7044.28
538.479	7068.23
538.845	7109.14
539.21	7131.28
539.575	7127.21
539.94	7133.99
540.305	7188.23
540.67	7187.78
541.034	7264.39
541.399	7244.72
541.764	7268.9
542.129	7265.06
542.494	7282.46
542.858	7369.47
543.223	7430.26
543.587	7488.33
543.952	7446.3
544.316	7518.84
544.681	7490.37
545.045	7569.69
545.41	7609.91
545.774	7637.71
546.138	7664.6
546.503	7665.73
546.867	7656.01
547.231	7779.85
547.595	7682.68
547.959	7768.33
548.324	7775.11
548.688	7775.56
549.052	7830.02
549.416	7852.39
549.779	7856.69
550.143	7907.31
550.507	7949.79
550.871	8024.82
551.235	7971.94
551.599	7980.98
551.962	8100.52
552.326	8054.42
552.689	8161.31
553.053	8072.05
553.417	8123.8
553.78	8220.29
554.143	8204.02
554.507	8281.53
554.87	8236.79
555.234	8320.63
555.597	8293.74
555.96	8352.94
556.323	8417.58
556.686	8430.68
557.05	8413.06
557.413	8456.67
557.776	8431.59
558.139	8493.28
558.502	8552.26
558.865	8506.39
559.228	8604.46
559.59	8635.65
559.953	8698.7
560.316	8743.89
560.679	8701.18
561.041	8741.86
561.404	8841.97
561.767	8922.87
562.129	8873.38
562.492	8906.38
562.854	8931.01
563.217	8932.59
563.579	8908.64
563.941	8982.76
564.304	8994.74
564.666	9079.03
565.028	9107.95
565.39	9110.89
565.753	9196.54
566.115	9208.06
566.477	9218.46
566.839	9291.68
567.201	9285.12
567.563	9321.51
567.925	9359.02
568.287	9372.13
568.648	9426.59
569.01	9501.84
569.372	9563.99
569.734	9474.72
570.095	9605.11
570.457	9637.88
570.819	9632.23
571.18	9694.15
571.542	9716.75
571.903	9754.04
572.265	9768.05
572.626	9843.75
572.987	9893.92
573.349	9887.14
573.71	9960.36
574.071	10060.02
574.432	10115.84
574.794	10173.46
575.155	10178.88
575.516	10269.05
575.877	10315.6
576.238	10337.98
576.599	10430.63
576.96	10526.22
577.32	10565.32
577.681	10662.04
578.042	10805.31
578.403	10806.21
578.763	10930.96
579.124	11072.19
579.485	11117.17
579.845	11204.39
580.206	11264.05
580.566	11375.92
580.927	11462.47
581.287	11706.08
581.648	11728.9
582.008	11907.65
582.368	11881.21
582.728	12174.76
583.089	12273.97
583.449	12463.8
583.809	12596.45
584.169	12739.04
584.529	12890.23
584.889	13131.35
585.249	13144.46
585.609	13384
585.969	13649.53
586.329	13880.26
586.688	13979.69
587.048	14199.12
587.408	14406.34
587.768	14578.09
588.127	14849.5
588.487	15070.06
588.846	15510.5
589.206	15470.72
589.565	15806.99
589.925	16148.22
590.284	16325.16
590.643	16529.45
591.003	16884.7
591.362	17217.12
591.721	17424.12
592.08	17673.6
592.44	18088.28
592.799	18302.06
593.158	18536.41
593.517	18926.68
593.876	19173.45
594.235	19506.78
594.593	19830.83
594.952	20151.28
595.311	20306.3
595.67	20765.95
596.029	21083.68
596.387	21464.01
596.746	21727.73
597.104	21901.06
597.463	22254.05
597.822	22534.49
598.18	22856.52
598.538	23296.28
598.897	23692.2
599.255	23740.56
599.613	24399.53
599.972	24536.93
600.33	24884.03
600.688	25124.93
601.046	25411.7
601.404	25780.51
601.762	26073.38
602.12	26541.62
602.478	26735.74
602.836	27045.79
603.194	27375.95
603.552	27552.21
603.91	27676.5
604.268	28130.5
604.625	28382.02
604.983	28762.35
605.341	28904.49
605.698	29430.58
606.056	29695.89
606.413	29820.63
606.771	30289.99
607.128	30464.23
607.485	30556.43
607.843	30923.42
608.2	31173.36
608.557	31573.35
608.914	31746.23
609.272	32009.27
609.629	32410.16
609.986	32578.52
610.343	32725.18
610.7	33291.05
611.057	33279.52
611.414	33512.96
611.771	33770.58
612.127	34077.92
612.484	34230
612.841	34520.39
613.198	34669.99
613.554	34849.2
613.911	35176.65
614.267	35218.9
614.624	35605.56
614.98	35759.91
615.337	36054.59
615.693	36062.05
616.05	36191.99
616.406	36592.88
616.762	36649.6
617.118	36736.83
617.475	36979.54
617.831	37190.15
618.187	37391.05
618.543	37553.76
618.899	37839.4
619.255	37842.11
619.611	37964.14
619.967	38212.5
620.323	38469.67
620.678	38329.78
621.034	38431.93
621.39	38601.87
621.746	38674.18
622.101	39271.91
622.457	39019.26
622.812	39217.22
623.168	39466.48
623.523	39523.88
623.879	39697.88
624.234	39389.64
624.589	39725
624.945	39795.28
625.3	39951.21
625.655	40054.94
626.01	39947.14
626.365	40062.84
626.72	40164.54
627.075	40153.92
627.43	40279.11
627.785	40293.35
628.14	40496.73
628.495	40493.34
628.85	40568.59
629.205	40423.51
629.559	40682.72
629.914	40583.51
630.269	40811.75
630.623	40738.08
630.978	40783.28
631.332	40965.42
631.687	41050.84
632.041	40836.38
632.396	40980.11
632.75	40911.18
633.104	41065.76
633.459	40967.91
633.813	41026.21
634.167	41147.79
634.521	41109.6
634.875	41248.35
635.229	41118.18
635.583	40902.82
635.937	41039.54
636.291	41183.49
636.645	41160.9
636.999	41033.89
637.352	41092.65
637.706	41084.51
638.06	41181.23
638.413	41070.28
638.767	40942.6
639.121	41130.16
639.474	40877.96
639.828	41012.88
640.181	40907.12
640.534	41038.86
640.888	41149.82
641.241	40853.56
641.594	40930.62
641.947	41046.32
642.301	41011.97
642.654	41038.19
643.007	40971.75
643.36	40979.43
643.713	40868.93
644.066	41153.44
644.419	40823.73
644.771	40602.94
645.124	40232.11
645.477	40275.95
645.83	40176.51
646.182	39882.06
646.535	39836.18
646.888	39857.43
647.24	39735.17
647.593	40097.65
647.945	39920.93
648.298	39649.07
648.65	39653.59
649.002	39666.47
649.355	39932.68
649.707	39652.69
650.059	39884.32
650.411	40363.63
650.763	40566.56
651.115	40713.45
651.467	40698.31
651.819	40739.21
652.171	40573.11
652.523	40414.47
652.875	40522.49
653.227	40372.67
653.578	40771.53
653.93	40630.06
654.282	40395.72
654.633	40367.7
654.985	40473.91
655.337	40521.14
655.688	40475.94
656.039	40663.06
656.391	40254.48
656.742	40271.88
657.094	40393.23
657.445	40492.44
657.796	40337.41
658.147	40280.24
658.498	40237.98
658.849	40357.07
659.2	40434.36
659.551	40310.3
659.902	40479.56
660.253	40197.3
660.604	40350.75
660.955	40249.05
661.306	40384.87
661.656	40291.31
662.007	40313.01
662.358	40335.83
662.708	40248.15
663.059	40193.46
663.409	39965.22
663.76	40219.22
664.11	40141.71
664.461	40323.63
664.811	40344.19
665.161	40164.54
665.511	40014.26
665.862	40149.85
666.212	40251.54
666.562	40248.15
666.912	40046.35
667.262	40019.23
667.612	40241.15
667.962	40299.67
668.312	40189.4
668.662	40437.75
669.011	40124.09
669.361	40128.83
669.711	40014.48
670.06	40035.28
670.41	39970.64
670.76	40061.49
671.109	39984.88
671.459	40112.34
671.808	40027.14
672.157	40038.66
672.507	39759.58
672.856	39842.29
673.205	40001.83
673.554	40138.55
673.904	40028.5
674.253	40152.33
674.602	39981.72
674.951	39340.38
675.3	39358.23
675.649	39751.89
675.998	39869.4
676.346	39714.61
676.695	39871.66
677.044	39518.9
677.393	39685.91
677.741	39713.93
678.09	39573.14
678.438	39604.78
678.787	39583.76
679.135	39576.98
679.484	39388.74
679.832	39476.42
680.181	39253.83
680.529	39414.95
680.877	39341.06
681.225	39237.1
681.573	39424.9
681.922	39159.14
682.27	39215.18
682.618	39161.17
682.966	39049.76
683.314	39091.12
683.661	38910.78
684.009	38820.39
684.357	38750.56
684.705	38725.03
685.053	38900.84
685.4	38693.16
685.748	38683.67
686.095	38694.29
686.443	38414.75
686.79	38424.02
687.138	38528.65
687.485	38570.91
687.832	38291.82
688.18	38257.92
688.527	38137.47
688.874	37945.61
689.221	38053.63
689.568	37881.21
689.915	37771.38
690.262	37807.09
690.609	37687.09
690.956	37634.89
691.303	37545.17
691.65	37345.18
691.997	37362.35
692.344	37261.79
692.69	37119.42
693.037	37170.94
693.383	36803.72
693.73	37014.56
694.077	36809.82
694.423	36843.95
694.769	36713.78
695.116	36664.52
695.462	36571.86
695.808	36525.54
696.155	36644.86
696.501	36308.59
696.847	36243.06
697.193	36005.32
697.539	36136.17
697.885	35937.3
698.231	35826.57
698.577	35748.16
698.923	35717.2
699.269	35676.52
699.614	35501.83
699.96	35391.1
700.306	35409.86
700.651	35214.16
700.997	35110.21
701.342	35100.04
701.688	34961.28
702.033	34990.66
702.379	34894.17
702.724	34801.06
703.069	34893.94
703.415	34481.97
703.76	34571.01
704.105	34579.15
704.45	34395.88
704.795	34409.89
705.14	34021.42
705.485	34122.66
705.83	34086.05
706.175	34061.19
706.52	34035.66
706.865	33863.46
707.209	33872.95
707.554	33672.05
707.899	33707.08
708.243	33556.8
708.588	33442.45
708.932	33211.05
709.277	33151.84
709.621	33356.13
709.966	32933.99
710.31	33057.83
710.654	32814.9
710.998	32912.98
711.342	32864.62
711.687	32800.21
712.031	32535.36
712.375	32463.95
712.719	32598.86
713.063	32468.02
713.407	32601.35
713.75	32447.45
714.094	32513.66
714.438	32253.78
714.782	32361.8
715.125	32162.94
715.469	32324.52
715.812	32045.88
716.156	31963.85
716.499	31809.95
716.843	31893.34
717.186	31688.15
717.53	31833.68
717.873	31853.12
718.216	31693.35
718.559	31537.42
718.902	31291.55
719.246	31499.45
719.589	31283.87
719.932	31407.71
720.275	31372.9
720.617	31201.83
720.96	31096.08
721.303	31129.52
721.646	31230.31
721.989	30883.2
722.331	31043.42
722.674	30940.6
723.016	30874.84
723.359	30863.76
723.701	30941.28
724.044	30701.28
724.386	30466.71
724.729	30649.99
725.071	30604.56
725.413	30435.3
725.755	30612.25
726.097	30460.84
726.439	30158.02
726.782	30263.55
727.124	30396.43
727.465	30199.38
727.807	30205.7
728.149	30125.48
728.491	30006.61
728.833	30104.24
729.175	30069.66
729.516	29959.83
729.858	30044.13
730.199	30001.41
730.541	29874.64
730.882	29899.04
731.224	29924.35
731.565	29702.67
731.906	29700.18
732.248	29706.96
732.589	29661.99
732.93	29548.32
733.271	29541.54
733.612	29466.29
733.953	29490.92
734.294	29443.01
734.635	29246.41
734.976	29343.13
735.317	29191.49
735.658	29283.02
735.999	29189.01
736.339	29216.12
736.68	29285.28
737.021	29140.65
737.361	29038.28
737.702	29062.23
738.042	29029.91
738.383	29074.89
738.723	29008.22
739.063	28867.21
739.404	28944.27
739.744	28805.06
740.084	28693.43
740.424	28752.18
740.764	28693.43
741.104	28748.57
741.444	28591.28
741.784	28647.78
742.124	28552.64
742.464	28523.49
742.804	28519.19
743.143	28425.86
743.483	28349.03
743.823	28258.86
744.162	28282.14
744.502	28241.91
744.841	28163.95
745.181	28311.74
745.52	28127.57
745.86	28252.76
746.199	28212.31
746.538	28187.68
746.877	28176.38
747.216	27997.17
747.556	27893.67
747.895	27972.99
748.234	27869.49
748.573	27822.49
748.911	27943.62
749.25	27911.07
749.589	27775.71
749.928	27709.05
750.267	27749.95
750.605	27624.75
750.944	27507.92
751.283	27533.68
751.621	27559.44
751.96	27467.24
752.298	27399
752.636	27455.27
752.975	27397.64
753.313	27240.58
753.651	27236.74
753.989	27118.33
754.327	27170.75
754.666	26901.38
755.004	26950.42
755.342	26820.48
755.679	26932.79
756.017	26925.11
756.355	27005.79
756.693	26803.31
757.031	26896.19
757.368	26489.19
757.706	26596.98
758.044	26463.88
758.381	26574.16
758.719	26425.24
759.056	26456.87
759.394	26406.93
759.731	26152.48
760.068	26208.75
