Data from hue_310_FLMS001491_22.txt Node
Date: Mon Feb 06 15:49:18 GMT 2017
User: dcchb
Spectrometer: FLMS00149
Trigger mode: 0
Integration Time (sec): 2.000000E-2
Scans to average: 10
Electric dark correction enabled: true
Nonlinearity correction enabled: false
Boxcar width: 0
XAxis mode: Wavelengths
Number of Pixels in Spectrum: 2048
>>>>>Begin Spectral Data<<<<<
341.393	4.69
341.776	4.69
342.16	4.69
342.543	-66.72
342.927	-59.26
343.31	-78.92
343.693	-75.08
344.077	-73.5
344.46	-80.51
344.843	-69.66
345.226	-52.03
345.61	-28.3
345.993	-8.64
346.376	-4.58
346.759	17.8
347.142	41.3
347.525	46.5
347.908	75.42
348.291	77.68
348.674	98.25
349.057	114.29
349.44	139.37
349.823	151.8
350.206	159.49
350.588	172.14
350.971	188.41
351.354	214.85
351.737	227.96
352.119	227.06
352.502	258.24
352.884	284
353.267	288.75
353.65	278.13
354.032	294.85
354.414	289.65
354.797	304.57
355.179	310.44
355.562	294.85
355.944	342.99
356.326	333.72
356.709	325.13
357.091	340.95
357.473	341.18
357.855	333.27
358.238	340.95
358.62	338.92
359.002	332.82
359.384	328.07
359.766	330.1
360.148	352.25
360.53	343.21
360.912	340.27
361.294	339.82
361.676	337.34
362.057	333.95
362.439	323.55
362.821	319.48
363.203	332.82
363.584	322.87
363.966	319.71
364.348	311.35
364.729	319.26
365.111	327.17
365.493	293.95
365.874	316.55
366.256	317.68
366.637	322.19
367.019	322.65
367.4	297.34
367.781	305.25
368.163	313.83
368.544	301.4
368.925	315.19
369.306	302.99
369.688	302.53
370.069	298.69
370.45	306.38
370.831	307.73
371.212	320.16
371.593	319.26
371.974	318.35
372.355	314.74
372.736	315.64
373.117	323.1
373.498	316.09
373.879	296.66
374.26	318.58
374.641	309.99
375.021	322.87
375.402	324.68
375.783	322.19
376.163	340.5
376.544	311.57
376.925	326.26
377.305	323.55
377.686	315.42
378.066	327.39
378.447	315.19
378.827	336.88
379.208	349.09
379.588	324.68
379.968	326.49
380.349	335.08
380.729	327.17
381.109	331.23
381.489	341.86
381.87	317.22
382.25	325.81
382.63	330.78
383.01	325.58
383.39	338.47
383.77	336.43
384.15	347.96
384.53	352.02
384.91	317.68
385.29	339.37
385.67	336.43
386.049	336.43
386.429	346.83
386.809	359.48
387.189	342.76
387.568	343.89
387.948	338.47
388.328	354.28
388.707	355.19
389.087	350.89
389.466	371.23
389.846	370.1
390.225	354.74
390.605	361.06
390.984	341.4
391.363	365.81
391.743	366.04
392.122	363.1
392.501	359.03
392.881	365.58
393.26	350.89
393.639	380.05
394.018	346.83
394.397	373.04
394.776	373.49
395.155	379.59
395.534	376.43
395.913	360.84
396.292	379.37
396.671	368.97
397.05	411.23
397.429	365.36
397.808	376.66
398.186	388.63
398.565	396.09
398.944	362.65
399.323	388.86
399.701	402.87
400.08	394.51
400.458	384.11
400.837	413.49
401.215	426.15
401.594	408.07
401.972	420.95
402.351	406.03
402.729	399.48
403.107	426.82
403.486	407.84
403.864	411.91
404.242	416.2
404.62	427.73
404.999	446.71
405.377	432.7
405.755	435.19
406.133	433.83
406.511	432.93
406.889	440.61
407.267	441.97
407.645	421.4
408.023	474.06
408.401	449.42
408.779	450.78
409.156	458.01
409.534	488.97
409.912	470.44
410.29	482.42
410.667	504.56
411.045	494.85
411.422	518.8
411.8	507.95
412.178	516.31
412.555	519.48
412.933	506.14
413.31	548.18
413.687	528.07
414.065	548.4
414.442	548.86
414.819	560.61
415.197	550.89
415.574	587.05
415.951	593.15
416.328	592.92
416.705	606.71
417.082	603.77
417.46	618.01
417.837	602.64
418.214	614.39
418.591	613.26
418.967	654.16
419.344	654.39
419.721	675.86
420.098	660.04
420.475	657.33
420.852	667.72
421.228	675.63
421.605	700.72
421.982	701.39
422.358	695.29
422.735	692.13
423.111	697.78
423.488	698.91
423.864	741.84
424.241	745.23
424.617	763.31
424.994	735.52
425.37	763.54
425.746	759.02
426.123	779.13
426.499	777.55
426.875	777.55
427.251	792.24
427.627	792.47
428.003	825.01
428.379	833.37
428.756	840.83
429.132	847.83
429.507	833.59
429.883	856.42
430.259	857.1
430.635	915.4
431.011	870.43
431.387	896.19
431.763	921.5
432.138	918.79
432.514	933.25
432.89	929.86
433.265	965.34
433.641	982.74
434.016	969.18
434.392	980.48
434.767	994.27
435.143	993.82
435.518	1015.96
435.894	1040.82
436.269	1037.66
436.644	1027.71
437.02	1020.03
437.395	1045.11
437.77	1067.26
438.145	1068.16
438.52	1089.41
438.895	1097.77
439.271	1075.62
439.646	1129.18
440.021	1123.76
440.395	1128.05
440.77	1150.2
441.145	1139.12
441.52	1160.14
441.895	1169.4
442.27	1169.18
442.645	1173.92
443.019	1184.77
443.394	1159.01
443.769	1183.42
444.143	1194.49
444.518	1209.86
444.892	1173.7
445.267	1187.26
445.641	1229.97
446.016	1229.97
446.39	1218.22
446.764	1222.51
447.139	1234.04
447.513	1231.32
447.887	1213.47
448.262	1252.11
448.636	1260.48
449.01	1249.85
449.384	1294.37
449.758	1260.02
450.132	1295.95
450.506	1265.22
450.88	1269.74
451.254	1269.51
451.628	1282.4
452.002	1307.93
452.376	1309.06
452.75	1341.15
453.123	1315.84
453.497	1308.84
453.871	1357.87
454.244	1352.9
454.618	1366.01
454.992	1375.5
455.365	1373.01
455.739	1390.19
456.112	1424.54
456.486	1439
456.859	1422.5
457.232	1409.85
457.606	1437.87
457.979	1478.32
458.352	1484.65
458.725	1490.75
459.099	1457.31
459.472	1498.89
459.845	1485.55
460.218	1525.55
460.591	1510.19
460.964	1533.01
461.337	1541.37
461.71	1578.89
462.083	1575.5
462.456	1597.19
462.829	1606.91
463.201	1604.87
463.574	1627.25
463.947	1609.17
464.32	1645.32
464.692	1652.33
465.065	1694.14
465.438	1688.71
465.81	1684.64
466.183	1695.04
466.555	1748.82
466.928	1749.5
467.3	1740.69
467.672	1741.59
468.045	1802.16
468.417	1806
468.789	1807.81
469.161	1806.9
469.534	1807.35
469.906	1861.59
470.278	1867.47
470.65	1891.19
471.022	1939.33
471.394	1944.3
471.766	1955.82
472.138	1943.85
472.51	1966.67
472.882	1982.49
473.253	2045.54
473.625	2019.78
473.997	2081.47
474.369	2113.33
474.74	2125.09
475.112	2095.03
475.484	2140.45
475.855	2194.24
476.227	2177.74
476.598	2213.9
476.97	2231.52
477.341	2264.06
477.713	2311.75
478.084	2249.83
478.455	2339.32
478.827	2377.06
479.198	2416.15
479.569	2418.41
479.94	2455.47
480.311	2447.79
480.682	2519.88
481.053	2523.27
481.424	2554.9
481.795	2558.75
482.166	2612.76
482.537	2608.69
482.908	2635.35
483.279	2674.22
483.65	2683.71
484.021	2770.94
484.391	2819.3
484.762	2776.14
485.133	2790.6
485.503	2802.58
485.874	2860.66
486.244	2874.67
486.615	2913.54
486.985	2978.17
487.356	3048
487.726	3028.56
488.097	3078.96
488.467	3103.14
488.837	3128.67
489.207	3149.69
489.578	3181.33
489.948	3170.03
490.318	3256.81
490.688	3210.71
491.058	3238.5
491.428	3335
491.798	3303.81
492.168	3367.99
492.538	3373.41
492.908	3398.05
493.278	3422
493.648	3420.87
494.017	3468.33
494.387	3457.93
494.757	3535.9
495.126	3545.61
495.496	3528.21
495.866	3583.35
496.235	3565.05
496.605	3621.09
496.974	3637.14
497.344	3654.31
497.713	3658.6
498.082	3676.46
498.452	3710.13
498.821	3762.1
499.19	3749.68
499.559	3767.08
499.928	3772.5
500.298	3766.85
500.667	3838.49
501.036	3810.24
501.405	3837.81
501.774	3852.95
502.143	3867.19
502.512	3889.78
502.88	3935.43
503.249	3916.22
503.618	3933.63
503.987	3924.36
504.356	3982.66
504.724	3943.57
505.093	4012.04
505.462	3977.47
505.83	4021.08
506.199	4009.33
506.567	4059.72
506.936	4060.4
507.304	4115.54
507.672	4115.54
508.041	4097.46
508.409	4117.8
508.777	4102.89
509.145	4180.85
509.514	4153.05
509.882	4201.41
510.25	4160.74
510.618	4194.64
510.986	4160.51
511.354	4248.65
511.722	4243.45
512.09	4291.58
512.458	4240.28
512.826	4315.31
513.193	4306.72
513.561	4301.07
513.929	4381.07
514.297	4354.63
514.664	4379.04
515.032	4393.05
515.4	4388.98
515.767	4381.07
516.135	4404.8
516.502	4408.42
516.869	4454.52
517.237	4434.86
517.604	4416.55
517.972	4431.92
518.339	4488.19
518.706	4478.47
519.073	4504.01
519.44	4564.57
519.808	4547.62
520.175	4560.73
520.542	4570.44
520.909	4614.51
521.276	4565.47
521.643	4614.29
522.009	4657.67
522.376	4655.19
522.743	4649.99
523.11	4688.41
523.477	4732.02
523.843	4729.54
524.21	4796.2
524.577	4796.2
524.943	4754.39
525.31	4819.48
525.676	4865.8
526.043	4845.92
526.409	4865.8
526.776	4945.35
527.142	4927.05
527.508	4954.39
527.874	4993.71
528.241	4972.69
528.607	5019.47
528.973	5009.08
529.339	5001.17
529.705	5118.9
530.071	5129.07
530.437	5148.06
530.803	5194.38
531.169	5157.32
531.535	5174.5
531.901	5245.91
532.267	5253.82
532.632	5221.5
532.998	5248.17
533.364	5309.86
533.73	5310.99
534.095	5402.97
534.461	5378.11
534.826	5413.13
535.192	5418.78
535.557	5440.7
535.923	5407.26
536.288	5452
536.653	5485.45
537.019	5488.61
537.384	5519.8
537.749	5580.81
538.114	5566.12
538.479	5576.75
538.845	5645.44
539.21	5600.93
539.575	5647.48
539.94	5686.57
540.305	5675.5
540.67	5718.66
541.034	5766.57
541.399	5762.5
541.764	5833.01
542.129	5804.31
542.494	5848.83
542.858	5830.3
543.223	5855.16
543.587	5922.73
543.952	5905.32
544.316	5906
544.681	5949.17
545.045	6013.8
545.41	6044.53
545.774	6029.16
546.138	6044.76
546.503	6068.48
546.867	6085.21
547.231	6152.55
547.595	6173.57
547.959	6148.93
548.324	6191.87
548.688	6191.65
549.052	6229.84
549.416	6277.52
549.779	6280.91
550.143	6349.38
550.507	6313.9
550.871	6322.49
551.235	6304.18
551.599	6373.79
551.962	6409.27
552.326	6457.4
552.689	6465.08
553.053	6460.79
553.417	6499.89
553.78	6487.46
554.143	6505.76
554.507	6526.78
554.87	6479.77
555.234	6596.15
555.597	6550.51
555.96	6597.28
556.323	6612.2
556.686	6680.45
557.05	6635.7
557.413	6635.93
557.776	6661.24
558.139	6658.07
558.502	6742.14
558.865	6748.69
559.228	6858.07
559.59	6766.09
559.953	6800.67
560.316	6880.67
560.679	6868.46
561.041	6897.39
561.404	6932.64
561.767	6952.3
562.129	6933.32
562.492	6984.39
562.854	6980.55
563.217	7009.02
563.579	7007.89
563.941	7055.13
564.304	7101
564.666	7154.33
565.028	7147.33
565.39	7205.86
565.753	7166.53
566.115	7187.33
566.477	7195.23
566.839	7203.14
567.201	7291.73
567.563	7262.13
567.925	7363.37
568.287	7327.21
568.648	7350.48
569.01	7383.7
569.372	7499.41
569.734	7432.29
570.095	7481.1
570.457	7585.51
570.819	7595
571.18	7566.98
571.542	7670.25
571.903	7637.26
572.265	7749.12
572.626	7711.38
572.987	7758.84
573.349	7835.67
573.71	7874.09
574.071	7923.13
574.432	7986.4
574.794	8060.3
575.155	8065.27
575.516	8121.76
575.877	8266.62
576.238	8221.87
576.599	8389.1
576.96	8416.45
577.32	8480.17
577.681	8565.14
578.042	8604.24
578.403	8723.56
578.763	8776.21
579.124	8868.41
579.485	9034.06
579.845	9086.48
580.206	9220.04
580.566	9284.67
580.927	9385.91
581.287	9510.43
581.648	9606.02
582.008	9880.14
582.368	9980.47
582.728	10083.29
583.089	10283.74
583.449	10347.92
583.809	10595.15
584.169	10779.1
584.529	10935.48
584.889	11132.98
585.249	11296.14
585.609	11449.36
585.969	11696.13
586.329	11863.36
586.688	12107.2
587.048	12328.43
587.408	12528.43
587.768	12747.86
588.127	12961.41
588.487	13190.33
588.846	13494.5
589.206	13661.73
589.565	13864.44
589.925	14221.26
590.284	14442.95
590.643	14645.89
591.003	15083.39
591.362	15298.07
591.721	15532.42
592.08	15750.49
592.44	16036.58
592.799	16363.81
593.158	16659.84
593.517	16882.21
593.876	17232.48
594.235	17450.78
594.593	17753.83
594.952	18083.08
595.311	18378.44
595.67	18631.09
596.029	19034.25
596.387	19383.16
596.746	19654.57
597.104	19929.14
597.463	20104.95
597.822	20438.28
598.18	20663.58
598.538	20878.49
598.897	21360.06
599.255	21460.62
599.613	21967.5
599.972	22126.37
600.33	22530.42
600.688	22618.33
601.046	23055.16
601.404	23332.21
601.762	23551.41
602.12	23962.25
602.478	24158.63
602.836	24486.53
603.194	24613.76
603.552	24922.23
603.91	25112.28
604.268	25436.11
604.625	25600.4
604.983	25954.52
605.341	26112.7
605.698	26426.82
606.056	26767.6
606.413	26969.86
606.771	27307.93
607.128	27388.38
607.485	27596.28
607.843	27750.4
608.2	28173.67
608.557	28533.43
608.914	28529.36
609.272	28868.34
609.629	29182.68
609.986	29437.36
610.343	29428.1
610.7	29779.05
611.057	30042.32
611.414	30129.55
611.771	30390.78
612.127	30703.09
612.484	30839.13
612.841	31133.81
613.198	31202.74
613.554	31311.44
613.911	31587.81
614.267	31809.05
614.624	31789.62
614.98	32013.34
615.337	32333.1
615.693	32561.8
616.05	32577.84
616.406	32775.8
616.762	32814.22
617.118	32948.23
617.475	33106.64
617.831	33329.69
618.187	33439.74
618.543	33602.45
618.899	33940.52
619.255	34055.09
619.611	34105.49
619.967	34322.66
620.323	34395.42
620.678	34466.38
621.034	34480.62
621.39	34715.87
621.746	34593.61
622.101	35085.35
622.457	35011.9
622.812	35173.03
623.168	35161.73
623.523	35392.69
623.879	35466.13
624.234	35371.44
624.589	35621.38
624.945	35743.41
625.3	35688.04
625.655	35832
626.01	35957.19
626.365	36085.32
626.72	36028.6
627.075	36182.72
627.43	36150.86
627.785	36143.85
628.14	36175.26
628.495	36468.36
628.85	36409.16
629.205	36403.96
629.559	36649.15
629.914	36451.87
630.269	36640.79
630.623	36577.51
630.978	36581.13
631.332	36706.55
631.687	36960.55
632.041	36635.36
632.396	36836.94
632.75	36759.88
633.104	36827.68
633.459	36731.63
633.813	36823.38
634.167	36903.83
634.521	36906.09
634.875	36925.98
635.229	36935.47
635.583	36641.24
635.937	36806.89
636.291	36881.46
636.645	36933.21
636.999	36750.16
637.352	36940.44
637.706	36732.31
638.06	36865.41
638.413	36884.17
638.767	36874
639.121	36901.8
639.474	36755.36
639.828	36811.18
640.181	36898.63
640.534	36817.51
640.888	36760.78
641.241	36686.89
641.594	36790.16
641.947	36938.41
642.301	36785.87
642.654	36832.42
643.007	36815.25
643.36	36783.61
643.713	36577.74
644.066	36816.38
644.419	36541.36
644.771	36363.06
645.124	36073.35
645.477	36067.92
645.83	35922.16
646.182	35649.85
646.535	35667.93
646.888	35639.01
647.24	35676.75
647.593	35748.61
647.945	35710.64
648.298	35554.04
648.65	35487.6
649.002	35385
649.355	35776.86
649.707	35521.72
650.059	35641.49
650.411	36113.12
650.763	36187.69
651.115	36507.91
651.467	36428.59
651.819	36292.55
652.171	36392.66
652.523	36307.69
652.875	36374.58
653.227	36137.98
653.578	36474.24
653.93	36365.99
654.282	36185.66
654.633	36144.76
654.985	36214.36
655.337	36326.45
655.688	36307.92
656.039	36289.84
656.391	35978.43
656.742	36093.68
657.094	36113.8
657.445	36192.66
657.796	36222.49
658.147	36069.5
658.498	36095.04
658.849	36184.3
659.2	36009.39
659.551	35992.22
659.902	36181.14
660.253	36031.31
660.604	36178.65
660.955	35974.82
661.306	36053.91
661.656	36097.07
662.007	35943.18
662.358	36069.96
662.708	36091.42
663.059	35946.79
663.409	35893.24
663.76	35961.48
664.11	36023.86
664.461	36029.73
664.811	36004.65
665.161	36061.37
665.511	35953.35
665.862	36035.15
666.212	36107.47
666.562	35869.06
666.912	36055.04
667.262	35863.18
667.612	35896.85
667.962	35989.28
668.312	35929.62
668.662	36047.13
669.011	35991.31
669.361	35972.11
669.711	35660.02
670.06	35827.93
670.41	35807.59
670.76	35805.1
671.109	35913.58
671.459	35822.96
671.808	35844.65
672.157	35843.97
672.507	35573.92
672.856	35762.62
673.205	35769.85
673.554	35865.89
673.904	35764.88
674.253	35851.43
674.602	35771.66
674.951	35276.53
675.3	35047.38
675.649	35664.77
675.998	35613.02
676.346	35643.07
676.695	35761.04
677.044	35496.86
677.393	35710.87
677.741	35757.87
678.09	35476.98
678.438	35449.41
678.787	35490.31
679.135	35563.75
679.484	35295.96
679.832	35477.88
680.181	35223.88
680.529	35411.22
680.877	35205.8
681.225	35150.21
681.573	35451.21
681.922	35034.28
682.27	35127.38
682.618	35089.87
682.966	35063.43
683.314	34931.23
683.661	34919.03
684.009	34756.09
684.357	34760.61
684.705	34625.02
685.053	34650.33
685.4	34618.24
685.748	34416.67
686.095	34462.99
686.443	34380.51
686.79	34334.41
687.138	34454.4
687.485	34353.16
687.832	34188.88
688.18	34290.12
688.527	34106.62
688.874	34063.68
689.221	33964.93
689.568	33898.04
689.915	33843.35
690.262	33860.07
690.609	33827.53
690.956	33610.81
691.303	33521.32
691.65	33446.3
691.997	33455.11
692.344	33276.58
692.69	33207.21
693.037	33281.78
693.383	32945.07
693.73	33212.4
694.077	32977.61
694.423	32886.76
694.769	32902.13
695.116	32775.8
695.462	32756.14
695.808	32632.08
696.155	32730.61
696.501	32467.79
696.847	32449.03
697.193	32198.64
697.539	32308.92
697.885	32099.89
698.231	32016.73
698.577	31908.48
698.923	31983.96
699.269	31788.71
699.614	31712.78
699.96	31720.01
700.306	31680.92
700.651	31549.17
700.997	31477.31
701.342	31386.91
701.688	31493.8
702.033	31336.07
702.379	31285.22
702.724	31158.22
703.069	31263.75
703.415	30767.72
703.76	30900.83
704.105	30943.31
704.45	30810.88
704.795	30659.93
705.14	30550.33
705.485	30502.42
705.83	30377.68
706.175	30497.22
706.52	30387.17
706.865	30205.93
707.209	30232.82
707.554	30077.8
707.899	30120.51
708.243	30008.19
708.588	30020.4
708.932	29858.37
709.277	29797.35
709.621	29758.48
709.966	29555.32
710.31	29642.78
710.654	29329.79
710.998	29464.03
711.342	29513.07
711.687	29303.58
712.031	29363.01
712.375	29055.45
712.719	29248.21
713.063	29157.82
713.407	29278.5
713.75	29012.74
714.094	29065.39
714.438	28822.24
714.782	28962.8
715.125	28827.43
715.469	28864.72
715.812	28637.83
716.156	28472.87
716.499	28576.37
716.843	28582.47
717.186	28453.66
717.53	28554.9
717.873	28558.29
718.216	28405.75
718.559	28438.52
718.902	28155.59
719.246	28234.68
719.589	28072.65
719.932	28049.6
720.275	28016.16
720.617	27971.19
720.96	27860.68
721.303	27820.68
721.646	27892.77
721.989	27687.13
722.331	27773.45
722.674	27780.23
723.016	27790.4
723.359	27576.17
723.701	27628.37
724.044	27472.67
724.386	27322.39
724.729	27494.14
725.071	27311.99
725.413	27490.07
725.755	27257.08
726.097	27309.28
726.439	27198.32
726.782	27191.77
727.124	27194.48
727.465	27055.28
727.807	27062.51
728.149	26969.4
728.491	26875.17
728.833	27056.18
729.175	26893.93
729.516	26792.91
729.858	26866.36
730.199	26870.65
730.541	26779.58
730.882	26683.76
731.224	26741.39
731.565	26565.57
731.906	26611.45
732.248	26601.73
732.589	26430.66
732.93	26400.15
733.271	26531.9
733.612	26454.84
733.953	26468.17
734.294	26167.17
734.635	26307.95
734.976	26329.87
735.317	26142.98
735.658	26163.32
735.999	26110.22
736.339	26080.16
736.68	26058.92
737.021	26051.24
737.361	25926.49
737.702	26073.61
738.042	25993.61
738.383	25959.94
738.723	25935.98
739.063	25840.85
739.404	25847.85
739.744	25750.23
740.084	25671.81
740.424	25666.84
740.764	25575.54
741.104	25660.96
741.444	25481.53
741.784	25488.09
742.124	25468.65
742.464	25394.98
742.804	25388.88
743.143	25348.43
743.483	25365.15
743.823	25290.58
744.162	25256.23
744.502	25312.95
744.841	25217.81
745.181	25242.9
745.52	24957.71
745.86	25203.35
746.199	25147.08
746.538	25051.94
746.877	25123.35
747.216	25027.99
747.556	24911.38
747.895	24983.92
748.234	24930.59
748.573	24875.22
748.911	24713.87
749.25	24807.65
749.589	24657.6
749.928	24687.43
750.267	24761.1
750.605	24740.99
750.944	24560.2
751.283	24507.55
751.621	24605.4
751.96	24377.38
752.298	24432.3
752.636	24347.55
752.975	24272.3
753.313	24221.68
753.651	24315.24
753.989	24178.06
754.327	24146.2
754.666	23986.43
755.004	24058.52
755.342	24033.44
755.679	23865.76
756.017	23810.84
756.355	23885.19
756.693	23763.39
757.031	23712.99
757.368	23587.8
757.706	23594.8
758.044	23500.12
758.381	23458.08
758.719	23394.13
759.056	23442.49
759.394	23317.52
759.731	23197.75
760.068	23243.4
