Data from hue_210_FLMS001491_00039.txt Node
Date: Tue Feb 07 16:41:07 GMT 2017
User: dcchb
Spectrometer: FLMS00149
Trigger mode: 0
Integration Time (sec): 2.000000E-2
Scans to average: 10
Electric dark correction enabled: true
Nonlinearity correction enabled: false
Boxcar width: 0
XAxis mode: Wavelengths
Number of Pixels in Spectrum: 2048
>>>>>Begin Spectral Data<<<<<
341.393	0.62
341.776	0.62
342.16	0.62
342.543	-57.68
342.927	-61.98
343.31	-62.65
343.693	-73.73
344.077	-71.92
344.46	-61.52
344.843	-71.47
345.226	-17.46
345.61	-34.63
345.993	-23.56
346.376	-16.55
346.759	16.67
347.142	31.81
347.525	37.91
347.908	83.33
348.291	57.34
348.674	92.82
349.057	113.61
349.44	101.18
349.823	134.4
350.206	167.85
350.588	178.02
350.971	198.81
351.354	239.03
351.737	240.62
352.119	258.24
352.502	259.82
352.884	288.52
353.267	277.45
353.65	283.1
354.032	292.59
354.414	293.27
354.797	325.81
355.179	324.23
355.562	323.78
355.944	333.27
356.326	349.54
356.709	356.32
357.091	326.04
357.473	340.73
357.855	355.19
358.238	330.33
358.62	342.08
359.002	344.34
359.384	349.99
359.766	349.99
360.148	331.01
360.53	331.91
360.912	355.19
361.294	314.96
361.676	326.94
362.057	357.67
362.439	350.22
362.821	338.01
363.203	329.2
363.584	342.53
363.966	323.78
364.348	325.58
364.729	320.39
365.111	316.77
365.493	307.73
365.874	317.45
366.256	308.86
366.637	308.86
367.019	332.59
367.4	333.49
367.781	326.94
368.163	320.16
368.544	316.55
368.925	328.97
369.306	338.24
369.688	313.38
370.069	321.29
370.45	284
370.831	315.42
371.212	306.6
371.593	317.68
371.974	317.68
372.355	312.93
372.736	321.29
373.117	298.69
373.498	322.87
373.879	343.21
374.26	296.66
374.641	321.07
375.021	308.41
375.402	326.04
375.783	332.36
376.163	328.07
376.544	326.04
376.925	334.62
377.305	335.08
377.686	327.17
378.066	314.06
378.447	325.81
378.827	342.08
379.208	314.74
379.588	331.46
379.968	324.23
380.349	338.92
380.729	317.68
381.109	325.36
381.489	324
381.87	333.95
382.25	354.06
382.63	328.75
383.01	343.89
383.39	360.61
383.77	344.34
384.15	363.78
384.53	359.03
384.91	359.71
385.29	333.95
385.67	350.89
386.049	344.12
386.429	355.41
386.809	351.8
387.189	356.09
387.568	368.07
387.948	340.95
388.328	379.37
388.707	370.33
389.087	377.56
389.466	376.66
389.846	365.13
390.225	382.76
390.605	369.88
390.984	360.84
391.363	369.2
391.743	372.14
392.122	368.52
392.501	381.85
392.881	397
393.26	389.54
393.639	375.07
394.018	391.8
394.397	390.67
394.776	400.16
395.155	410.78
395.534	407.84
395.913	388.63
396.292	401.74
396.671	411.91
397.05	415.75
397.429	390.89
397.808	390.89
398.186	428.63
398.565	417.79
398.944	414.4
399.323	414.62
399.701	417.11
400.08	415.3
400.458	425.24
400.837	414.4
401.215	430.67
401.594	430.89
401.972	442.42
402.351	438.58
402.729	457.11
403.107	447.16
403.486	428.41
403.864	449.65
404.242	474.28
404.62	458.24
404.999	465.47
405.377	449.65
405.755	483.09
406.133	475.64
406.511	472.93
406.889	488.29
407.267	489.87
407.645	476.32
408.023	489.65
408.401	504.79
408.779	502.3
409.156	550.44
409.534	541.85
409.912	554.28
410.29	546.82
410.667	557.89
411.045	558.12
411.422	565.58
411.8	566.93
412.178	571
412.555	605.58
412.933	596.99
413.31	607.39
413.687	611.23
414.065	636.31
414.442	655.07
414.819	639.7
415.197	671.79
415.574	658.68
415.951	650.55
416.328	685.58
416.705	678.34
417.082	691.68
417.46	725.57
417.837	721.73
418.214	727.61
418.591	739.36
418.967	756.31
419.344	773.03
419.721	780.26
420.098	771
420.475	786.59
420.852	812.35
421.228	822.75
421.605	812.8
421.982	828.62
422.358	845.57
422.735	886.02
423.111	876.3
423.488	887.38
423.864	912.46
424.241	949.07
424.617	925.34
424.994	950.65
425.37	959.92
425.746	1001.73
426.123	977.09
426.499	993.59
426.875	1013.93
427.251	1023.87
427.627	1060.03
428.003	1082.17
428.379	1095.73
428.756	1104.55
429.132	1090.08
429.507	1106.58
429.883	1112.68
430.259	1182.29
430.635	1150.87
431.011	1150.2
431.387	1185.22
431.763	1209.18
432.138	1229.52
432.514	1269.06
432.89	1264.54
433.265	1279.68
433.641	1289.4
434.016	1321.94
434.392	1343.41
434.767	1372.79
435.143	1362.62
435.518	1420.7
435.894	1446.23
436.269	1454.37
436.644	1506.34
437.02	1507.47
437.395	1574.82
437.77	1551.09
438.145	1608.49
438.52	1605.33
438.895	1631.99
439.271	1668.15
439.646	1690.97
440.021	1699.79
440.395	1743.85
440.77	1738.43
441.145	1804.87
441.52	1827.69
441.895	1837.64
442.27	1831.31
442.645	1862.95
443.019	1888.03
443.394	1886.9
443.769	1893.68
444.143	1891.65
444.518	1962.83
444.892	1967.12
445.267	1953.11
445.641	2023.17
446.016	2013.9
446.39	2035.37
446.764	2057.52
447.139	2045.99
447.513	2065.43
447.887	2075.6
448.262	2100.23
448.636	2126.22
449.01	2124.63
449.384	2189.04
449.758	2181.36
450.132	2214.35
450.506	2221.13
450.88	2229.04
451.254	2236.49
451.628	2293.67
452.002	2295.02
452.376	2336.15
452.75	2365.08
453.123	2341.8
453.497	2379.09
453.871	2374.34
454.244	2445.75
454.618	2470.84
454.992	2513.32
455.365	2517.39
455.739	2542.93
456.112	2592.87
456.486	2605.07
456.859	2615.69
457.232	2685.3
457.606	2646.88
457.979	2718.06
458.352	2752.64
458.725	2776.82
459.099	2806.88
459.472	2854.56
459.845	2863.82
460.218	2909.25
460.591	2927.55
460.964	2977.49
461.337	3039.64
461.71	3044.38
462.083	3064.95
462.456	3109.01
462.829	3110.82
463.201	3189.69
463.574	3167.54
463.947	3196.92
464.32	3288.9
464.692	3314.66
465.065	3333.64
465.438	3381.32
465.81	3434.66
466.183	3449.57
466.555	3529.79
466.928	3536.8
467.3	3562.56
467.672	3593.75
468.045	3694.54
468.417	3682.78
468.789	3715.78
469.161	3756
469.534	3810.69
469.906	3901.54
470.278	3932.27
470.65	3932.72
471.022	4003.45
471.394	4077.58
471.766	4137.46
472.138	4165.94
472.51	4265.82
472.882	4345.82
473.253	4348.98
473.625	4389.66
473.997	4514.4
474.369	4505.81
474.74	4572.7
475.112	4627.17
475.484	4690.44
475.855	4751.68
476.227	4808.86
476.598	4895.63
476.97	4943.54
477.341	5091.79
477.713	5113.93
478.084	5138.79
478.455	5246.81
478.827	5296.53
479.198	5420.14
479.569	5448.16
479.94	5585.33
480.311	5663.3
480.682	5757.76
481.053	5875.95
481.424	5863.29
481.795	5950.97
482.166	6094.7
482.537	6090.63
482.908	6233
483.279	6278.42
483.65	6403.16
484.021	6502.37
484.391	6489.72
484.762	6554.8
485.133	6643.61
485.503	6698.07
485.874	6903.72
486.244	6878.86
486.615	7070.49
486.985	7062.36
487.356	7161.11
487.726	7218.51
488.097	7340.77
488.467	7407.66
488.837	7466.87
489.207	7516.58
489.578	7684.49
489.948	7703.92
490.318	7912.5
490.688	7837.03
491.058	7983.91
491.428	8037.02
491.798	8187.52
492.168	8292.61
492.538	8262.55
492.908	8344.81
493.278	8471.81
493.648	8412.83
494.017	8584.58
494.387	8587.51
494.757	8663.22
495.126	8764.46
495.496	8708.19
495.866	8718.58
496.235	8854.85
496.605	8966.26
496.974	8940.5
497.344	9035.64
497.713	9119.93
498.082	9079.7
498.452	9183.88
498.821	9193.6
499.19	9284.45
499.559	9335.97
499.928	9290.77
500.298	9362.86
500.667	9474.5
501.036	9394.05
501.405	9486.02
501.774	9509.52
502.143	9530.31
502.512	9520.15
502.88	9652.57
503.249	9676.07
503.618	9695.06
503.987	9691.67
504.356	9726.24
504.724	9746.58
505.093	9737.09
505.462	9799.01
505.83	9864.54
506.199	9885.79
506.567	9987.03
506.936	9933.69
507.304	10042.62
507.672	10004.43
508.041	10055.27
508.409	10126
508.777	10137.76
509.145	10205.55
509.514	10140.92
509.882	10196.51
510.25	10245.32
510.618	10288.71
510.986	10302.27
511.354	10319.45
511.722	10345.89
512.09	10441.48
512.458	10335.04
512.826	10430.4
513.193	10480.35
513.561	10436.73
513.929	10473.79
514.297	10539.33
514.664	10561.47
515.032	10574.13
515.4	10689.38
515.767	10624.97
516.135	10646.44
516.502	10504.3
516.869	10692.09
517.237	10650.28
517.604	10527.58
517.972	10678.53
518.339	10661.36
518.706	10697.06
519.073	10739.1
519.44	10758.53
519.808	10787.68
520.175	10679.89
520.542	10919.2
520.909	10846.21
521.276	10772.99
521.643	10913.55
522.009	10902.26
522.376	10819.32
522.743	10921.69
523.11	10966.89
523.477	11011.63
523.843	10954.46
524.21	11028.81
524.577	11076.49
524.943	10986.1
525.31	11063.83
525.676	11165.98
526.043	11088.47
526.409	11159.65
526.776	11148.58
527.142	11173.89
527.508	11132.76
527.874	11165.07
528.241	11234.9
528.607	11193.1
528.973	11218.41
529.339	11157.62
529.705	11247.33
530.071	11209.59
530.437	11192.19
530.803	11229.48
531.169	11240.33
531.535	11149.25
531.901	11125.3
532.267	11139.54
532.632	11128.01
532.998	11191.97
533.364	11188.58
533.73	11167.56
534.095	11108.58
534.461	11074.91
534.826	11131.18
535.192	11055.02
535.557	11100.89
535.923	11087.34
536.288	11030.16
536.653	11052.53
537.019	11041.46
537.384	10976.83
537.749	11018.86
538.114	10903.39
538.479	10933.67
538.845	10908.36
539.21	10789.26
539.575	10767.57
539.94	10820.22
540.305	10950.16
540.67	10805.08
541.034	10751.53
541.399	10726.67
541.764	10727.57
542.129	10623.62
542.494	10620.46
542.858	10641.25
543.223	10545.43
543.587	10568.48
543.952	10509.05
544.316	10546.11
544.681	10481.93
545.045	10461.36
545.41	10444.41
545.774	10431.53
546.138	10514.7
546.503	10379.56
546.867	10304.08
547.231	10291.88
547.595	10269.73
547.959	10290.75
548.324	10188.6
548.688	10163.74
549.052	10205.32
549.416	10145.44
549.779	10072.22
550.143	10020.02
550.507	10100.92
550.871	10107.7
551.235	9982.51
551.599	10059.34
551.962	9963.3
552.326	9998.55
552.689	9978.21
553.053	9806.47
553.417	9852.79
553.78	9895.95
554.143	9841.49
554.507	9840.36
554.87	9808.05
555.234	9850.08
555.597	9848.27
555.96	9772.57
556.323	9759.91
556.686	9726.92
557.05	9748.84
557.413	9721.5
557.776	9687.15
558.139	9737.54
558.502	9728.28
558.865	9722.4
559.228	9708.16
559.59	9620.03
559.953	9560.6
560.316	9717.43
560.679	9636.07
561.041	9678.33
561.404	9649.63
561.767	9711.33
562.129	9684.89
562.492	9673.14
562.854	9679.91
563.217	9640.82
563.579	9722.85
563.941	9697.99
564.304	9752.23
564.666	9729.63
565.028	9757.65
565.39	9730.31
565.753	9761.04
566.115	9761.04
566.477	9749.29
566.839	9797.2
567.201	9785
567.563	9807.82
567.925	9852.34
568.287	9770.76
568.648	9754.04
569.01	9856.63
569.372	9885.33
569.734	9780.25
570.095	9911.77
570.457	9885.33
570.819	9857.09
571.18	9843.53
571.542	9963.98
571.903	9971.21
572.265	9917.2
572.626	9910.19
572.987	9956.74
573.349	9887.82
573.71	9970.53
574.071	9978.21
574.432	10057.53
574.794	10083.75
575.155	10026.35
575.516	10031.09
575.877	10034.48
576.238	10093.46
576.599	10102.28
576.96	10113.35
577.32	10116.97
577.681	10138.43
578.042	10156.96
578.403	10133.46
578.763	10167.36
579.124	10135.72
579.485	10224.31
579.845	10211.43
580.206	10215.27
580.566	10186.34
580.927	10209.39
581.287	10233.35
581.648	10160.35
582.008	10255.72
582.368	10265.66
582.728	10308.15
583.089	10308.15
583.449	10293.68
583.809	10250.07
584.169	10300.92
584.529	10308.6
584.889	10295.94
585.249	10285.77
585.609	10226.57
585.969	10346.11
586.329	10334.81
586.688	10293.01
587.048	10283.51
587.408	10211.2
587.768	10223.63
588.127	10318.32
588.487	10368.48
588.846	10349.28
589.206	10357.19
589.565	10289.16
589.925	10359.67
590.284	10324.42
590.643	10278.54
591.003	10363.06
591.362	10413.68
591.721	10324.87
592.08	10325.55
592.44	10396.96
592.799	10352.44
593.158	10331.65
593.517	10312.67
593.876	10338.2
594.235	10398.09
594.593	10290.29
594.952	10336.17
595.311	10376.85
595.67	10387.69
596.029	10448.93
596.387	10417.75
596.746	10368.94
597.104	10355.83
597.463	10451.87
597.822	10456.17
598.18	10422.95
598.538	10360.12
598.897	10440.12
599.255	10386.79
599.613	10469.05
599.972	10399.22
600.33	10360.8
600.688	10349.05
601.046	10441.48
601.404	10475.83
601.762	10422.95
602.12	10471.08
602.478	10481.7
602.836	10456.84
603.194	10359.9
603.552	10437.41
603.91	10401.25
604.268	10416.62
604.625	10446.45
604.983	10438.09
605.341	10349.73
605.698	10410.97
606.056	10452.32
606.413	10469.27
606.771	10537.29
607.128	10456.17
607.485	10462.04
607.843	10469.5
608.2	10568.03
608.557	10551.3
608.914	10487.13
609.272	10514.24
609.629	10506.56
609.986	10495.26
610.343	10575.48
610.7	10602.15
611.057	10568.71
611.414	10572.77
611.771	10519.89
612.127	10624.97
612.484	10603.51
612.841	10617.29
613.198	10587.24
613.554	10540.46
613.911	10610.96
614.267	10640.79
614.624	10605.99
614.98	10624.07
615.337	10695.71
615.693	10699.78
616.05	10620
616.406	10695.48
616.762	10690.74
617.118	10647.35
617.475	10631.53
617.831	10689.83
618.187	10739.77
618.543	10688.25
618.899	10821.13
619.255	10698.87
619.611	10749.04
619.967	10779.1
620.323	10769.38
620.678	10721.24
621.034	10669.72
621.39	10764.63
621.746	10751.3
622.101	10825.2
622.457	10736.38
622.812	10752.2
623.168	10753.33
623.523	10756.04
623.879	10807.34
624.234	10689.61
624.589	10789.72
624.945	10757.85
625.3	10787.68
625.655	10750.85
626.01	10833.33
626.365	10747.46
626.72	10671.98
627.075	10725.31
627.43	10740.23
627.785	10722.37
628.14	10726.89
628.495	10744.75
628.85	10692.09
629.205	10697.74
629.559	10754.69
629.914	10682.15
630.269	10698.65
630.623	10599.89
630.978	10702.94
631.332	10725.76
631.687	10656.84
632.041	10629.72
632.396	10649.83
632.75	10530.97
633.104	10651.87
633.459	10516.28
633.813	10576.84
634.167	10510.85
634.521	10472.21
634.875	10539.33
635.229	10530.74
635.583	10468.14
635.937	10465.88
636.291	10421.82
636.645	10472.89
636.999	10417.97
637.352	10485.09
637.706	10381.59
638.06	10458.43
638.413	10355.15
638.767	10309.73
639.121	10398.31
639.474	10292.55
639.828	10256.85
640.181	10339.56
640.534	10281.03
640.888	10301.59
641.241	10253.91
641.594	10276.06
641.947	10223.4
642.301	10211.43
642.654	10288.03
643.007	10297.53
643.36	10245.1
643.713	10203.29
644.066	10285.77
644.419	10188.38
644.771	10175.04
645.124	10103.18
645.477	10067.93
645.83	9963.75
646.182	9952.9
646.535	9897.99
646.888	9891.21
647.24	9881.04
647.593	9921.94
647.945	9840.59
648.298	9870.19
648.65	9807.14
649.002	9863.86
649.355	9867.25
649.707	9855.05
650.059	9960.36
650.411	10064.99
650.763	10050.75
651.115	10061.83
651.467	10073.58
651.819	10109.06
652.171	10041.04
652.523	10085.33
652.875	10022.73
653.227	9980.02
653.578	10085.33
653.93	10093.92
654.282	10029.06
654.633	9984.54
654.985	10161.03
655.337	10072.45
655.688	10053.92
656.039	10094.14
656.391	10053.92
656.742	10091.66
657.094	10075.38
657.445	10032.67
657.796	10057.76
658.147	10139.56
658.498	10095.95
658.849	10057.76
659.2	10092.79
659.551	10074.71
659.902	10094.14
660.253	10053.92
660.604	10149.28
660.955	10034.48
661.306	10137.53
661.656	10109.28
662.007	10128.72
662.358	10130.75
662.708	10084.88
663.059	10164.2
663.409	10079
663.76	10117.64
664.11	10227.92
664.461	10156.29
664.811	10137.3
665.161	10117.19
665.511	10150.64
665.862	10136.17
666.212	10208.04
666.562	10204.87
666.912	10114.71
667.262	10092.33
667.612	10138.66
667.962	10154.7
668.312	10120.81
668.662	10222.05
669.011	10148.83
669.361	10102.5
669.711	10062.73
670.06	10109.06
670.41	10056.18
670.76	10083.07
671.109	10101.15
671.459	10061.37
671.808	10059.79
672.157	10024.09
672.507	10018.89
672.856	10063.86
673.205	10073.58
673.554	10126.46
673.904	10047.14
674.253	10101.82
674.602	10051.43
674.951	9899.8
675.3	9798.78
675.649	10021.6
675.998	10024.09
676.346	10003.52
676.695	10021.83
677.044	9943.86
677.393	9928.5
677.741	9969.85
678.09	9934.37
678.438	9980.7
678.787	9949.29
679.135	9864.32
679.484	9862.51
679.832	9828.61
680.181	9775.51
680.529	9825.67
680.877	9774.83
681.225	9731.67
681.573	9832.91
681.922	9787.93
682.27	9671.1
682.618	9739.35
682.966	9667.26
683.314	9700.03
683.661	9663.87
684.009	9580.71
684.357	9593.14
684.705	9600.82
685.053	9578
685.4	9601.05
685.748	9530.09
686.095	9482.41
686.443	9461.62
686.79	9465.01
687.138	9477.43
687.485	9440.15
687.832	9396.08
688.18	9419.58
688.527	9401.28
688.874	9363.77
689.221	9359.25
689.568	9295.07
689.915	9256.65
690.262	9274.28
690.609	9267.04
690.956	9196.54
691.303	9205.58
691.65	9054.85
691.997	9106.82
692.344	9073.83
692.69	9067.28
693.037	9002.42
693.383	8952.7
693.73	8982.98
694.077	8919.26
694.423	8933.95
694.769	8923.1
695.116	8909.77
695.462	8817.11
695.808	8782.54
696.155	8737.79
696.501	8743.89
696.847	8713.16
697.193	8613.5
697.539	8689.88
697.885	8562.88
698.231	8538.48
698.577	8543.45
698.923	8492.38
699.269	8471.81
699.614	8476.33
699.96	8470
700.306	8380.97
700.651	8401.98
700.997	8393.4
701.342	8342.1
701.688	8350.46
702.033	8236.34
702.379	8235.89
702.724	8220.29
703.069	8234.53
703.415	8138.94
703.76	8101.2
704.105	8103.23
704.45	8108.88
704.795	8055.78
705.14	8006.74
705.485	8009
705.83	7974.42
706.175	7997.47
706.52	7872.73
706.865	7858.04
707.209	7874.76
707.554	7830.02
707.899	7854.2
708.243	7745.05
708.588	7758.16
708.932	7759.29
709.277	7682.45
709.621	7731.94
709.966	7670.7
710.31	7646.75
710.654	7603.81
710.998	7618.05
711.342	7579.63
711.687	7568.78
712.031	7500.09
712.375	7500.09
712.719	7508.67
713.063	7457.37
713.407	7536.02
713.75	7470.71
714.094	7527.66
714.438	7415.12
714.782	7444.49
715.125	7437.26
715.469	7441.33
715.812	7338.51
716.156	7324.95
716.499	7377.38
716.843	7369.92
717.186	7241.34
717.53	7338.96
717.873	7307.32
718.216	7271.84
718.559	7237.04
718.902	7320.2
719.246	7306.64
719.589	7268.9
719.932	7198.85
720.275	7233.65
720.617	7190.04
720.96	7183.26
721.303	7160.43
721.646	7206.76
721.989	7136.25
722.331	7190.71
722.674	7161.79
723.016	7103.49
723.359	7148.46
723.701	7158.85
724.044	7164.73
724.386	7109.59
724.729	7097.16
725.071	7111.62
725.413	7153.43
725.755	7100.55
726.097	7033.2
726.439	7032.75
726.782	7023.04
727.124	7037.72
727.465	7000.21
727.807	7019.19
728.149	7113.65
728.491	7035.46
728.833	7011.28
729.175	7012.64
729.516	6996.82
729.858	7030.72
730.199	7042.24
730.541	6985.75
730.882	6973.55
731.224	7086.99
731.565	6973.09
731.906	7033.88
732.248	7015.13
732.589	6946.88
732.93	6993.21
733.271	7009.7
733.612	6983.94
733.953	6982.81
734.294	6979.42
734.635	6976.94
734.976	6981.45
735.317	7067.1
735.658	6990.04
735.999	6986.88
736.339	6974
736.68	7033.2
737.021	7040.89
737.361	7028.01
737.702	7040.44
738.042	6997.5
738.383	6994.79
738.723	7044.28
739.063	7031.62
739.404	7048.57
739.744	7072.75
740.084	7059.64
740.424	7064.16
740.764	7051.96
741.104	7164.5
741.444	7071.85
741.784	7103.49
742.124	7122.69
742.464	7155.91
742.804	7145.52
743.143	7197.95
743.483	7166.76
743.823	7169.47
744.162	7164.27
744.502	7223.48
744.841	7251.5
745.181	7339.86
745.52	7325.4
745.86	7392.07
746.199	7398.85
746.538	7367.21
746.877	7540.54
747.216	7594.77
747.556	7566.3
747.895	7568.33
748.234	7652.17
748.573	7694.66
748.911	7777.37
749.25	7857.36
749.589	7851.26
749.928	7944.14
750.267	7988.89
750.605	8032.5
750.944	8093.74
751.283	8166.96
751.621	8287.41
751.96	8324.92
752.298	8429.33
752.636	8519.27
752.975	8564.01
753.313	8646.5
753.651	8791.8
753.989	8794.51
754.327	8937.79
754.666	9084.68
755.004	9169.65
755.342	9375.29
755.679	9434.27
756.017	9601.05
756.355	9675.4
756.693	9813.47
757.031	9957.42
757.368	10052.56
757.706	10242.84
758.044	10357.64
758.381	10542.49
758.719	10674.92
759.056	10909.49
759.394	10994.23
759.731	11191.29
760.068	11309.48
760.405	11471.28
760.743	11640.54
761.08	11897.03
761.417	11964.37
