Data from hue_250_FLMS001491_00054.txt Node
Date: Tue Feb 07 16:01:10 GMT 2017
User: dcchb
Spectrometer: FLMS00149
Trigger mode: 0
Integration Time (sec): 2.000000E-2
Scans to average: 10
Electric dark correction enabled: true
Nonlinearity correction enabled: false
Boxcar width: 0
XAxis mode: Wavelengths
Number of Pixels in Spectrum: 2048
>>>>>Begin Spectral Data<<<<<
341.393	4.49
341.776	4.49
342.16	4.49
342.543	-40.93
342.927	-56.98
343.31	-74.6
343.693	-75.73
344.077	-67.6
344.46	-53.59
344.843	-61.04
345.226	-45.68
345.61	-46.58
345.993	-15.4
346.376	-20.37
346.759	12.85
347.142	50.14
347.525	48.56
347.908	59.41
348.291	81.78
348.674	83.36
349.057	124.49
349.44	121.32
349.823	150.93
350.206	151.15
350.588	173.98
350.971	228.67
351.354	205.39
351.737	219.4
352.119	239.29
352.502	251.72
352.884	263.47
353.267	266.63
353.65	270.7
354.032	286.97
354.414	304.37
354.797	298.49
355.179	296.01
355.562	306.18
355.944	318.16
356.326	313.41
356.709	327.42
357.091	307.99
357.473	326.52
357.855	343.01
358.238	337.59
358.62	320.19
359.002	322.68
359.384	335.56
359.766	341.88
360.148	324.03
360.53	335.78
360.912	352.96
361.294	339.85
361.676	329
362.057	318.83
362.439	319.74
362.821	304.14
363.203	312.28
363.584	327.87
363.966	337.36
364.348	323.13
364.729	320.42
365.111	307.53
365.493	326.29
365.874	311.6
366.256	313.18
366.637	299.17
367.019	303.01
367.4	320.64
367.781	316.35
368.163	293.98
368.544	313.41
368.925	311.83
369.306	327.19
369.688	331.04
370.069	309.34
370.45	296.91
370.831	297.37
371.212	304.82
371.593	316.8
371.974	310.7
372.355	304.6
372.736	306.63
373.117	294.2
373.498	322
373.879	325.61
374.26	329
374.641	292.39
375.021	295.78
375.402	289.46
375.783	305.95
376.163	306.18
376.544	312.05
376.925	320.19
377.305	330.58
377.686	332.17
378.066	322
378.447	331.26
378.827	341.88
379.208	311.38
379.588	341.88
379.968	318.38
380.349	334.88
380.729	326.29
381.109	327.19
381.489	357.02
381.87	315.44
382.25	334.65
382.63	327.87
383.01	333.07
383.39	349.57
383.77	338.04
384.15	333.75
384.53	340.53
384.91	348.21
385.29	335.78
385.67	336.01
386.049	344.82
386.429	354.99
386.809	355.22
387.189	376.46
387.568	340.75
387.948	346.63
388.328	363.13
388.707	329.23
389.087	367.42
389.466	348.89
389.846	356.8
390.225	376.69
390.605	362.9
390.984	357.93
391.363	348.21
391.743	365.39
392.122	363.8
392.501	371.49
392.881	375.33
393.26	392.73
393.639	381.88
394.018	400.19
394.397	376.91
394.776	391.37
395.155	411.71
395.534	403.8
395.913	400.41
396.292	403.35
396.671	410.36
397.05	383.24
397.429	378.04
397.808	412.62
398.186	395.22
398.565	398.15
398.944	399.74
399.323	399.96
399.701	411.03
400.08	418.49
400.458	422.79
400.837	409.45
401.215	440.86
401.594	415.55
401.972	440.41
402.351	433.18
402.729	440.41
403.107	449
403.486	434.76
403.864	446.51
404.242	444.03
404.62	453.29
404.999	442.45
405.377	447.19
405.755	447.64
406.133	477.47
406.511	476.34
406.889	460.52
407.267	459.17
407.645	484.93
408.023	487.64
408.401	493.52
408.779	503.91
409.156	486.29
409.534	491.71
409.912	505.04
410.29	506.17
410.667	521.31
411.045	504.59
411.422	556.12
411.8	533.74
412.178	534.19
412.555	546.62
412.933	561.09
413.31	582.33
413.687	557.02
414.065	570.35
414.442	589.79
414.819	589.79
415.197	602.44
415.574	601.54
415.951	602.67
416.328	598.6
416.705	614.42
417.082	620.75
417.46	620.29
417.837	633.4
418.214	641.76
418.591	643.8
418.967	634.98
419.344	675.43
419.721	691.03
420.098	642.21
420.475	682.44
420.852	702.55
421.228	688.32
421.605	727.64
421.982	710.69
422.358	714.53
422.735	708.65
423.111	745.71
423.488	775.32
423.864	774.87
424.241	785.94
424.617	776
424.994	813.96
425.37	797.01
425.746	812.38
426.123	813.28
426.499	809.89
426.875	829.1
427.251	860.51
427.627	844.24
428.003	851.02
428.379	882.43
428.756	872.72
429.132	898.93
429.507	900.51
429.883	908.65
430.259	945.71
430.635	957.01
431.011	948.42
431.387	961.3
431.763	994.3
432.138	973.05
432.514	1020.74
432.89	1011.02
433.265	1009.21
433.641	1046.72
434.016	1065.71
434.392	1080.62
434.767	1095.08
435.143	1096.21
435.518	1097.34
435.894	1157.68
436.269	1157
436.644	1161.52
437.02	1177.12
437.395	1202.88
437.77	1242.65
438.145	1244.68
438.52	1276.32
438.895	1252.14
439.271	1277
439.646	1280.84
440.021	1287.62
440.395	1324.68
440.77	1345.47
441.145	1324.91
441.52	1369.2
441.895	1367.17
442.27	1392.25
442.645	1366.94
443.019	1403.55
443.394	1417.34
443.769	1427.96
444.143	1429.09
444.518	1434.51
444.892	1432.93
445.267	1440.61
445.641	1465.7
446.016	1482.87
446.39	1495.07
446.764	1500.5
447.139	1507.5
447.513	1532.59
447.887	1553.6
448.262	1571
448.636	1547.5
449.01	1588.86
449.384	1569.65
449.758	1589.08
450.132	1620.49
450.506	1620.49
450.88	1627.73
451.254	1633.38
451.628	1646.48
452.002	1666.59
452.376	1675.86
452.75	1707.27
453.123	1720.38
453.497	1739.14
453.871	1702.75
454.244	1785.24
454.618	1784.33
454.992	1818.91
455.365	1823.2
455.739	1858.68
456.112	1853.48
456.486	1896.42
456.859	1939.58
457.232	1951.33
457.606	1923.76
457.979	1959.92
458.352	1981.61
458.725	2058.22
459.099	2006.25
459.472	2046.47
459.845	2065
460.218	2069.75
460.591	2098.67
460.964	2134.15
461.337	2124.44
461.71	2169.18
462.083	2202.17
462.456	2215.05
462.829	2197.65
463.201	2269.06
463.574	2277.65
463.947	2320.81
464.32	2347.48
464.692	2336.86
465.065	2350.42
465.438	2417.54
465.81	2488.95
466.183	2476.06
466.555	2498.21
466.928	2542.28
467.3	2503.86
467.672	2554.48
468.045	2593.12
468.417	2648.04
468.789	2639
469.161	2654.59
469.534	2682.61
469.906	2771.2
470.278	2769.16
470.65	2797.64
471.022	2851.2
471.394	2888.71
471.766	2930.97
472.138	2919.67
472.51	3025.88
472.882	3027.46
473.253	3071.98
473.625	3121.92
473.997	3167.8
474.369	3196.05
474.74	3199.44
475.112	3264.74
475.484	3298.42
475.855	3345.42
476.227	3368.02
476.598	3477.17
476.97	3481.69
477.341	3545.42
477.713	3617.5
478.084	3639.2
478.455	3736.37
478.827	3743.15
479.198	3807.1
479.569	3833.09
479.94	3886.2
480.311	3963.26
480.682	4059.53
481.053	4078.51
481.424	4154.66
481.795	4172.97
482.166	4229.92
482.537	4288.67
482.908	4394.88
483.279	4388.56
483.65	4478.05
484.021	4546.52
484.391	4600.08
484.762	4613.64
485.133	4673.75
485.503	4760.07
485.874	4840.07
486.244	4848.66
486.615	4949.45
486.985	4934.31
487.356	5046.62
487.726	5073.51
488.097	5149.21
488.467	5208.42
488.837	5343.33
489.207	5343.11
489.578	5393.28
489.948	5405.71
490.318	5510.11
490.688	5496.78
491.058	5589.2
491.428	5638.47
491.798	5701.29
492.168	5842.53
492.538	5764.57
492.908	5899.7
493.278	5981.74
493.648	5936.76
494.017	5996.88
494.387	6050.66
494.757	6122.97
495.126	6158.91
495.496	6150.09
495.866	6214.95
496.235	6303.99
496.605	6316.87
496.974	6387.37
497.344	6404.1
497.713	6395.51
498.082	6469.18
498.452	6549.4
498.821	6533.81
499.19	6533.36
499.559	6574.04
499.928	6584.66
500.298	6606.35
500.667	6664.43
501.036	6687.48
501.405	6734.94
501.774	6695.61
502.143	6828.49
502.512	6802.5
502.88	6883.18
503.249	6867.59
503.618	6947.36
503.987	6918.21
504.356	6905.78
504.724	6952.33
505.093	7000.47
505.462	7017.19
505.83	7066.68
506.199	7089.73
506.567	7136.06
506.936	7169.27
507.304	7264.19
507.672	7171.76
508.041	7218.76
508.409	7301.02
508.777	7376.73
509.145	7365.65
509.514	7330.85
509.882	7410.62
510.25	7421.47
510.618	7409.49
510.986	7450.4
511.354	7521.13
511.722	7533.78
512.09	7614.69
512.458	7566.78
512.826	7697.17
513.193	7628.47
513.561	7635.03
513.929	7757.73
514.297	7685.19
514.664	7744.17
515.032	7744.63
515.4	7788.47
515.767	7763.61
516.135	7829.37
516.502	7774.23
516.869	7846.55
517.237	7836.38
517.604	7894.68
517.972	7910.5
518.339	7938.29
518.706	7872.99
519.073	7948.92
519.44	7999.76
519.808	8049.7
520.175	7982.13
520.542	8050.16
520.909	8087.89
521.276	8021.91
521.643	8102.13
522.009	8068.23
522.376	8097.84
522.743	8145.75
523.11	8226.42
523.477	8217.61
523.843	8244.95
524.21	8381.67
524.577	8277.27
524.943	8385.29
525.31	8434.55
525.676	8420.54
526.043	8456.7
526.409	8492.4
526.776	8447.89
527.142	8498.51
527.508	8535.11
527.874	8504.38
528.241	8599.07
528.607	8587.32
528.973	8637.03
529.339	8565.85
529.705	8657.15
530.071	8687.2
530.437	8678.39
530.803	8706.64
531.169	8661.21
531.535	8676.13
531.901	8668.22
532.267	8740.53
532.632	8741.66
532.998	8721.1
533.364	8743.92
533.73	8752.51
534.095	8783.7
534.461	8864.15
534.826	8830.02
535.192	8794.32
535.557	8843.13
535.923	8785.96
536.288	8744.6
536.653	8792.06
537.019	8748.67
537.384	8777.59
537.749	8790.25
538.114	8812.62
538.479	8730.36
538.845	8792.06
539.21	8752.74
539.575	8820.3
539.94	8809.46
540.305	8827.31
540.67	8818.95
541.034	8796.35
541.399	8749.12
541.764	8793.19
542.129	8811.94
542.494	8821.21
542.858	8810.59
543.223	8775.79
543.587	8803.36
543.952	8745.05
544.316	8789.12
544.681	8811.72
545.045	8825.5
545.41	8833.41
545.774	8789.12
546.138	8759.52
546.503	8758.16
546.867	8733.53
547.231	8825.05
547.595	8782.34
547.959	8806.97
548.324	8813.07
548.688	8730.36
549.052	8781.44
549.416	8749.35
549.779	8728.56
550.143	8715.22
550.507	8783.02
550.871	8751.83
551.235	8711.38
551.599	8771.27
551.962	8800.87
552.326	8801.55
552.689	8763.13
553.053	8697.37
553.417	8712.74
553.78	8880.87
554.143	8781.89
554.507	8803.81
554.87	8890.36
555.234	8828.89
555.597	8750.48
555.96	8794.77
556.323	8775.79
556.686	8803.13
557.05	8844.03
557.413	8839.74
557.776	8823.47
558.139	8846.29
558.502	8866.63
558.865	8914.54
559.228	8950.7
559.59	8910.25
559.953	8948.44
560.316	9037.93
560.679	9022.33
561.041	8971.71
561.404	8992.28
561.767	9076.8
562.129	9022.33
562.492	9127.87
562.854	9023.69
563.217	9147.08
563.579	9089.22
563.941	9100.75
564.304	9171.26
564.666	9270.69
565.028	9208.54
565.39	9189.79
565.753	9223.91
566.115	9262.33
566.477	9356.56
566.839	9295.55
567.201	9380.74
567.563	9356.56
567.925	9407.86
568.287	9378.93
568.648	9369.89
569.01	9425.26
569.372	9504.58
569.734	9498.03
570.095	9524.47
570.457	9584.13
570.819	9570.79
571.18	9536.67
571.542	9563.56
571.903	9652.15
572.265	9682.43
572.626	9685.14
572.987	9673.84
573.349	9661.86
573.71	9797.23
574.071	9803.33
574.432	9823.22
574.794	9805.82
575.155	9772.14
575.516	9816.44
575.877	9841.07
576.238	9926.26
576.599	9898.92
576.96	9954.96
577.32	9911.35
577.681	10064.79
578.042	9983.44
578.403	10045.58
578.763	10065.92
579.124	10104.79
579.485	10014.62
579.845	10106.15
580.206	10105.02
580.566	10136.43
580.927	10127.39
581.287	10179.59
581.648	10122.87
582.008	10229.76
582.368	10194.28
582.728	10256.65
583.089	10209.65
583.449	10173.94
583.809	10300.49
584.169	10360.15
584.529	10241.96
584.889	10372.81
585.249	10400.83
585.609	10240.38
585.969	10375.52
586.329	10399.47
586.688	10407.38
587.048	10393.37
587.408	10356.76
587.768	10369.19
588.127	10326.93
588.487	10488.28
588.846	10497.55
589.206	10487.61
589.565	10483.54
589.925	10446.7
590.284	10475.18
590.643	10520.6
591.003	10486.02
591.362	10597.89
591.721	10528.73
592.08	10531.45
592.44	10600.82
592.799	10545.46
593.158	10549.52
593.517	10606.7
593.876	10551.33
594.235	10593.82
594.593	10599.02
594.952	10551.11
595.311	10543.88
595.67	10585
596.029	10691.89
596.387	10695.51
596.746	10744.32
597.104	10667.26
597.463	10705.68
597.822	10757.65
598.18	10654.61
598.538	10678.34
598.897	10739.8
599.255	10684.44
599.613	10823.87
599.972	10706.58
600.33	10716.98
600.688	10690.09
601.046	10788.16
601.404	10754.27
601.762	10788.16
602.12	10825.22
602.478	10785.9
602.836	10828.16
603.194	10760.37
603.552	10809.86
603.91	10763.53
604.268	10841.72
604.625	10777.09
604.983	10857.09
605.341	10778.9
605.698	10850.76
606.056	10883.98
606.413	10906.8
606.771	10820.03
607.128	10882.17
607.485	10854.6
607.843	10878.33
608.2	10899.8
608.557	11022.28
608.914	10935.73
609.272	10979.12
609.629	10994.26
609.986	10974.37
610.343	10995.61
610.7	11059.12
611.057	11021.6
611.414	10975.73
611.771	11052.56
612.127	11106.8
612.484	11050.98
612.841	11066.57
613.198	11073.8
613.554	11026.8
613.911	11152.22
614.267	11067.03
614.624	11089.62
614.98	11074.71
615.337	11139.11
615.693	11123.52
616.05	11089.17
616.406	11145.67
616.762	11124.88
617.118	11134.59
617.475	11166.01
617.831	11170.75
618.187	11234.93
618.543	11215.04
618.899	11264.76
619.255	11334.14
619.611	11193.35
619.967	11291.88
620.323	11233.57
620.678	11315.61
621.034	11214.82
621.39	11204.65
621.746	11262.95
622.101	11374.81
622.457	11294.36
622.812	11264.31
623.168	11335.27
623.523	11291.65
623.879	11254.59
624.234	11163.07
624.589	11225.21
624.945	11331.65
625.3	11284.87
625.655	11362.84
626.01	11242.39
626.365	11305.89
626.72	11345.89
627.075	11268.38
627.43	11172.79
627.785	11228.83
628.14	11241.71
628.495	11173.92
628.85	11248.49
629.205	11182.73
629.559	11292.78
629.914	11170.53
630.269	11227.7
630.623	11091.43
630.978	11113.8
631.332	11134.82
631.687	11162.16
632.041	11145.67
632.396	11120.81
632.75	11068.61
633.104	11109.28
633.459	11029.74
633.813	11069.51
634.167	11064.99
634.521	11039.68
634.875	11013.02
635.229	11039.23
635.583	10953.58
635.937	10994.26
636.291	10973.24
636.645	10925.79
636.999	10908.16
637.352	10965.79
637.706	10895.5
638.06	10937.99
638.413	10902.74
638.767	10869.29
639.121	10933.47
639.474	10811.89
639.828	10862.06
640.181	10908.84
640.534	10865
640.888	10824.09
641.241	10798.33
641.594	10784.09
641.947	10791.33
642.301	10810.76
642.654	10786.81
643.007	10752.46
643.36	10759.91
643.713	10799.69
644.066	10783.64
644.419	10716.53
644.771	10567.83
645.124	10473.82
645.477	10535.51
645.83	10449.64
646.182	10400.15
646.535	10411.68
646.888	10385.91
647.24	10323.99
647.593	10414.39
647.945	10312.92
648.298	10321.51
648.65	10326.71
649.002	10236.54
649.355	10361.06
649.707	10318.34
650.059	10418.68
650.411	10572.58
650.763	10464.1
651.115	10602.18
651.467	10533.93
651.819	10528.28
652.171	10564.44
652.523	10549.07
652.875	10505.91
653.227	10544.78
653.578	10533.48
653.93	10592.01
654.282	10444.22
654.633	10481.73
654.985	10491.45
655.337	10503.42
655.688	10511.33
656.039	10543.88
656.391	10547.27
656.742	10455.52
657.094	10528.06
657.445	10545.68
657.796	10544.1
658.147	10516.53
658.498	10425.91
658.849	10540.49
659.2	10519.02
659.551	10515.18
659.902	10500.94
660.253	10538.9
660.604	10492.35
660.955	10466.14
661.306	10465.23
661.656	10531.67
662.007	10497.32
662.358	10452.58
662.708	10529.41
663.059	10545.01
663.409	10435.4
663.76	10519.24
664.11	10539.58
664.461	10582.74
664.811	10488.96
665.161	10482.41
665.511	10515.63
665.862	10467.04
666.212	10530.09
666.562	10494.84
666.912	10516.31
667.262	10508.62
667.612	10507.72
667.962	10507.04
668.312	10526.25
668.662	10564.44
669.011	10494.39
669.361	10512.92
669.711	10490.77
670.06	10427.49
670.41	10372.81
670.76	10405.12
671.109	10545.01
671.459	10463.88
671.808	10399.02
672.157	10414.39
672.507	10426.14
672.856	10410.09
673.205	10446.25
673.554	10461.17
673.904	10376.2
674.253	10438.79
674.602	10384.56
674.951	10185.92
675.3	10184.11
675.649	10359.47
675.998	10329.42
676.346	10288.06
676.695	10399.02
677.044	10274.96
677.393	10354.73
677.741	10319.02
678.09	10297.33
678.438	10253.71
678.787	10267.5
679.135	10295.75
679.484	10248.74
679.832	10229.53
680.181	10217.56
680.529	10238.35
680.877	10175.07
681.225	10164.22
681.573	10272.92
681.922	10055.75
682.27	9989.31
682.618	10145.47
682.966	10006.49
683.314	10115.41
683.661	10059.82
684.009	9973.72
684.357	10011.91
684.705	9950.9
685.053	9960.39
685.4	10001.74
685.748	9901.63
686.095	9821.63
686.443	9814.63
686.79	9830.22
687.138	9844.46
687.485	9774.86
687.832	9844.01
688.18	9813.27
688.527	9705.48
688.874	9794.74
689.221	9682.88
689.568	9701.19
689.915	9642.88
690.262	9607.18
690.609	9511.36
690.956	9561.98
691.303	9648.08
691.65	9502.55
691.997	9492.38
692.344	9386.62
692.69	9427.07
693.037	9431.59
693.383	9345.94
693.73	9342.78
694.077	9327.86
694.423	9263.68
694.769	9222.33
695.116	9216.68
695.462	9221.88
695.808	9179.62
696.155	9178.94
696.501	9114.99
696.847	9121.54
697.193	9047.87
697.539	9083.35
697.885	8981.88
698.231	8930.58
698.577	8923.35
698.923	8928.1
699.269	8942.11
699.614	8860.53
699.96	8866.18
700.306	8778.27
700.651	8726.97
700.997	8716.8
701.342	8719.29
701.688	8802.9
702.033	8686.97
702.379	8606.3
702.724	8572.18
703.069	8685.39
703.415	8533.98
703.76	8526.75
704.105	8492.86
704.45	8449.47
704.795	8469.13
705.14	8383.25
705.485	8414.44
705.83	8338.28
706.175	8391.84
706.52	8284.27
706.865	8340.09
707.209	8310.49
707.554	8230.49
707.899	8224.39
708.243	8274.1
708.588	8194.11
708.932	8139.42
709.277	8194.78
709.621	8103.49
709.966	8126.54
710.31	8076.6
710.654	8022.36
710.998	8049.7
711.342	8077.5
711.687	8022.13
712.031	7961.57
712.375	7910.27
712.719	7965.41
713.063	7884.06
713.407	7931.97
713.75	7890.61
714.094	7889.71
714.438	7831.4
714.782	7930.84
715.125	7873.44
715.469	7843.61
715.812	7850.61
716.156	7773.78
716.499	7830.05
716.843	7825.75
717.186	7696.04
717.53	7774.23
717.873	7758.86
718.216	7761.58
718.559	7746.89
718.902	7707.11
719.246	7668.47
719.589	7683.61
719.932	7598.19
720.275	7678.41
720.617	7677.96
720.96	7605.87
721.303	7655.82
721.646	7649.04
721.989	7530.17
722.331	7579.21
722.674	7550.73
723.016	7584.63
723.359	7518.42
723.701	7578.08
724.044	7515.93
724.386	7448.59
724.729	7501.47
725.071	7439.32
725.413	7508.7
725.755	7478.87
726.097	7501.7
726.439	7419.89
726.782	7465.76
727.124	7525.88
727.465	7504.63
727.807	7475.26
728.149	7420.34
728.491	7396.16
728.833	7358.2
729.175	7456.72
729.516	7375.6
729.858	7397.29
730.199	7396.84
730.541	7356.16
730.882	7386.44
731.224	7395.94
731.565	7331.53
731.906	7377.86
732.248	7413.56
732.589	7338.54
732.93	7289.95
733.271	7320.68
733.612	7336.5
733.953	7327.69
734.294	7319.33
734.635	7324.98
734.976	7336.28
735.317	7292.66
735.658	7372.89
735.999	7361.81
736.339	7308.48
736.68	7323.62
737.021	7349.38
737.361	7310.97
737.702	7381.47
738.042	7325.65
738.383	7353.68
738.723	7336.05
739.063	7348.48
739.404	7360
739.744	7296.28
740.084	7299.21
740.424	7299.21
740.764	7336.73
741.104	7398.65
741.444	7328.59
741.784	7331.08
742.124	7371.98
742.464	7360.46
742.804	7312.1
743.143	7375.37
743.483	7415.82
743.823	7312.1
744.162	7394.81
744.502	7452.88
744.841	7404.97
745.181	7447.23
745.52	7471.41
745.86	7511.19
746.199	7494.01
746.538	7560.9
746.877	7582.82
747.216	7577.4
747.556	7652.43
747.895	7609.26
748.234	7671.18
748.573	7689.94
748.911	7745.08
749.25	7741.69
749.589	7806.55
749.928	7877.73
750.267	7904.62
750.605	7996.15
750.944	8016.94
751.283	7966.99
751.621	8087.67
751.96	8029.37
752.298	8170.6
752.636	8227.33
752.975	8274.78
753.313	8363.82
753.651	8431.39
753.989	8442.91
754.327	8499.18
754.666	8566.07
755.004	8649.69
755.342	8786.18
755.679	8880.19
756.017	8869.57
756.355	9017.59
756.693	9116.34
757.031	9185.94
757.368	9240.86
757.706	9374.19
758.044	9416.67
758.381	9508.2
758.719	9647.4
759.056	9775.99
759.394	9881.75
759.731	9888.98
760.068	10059.14
760.405	10125.58
760.743	10129.87
761.08	10381.17
761.417	10440.15
761.754	10521.73
762.091	10615.51
762.428	10714.27
762.765	10766.02
763.102	10977.08
763.438	11076.74
