Data from hue_160_FLMS001491_00041.txt Node
Date: Tue Feb 07 16:51:13 GMT 2017
User: dcchb
Spectrometer: FLMS00149
Trigger mode: 0
Integration Time (sec): 2.000000E-2
Scans to average: 10
Electric dark correction enabled: true
Nonlinearity correction enabled: false
Boxcar width: 0
XAxis mode: Wavelengths
Number of Pixels in Spectrum: 2048
>>>>>Begin Spectral Data<<<<<
341.393	-33.12
341.776	-33.12
342.16	-33.12
342.543	-67.02
342.927	-56.62
343.31	-72.44
343.693	-62.5
344.077	-70.63
344.46	-73.57
344.843	-61.59
345.226	-37.41
345.61	-26.79
345.993	-15.95
346.376	-5.1
346.759	0.1
347.142	30.38
347.525	47.1
347.908	60.89
348.291	92.07
348.674	88.01
349.057	107.44
349.44	120.1
349.823	135.01
350.206	151.28
350.588	190.6
350.971	218.4
351.354	220.21
351.737	250.94
352.119	252.3
352.502	271.73
352.884	269.24
353.267	274.89
353.65	303.14
354.032	297.72
354.414	315.57
354.797	309.47
355.179	318.06
355.562	329.81
355.944	298.17
356.326	304.95
356.709	322.58
357.091	335.68
357.473	339.07
357.855	328.23
358.238	335.46
358.62	337.72
359.002	330.49
359.384	336.14
359.766	335.23
360.148	302.24
360.53	320.54
360.912	331.39
361.294	336.59
361.676	321.9
362.057	330.71
362.439	328.23
362.821	308.79
363.203	311.05
363.584	311.5
363.966	332.97
364.348	315.57
364.729	321.9
365.111	311.05
365.493	313.31
365.874	312.63
366.256	328.9
366.637	301.33
367.019	293.42
367.4	302.92
367.781	298.62
368.163	306.31
368.544	314.89
368.925	302.24
369.306	327.55
369.688	297.49
370.069	303.37
370.45	303.14
370.831	304.5
371.212	309.24
371.593	302.24
371.974	291.16
372.355	300.88
372.736	309.7
373.117	298.4
373.498	278.28
373.879	297.04
374.26	309.92
374.641	309.47
375.021	309.02
375.402	318.96
375.783	341.56
376.163	306.53
376.544	319.41
376.925	305.85
377.305	324.16
377.686	313.31
378.066	315.34
378.447	309.92
378.827	325.51
379.208	325.29
379.588	315.12
379.968	311.5
380.349	333.88
380.729	341.11
381.109	328.9
381.489	335.46
381.87	319.64
382.25	352.63
382.63	336.14
383.01	330.49
383.39	346.53
383.77	349.47
384.15	354.44
384.53	334.33
384.91	324.61
385.29	351.28
385.67	366.19
386.049	347.89
386.429	317.83
386.809	347.89
387.189	349.02
387.568	342.24
387.948	361.45
388.328	357.15
388.707	355.34
389.087	370.48
389.466	353.31
389.846	357.83
390.225	374.55
390.605	384.5
390.984	361.9
391.363	353.08
391.743	366.42
392.122	360.99
392.501	355.34
392.881	356.7
393.26	347.21
393.639	368.9
394.018	351.05
394.397	353.76
394.776	356.25
395.155	374.55
395.534	383.59
395.913	367.09
396.292	401.44
396.671	393.76
397.05	360.32
397.429	382.01
397.808	366.42
398.186	367.32
398.565	388.34
398.944	374.78
399.323	397.83
399.701	368.22
400.08	393.31
400.458	382.91
400.837	415.91
401.215	411.61
401.594	390.82
401.972	400.99
402.351	400.31
402.729	396.25
403.107	388.79
403.486	381.56
403.864	405.51
404.242	414.55
404.62	418.84
404.999	412.07
405.377	398.28
405.755	430.37
406.133	398.51
406.511	406.64
406.889	438.96
407.267	433.76
407.645	422.01
408.023	425.17
408.401	405.51
408.779	437.15
409.156	427.43
409.534	432.4
409.912	433.76
410.29	465.17
410.667	433.99
411.045	436.7
411.422	451.16
411.8	446.87
412.178	445.96
412.555	443.03
412.933	453.65
413.31	484.83
413.687	491.84
414.065	479.86
414.442	497.26
414.819	506.07
415.197	500.88
415.574	469.24
415.951	486.87
416.328	497.94
416.705	493.42
417.082	495.68
417.46	500.42
417.837	520.99
418.214	516.92
418.591	524.15
418.967	507.88
419.344	528.22
419.721	539.75
420.098	518.28
420.475	524.15
420.852	537.94
421.228	532.06
421.605	546.98
421.982	526.19
422.358	519.41
422.735	548.11
423.111	563.02
423.488	559.41
423.864	544.72
424.241	568.9
424.617	580.2
424.994	559.41
425.37	554.43
425.746	592.85
426.123	584.49
426.499	580.87
426.875	605.51
427.251	584.49
427.627	607.09
428.003	608.67
428.379	612.96
428.756	606.18
429.132	636.01
429.507	617.71
429.883	624.94
430.259	629.69
430.635	640.08
431.011	647.99
431.387	663.81
431.763	645.73
432.138	688.67
432.514	684.83
432.89	674.88
433.265	692.74
433.641	686.18
434.016	697.03
434.392	702.68
434.767	689.12
435.143	713.3
435.518	694.32
435.894	701.1
436.269	734.09
436.644	744.49
437.02	747.65
437.395	738.84
437.77	769.12
438.145	772.28
438.52	772.06
438.895	784.03
439.271	776.58
439.646	799.85
440.021	820.64
440.395	801.43
440.77	812.96
441.145	794.88
441.52	821.77
441.895	835.78
442.27	835.78
442.645	838.04
443.019	832.85
443.394	838.04
443.769	842.79
444.143	851.38
444.518	846.18
444.892	876.01
445.267	874.65
445.641	881.21
446.016	877.59
446.39	902.45
446.764	909.23
447.139	908.1
447.513	902.9
447.887	926.85
448.262	906.74
448.636	931.6
449.01	923.46
449.384	941.54
449.758	950.13
450.132	969.34
450.506	978.38
450.88	966.85
451.254	967.08
451.628	981.77
452.002	991.94
452.376	1018.83
452.75	1002.11
453.123	1028.09
453.497	1035.78
453.871	1005.95
454.244	1069.22
454.618	1037.13
454.992	1081.2
455.365	1068.77
455.739	1087.53
456.112	1099.73
456.486	1120.97
456.859	1123.46
457.232	1152.84
457.606	1142.22
457.979	1156.23
458.352	1201.65
458.725	1214.3
459.099	1225.38
459.472	1232.16
459.845	1252.27
460.218	1252.27
460.591	1273.96
460.964	1272.38
461.337	1297.69
461.71	1330.91
462.083	1321.42
462.456	1324.36
462.829	1354.19
463.201	1367.97
463.574	1392.6
463.947	1404.58
464.32	1434.64
464.692	1457.46
465.065	1476.44
465.438	1493.17
465.81	1517.8
466.183	1520.74
466.555	1569.32
466.928	1585.82
467.3	1573.39
467.672	1637.34
468.045	1642.99
468.417	1681.18
468.789	1665.37
469.161	1715.08
469.534	1758.47
469.906	1773.16
470.278	1810.9
470.65	1836.89
471.022	1866.49
471.394	1915.53
471.766	1933.16
472.138	1989.88
472.51	2032.36
472.882	2090.21
473.253	2124.34
473.625	2157.1
473.997	2197.33
474.369	2222.87
474.74	2285.46
475.112	2340.6
475.484	2401.17
475.855	2438.23
476.227	2482.97
476.598	2514.61
476.97	2588.96
477.341	2667.37
477.713	2762.06
478.084	2788.95
478.455	2853.81
478.827	2910.08
479.198	3038.89
479.569	3066.46
479.94	3209.05
480.311	3249.73
480.682	3301.93
481.053	3440.69
481.424	3528.82
481.795	3576.5
482.166	3708.02
482.537	3797.51
482.908	3876.61
483.279	3959.32
483.65	4090.61
484.021	4192.08
484.391	4301.45
484.762	4392.75
485.133	4525.86
485.503	4575.8
485.874	4781.22
486.244	4845.85
486.615	4967.88
486.985	5082.23
487.356	5249.23
487.726	5308.66
488.097	5484.02
488.467	5531.93
488.837	5738.25
489.207	5791.81
489.578	5925.14
489.948	6069.32
490.318	6260.95
490.688	6297.11
491.058	6459.14
491.428	6604.22
491.798	6666.82
492.168	6931.89
492.538	7019.12
492.908	7111.1
493.278	7200.14
493.648	7268.16
494.017	7464.99
494.387	7620.24
494.757	7723.51
495.126	7826.79
495.496	7857.75
495.866	8076.72
496.235	8200.11
496.605	8303.38
496.974	8317.85
497.344	8491.18
497.713	8592.87
498.082	8692.07
498.452	8822.47
498.821	8871.73
499.19	8983.59
499.559	9130.93
499.928	9131.16
500.298	9277.6
500.667	9433.07
501.036	9430.81
501.405	9550.81
501.774	9613.41
502.143	9705.61
502.512	9777.69
502.88	9829.22
503.249	9878.48
503.618	10003.68
503.987	9999.61
504.356	10105.14
504.724	10163
505.093	10268.53
505.462	10313.5
505.83	10405.47
506.199	10466.26
506.567	10651.12
506.936	10503.33
507.304	10737.9
507.672	10762.53
508.041	10792.58
508.409	10899.02
508.777	10965.01
509.145	10958
509.514	11016.08
509.882	11042.52
510.25	11157.32
510.618	11210.2
510.986	11287.71
511.354	11239.8
511.722	11340.37
512.09	11433.47
512.458	11467.59
512.826	11483.41
513.193	11587.59
513.561	11552.79
513.929	11597.31
514.297	11724.31
514.664	11726.8
515.032	11699.45
515.4	11845.21
515.767	11869.39
516.135	11897.64
516.502	11842.73
516.869	11968.6
517.237	11908.03
517.604	11851.09
517.972	12040.23
518.339	12044.53
518.706	12058.76
519.073	11957.07
519.44	12089.95
519.808	12118.2
520.175	12096.73
520.542	12275.93
520.909	12353.9
521.276	12190.51
521.643	12202.94
522.009	12320.68
522.376	12341.7
522.743	12380.34
523.11	12406.1
523.477	12477.74
523.843	12540.56
524.21	12531.07
524.577	12593.89
524.943	12588.92
525.31	12649.71
525.676	12682.48
526.043	12672.99
526.409	12708.47
526.776	12814
527.142	12693.55
527.508	12776.49
527.874	12752.53
528.241	12700.78
528.607	12758.41
528.973	12767.9
529.339	12846.99
529.705	12750.72
530.071	12881.34
530.437	12902.13
530.803	12846.54
531.169	12775.36
531.535	12737.84
531.901	12771.06
532.267	12822.13
532.632	12802.02
532.998	12784.4
533.364	12796.82
533.73	12786.2
534.095	12844.51
534.461	12723.83
534.826	12770.84
535.192	12743.94
535.557	12807.22
535.923	12595.47
536.288	12725.19
536.653	12580.11
537.019	12607.23
537.384	12612.87
537.749	12559.77
538.114	12500.11
538.479	12478.41
538.845	12483.39
539.21	12367.91
539.575	12425.31
539.94	12336.5
540.305	12371.07
540.67	12327.01
541.034	12333.11
541.399	12302.15
541.764	12318.42
542.129	12218.53
542.494	12171.76
542.858	12132.21
543.223	12082.27
543.587	12094.47
543.952	12067.58
544.316	12019.44
544.681	11973.34
545.045	11911.2
545.41	11933.57
545.774	11938.77
546.138	11831.2
546.503	11807.02
546.867	11796.85
547.231	11863.97
547.595	11747.36
547.959	11806.79
548.324	11711.43
548.688	11707.14
549.052	11674.14
549.416	11587.82
549.779	11536.07
550.143	11547.59
550.507	11565.67
550.871	11551.43
551.235	11478.44
551.599	11484.09
551.962	11498.55
552.326	11394.6
552.689	11338.11
553.053	11321.84
553.417	11345.34
553.78	11399.35
554.143	11301.5
554.507	11373.81
554.87	11203.87
555.234	11350.08
555.597	11203.42
555.96	11222.85
556.323	11164.33
556.686	11185.34
557.05	11220.37
557.413	11170.65
557.776	11214.49
558.139	11177.21
558.502	11136.98
558.865	11078.23
559.228	11169.97
559.59	11190.99
559.953	11144.21
560.316	11205.91
560.679	11144.66
561.041	11226.47
561.404	11165
561.767	11252.01
562.129	11121.16
562.492	11139.69
562.854	11155.29
563.217	11094.72
563.579	11192.57
563.941	11165.46
564.304	11188.05
564.666	11154.61
565.028	11125
565.39	11189.86
565.753	11237.54
566.115	11255.17
566.477	11203.19
566.839	11232.12
567.201	11305.11
567.563	11266.47
567.925	11226.92
568.287	11287.26
568.648	11272.34
569.01	11274.83
569.372	11317.09
569.734	11191.44
570.095	11439.8
570.457	11360.7
570.819	11388.27
571.18	11406.13
571.542	11375.17
571.903	11336.98
572.265	11420.14
572.626	11361.61
572.987	11475.28
573.349	11430.31
573.71	11442.28
574.071	11438.44
574.432	11383.98
574.794	11562.28
575.155	11473.47
575.516	11332.23
575.877	11483.86
576.238	11468.5
576.599	11512.56
576.96	11437.09
577.32	11580.81
577.681	11478.67
578.042	11531.55
578.403	11489.74
578.763	11458.55
579.124	11482.96
579.485	11478.22
579.845	11528.61
580.206	11473.24
580.566	11462.85
580.927	11538.78
581.287	11619.45
581.648	11432.79
582.008	11551.21
582.368	11511.89
582.728	11506.91
583.089	11453.13
583.449	11477.99
583.809	11541.26
584.169	11513.02
584.529	11498.1
584.889	11542.17
585.249	11476.18
585.609	11475.96
585.969	11484.54
586.329	11454.49
586.688	11451.32
587.048	11428.72
587.408	11354.6
587.768	11409.97
588.127	11435.05
588.487	11343.98
588.846	11514.15
589.206	11385.34
589.565	11366.81
589.925	11430.53
590.284	11341.27
590.643	11327.71
591.003	11354.83
591.362	11372
591.721	11334.49
592.08	11360.93
592.44	11421.04
592.799	11367.94
593.158	11273.7
593.517	11362.51
593.876	11357.77
594.235	11335.85
594.593	11357.77
594.952	11299.01
595.311	11252.68
595.67	11288.62
596.029	11295.17
596.387	11245.23
596.746	11317.99
597.104	11258.56
597.463	11170.65
597.822	11267.6
598.18	11247.03
598.538	11188.73
598.897	11258.33
599.255	11191.22
599.613	11325
599.972	11281.84
600.33	11276.86
600.688	11211.56
601.046	11280.25
601.404	11315.28
601.762	11271.89
602.12	11237.09
602.478	11295.85
602.836	11294.72
603.194	11209.75
603.552	11289.29
603.91	11206.81
604.268	11238
604.625	11233.7
604.983	11306.47
605.341	11220.14
605.698	11238
606.056	11347.82
606.413	11212.91
606.771	11282.74
607.128	11308.95
607.485	11202.29
607.843	11188.96
608.2	11368.16
608.557	11302.4
608.914	11251.55
609.272	11337.65
609.629	11325.68
609.986	11381.27
610.343	11282.51
610.7	11419.23
611.057	11364.55
611.414	11336.07
611.771	11416.97
612.127	11390.76
612.484	11310.54
612.841	11454.49
613.198	11334.26
613.554	11393.02
613.911	11455.84
614.267	11412.23
614.624	11439.8
614.98	11461.94
615.337	11455.39
615.693	11478.44
616.05	11443.41
616.406	11524.99
616.762	11499.68
617.118	11410.65
617.475	11515.95
617.831	11484.09
618.187	11477.76
618.543	11502.62
618.899	11606.57
619.255	11627.59
619.611	11453.36
619.967	11600.7
620.323	11512.79
620.678	11528.84
621.034	11501.27
621.39	11512.34
621.746	11478.22
622.101	11539
622.457	11560.7
622.812	11538.1
623.168	11562.51
623.523	11596.86
623.879	11643.18
624.234	11552.79
624.589	11572.68
624.945	11608.16
625.3	11504.88
625.655	11552.56
626.01	11638.44
626.365	11580.13
626.72	11574.48
627.075	11557.08
627.43	11550.53
627.785	11506.69
628.14	11529.29
628.495	11559.57
628.85	11613.8
629.205	11515.28
629.559	11542.85
629.914	11502.4
630.269	11521.15
630.623	11526.8
630.978	11494.03
631.332	11529.29
631.687	11526.35
632.041	11420.14
632.396	11459.01
632.75	11400.25
633.104	11473.7
633.459	11330.2
633.813	11409.52
634.167	11390.31
634.521	11308.95
634.875	11454.26
635.229	11275.51
635.583	11257.66
635.937	11356.86
636.291	11261.72
636.645	11202.06
636.999	11302.4
637.352	11328.16
637.706	11218.11
638.06	11329.52
638.413	11226.24
638.767	11177.88
639.121	11283.42
639.474	11184.89
639.828	11168.39
640.181	11247.94
640.534	11274.38
640.888	11140.82
641.241	11113.48
641.594	11106.02
641.947	11120.03
642.301	11131.56
642.654	11099.02
643.007	11123.42
643.36	11048.17
643.713	11067.6
644.066	11074.38
644.419	11014.05
644.771	10871.45
645.124	10823.32
645.477	10775.18
645.83	10793.49
646.182	10709.65
646.535	10756.43
646.888	10762.75
647.24	10683.43
647.593	10751.45
647.945	10708.29
648.298	10697.67
648.65	10659.25
649.002	10658.12
649.355	10707.39
649.707	10647.05
650.059	10680.04
650.411	10866.03
650.763	10848.85
651.115	10954.16
651.467	11004.78
651.819	10929.3
652.171	10974.05
652.523	10892.47
652.875	10887.72
653.227	10851.11
653.578	10920.72
653.93	10942.86
654.282	10863.77
654.633	10866.71
654.985	10941.73
655.337	10896.54
655.688	10956.42
656.039	11010.2
656.391	10819.7
656.742	10967.04
657.094	10906.25
657.445	10998.23
657.796	10894.05
658.147	10892.92
658.498	10843.88
658.849	10933.37
659.2	10901.51
659.551	10890.66
659.902	10918.23
660.253	11018.34
660.604	10868.97
660.955	10869.87
661.306	10980.83
661.656	10893.82
662.007	10948.96
662.358	10929.3
662.708	10923.88
663.059	11014.72
663.409	10844.33
663.76	10948.29
664.11	10975.18
664.461	11007.95
664.811	10982.86
665.161	11007.27
665.511	10955.07
665.862	10960.04
666.212	11012.92
666.562	11094.95
666.912	10978.34
667.262	10963.65
667.612	10986.7
667.962	10947.83
668.312	10927.27
668.662	11037.55
669.011	11019.92
669.361	10934.5
669.711	10928.63
670.06	10964.78
670.41	10899.93
670.76	10987.15
671.109	10977.44
671.459	10923.2
671.808	10933.82
672.157	10927.72
672.507	10899.93
672.856	10908.74
673.205	10989.64
673.554	10916.65
673.904	10929.3
674.253	10959.58
674.602	10845.24
674.951	10776.76
675.3	10622.87
675.649	10769.76
675.998	10785.58
676.346	10829.42
676.695	10826.71
677.044	10666.03
677.393	10772.7
677.741	10771.79
678.09	10748.97
678.438	10730.89
678.787	10736.99
679.135	10808.63
679.484	10648.86
679.832	10707.61
680.181	10566.37
680.529	10697.9
680.877	10627.62
681.225	10607.73
681.573	10626.49
681.922	10566.83
682.27	10537.67
682.618	10530.22
682.966	10440.5
683.314	10541.29
683.661	10452.93
684.009	10423.33
684.357	10420.16
684.705	10353.05
685.053	10401.41
685.4	10298.81
685.748	10363.89
686.095	10356.66
686.443	10269.66
686.79	10296.78
687.138	10219.27
687.485	10290.45
687.832	10261.07
688.18	10271.69
688.527	10141.75
688.874	10189.89
689.221	10112.83
689.568	10160.96
689.915	10101.53
690.262	10081.64
690.609	10060.63
690.956	10008.42
691.303	9929.33
691.65	9918.93
691.997	9943.34
692.344	9847.98
692.69	9815.66
693.037	9813.4
693.383	9772.95
693.73	9699.28
694.077	9749.22
694.423	9721.65
694.769	9678.04
695.116	9613.86
695.462	9613.86
695.808	9516.23
696.155	9581.32
696.501	9492.96
696.847	9441.43
697.193	9418.83
697.539	9437.36
697.885	9350.36
698.231	9361.21
698.577	9335.9
698.923	9312.85
699.269	9252.51
699.614	9187.2
699.96	9080.09
700.306	9193.3
700.651	9137.71
700.997	9070.59
701.342	9119.63
701.688	9045.74
702.033	8996.7
702.379	9028.11
702.724	9002.57
703.069	8945.63
703.415	8873.99
703.76	8907.44
704.105	8836.7
704.45	8826.76
704.795	8707.89
705.14	8773.65
705.485	8728.68
705.83	8700.66
706.175	8669.02
706.52	8676.48
706.865	8629.25
707.209	8649.81
707.554	8544.06
707.899	8571.17
708.243	8501.8
708.588	8519.2
708.932	8413.44
709.277	8450.72
709.621	8441.23
709.966	8351.74
710.31	8391.97
710.654	8326.66
710.998	8305.42
711.342	8335.92
711.687	8328.02
712.031	8287.56
712.375	8274.01
712.719	8276.27
713.063	8269.26
713.407	8264.29
713.75	8248.24
714.094	8210.28
714.438	8167.57
714.782	8203.95
715.125	8187
715.469	8199.88
715.812	8096.84
716.156	8051.41
716.499	8048.7
716.843	8065.42
717.186	8018.19
717.53	8059.77
717.873	8054.58
718.216	8068.36
718.559	7991.53
718.902	7941.58
719.246	7987.23
719.589	7955.37
719.932	7926.67
720.275	7962.6
720.617	7974.8
720.96	7894.35
721.303	7920.79
721.646	7957.63
721.989	7865.65
722.331	7941.13
722.674	7865.88
723.016	7921.92
723.359	7807.35
723.701	7880.57
724.044	7844.64
724.386	7825.66
724.729	7845.99
725.071	7884.86
725.413	7894.58
725.755	7850.29
726.097	7804.19
726.439	7767.58
726.782	7722.61
727.124	7813.68
727.465	7726.45
727.807	7769.61
728.149	7763.06
728.491	7727.58
728.833	7802.61
729.175	7721.93
729.516	7734.36
729.858	7782.49
730.199	7739.56
730.541	7775.49
730.882	7695.72
731.224	7753.79
731.565	7686.68
731.906	7677.86
732.248	7696.39
732.589	7683.51
732.93	7643.51
733.271	7704.53
733.612	7653.46
733.953	7717.41
734.294	7657.52
734.635	7637.41
734.976	7630.18
735.317	7705.66
735.658	7655.49
735.999	7685.09
736.339	7613.46
736.68	7684.87
737.021	7717.86
737.361	7648.03
737.702	7693
738.042	7724.19
738.383	7678.09
738.723	7768.71
739.063	7733.45
739.404	7778.65
739.744	7718.77
740.084	7748.6
740.424	7771.65
740.764	7787.92
741.104	7868.14
741.444	7839.21
741.784	7871.98
742.124	7824.3
742.464	7854.36
742.804	7869.04
743.143	7886.9
743.483	7923.28
743.823	7867.91
744.162	7955.14
744.502	7947.69
744.841	7951.75
745.181	8038.31
745.52	8066.78
745.86	8118.98
746.199	8076.04
746.538	8138.87
746.877	8137.06
747.216	8246.44
747.556	8274.91
747.895	8325.53
748.234	8321.69
748.573	8379.31
748.911	8434
749.25	8524.62
749.589	8513.32
749.928	8556.94
750.267	8666.76
750.605	8704.28
750.944	8800.09
751.283	8872.86
751.621	8963.03
751.96	9021.78
752.298	9017.49
752.636	9242.34
752.975	9234.43
753.313	9311.49
753.651	9506.06
753.989	9528.66
754.327	9632.39
754.666	9715.55
755.004	9913.96
755.342	9997.12
755.679	10075.09
756.017	10150.34
756.355	10315.76
756.693	10454.06
757.031	10603.44
757.368	10737.44
757.706	10821.28
758.044	10948.29
758.381	11113.48
758.719	11277.99
759.056	11367.26
759.394	11590.08
759.731	11648.15
760.068	11888.6
