Data from hue_320_FLMS001491_46.txt Node
Date: Mon Feb 06 15:47:15 GMT 2017
User: dcchb
Spectrometer: FLMS00149
Trigger mode: 0
Integration Time (sec): 2.000000E-2
Scans to average: 10
Electric dark correction enabled: true
Nonlinearity correction enabled: false
Boxcar width: 0
XAxis mode: Wavelengths
Number of Pixels in Spectrum: 2048
>>>>>Begin Spectral Data<<<<<
341.393	-0.41
341.776	-0.41
342.16	-0.41
342.543	-71.59
342.927	-71.82
343.31	-70.24
343.693	-83.57
344.077	-66.17
344.46	-40.41
344.843	-63.23
345.226	-47.87
345.61	-38.15
345.993	-14.87
346.376	-1.99
346.759	-4.93
347.142	26.71
347.525	32.13
347.908	81.62
348.291	82.75
348.674	80.72
349.057	127.5
349.44	114.62
349.823	135.86
350.206	176.76
350.588	186.03
350.971	193.26
351.354	221.05
351.737	248.4
352.119	230.77
352.502	279.13
352.884	283.88
353.267	259.47
353.65	293.14
354.032	290.66
354.414	315.51
354.797	310.32
355.179	299.02
355.562	316.87
355.944	309.41
356.326	303.54
356.709	329.53
357.091	324.33
357.473	348.28
357.855	349.19
358.238	347.15
358.62	327.72
359.002	330.43
359.384	331.79
359.766	339.02
360.148	353.03
360.53	314.61
360.912	351.45
361.294	308.96
361.676	346.02
362.057	353.93
362.439	325.46
362.821	339.92
363.203	326.36
363.584	309.86
363.966	340.37
364.348	324.55
364.729	318.23
365.111	315.97
365.493	309.19
365.874	320.94
366.256	311.67
366.637	325.23
367.019	297.21
367.4	313.48
367.781	309.19
368.163	305.57
368.544	294.72
368.925	304.67
369.306	306.25
369.688	313.48
370.069	290.88
370.45	295.85
370.831	289.98
371.212	304.89
371.593	337.21
371.974	311.67
372.355	310.09
372.736	311.45
373.117	303.09
373.498	313.71
373.879	315.97
374.26	282.97
374.641	306.25
375.021	311.67
375.402	308.06
375.783	302.41
376.163	324.78
376.544	318.45
376.925	329.3
377.305	315.51
377.686	319.81
378.066	313.93
378.447	316.64
378.827	296.53
379.208	323.65
379.588	323.2
379.968	316.19
380.349	317.32
380.729	317.55
381.109	322.29
381.489	305.57
381.87	330.88
382.25	328.17
382.63	325.68
383.01	332.91
383.39	340.6
383.77	318
384.15	315.74
384.53	339.47
384.91	330.43
385.29	327.04
385.67	331.11
386.049	355.74
386.429	327.27
386.809	335.17
387.189	363.2
387.568	343.31
387.948	337.43
388.328	346.93
388.707	355.74
389.087	336.98
389.466	334.72
389.846	311.45
390.225	355.06
390.605	372.46
390.984	356.87
391.363	347.38
391.743	357.77
392.122	349.86
392.501	353.93
392.881	359.58
393.26	360.03
393.639	360.71
394.018	342.41
394.397	357.1
394.776	366.81
395.155	368.85
395.534	364.1
395.913	375.85
396.292	383.76
396.671	371.56
397.05	359.58
397.429	391.44
397.808	356.19
398.186	404.55
398.565	377.89
398.944	377.21
399.323	375.4
399.701	386.47
400.08	382.63
400.458	390.31
400.837	388.05
401.215	366.59
401.594	411.11
401.972	389.18
402.351	384.21
402.729	391.67
403.107	407.04
403.486	408.39
403.864	388.05
404.242	400.48
404.62	398.22
404.999	381.73
405.377	412.23
405.755	422.63
406.133	435.74
406.511	397.55
406.889	433.93
407.267	414.27
407.645	436.87
408.023	441.61
408.401	428.96
408.779	430.31
409.156	440.93
409.534	441.39
409.912	461.5
410.29	436.42
410.667	457.43
411.045	452.01
411.422	464.89
411.8	467.15
412.178	491.78
412.555	491.55
412.933	497.43
413.31	507.15
413.687	491.33
414.065	513.48
414.442	513.7
414.819	506.92
415.197	523.87
415.574	524.55
415.951	532.46
416.328	540.14
416.705	538.11
417.082	582.85
417.46	557.99
417.837	568.39
418.214	548.73
418.591	560.48
418.967	586.02
419.344	585.34
419.721	592.57
420.098	605.45
420.475	600.7
420.852	612.46
421.228	615.62
421.605	632.34
421.982	640.25
422.358	641.61
422.735	643.87
423.111	640.7
423.488	652.23
423.864	665.34
424.241	642.06
424.617	661.72
424.994	684.32
425.37	685.9
425.746	675.96
426.123	687.48
426.499	694.49
426.875	708.5
427.251	708.72
427.627	739.91
428.003	724.09
428.379	722.28
428.756	754.37
429.132	744.88
429.507	770.42
429.883	794.15
430.259	771.77
430.635	799.34
431.011	804.32
431.387	814.48
431.763	799.8
432.138	816.07
432.514	814.03
432.89	819.46
433.265	826.69
433.641	870.98
434.016	863.97
434.392	882.28
434.767	861.94
435.143	883.18
435.518	896.74
435.894	912.79
436.269	902.39
436.644	923.86
437.02	945.55
437.395	931.09
437.77	938.55
438.145	950.07
438.52	947.14
438.895	958.21
439.271	945.78
439.646	990.52
440.021	998.89
440.395	973.12
440.77	979.45
441.145	990.98
441.52	1026.23
441.895	1007.02
442.27	1035.27
442.645	1013.8
443.019	1048.15
443.394	1039.79
443.769	1043.63
444.143	1034.82
444.518	1061.94
444.892	1036.85
445.267	1050.64
445.641	1071.88
446.016	1059.68
446.39	1049.51
446.764	1073.23
447.139	1073.69
447.513	1069.62
447.887	1082.5
448.262	1086.12
448.636	1089.96
449.01	1110.75
449.384	1103.97
449.758	1096.28
450.132	1110.97
450.506	1114.14
450.88	1128.37
451.254	1120.46
451.628	1122.27
452.002	1117.75
452.376	1160.46
452.75	1140.8
453.123	1161.14
453.497	1162.5
453.871	1171.54
454.244	1174.47
454.618	1178.99
454.992	1163.85
455.365	1176.06
455.739	1207.02
456.112	1219.22
456.486	1226.45
456.859	1254.25
457.232	1242.72
457.606	1230.97
457.979	1258.77
458.352	1280.69
458.725	1266.22
459.099	1270.07
459.472	1290.4
459.845	1313.91
460.218	1294.25
460.591	1315.04
460.964	1332.89
461.337	1338.76
461.71	1363.4
462.083	1385.77
462.456	1351.65
462.829	1363.4
463.201	1380.35
463.574	1404.53
463.947	1437.29
464.32	1420.34
464.692	1410.85
465.065	1443.39
465.438	1432.32
465.81	1455.82
466.183	1462.15
466.555	1477.97
466.928	1507.35
467.3	1492.88
467.672	1494.01
468.045	1536.95
468.417	1555.48
468.789	1568.14
469.161	1589.61
469.534	1554.13
469.906	1630.28
470.278	1615.37
470.65	1594.8
471.022	1655.59
471.394	1663.28
471.766	1661.02
472.138	1687
472.51	1696.04
472.882	1739.21
473.253	1736.27
473.625	1737.62
473.997	1757.06
474.369	1787.34
474.74	1774.46
475.112	1807.45
475.484	1825.53
475.855	1872.31
476.227	1875.02
476.598	1943.72
476.97	1881.57
477.341	1948.24
477.713	1975.13
478.084	1960.89
478.455	2018.97
478.827	2003.61
479.198	2037.95
479.569	2048.35
479.94	2103.26
480.311	2098.74
480.682	2123.15
481.053	2161.34
481.424	2198.85
481.795	2212.41
482.166	2229.36
482.537	2266.65
482.908	2303.03
483.279	2308.46
483.65	2335.12
484.021	2382.13
484.391	2385.74
484.762	2384.84
485.133	2438.17
485.503	2454.22
485.874	2453.99
486.244	2511.84
486.615	2546.19
486.985	2526.53
487.356	2609.92
487.726	2624.15
488.097	2622.57
488.467	2605.4
488.837	2652.85
489.207	2688.56
489.578	2738.73
489.948	2755.45
490.318	2751.83
490.688	2802.23
491.058	2797.03
491.428	2856.92
491.798	2846.75
492.168	2885.84
492.538	2895.79
492.908	2901.21
493.278	2957.25
493.648	2971.04
494.017	2992.05
494.387	3020.53
494.757	3056.91
495.126	3071.83
495.496	3079.74
495.866	3088.55
496.235	3114.31
496.605	3133.97
496.974	3120.64
497.344	3177.81
497.713	3147.08
498.082	3215.78
498.452	3213.07
498.821	3245.83
499.19	3223.91
499.559	3223.23
499.928	3269.79
500.298	3277.92
500.667	3292.16
501.036	3264.82
501.405	3325.6
501.774	3305.49
502.143	3351.37
502.512	3353.63
502.88	3383
503.249	3369.22
503.618	3343.23
503.987	3381.2
504.356	3419.61
504.724	3457.58
505.093	3406.05
505.462	3462.78
505.83	3463.91
506.199	3471.82
506.567	3502.32
506.936	3499.39
507.304	3499.61
507.672	3568.08
508.041	3581.87
508.409	3582.55
508.777	3525.6
509.145	3607.18
509.514	3595.65
509.882	3620.51
510.25	3604.69
510.618	3594.98
510.986	3630.91
511.354	3686.05
511.722	3649.66
512.09	3660.96
512.458	3649.44
512.826	3651.02
513.193	3696.22
513.561	3700.06
513.929	3709.78
514.297	3721.75
514.664	3714.52
515.032	3692.83
515.4	3738.02
515.767	3744.35
516.135	3791.81
516.502	3761.98
516.869	3798.81
517.237	3813.73
517.604	3778.47
517.972	3820.96
518.339	3791.36
518.706	3804.46
519.073	3842.2
519.44	3844.46
519.808	3908.19
520.175	3848.3
520.542	3865.7
520.909	3884.69
521.276	3919.04
521.643	3914.52
522.009	3918.58
522.376	3944.12
522.743	3974.63
523.11	3955.87
523.477	3989.99
523.843	4058.24
524.21	4022.99
524.577	4058.24
524.943	4072.03
525.31	4094.62
525.676	4089.2
526.043	4141.85
526.409	4128.97
526.776	4148.86
527.142	4135.98
527.508	4180.5
527.874	4188.63
528.241	4204.9
528.607	4201.51
528.973	4296.88
529.339	4258.69
529.705	4300.95
530.071	4324.9
530.437	4269.99
530.803	4343.43
531.169	4328.29
531.535	4366.26
531.901	4430.21
532.267	4399.7
532.632	4407.61
532.998	4406.48
533.364	4426.37
533.73	4455.74
534.095	4503.2
534.461	4494.84
534.826	4539.58
535.192	4573.03
535.557	4627.27
535.923	4587.04
536.288	4578.23
536.653	4639.69
537.019	4627.04
537.384	4653.48
537.749	4691.44
538.114	4670.2
538.479	4721.27
538.845	4723.08
539.21	4763.08
539.575	4784.55
539.94	4786.36
540.305	4766.92
540.67	4839.92
541.034	4815.96
541.399	4907.94
541.764	4851.21
542.129	4864.1
542.494	4966.47
542.858	4933.92
543.223	4900.03
543.587	4984.32
543.952	4991.55
544.316	5033.81
544.681	5006.69
545.045	5037.42
545.41	5090.3
545.774	5079
546.138	5111.09
546.503	5128.04
546.867	5147.93
547.231	5173.47
547.595	5136.63
547.959	5216.18
548.324	5275.61
548.688	5220.02
549.052	5253.46
549.416	5264.99
549.779	5291.2
550.143	5278.77
550.507	5341.6
550.871	5308.38
551.235	5383.63
551.599	5382.27
551.962	5352.9
552.326	5430.86
552.689	5398.09
553.053	5403.97
553.417	5445.32
553.78	5467.02
554.143	5471.54
554.507	5486.23
554.87	5497.07
555.234	5531.2
555.597	5552.44
555.96	5546.56
556.323	5555.15
556.686	5549.5
557.05	5608.71
557.413	5674.24
557.776	5657.97
558.139	5627.92
558.502	5635.37
558.865	5704.3
559.228	5705.66
559.59	5711.53
559.953	5722.6
560.316	5787.69
560.679	5770.29
561.041	5822.26
561.404	5816.84
561.767	5808.48
562.129	5837.4
562.492	5926.89
562.854	5863.62
563.217	5871.53
563.579	5934.58
563.941	5984.29
564.304	5943.39
564.666	5941.81
565.028	5986.55
565.39	5968.47
565.753	5996.27
566.115	5997.85
566.477	6060.9
566.839	6104.51
567.201	6132.31
567.563	6123.05
567.925	6167.79
568.287	6172.31
568.648	6156.72
569.01	6187.68
569.372	6225.19
569.734	6282.59
570.095	6257.28
570.457	6328.24
570.819	6291.85
571.18	6348.12
571.542	6405.3
571.903	6392.64
572.265	6505.18
572.626	6477.61
572.987	6506.09
573.349	6580.43
573.71	6596.25
574.071	6706.76
574.432	6710.15
574.794	6742.69
575.155	6778.4
575.516	6803.25
575.877	6877.15
576.238	6922.57
576.599	7031.95
576.96	7065.17
577.32	7158.72
577.681	7228.55
578.042	7291.15
578.403	7249.57
578.763	7441.88
579.124	7527.53
579.485	7630.35
579.845	7707.41
580.206	7754.64
580.566	7845.71
580.927	8025.59
581.287	8141.52
581.648	8192.14
582.008	8386.71
582.368	8507.39
582.728	8607.73
583.089	8777.89
583.449	8914.16
583.809	9110.54
584.169	9179.01
584.529	9401.38
584.889	9565.89
585.249	9690.41
585.609	9900.35
585.969	10083.39
586.329	10312.99
586.688	10519.54
587.048	10695.81
587.408	10870.49
587.768	11180.54
588.127	11311.16
588.487	11463.92
588.846	11843.35
589.206	12003.34
589.565	12291.02
589.925	12522.65
590.284	12809.42
590.643	13081.51
591.003	13331.44
591.362	13576.63
591.721	13862.95
592.08	14038.77
592.44	14507.68
592.799	14654.35
593.158	14942.7
593.517	15178.4
593.876	15472.18
594.235	15774.77
594.593	16056.12
594.952	16345.38
595.311	16631.24
595.67	16891.12
596.029	17307.38
596.387	17642.52
596.746	17897.2
597.104	18086.57
597.463	18432.1
597.822	18780.11
598.18	19036.6
598.538	19216.71
598.897	19755.23
599.255	19724.5
599.613	20293.75
599.972	20493.97
600.33	20794.07
600.688	20900.28
601.046	21336.88
601.404	21676.76
601.762	21919.69
602.12	22216.41
602.478	22510.18
602.836	22768.26
603.194	22880.34
603.552	23303.16
603.91	23411.18
604.268	23783.15
604.625	23957.38
604.983	24285.05
605.341	24327.99
605.698	24862.44
606.056	25114.86
606.413	25208.87
606.771	25599.14
607.128	25858.35
607.485	25967.72
607.843	26249.97
608.2	26586.24
608.557	26736.51
608.914	26891.54
609.272	27257.63
609.629	27465.76
609.986	27790.5
610.343	27839.76
610.7	28095.8
611.057	28404.27
611.414	28490.82
611.771	28743.47
612.127	28999.28
612.484	29078.37
612.841	29504.13
613.198	29409.21
613.554	29603.11
613.911	29950.89
614.267	30081.96
614.624	30264.11
614.98	30391.11
615.337	30782.06
615.693	30810.98
616.05	30931.43
616.406	31241.25
616.762	31229.73
617.118	31380.23
617.475	31498.65
617.831	31852.76
618.187	31907.45
618.543	31941.8
618.899	32411.85
619.255	32431.05
619.611	32342.69
619.967	32706.3
620.323	32759.41
620.678	32824.94
621.034	32943.36
621.39	32971.38
621.746	32984.26
622.101	33496.79
622.457	33267.19
622.812	33508.31
623.168	33570.23
623.523	33613.17
623.879	33717.35
624.234	33664.24
624.589	34000.73
624.945	34184
625.3	34142.2
625.655	34238.92
626.01	34226.71
626.365	34433.71
626.72	34308.29
627.075	34453.15
627.43	34619.25
627.785	34569.3
628.14	34587.83
628.495	34829.86
628.85	34784.89
629.205	34526.59
629.559	34958.45
629.914	34806.58
630.269	34840.48
630.623	34830.99
630.978	34870.76
631.332	34936.3
631.687	35047.03
632.041	35140.81
632.396	35043.87
632.75	34988.27
633.104	35111.21
633.459	35108.27
633.813	35079.12
634.167	35124.99
634.521	35181.26
634.875	35241.15
635.229	35244.99
635.583	35209.29
635.937	35064.88
636.291	35107.82
636.645	35112.34
636.999	35159.12
637.352	35262.17
637.706	35135.84
638.06	35130.64
638.413	35234.37
638.767	35232.56
639.121	35130.42
639.474	35034.6
639.828	35089.52
640.181	35224.43
640.534	35239.79
640.888	35027.6
641.241	35013.13
641.594	35111.89
641.947	35170.42
642.301	35132
642.654	35267.14
643.007	35251.77
643.36	35152.56
643.713	35098.33
644.066	35176.74
644.419	34967.48
644.771	34889.75
645.124	34549.87
645.477	34384.22
645.83	34242.31
646.182	34075.3
646.535	34123.44
646.888	34178.35
647.24	34038.02
647.593	34210.89
647.945	34163.21
648.298	33907.4
648.65	33812.49
649.002	33911.24
649.355	34038.47
649.707	33990.56
650.059	34075.53
650.411	34393.04
650.763	34489.08
651.115	34860.82
651.467	34753.7
651.819	34893.14
652.171	34729.3
652.523	34610.88
652.875	34647.27
653.227	34609.53
653.578	34844.55
653.93	34808.17
654.282	34544.67
654.633	34473.94
654.985	34553.48
655.337	34563.43
655.688	34570.21
656.039	34628.74
656.391	34353.26
656.742	34496.08
657.094	34452.02
657.445	34586.7
657.796	34506.48
658.147	34535.86
658.498	34402.75
658.849	34465.35
659.2	34575.4
659.551	34397.78
659.902	34535.63
660.253	34480.49
660.604	34473.26
660.955	34347.16
661.306	34508.51
661.656	34418.12
662.007	34428.29
662.358	34420.38
662.708	34241.18
663.059	34327.5
663.409	34105.36
663.76	34532.24
664.11	34415.41
664.461	34532.47
664.811	34410.89
665.161	34496.99
665.511	34239.14
665.862	34336.09
666.212	34415.86
666.562	34485.92
666.912	34374.05
667.262	34348.07
667.612	34266.94
667.962	34381.96
668.312	34301.06
668.662	34401.85
669.011	34297.45
669.361	34252.7
669.711	34381.74
670.06	34255.86
670.41	34289.08
670.76	34205.24
671.109	34413.6
671.459	34094.51
671.808	34256.99
672.157	34217.9
672.507	34049.09
672.856	34072.14
673.205	34078.24
673.554	34259.71
673.904	34150.78
674.253	34283.43
674.602	34118.92
674.951	33617.69
675.3	33436.23
675.649	34016.1
675.998	33941.75
676.346	33964.57
676.695	34188.97
677.044	33851.81
677.393	33914.4
677.741	33897.46
678.09	33871.47
678.438	33796.89
678.787	33942.2
679.135	33884.58
679.484	33628.31
679.832	33723.45
680.181	33512.16
680.529	33643
680.877	33538.6
681.225	33541.31
681.573	33738.82
681.922	33407.53
682.27	33421.31
682.618	33519.39
682.966	33386.06
683.314	33457.02
683.661	33287.3
684.009	33126.85
684.357	33039.85
684.705	33039.63
685.053	33084.37
685.4	33046.86
685.748	32869.91
686.095	32830.82
686.443	32787.88
686.79	32664.04
687.138	32684.38
687.485	32799.63
687.832	32651.84
688.18	32685.96
688.527	32589.92
688.874	32616.36
689.221	32517.15
689.568	32405.97
689.915	32364.16
690.262	32316.71
690.609	32287.78
690.956	32139.31
691.303	32031.06
691.65	31992.65
691.997	31855.48
692.344	31768.7
692.69	31728.47
693.037	31818.19
693.383	31515.82
693.73	31690.51
694.077	31457.75
694.423	31422.72
694.769	31343.4
695.116	31291.87
695.462	31217.3
695.808	31034.03
696.155	31224.53
696.501	30928.72
696.847	30916.97
697.193	30628.39
697.539	30733.7
697.885	30623.64
698.231	30542.29
698.577	30519.24
698.923	30481.95
699.269	30329.64
699.614	30193.15
699.96	30202.41
700.306	30218.23
700.651	29949.76
700.997	30059.14
701.342	29978.46
701.688	29870.67
702.033	29841.97
702.379	29686.95
702.724	29617.79
703.069	29668.64
703.415	29287.63
703.76	29397.24
704.105	29378.03
704.45	29255.77
704.795	29120.63
705.14	29127.19
705.485	29217.35
705.83	28954.08
706.175	29014.19
706.52	28935.1
706.865	28766.07
707.209	28770.59
707.554	28626.41
707.899	28716.35
708.243	28495.34
708.588	28544.83
708.932	28296.02
709.277	28303.48
709.621	28436.13
709.966	28115.01
710.31	28178.51
710.654	28005.41
710.998	28046.08
711.342	28023.26
711.687	28015.58
712.031	27845.86
712.375	27663.95
712.719	27713.66
713.063	27743.04
713.407	27749.14
713.75	27599.77
714.094	27574.23
714.438	27564.52
714.782	27494.91
715.125	27360.68
715.469	27268.03
715.812	27315.93
716.156	27084.75
716.499	27172.21
716.843	27155.71
717.186	27091.53
717.53	27217.18
717.873	27061.25
718.216	26988.26
718.559	26832.56
718.902	26731.32
719.246	26876.4
719.589	26657.42
719.932	26635.73
720.275	26661.49
720.617	26506.69
720.96	26493.13
721.303	26643.86
721.646	26496.75
721.989	26336.75
722.331	26461.27
722.674	26245.45
723.016	26337.43
723.359	26286.36
723.701	26254.95
724.044	26125.01
724.386	26002.3
724.729	26234.83
725.071	26075.06
725.413	25952.35
725.755	26076.42
726.097	25861.96
726.439	25795.97
726.782	25872.58
727.124	25865.35
727.465	25683.21
727.807	25714.85
728.149	25595.53
728.491	25521.41
728.833	25669.42
729.175	25504.46
729.516	25560.05
729.858	25496.32
730.199	25398.7
730.541	25375.42
730.882	25391.01
731.224	25579.03
731.565	25249.1
731.906	25276.89
732.248	25327.51
732.589	25124.58
732.93	25108.76
733.271	25088.87
733.612	25137.23
733.953	25156.44
734.294	24919.16
734.635	24964.58
734.976	25081.64
735.317	24915.09
735.658	24837.81
735.999	24908.77
736.339	24737.7
736.68	24922.1
737.021	24744.93
737.361	24588.32
737.702	24699.96
738.042	24671.71
738.383	24619.06
738.723	24697.7
739.063	24591.71
739.404	24539.28
739.744	24410.47
740.084	24339.52
740.424	24495.67
740.764	24362.34
741.104	24473.07
741.444	24286.64
741.784	24275.34
742.124	24309.91
742.464	24339.06
742.804	24103.82
743.143	24091.39
743.483	24166.86
743.823	24019.98
744.162	23865.86
744.502	24009.13
744.841	23935.01
745.181	24011.84
745.52	23904.95
745.86	23796.03
746.199	23849.36
746.538	23774.33
746.877	23793.99
747.216	23740.21
747.556	23732.75
747.895	23797.61
748.234	23621.79
748.573	23592.42
748.911	23524.62
749.25	23494.34
749.589	23504.06
749.928	23407.79
750.267	23482.14
750.605	23423.83
750.944	23301.12
751.283	23269.71
751.621	23317.4
751.96	23147.46
752.298	23158.3
752.636	23271.29
752.975	23064.97
753.313	22927.58
753.651	22980.91
753.989	22927.8
754.327	22909.04
754.666	22806.45
755.004	22737.07
755.342	22859.1
755.679	22717.64
756.017	22545.21
756.355	22643.51
756.693	22546.34
757.031	22479.68
757.368	22398.32
757.706	22326.23
758.044	22338.66
758.381	22436.51
758.719	22330.3
759.056	22201.27
759.394	22205.11
759.731	21922.86
