Data from hue_22_FLMS001491_00028.txt Node
Date: Tue Feb 07 17:09:53 GMT 2017
User: dcchb
Spectrometer: FLMS00149
Trigger mode: 0
Integration Time (sec): 2.000000E-2
Scans to average: 10
Electric dark correction enabled: true
Nonlinearity correction enabled: false
Boxcar width: 0
XAxis mode: Wavelengths
Number of Pixels in Spectrum: 2048
>>>>>Begin Spectral Data<<<<<
341.393	-1.47
341.776	-1.47
342.16	-1.47
342.543	-56.38
342.927	-85.53
343.31	-51.19
343.693	-78.98
344.077	-68.13
344.46	-63.16
344.843	-54.12
345.226	-66.33
345.61	-21.36
345.993	-24.07
346.376	-1.24
346.759	15.71
347.142	25.88
347.525	40.34
347.908	52.09
348.291	77.17
348.674	98.19
349.057	119.21
349.44	143.84
349.823	130.73
350.206	159.43
350.588	198.53
350.971	210.5
351.354	214.12
351.737	250.05
352.119	236.49
352.502	268.35
352.884	281.01
353.267	286.66
353.65	273.1
354.032	307.68
354.414	328.92
354.797	313.78
355.179	307.45
355.562	339.77
355.944	328.24
356.326	330.73
356.709	327.56
357.091	337.73
357.473	364.17
357.855	344.74
358.238	346.32
358.62	340.89
359.002	352.19
359.384	342.02
359.766	358.97
360.148	334.57
360.53	341.12
360.912	351.74
361.294	353.78
361.676	335.47
362.057	328.92
362.439	335.47
362.821	339.77
363.203	315.13
363.584	331.18
363.966	314.68
364.348	309.26
364.729	318.97
365.111	330.05
365.493	311.97
365.874	313.78
366.256	320.1
366.637	306.55
367.019	312.65
367.4	311.29
367.781	315.36
368.163	327.34
368.544	315.13
368.925	326.88
369.306	338.18
369.688	313.1
370.069	306.77
370.45	311.74
370.831	307.68
371.212	308.13
371.593	305.87
371.974	293.66
372.355	301.8
372.736	319.2
373.117	334.57
373.498	328.24
373.879	321.01
374.26	339.77
374.641	329.14
375.021	330.95
375.402	339.31
375.783	334.79
376.163	326.21
376.544	326.21
376.925	332.08
377.305	328.01
377.686	326.88
378.066	329.37
378.447	326.66
378.827	325.75
379.208	336.38
379.588	339.09
379.968	354
380.349	334.12
380.729	333.21
381.109	340.67
381.489	342.02
381.87	341.12
382.25	335.92
382.63	326.21
383.01	344.06
383.39	365.3
383.77	357.17
384.15	344.74
384.53	339.31
384.91	344.96
385.29	341.35
385.67	342.7
386.049	344.28
386.429	356.71
386.809	343.61
387.189	353.78
387.568	386.77
387.948	379.99
388.328	370.95
388.707	368.92
389.087	374.34
389.466	371.4
389.846	361.46
390.225	359.2
390.605	368.69
390.984	356.71
391.363	370.5
391.743	374.79
392.122	371.85
392.501	383.61
392.881	385.41
393.26	382.02
393.639	364.62
394.018	366.88
394.397	359.65
394.776	386.54
395.155	407.33
395.534	376.6
395.913	372.76
396.292	394.9
396.671	390.16
397.05	385.41
397.429	382.25
397.808	391.06
398.186	393.1
398.565	394.45
398.944	388.8
399.323	387.67
399.701	414.57
400.08	389.93
400.458	409.37
400.837	388.8
401.215	408.92
401.594	412.08
401.972	415.02
402.351	400.55
402.729	417.5
403.107	423.38
403.486	433.32
403.864	405.75
404.242	417.5
404.62	422.93
404.999	428.58
405.377	417.73
405.755	422.7
406.133	426.77
406.511	414.11
406.889	427.67
407.267	419.99
407.645	436.71
408.023	434.23
408.401	438.75
408.779	417.73
409.156	447.11
409.534	455.69
409.912	452.53
410.29	452.53
410.667	423.38
411.045	452.08
411.422	453.66
411.8	475.81
412.178	446.65
412.555	451.63
412.933	464.28
413.31	484.39
413.687	470.38
414.065	480.78
414.442	486.43
414.819	471.06
415.197	475.58
415.574	482.81
415.951	490.5
416.328	498.86
416.705	515.13
417.082	511.29
417.46	525.52
417.837	506.54
418.214	508.57
418.591	495.92
418.967	514.68
419.344	537.05
419.721	498.4
420.098	523.94
420.475	511.29
420.852	518.74
421.228	504.73
421.605	525.52
421.982	522.36
422.358	544.05
422.735	562.13
423.111	548.12
423.488	530.95
423.864	538.4
424.241	559.19
424.617	544.96
424.994	563.49
425.37	556.93
425.746	565.52
426.123	551.06
426.499	576.82
426.875	563.04
427.251	583.15
427.627	597.16
428.003	598.29
428.379	595.13
428.756	609.36
429.132	601.23
429.507	614.56
429.883	623.15
430.259	624.28
430.635	628.8
431.011	607.55
431.387	638.74
431.763	631.06
432.138	631.73
432.514	662.47
432.89	648.68
433.265	666.08
433.641	673.09
434.016	642.58
434.392	692.3
434.767	684.84
435.143	659.3
435.518	695.24
435.894	695.24
436.269	715.12
436.644	712.64
437.02	721
437.395	701.34
437.77	728.23
438.145	719.87
438.52	735.91
438.895	715.35
439.271	714.9
439.646	741.79
440.021	748.57
440.395	777.27
440.77	743.82
441.145	768.45
441.52	777.95
441.895	752.41
442.27	759.64
442.645	757.16
443.019	789.24
443.394	765.29
443.769	790.37
444.143	798.28
444.518	813.42
444.892	791.73
445.267	797.83
445.641	791.73
446.016	812.07
446.39	786.31
446.764	812.07
447.139	814.33
447.513	859.3
447.887	833.99
448.262	820.66
448.636	854.78
449.01	841.9
449.384	839.41
449.758	862.69
450.132	850.26
450.506	872.18
450.88	886.42
451.254	869.02
451.628	859.53
452.002	896.13
452.376	914.44
452.75	897.04
453.123	908.11
453.497	896.81
453.871	946.08
454.244	932.97
454.618	940.88
454.992	952.86
455.365	963.25
455.739	959.41
456.112	977.94
456.486	1003.48
456.859	999.86
457.232	1005.96
457.606	1019.07
457.979	1038.5
458.352	1031.27
458.725	1079.63
459.099	1054.77
459.472	1042.12
459.845	1042.35
460.218	1124.38
460.591	1099.07
460.964	1121.44
461.337	1114.89
461.71	1124.6
462.083	1107.65
462.456	1167.99
462.829	1132.06
463.201	1171.61
463.574	1174.32
463.947	1189.69
464.32	1213.41
464.692	1205.51
465.065	1231.04
465.438	1256.13
465.81	1273.07
466.183	1291.15
466.555	1309.46
466.928	1313.52
467.3	1292.73
467.672	1310.81
468.045	1339.06
468.417	1369.57
468.789	1357.37
469.161	1394.88
469.534	1426.06
469.906	1457.93
470.278	1454.31
470.65	1486.85
471.022	1470.13
471.394	1504.48
471.766	1548.09
472.138	1541.54
472.51	1536.57
472.882	1602.78
473.253	1640.07
473.625	1620.64
473.997	1650.01
474.369	1700.41
474.74	1699.05
475.112	1743.57
475.484	1749.45
475.855	1760.07
476.227	1833.51
476.598	1866.28
476.97	1876.22
477.341	1945.6
477.713	1959.38
478.084	1987.63
478.455	2026.95
478.827	2023.79
479.198	2097.23
479.569	2113.96
479.94	2174.75
480.311	2176.78
480.682	2254.07
481.053	2294.74
481.424	2324.57
481.795	2360.28
482.166	2416.09
482.537	2424.68
482.908	2490.67
483.279	2512.59
483.65	2575.19
484.021	2609.76
484.391	2689.76
484.762	2696.31
485.133	2689.31
485.503	2774.28
485.874	2835.74
486.244	2907.83
486.615	2918
486.985	2981.5
487.356	3040.26
487.726	3075.51
488.097	3148.05
488.467	3160.71
488.837	3222.18
489.207	3266.69
489.578	3321.61
489.948	3345.11
490.318	3419.91
490.688	3439.8
491.058	3472.34
491.428	3514.82
491.798	3625.33
492.168	3639.57
492.538	3649.28
492.908	3692.22
493.278	3810.18
493.648	3786.68
494.017	3870.52
494.387	3867.81
494.757	3909.16
495.126	3965.43
495.496	3978.31
495.866	4022.38
496.235	4074.81
496.605	4105.54
496.974	4133.11
497.344	4207.69
497.713	4219.66
498.082	4256.72
498.452	4329.04
498.821	4322.03
499.19	4275.03
499.559	4398.19
499.928	4421.47
500.298	4430.73
500.667	4467.57
501.036	4440.22
501.405	4535.81
501.774	4554.12
502.143	4580.56
502.512	4604.06
502.88	4623.27
503.249	4661.69
503.618	4665.53
503.987	4697.16
504.356	4734.9
504.724	4774.9
505.093	4799.08
505.462	4809.48
505.83	4838.63
506.199	4865.3
506.567	4928.12
506.936	4965.18
507.304	4962.92
507.672	4972.19
508.041	5050.83
508.409	5018.06
508.777	5063.26
509.145	5070.49
509.514	5098.96
509.882	5138.28
510.25	5189.36
510.618	5176.02
510.986	5193.65
511.354	5216.47
511.722	5231.61
512.09	5385.51
512.458	5258.73
512.826	5364.49
513.193	5377.82
513.561	5366.75
513.929	5431.83
514.297	5462.34
514.664	5508.89
515.032	5502.79
515.4	5571.94
515.767	5495.79
516.135	5545.05
516.502	5545.28
516.869	5656.69
517.237	5644.03
517.604	5618.95
517.972	5649.68
518.339	5714.76
518.706	5732.17
519.073	5791.83
519.44	5757.7
519.808	5828.66
520.175	5802.67
520.542	5857.81
520.909	5913.18
521.276	5908.66
521.643	5969.67
522.009	5974.19
522.376	6018.03
522.743	6056.68
523.11	6047.86
523.477	6136.22
523.843	6102.55
524.21	6225.71
524.577	6204.7
524.943	6213.73
525.31	6261.64
525.676	6304.13
526.043	6350.91
526.409	6378.48
526.776	6424.58
527.142	6470.23
527.508	6474.97
527.874	6507.74
528.241	6578.47
528.607	6623.89
528.973	6645.81
529.339	6680.84
529.705	6685.81
530.071	6742.53
530.437	6706.38
530.803	6829.09
531.169	6829.31
531.535	6830.89
531.901	6861.63
532.267	6872.47
532.632	6920.83
532.998	6994.28
533.364	7034.73
533.73	7000.15
534.095	7081.28
534.461	7084.9
534.826	7168.96
535.192	7251.9
535.557	7286.02
535.923	7231.56
536.288	7280.6
536.653	7280.15
537.019	7261.17
537.384	7269.75
537.749	7312.01
538.114	7377.55
538.479	7400.37
538.845	7448.5
539.21	7406.02
539.575	7449.63
539.94	7468.84
540.305	7526.02
540.67	7582.29
541.034	7547.26
541.399	7648.73
541.764	7642.17
542.129	7741.6
542.494	7707.93
542.858	7796.29
543.223	7732.57
543.587	7841.26
543.952	7811.66
544.316	7932.79
544.681	7856.63
545.045	7933.69
545.41	8008.49
545.774	7987.93
546.138	8015.5
546.503	7990.86
546.867	8086.68
547.231	8130.07
547.595	8135.94
547.959	8137.75
548.324	8218.88
548.688	8225.66
549.052	8256.85
549.416	8274.02
549.779	8267.24
550.143	8258.88
550.507	8398.08
550.871	8383.17
551.235	8318.09
551.599	8522.83
551.962	8509.72
552.326	8520.57
552.689	8532.32
553.053	8567.12
553.417	8521.24
553.78	8697.06
554.143	8659.32
554.507	8657.96
554.87	8650.96
555.234	8750.84
555.597	8749.71
555.96	8787.68
556.323	8860.67
556.686	8782.03
557.05	8899.54
557.413	8911.52
557.776	8931.4
558.139	8994
558.502	8975.47
558.865	9027.45
559.228	9019.99
559.59	9004.62
559.953	9094.56
560.316	9143.38
560.679	9132.53
561.041	9213.43
561.404	9262.47
561.767	9259.3
562.129	9269.47
562.492	9364.61
562.854	9398.74
563.217	9414.78
563.579	9382.92
563.941	9456.36
564.304	9523.03
564.666	9567.55
565.028	9571.61
565.39	9633.98
565.753	9676.02
566.115	9631.5
566.477	9697.71
566.839	9756.92
567.201	9833.3
567.563	9822.91
567.925	9935.9
568.287	9933.41
568.648	9906.29
569.01	9951.04
569.372	10054.76
569.734	10028.1
570.095	10133.18
570.457	10196.46
570.819	10176.79
571.18	10199.39
571.542	10236.91
571.903	10299.73
572.265	10338.15
572.626	10280.29
572.987	10393.06
573.349	10495.43
573.71	10578.37
574.071	10637.35
574.432	10681.41
574.794	10744.24
575.155	10787.85
575.516	10723.9
575.877	10828.3
576.238	10955.08
576.599	10998.92
576.96	11097
577.32	11136.77
577.681	11214.51
578.042	11335.86
578.403	11385.35
578.763	11462.41
579.124	11567.04
579.485	11652.91
579.845	11760.26
580.206	11900.37
580.566	11964.54
580.927	12181.71
581.287	12316.17
581.648	12352.56
582.008	12535.15
582.368	12603.4
582.728	12783.05
583.089	12919.55
583.449	13049.71
583.809	13228.24
584.169	13457.84
584.529	13552.07
584.889	13776.25
585.249	13943.25
585.609	14110.02
585.969	14420.3
586.329	14516.79
586.688	14832.49
587.048	14877.24
587.408	15206.94
587.768	15323.1
588.127	15661.85
588.487	15830.88
588.846	16187.03
589.206	16349.97
589.565	16490.75
589.925	16928.48
590.284	17163.73
590.643	17408.24
591.003	17779.76
591.362	17998.51
591.721	18225.17
592.08	18548.78
592.44	18897.92
592.799	19209.78
593.158	19437.34
593.517	19711.01
593.876	19974.73
594.235	20297.43
594.593	20535.39
594.952	20905.78
595.311	21171.99
595.67	21542.82
596.029	21960.21
596.387	22248.34
596.746	22686.75
597.104	22892.39
597.463	23157.47
597.822	23467.74
598.18	23643.11
598.538	24040.16
598.897	24605.79
599.255	24568.51
599.613	25324.42
599.972	25395.38
600.33	25754.01
600.688	25917.4
601.046	26392.64
601.404	26823.36
601.762	26940.2
602.12	27380.64
602.478	27723.23
602.836	28012.03
603.194	28151.24
603.552	28464
603.91	28646.14
604.268	29120.93
604.625	29240.47
604.983	29808.82
605.341	29824.19
605.698	30275.48
606.056	30473.44
606.413	30771.28
606.771	31037.04
607.128	31415.56
607.485	31484.26
607.843	31909.33
608.2	32162.43
608.557	32438.58
608.914	32607.39
609.272	33094.84
609.629	33283.76
609.986	33622.73
610.343	33616.4
610.7	34080.35
611.057	34202.6
611.414	34283.05
611.771	34577.73
612.127	34895.69
612.484	34997.16
612.841	35355.79
613.198	35354.21
613.554	35543.13
613.911	36127.3
614.267	36205.94
614.624	36382.43
614.98	36563.9
615.337	36774.97
615.693	37006.15
616.05	37134.73
616.406	37454.27
616.762	37508.05
617.118	37626.69
617.475	37690.87
617.831	38071.2
618.187	38220.12
618.543	38487.46
618.899	38846.55
619.255	38682.94
619.611	38847.68
619.967	39040.67
620.323	39360.89
620.678	39375.12
621.034	39434.33
621.39	39534.89
621.746	39408.79
622.101	40071.6
622.457	39924.49
622.812	39956.58
623.168	40274.76
623.523	40257.13
623.879	40653.06
624.234	40331.26
624.589	40647.86
624.945	40649.21
625.3	40888.76
625.655	40865.03
626.01	41020.96
626.365	40957
626.72	41084.91
627.075	41172.36
627.43	41047.62
627.785	41211.01
628.14	41194.51
628.495	41420.49
628.85	41481.96
629.205	41333.72
629.559	41711.78
629.914	41493.26
630.269	41595.4
630.623	41665.91
630.978	41549.08
631.332	41822.29
631.687	41982.74
632.041	41753.59
632.396	41891.67
632.75	41832.01
633.104	41947.71
633.459	41765.57
633.813	41968.05
634.167	41974.15
634.521	41933.7
634.875	42154.48
635.229	42006.47
635.583	41995.39
635.937	42032
636.291	42028.39
636.645	42001.04
636.999	41972.34
637.352	42146.12
637.706	41798.34
638.06	42044.21
638.413	42050.31
638.767	41852.35
639.121	42069.97
639.474	41844.89
639.828	41895.73
640.181	41918.78
640.534	41987.94
640.888	41900.25
641.241	41815.96
641.594	41843.08
641.947	41912.91
642.301	41928.5
642.654	41959.01
643.007	41846.02
643.36	41905.23
643.713	41814.15
644.066	42119.91
644.419	41689.19
644.771	41546.59
645.124	41134.17
645.477	41152.7
645.83	40872.71
646.182	40737.12
646.535	40700.29
646.888	40966.27
647.24	40581.42
647.593	40893.95
647.945	40730.57
648.298	40558.82
648.65	40583.45
649.002	40435.43
649.355	40726.95
649.707	40635.88
650.059	40812.6
650.411	41361.06
650.763	41261.85
651.115	41830.65
651.467	41577.1
651.819	41557.89
652.171	41409.65
652.523	41331
652.875	41438.57
653.227	41276.77
653.578	41463.88
653.93	41468.63
654.282	41165.58
654.633	41198.13
654.985	41292.81
655.337	41406.26
655.688	41366.93
656.039	41472.47
656.391	41186.83
656.742	41330.55
657.094	41331
657.445	41356.31
657.796	41322.19
658.147	41219.37
658.498	41242.42
658.849	41271.57
659.2	41194.96
659.551	41120.84
659.902	41276.54
660.253	41141.86
660.604	41240.16
660.955	40980.73
661.306	41190.44
661.656	41235.86
662.007	41170.56
662.358	41253.72
662.708	41013.72
663.059	41252.14
663.409	40924.46
663.76	41176.21
664.11	41191.57
664.461	41161.74
664.811	41294.85
665.161	41179.6
665.511	40983.67
665.862	41014.18
666.212	41196.32
666.562	41158.8
666.912	41033.61
667.262	40951.35
667.612	41069.77
667.962	41100.73
668.312	41075.19
668.662	41252.59
669.011	41009.88
669.361	41086.26
669.711	40835.2
670.06	40996.1
670.41	40866.16
670.76	40877.91
671.109	40966.04
671.459	40922.2
671.808	40890.34
672.157	41040.84
672.507	40758.14
672.856	40753.17
673.205	40828.87
673.554	40902.54
673.904	40607.86
674.253	40966.49
674.602	40882.2
674.951	40277.02
675.3	40140.53
675.649	40670.91
675.998	40657.12
676.346	40680.4
676.695	40708.65
677.044	40511.36
677.393	40645.6
677.741	40652.38
678.09	40594.75
678.438	40460.29
678.787	40529.89
679.135	40590.23
679.484	40319.73
679.832	40492.83
680.181	40308.21
680.529	40439.5
680.877	40211.03
681.225	40182.79
681.573	40540.29
681.922	40138.04
682.27	40034.77
682.618	40074.09
682.966	39927.42
683.314	39840.2
683.661	39935.79
684.009	39614.66
684.357	39706.87
684.705	39552.75
685.053	39641.1
685.4	39547.77
685.748	39465.06
686.095	39531.73
686.443	39311.62
686.79	39192.75
687.138	39443.14
687.485	39244.28
687.832	39289.93
688.18	39140.33
688.527	38918.19
688.874	38972.42
689.221	38953.21
689.568	38783.5
689.915	38835.48
690.262	38757.29
690.609	38665.31
690.956	38454.02
691.303	38522.04
691.65	38398.2
691.997	38297.86
692.344	38140.81
692.69	38188.71
693.037	38012.22
693.383	37861.26
693.73	37983.75
694.077	37749.85
694.423	37801.38
694.769	37674.15
695.116	37496.98
695.462	37501.95
695.808	37430.09
696.155	37344.44
696.501	37231.9
696.847	37124.56
697.193	36949.65
697.539	37047.73
697.885	36750.56
698.231	36699.49
698.577	36753.04
698.923	36609.09
699.269	36462.43
699.614	36350.57
699.96	36265.15
700.306	36246.17
700.651	35994.65
700.997	35965.04
701.342	35967.3
701.688	35875.55
702.033	35691.6
702.379	35713.52
702.724	35619.74
703.069	35824.93
703.415	35267.43
703.76	35444.38
704.105	35258.17
704.45	35295
704.795	35127.55
705.14	34987.89
705.485	35101.34
705.83	34892.08
706.175	34932.08
706.52	34782.93
706.865	34645.76
707.209	34698.64
707.554	34542.48
707.899	34591.07
708.243	34171.19
708.588	34311.98
708.932	34095.04
709.277	34113.79
709.621	33966.68
709.966	33850.75
710.31	34001.03
710.654	33574.82
710.998	33683.3
711.342	33712.67
711.687	33615.5
712.031	33338.45
712.375	33433.36
712.719	33250.31
713.063	33407.37
713.407	33397.2
713.75	33362.63
714.094	33262.29
714.438	33135.96
714.782	33165.57
715.125	32995.4
715.469	33032.92
715.812	32797.89
716.156	32685.81
716.499	32811.23
716.843	32909.08
717.186	32595.41
717.53	32769.65
717.873	32641.29
718.216	32542.08
718.559	32472.71
718.902	32276.78
719.246	32299.83
719.589	32206.72
719.932	32040.85
720.275	32146.61
720.617	32073.62
720.96	31993.4
721.303	31996.33
721.646	31948.2
721.989	31771.48
722.331	31869.56
722.674	31674.53
723.016	31800.86
723.359	31637.02
723.701	31678.83
724.044	31543.01
724.386	31335.33
724.729	31463.69
725.071	31524.71
725.413	31386.18
725.755	31277.03
726.097	31211.04
726.439	31037.26
726.782	31073.65
727.124	31178.73
727.465	31016.7
727.807	31001.33
728.149	31064.38
728.491	30929.02
728.833	30944.61
729.175	30691.51
729.516	30751.39
729.858	30757.5
730.199	30801.34
730.541	30708.01
730.882	30652.19
731.224	30660.32
731.565	30571.29
731.906	30548.69
732.248	30581.91
732.589	30381.01
732.93	30241.8
733.271	30313.44
733.612	30274.57
733.953	30330.61
734.294	30126.78
734.635	30145.99
734.976	30174.01
735.317	29948.25
735.658	29889.04
735.999	29994.8
736.339	29880.23
736.68	30035.03
737.021	29842.94
737.361	29891.76
737.702	29977.63
738.042	29710.97
738.383	29692.44
738.723	29817.63
739.063	29678.65
739.404	29641.37
739.744	29600.92
740.084	29484.08
740.424	29521.6
740.764	29448.38
741.104	29637.53
741.444	29286.8
741.784	29291.55
742.124	29493.8
742.464	29278.21
742.804	29221.94
743.143	29059.46
743.483	29124.09
743.823	29024.66
744.162	29032.12
744.502	29037.54
744.841	28927.49
745.181	29048.84
745.52	28875.74
745.86	28889.75
746.199	28772.69
746.538	28839.35
746.877	28902.86
747.216	28860.6
747.556	28635.52
747.895	28751.9
748.234	28563.2
748.573	28552.36
748.911	28492.25
749.25	28498.35
749.589	28431.46
749.928	28426.48
750.267	28451.34
750.605	28209.09
750.944	28283.66
751.283	28231.91
751.621	28284.79
751.96	28057.91
752.298	28151.69
752.636	28166.6
752.975	27877.8
753.313	27892.03
753.651	28008.87
753.989	27906.95
754.327	27828.99
754.666	27618.14
755.004	27767.97
755.342	27778.37
755.679	27591.25
756.017	27544.25
756.355	27612.72
756.693	27423.8
757.031	27538.6
757.368	27119.63
757.706	27236.46
758.044	27170.92
758.381	27186.29
758.719	27062.23
759.056	27115.11
759.394	26951.95
759.731	26735.46
760.068	26901.78
