Data from hue_330_FLMS001491_94.txt Node
Date: Mon Feb 06 15:46:11 GMT 2017
User: dcchb
Spectrometer: FLMS00149
Trigger mode: 0
Integration Time (sec): 2.000000E-2
Scans to average: 10
Electric dark correction enabled: true
Nonlinearity correction enabled: false
Boxcar width: 0
XAxis mode: Wavelengths
Number of Pixels in Spectrum: 2048
>>>>>Begin Spectral Data<<<<<
341.393	-14.18
341.776	-14.18
342.16	-14.18
342.543	-59.83
342.927	-57.34
343.31	-78.81
343.693	-52.37
344.077	-52.15
344.46	-59.83
344.843	-29.77
345.226	-56.89
345.61	-35.87
345.993	-10.11
346.376	-2.2
346.759	10.9
347.142	-0.17
347.525	45.93
347.908	56.33
348.291	72.6
348.674	85.48
349.057	106.95
349.44	121.18
349.823	121.18
350.206	156.89
350.588	191.46
350.971	204.57
351.354	229.43
351.737	210.22
352.119	239.6
352.502	270.78
352.884	275.98
353.267	285.02
353.65	289.77
354.032	313.04
354.414	321.4
354.797	304
355.179	321.4
355.562	337
355.944	335.87
356.326	325.02
356.709	326.6
357.091	338.13
357.473	313.95
357.855	334.96
358.238	341.52
358.62	335.41
359.002	331.8
359.384	347.62
359.766	351.69
360.148	328.18
360.53	349.88
360.912	339.03
361.294	329.99
361.676	328.18
362.057	342.87
362.439	327.96
362.821	348.97
363.203	317.79
363.584	339.48
363.966	328.64
364.348	304.68
364.729	319.82
365.111	318.01
365.493	314.4
365.874	312.82
366.256	317.34
366.637	308.75
367.019	315.53
367.4	313.49
367.781	310.56
368.163	328.41
368.544	299.48
368.925	312.14
369.306	323.44
369.688	310.78
370.069	280.5
370.45	299.26
370.831	312.36
371.212	314.4
371.593	302.87
371.974	311.91
372.355	310.33
372.736	319.82
373.117	318.24
373.498	329.09
373.879	320.05
374.26	305.59
374.641	315.98
375.021	328.18
375.402	310.78
375.783	304.23
376.163	339.71
376.544	334.51
376.925	315.3
377.305	309.2
377.686	326.6
378.066	352.36
378.447	346.49
378.827	316.43
379.208	345.81
379.588	322.99
379.968	338.35
380.349	308.52
380.729	335.19
381.109	339.48
381.489	335.64
381.87	347.17
382.25	351.23
382.63	339.71
383.01	342.42
383.39	341.52
383.77	320.95
384.15	333.38
384.53	338.58
384.91	344.45
385.29	337.67
385.67	354.85
386.049	360.27
386.429	354.17
386.809	347.17
387.189	340.39
387.568	359.37
387.948	329.77
388.328	354.4
388.707	363.44
389.087	349.65
389.466	334.06
389.846	344.23
390.225	370.67
390.605	367.73
390.984	355.98
391.363	341.74
391.743	356.66
392.122	374.28
392.501	380.84
392.881	370.67
393.26	352.36
393.639	380.61
394.018	384
394.397	360.95
394.776	388.75
395.155	376.32
395.534	378.58
395.913	375.64
396.292	362.08
396.671	386.71
397.05	382.65
397.429	390.33
397.808	379.93
398.186	406.83
398.565	389.2
398.944	391.01
399.323	390.33
399.701	397.56
400.08	417.22
400.458	382.42
400.837	418.58
401.215	404.79
401.594	388.75
401.972	418.58
402.351	405.02
402.729	421.51
403.107	402.53
403.486	424.23
403.864	402.08
404.242	419.25
404.62	442.08
404.999	429.2
405.377	415.86
405.755	411.8
406.133	430.55
406.511	440.27
406.889	423.1
407.267	444.79
407.645	460.61
408.023	433.49
408.401	439.14
408.779	449.31
409.156	468.29
409.534	462.87
409.912	459.93
410.29	481.17
410.667	497.67
411.045	459.25
411.422	508.07
411.8	489.54
412.178	491.12
412.555	501.96
412.933	479.59
413.31	510.1
413.687	508.07
414.065	542.64
414.442	527.27
414.819	548.52
415.197	529.99
415.574	548.29
415.951	550.78
416.328	559.82
416.705	553.26
417.082	562.98
417.46	576.09
417.837	560.49
418.214	568.18
418.591	581.28
418.967	591
419.344	587.61
419.721	590.78
420.098	605.92
420.475	605.69
420.852	617.44
421.228	639.36
421.605	623.09
421.982	635.52
422.358	654.05
422.735	648.85
423.111	659.02
423.488	651.11
423.864	668.51
424.241	677.33
424.617	665.12
424.994	700.38
425.37	698.12
425.746	708.06
426.123	696.76
426.499	704.22
426.875	720.04
427.251	713.26
427.627	711.22
428.003	754.61
428.379	752.35
428.756	755.52
429.132	767.72
429.507	761.39
429.883	775.18
430.259	789.41
430.635	781.05
431.011	783.54
431.387	804.78
431.763	819.47
432.138	831.22
432.514	834.84
432.89	835.06
433.265	843.88
433.641	876.64
434.016	838.68
434.392	885.23
434.767	897.21
435.143	871.9
435.518	911.67
435.894	903.08
436.269	896.3
436.644	905.34
437.02	939.47
437.395	938.11
437.77	947.15
438.145	946.47
438.52	943.08
438.895	962.74
439.271	971.78
439.646	995.06
440.021	1000.48
440.395	998.9
440.77	972.23
441.145	1000.26
441.52	1005.45
441.895	1031.89
442.27	1018.11
442.645	1000.71
443.019	1018.79
443.394	1016.53
443.769	1035.06
444.143	1048.39
444.518	1072.8
444.892	1054.27
445.267	1035.06
445.641	1050.88
446.016	1089.29
446.39	1094.27
446.764	1076.41
447.139	1088.84
447.513	1067.83
447.887	1087.71
448.262	1107.82
448.636	1101.27
449.01	1086.13
449.384	1133.13
449.758	1133.13
450.132	1154.6
450.506	1167.94
450.88	1129.97
451.254	1112.57
451.628	1172.46
452.002	1141.5
452.376	1170.65
452.75	1179.69
453.123	1148.05
453.497	1198.67
453.871	1181.04
454.244	1211.78
454.618	1233.24
454.992	1221.72
455.365	1252.23
455.739	1263.3
456.112	1249.97
456.486	1242.74
456.859	1267.59
457.232	1285.45
457.606	1299.23
457.979	1270.98
458.352	1276.41
458.725	1308.27
459.099	1354.37
459.472	1356.18
459.845	1357.53
460.218	1355.5
460.591	1368.16
460.964	1383.3
461.337	1392.11
461.71	1375.61
462.083	1410.87
462.456	1396.86
462.829	1416.06
463.201	1426.23
463.574	1427.36
463.947	1465.78
464.32	1496.51
464.692	1490.41
465.065	1499.23
465.438	1499.68
465.81	1511.2
466.183	1574.7
466.555	1553.24
466.928	1550.52
467.3	1598.21
467.672	1594.59
468.045	1631.43
468.417	1619.9
468.789	1643.4
469.161	1646.34
469.534	1668.94
469.906	1698.09
470.278	1703.29
470.65	1721.14
471.022	1741.03
471.394	1734.02
471.766	1785.77
472.138	1787.81
472.51	1807.01
472.882	1859.44
473.253	1866
473.625	1847.92
473.997	1911.64
474.369	1896.73
474.74	1925.43
475.112	1934.24
475.484	2007.91
475.855	2008.14
476.227	2051.3
476.598	2063.51
476.97	2083.84
477.341	2110.96
477.713	2138.76
478.084	2167.46
478.455	2180.56
478.827	2233.67
479.198	2261.47
479.569	2289.04
479.94	2337.4
480.311	2324.52
480.682	2372.88
481.053	2380.78
481.424	2468.01
481.795	2497.62
482.166	2484.06
482.537	2525.87
482.908	2571.29
483.279	2575.13
483.65	2609.48
484.021	2660.1
484.391	2650.16
484.762	2709.82
485.133	2708.23
485.503	2748.23
485.874	2773.77
486.244	2827.33
486.615	2834.11
486.985	2889.7
487.356	2943.93
487.726	2921.79
488.097	3002.01
488.467	3016.47
488.837	3081.56
489.207	3091.73
489.578	3177.83
489.948	3153.65
490.318	3206.3
490.688	3205.62
491.058	3230.48
491.428	3255.56
491.798	3293.76
492.168	3368.56
492.538	3379.63
492.908	3440.64
493.278	3434.09
493.648	3446.52
494.017	3468.89
494.387	3540.75
494.757	3554.99
495.126	3538.95
495.496	3568.55
495.866	3599.28
496.235	3616.68
496.605	3642.45
496.974	3648.77
497.344	3681.77
497.713	3687.87
498.082	3707.53
498.452	3774.42
498.821	3785.27
499.19	3794.53
499.559	3796.34
499.928	3833.85
500.298	3855.32
500.667	3899.16
501.036	3846.06
501.405	3929.22
501.774	3910.69
502.143	3943
502.512	3950.01
502.88	3973.96
503.249	3989.78
503.618	3985.04
503.987	3985.71
504.356	4021.42
504.724	4022.1
505.093	4062.77
505.462	4106.39
505.83	4091.25
506.199	4075.66
506.567	4198.14
506.936	4157.69
507.304	4152.72
507.672	4207.4
508.041	4178.48
508.409	4213.73
508.777	4248.53
509.145	4265.03
509.514	4239.49
509.882	4257.12
510.25	4277.46
510.618	4345.03
510.986	4246.05
511.354	4315.88
511.722	4383.22
512.09	4375.76
512.458	4361.3
512.826	4425.02
513.193	4390.9
513.561	4411.47
513.929	4438.58
514.297	4465.02
514.664	4485.14
515.032	4471.13
515.4	4512.48
515.767	4528.3
516.135	4548.41
516.502	4519.94
516.869	4547.06
517.237	4578.47
517.604	4586.38
517.972	4590.9
518.339	4655.75
518.706	4628.64
519.073	4634.96
519.44	4632.48
519.808	4641.29
520.175	4683.1
520.542	4714.96
520.909	4768.29
521.276	4705.47
521.643	4751.34
522.009	4760.38
522.376	4767.61
522.743	4770.78
523.11	4822.3
523.477	4863.88
523.843	4853.26
524.21	4896.42
524.577	4936.42
524.943	4921.06
525.31	4952.69
525.676	5041.51
526.043	5027.49
526.409	5033.82
526.776	5051.68
527.142	5076.53
527.508	5093.71
527.874	5119.24
528.241	5157.89
528.607	5166.47
528.973	5225.46
529.339	5207.6
529.705	5251.44
530.071	5296.19
530.437	5327.83
530.803	5354.27
531.169	5368.28
531.535	5367.37
531.901	5374.83
532.267	5388.16
532.632	5457.54
532.998	5414.38
533.364	5509.06
533.73	5485.11
534.095	5541.15
534.461	5494.6
534.826	5590.42
535.192	5612.56
535.557	5621.6
535.923	5622.51
536.288	5669.29
536.653	5719
537.019	5675.61
537.384	5715.39
537.749	5750.19
538.114	5782.05
538.479	5766.46
538.845	5810.07
539.21	5826.34
539.575	5810.07
539.94	5850.75
540.305	5899.79
540.67	5881.03
541.034	5866.12
541.399	5923.06
541.764	5998.77
542.129	6064.53
542.494	6081.03
542.858	6048.94
543.223	6042.16
543.587	6130.29
543.952	6142.95
544.316	6223.62
544.681	6153.12
545.045	6157.18
545.41	6246.45
545.774	6238.76
546.138	6243.06
546.503	6282.15
546.867	6262.94
547.231	6352.66
547.595	6395.82
547.959	6381.58
548.324	6339.78
548.688	6401.02
549.052	6424.52
549.416	6484.41
549.779	6455.48
550.143	6514.01
550.507	6550.39
550.871	6595.36
551.235	6562.6
551.599	6585.42
551.962	6619.77
552.326	6554.91
552.689	6678.75
553.053	6631.75
553.417	6667
553.78	6761.01
554.143	6693.89
554.507	6728.69
554.87	6744.29
555.234	6819.31
555.597	6756.49
555.96	6825.19
556.323	6842.81
556.686	6885.3
557.05	6902.25
557.413	6915.81
557.776	6913.77
558.139	6939.31
558.502	6959.2
558.865	7018.63
559.228	6978.86
559.59	7009.59
559.953	7083.03
560.316	7083.03
560.679	7113.54
561.041	7140.21
561.404	7198.29
561.767	7202.8
562.129	7252.3
562.492	7241.45
562.854	7228.12
563.217	7247.32
563.579	7320.54
563.941	7320.77
564.304	7349.24
564.666	7371.84
565.028	7444.83
565.39	7394.66
565.753	7421.56
566.115	7471.27
566.477	7522.8
566.839	7519.18
567.201	7486.87
567.563	7574.55
567.925	7567.32
568.287	7613.87
568.648	7680.53
569.01	7677.14
569.372	7735.67
569.734	7741.32
570.095	7776.8
570.457	7789.23
570.819	7825.61
571.18	7834.2
571.542	7928.21
571.903	7988.32
572.265	7962.78
572.626	8048.66
572.987	8112.39
573.349	8097.47
573.71	8124.36
574.071	8238.94
574.432	8298.6
574.794	8372.04
575.155	8393.06
575.516	8398.03
575.877	8500.62
576.238	8537.91
576.599	8568.42
576.96	8658.59
577.32	8708.98
577.681	8830.56
578.042	8956.21
578.403	9006.37
578.763	9031.23
579.124	9151.23
579.485	9254.95
579.845	9393.93
580.206	9526.59
580.566	9529.3
580.927	9683.42
581.287	9866.24
581.648	9972.68
582.008	10061.94
582.368	10226.91
582.728	10438.88
583.089	10556.39
583.449	10692.88
583.809	10820.56
584.169	11101.69
584.529	11239.76
584.889	11490.38
585.249	11639.98
585.609	11777.6
585.969	12030.93
586.329	12172.17
586.688	12484.47
587.048	12618.03
587.408	12891.24
587.768	13162.2
588.127	13371.46
588.487	13513.15
588.846	13946.81
589.206	14150.64
589.565	14263.41
589.925	14646.45
590.284	14886.67
590.643	15174.35
591.003	15384.28
591.362	15780.21
591.721	16080.09
592.08	16246.41
592.44	16604.59
592.799	16885.26
593.158	17100.4
593.517	17360.28
593.876	17701.06
594.235	18056.98
594.593	18312.57
594.952	18612.22
595.311	18927.69
595.67	19261.47
596.029	19640.9
596.387	19917.95
596.746	20281.33
597.104	20444.94
597.463	20744.14
597.822	21213.28
598.18	21220.74
598.538	21575.08
598.897	22142.75
599.255	22120.83
599.613	22776.18
599.972	22915.16
600.33	23326.22
600.688	23420.91
601.046	23780.67
601.404	24169.14
601.762	24445.29
602.12	24738.84
602.478	24967.76
602.836	25266.96
603.194	25318.71
603.552	25681.64
603.91	25909.66
604.268	26372.02
604.625	26466.25
604.983	26753.03
605.341	26881.84
605.698	27243.86
606.056	27621.03
606.413	27810.85
606.771	28045.42
607.128	28342.36
607.485	28432.76
607.843	28791.39
608.2	29071.16
608.557	29423.46
608.914	29571.93
609.272	29848.09
609.629	30073.39
609.986	30393.16
610.343	30484
610.7	30838.79
611.057	30981.61
611.414	31072.69
611.771	31302.51
612.127	31666.57
612.484	31826.34
612.841	32005.32
613.198	32133.22
613.554	32326.89
613.911	32529.37
614.267	32940.21
614.624	32845.75
614.98	32986.99
615.337	33398.27
615.693	33492.06
616.05	33515.56
616.406	33834.87
616.762	33880.52
617.118	34128.2
617.475	34192.83
617.831	34439.6
618.187	34485.25
618.543	34697.9
618.899	35013.15
619.255	35077.1
619.611	35087.27
619.967	35397.54
620.323	35512.34
620.678	35482.74
621.034	35591.89
621.39	35817.42
621.746	35684.99
622.101	36194.81
622.457	35966.34
622.812	36134.25
623.168	36308.71
623.523	36453.56
623.879	36587.57
624.234	36456.27
624.589	36671.18
624.945	36771.97
625.3	36819.2
625.655	36878.41
626.01	36895.58
626.365	37138.97
626.72	37042.02
627.075	37077.95
627.43	37142.13
627.785	37095.13
628.14	37280.66
628.495	37402.24
628.85	37340.32
629.205	37432.52
629.559	37670.93
629.914	37648.11
630.269	37510.93
630.623	37579.86
630.978	37529.24
631.332	37606.07
631.687	37833.41
632.041	37783.02
632.396	37860.3
632.75	37799.97
633.104	37874.09
633.459	37705.73
633.813	37784.83
634.167	37831.83
634.521	37625.51
634.875	37844.03
635.229	37816.69
635.583	37666.41
635.937	37811.04
636.291	37722
636.645	37958.38
636.999	37824.82
637.352	38060.07
637.706	37703.25
638.06	37960.19
638.413	37895.11
638.767	37751.15
639.121	37828.21
639.474	37700.08
639.828	37804.26
640.181	37786.63
640.534	37889.91
640.888	37730.14
641.241	37588.45
641.594	37626.19
641.947	37802.9
642.301	37723.81
642.654	37752.06
643.007	37787.99
643.36	37693.53
643.713	37757.03
644.066	37785.73
644.419	37643.13
644.771	37380.77
645.124	37126.54
645.477	37060.78
645.83	36936.49
646.182	36665.99
646.535	36847.68
646.888	36822.82
647.24	36563.61
647.593	36857.39
647.945	36708.92
648.298	36522.26
648.65	36477.97
649.002	36327.69
649.355	36695.14
649.707	36461.24
650.059	36651.75
650.411	37043.15
650.763	37173.99
651.115	37407.21
651.467	37434.78
651.819	37478.17
652.171	37396.59
652.523	37247.89
652.875	37340.09
653.227	37062.58
653.578	37290.6
653.93	37268.91
654.282	37130.83
654.633	37006.09
654.985	37059.87
655.337	37166.08
655.688	37126.09
656.039	37436.36
656.391	36927.45
656.742	37150.72
657.094	37065.3
657.445	37235.01
657.796	37094.45
658.147	36889.71
658.498	37027.11
658.849	37107.78
659.2	37082.47
659.551	37008.57
659.902	37138.97
660.253	37057.16
660.604	37011.51
660.955	36833.21
661.306	36934.68
661.656	36844.29
662.007	36993.66
662.358	36866.88
662.708	36956.82
663.059	36961.12
663.409	36780.11
663.76	36990.04
664.11	37014.45
664.461	36966.77
664.811	36964.28
665.161	36966.32
665.511	36919.31
665.862	36827.11
666.212	36980.1
666.562	37022.81
666.912	36931.51
667.262	36893.78
667.612	36870.73
667.962	36886.09
668.312	36892.65
668.662	36970.84
669.011	36910.05
669.361	36861.69
669.711	36597.29
670.06	36745.53
670.41	36765.87
670.76	36604.52
671.109	36717.06
671.459	36750.28
671.808	36675.02
672.157	36850.39
672.507	36741.92
672.856	36585.76
673.205	36640.67
673.554	36773.78
673.904	36740.33
674.253	36934.45
674.602	36679.54
674.951	36200.01
675.3	36054.25
675.649	36687.45
675.998	36545.99
676.346	36470.51
676.695	36666.44
677.044	36376.95
677.393	36504.86
677.741	36491.07
678.09	36480.23
678.438	36263.74
678.787	36371.76
679.135	36257.18
679.484	36230.74
679.832	36331.53
680.181	36079.56
680.529	36203.85
680.877	36122.72
681.225	36150.07
681.573	36173.34
681.922	35994.82
682.27	35912.33
682.618	35960.69
682.966	35889.28
683.314	35948.94
683.661	35732
684.009	35529.74
684.357	35624.43
684.705	35473.25
685.053	35450.2
685.4	35488.61
685.748	35385.79
686.095	35296.76
686.443	35212.46
686.79	35173.82
687.138	35317.32
687.485	35168.17
687.832	35033.94
688.18	35143.09
688.527	35031.68
688.874	34922.75
689.221	34836.2
689.568	34838.69
689.915	34652.48
690.262	34625.13
690.609	34663.1
690.956	34501.07
691.303	34447.74
691.65	34311.92
691.997	34367.74
692.344	34251.36
692.69	34046.39
693.037	33992.38
693.383	33799.85
693.73	33961.2
694.077	33797.36
694.423	33829.9
694.769	33671.49
695.116	33673.97
695.462	33572.06
695.808	33581.09
696.155	33488.67
696.501	33301.1
696.847	33234.66
697.193	32846.42
697.539	33283.48
697.885	32958.51
698.231	32808.69
698.577	32848.68
698.923	32802.81
699.269	32600.56
699.614	32538.18
699.96	32525.75
700.306	32410.96
700.651	32331.86
700.997	32243.95
701.342	32197.18
701.688	32121.25
702.033	32033.11
702.379	31907.24
702.724	31932.55
703.069	31962.15
703.415	31609.39
703.76	31555.61
704.105	31572.56
704.45	31442.39
704.795	31349.06
705.14	31311.55
705.485	31253.25
705.83	31175.73
706.175	31069.75
706.52	31092.57
706.865	31000.37
707.209	30916.53
707.554	30897.1
707.899	30779.81
708.243	30633.38
708.588	30631.57
708.932	30604.68
709.277	30489.42
709.621	30449.43
709.966	30234.29
710.31	30317
710.654	30117.46
710.998	30121.98
711.342	30191.58
711.687	30043.33
712.031	29921.98
712.375	29851.25
712.719	29898.48
713.063	29707.75
713.407	29881.3
713.75	29682.67
714.094	29868.65
714.438	29598.6
714.782	29657.36
715.125	29468.66
715.469	29352.28
715.812	29392.73
716.156	29226.86
716.499	29158.16
716.843	29231.38
717.186	29038.61
717.53	29197.93
717.873	29108.44
718.216	29030.25
718.559	28886.98
718.902	28665.52
719.246	28771.05
719.589	28705.74
719.932	28697.83
720.275	28673.65
720.617	28520.21
720.96	28599.08
721.303	28631.17
721.646	28520.66
721.989	28309.82
722.331	28417.16
722.674	28371.51
723.016	28383.26
723.359	28425.98
723.701	28255.81
724.044	28002.03
724.386	28004.97
724.729	28092.43
725.071	28055.14
725.413	28001.35
725.755	27877.29
726.097	27817.86
726.439	27701.7
726.782	27681.14
727.124	27863.5
727.465	27740.8
727.807	27688.82
728.149	27543.74
728.491	27597.52
728.833	27641.59
729.175	27526.79
729.516	27469.84
729.858	27447.47
730.199	27338.32
730.541	27263.07
730.882	27306.91
731.224	27437.75
731.565	27101.72
731.906	27220.13
732.248	27243.18
732.589	27054.71
732.93	26932.91
733.271	26996.63
733.612	27011.55
733.953	27044.09
734.294	26886.81
734.635	26795.06
734.976	26904.66
735.317	26760.71
735.658	26724.33
735.999	26833.48
736.339	26616.76
736.68	26644.33
737.021	26669.64
737.361	26447.27
737.702	26633.71
738.042	26597.32
738.383	26435.29
738.723	26542.41
739.063	26427.61
739.404	26435.29
739.744	26245.69
740.084	26190.78
740.424	26303.55
740.764	26218.12
741.104	26253.83
741.444	26108.07
741.784	25978.36
742.124	26063.33
742.464	25865.14
742.804	25902.88
743.143	26006.6
743.483	25835.31
743.823	25654.07
744.162	25796.21
744.502	25739.04
744.841	25622.21
745.181	25742.2
745.52	25633.05
745.86	25623.34
746.199	25626.73
746.538	25494.08
746.877	25517.8
747.216	25428.54
747.556	25453.62
747.895	25487.3
748.234	25283.69
748.573	25235.55
748.911	25162.78
749.25	25348.09
749.589	25081.88
749.928	25119.85
750.267	25156.23
750.605	25133.86
750.944	24946.97
751.283	24803.92
751.621	24982.9
751.96	24834.43
752.298	24822
752.636	24850.48
752.975	24736.13
753.313	24624.04
753.651	24817.48
753.989	24581.56
754.327	24518.28
754.666	24413.43
755.004	24536.81
755.342	24403.03
755.679	24406.65
756.017	24267.44
756.355	24293.88
756.693	24140.89
757.031	24244.16
757.368	24091.85
757.706	24057.28
758.044	24057.05
758.381	23971.86
758.719	23872.42
759.056	23877.17
759.394	23677.4
759.731	23665.2
