Data from hue_20_FLMS001491_89.txt Node
Date: Mon Feb 06 15:34:48 GMT 2017
User: dcchb
Spectrometer: FLMS00149
Trigger mode: 0
Integration Time (sec): 2.000000E-2
Scans to average: 10
Electric dark correction enabled: true
Nonlinearity correction enabled: false
Boxcar width: 0
XAxis mode: Wavelengths
Number of Pixels in Spectrum: 2048
>>>>>Begin Spectral Data<<<<<
341.393	-19.6
341.776	-19.6
342.16	-19.6
342.543	-77
342.927	-105.7
343.31	-53.28
343.693	-87.62
344.077	-72.71
344.46	-56.21
344.843	-41.3
345.226	-38.81
345.61	-44.91
345.993	-22.77
346.376	-2.88
346.759	9.1
347.142	40.51
347.525	36.89
347.908	65.59
348.291	70.56
348.674	105.36
349.057	92.48
349.44	126.61
349.823	144.46
350.206	152.59
350.588	191.46
350.971	211.12
351.354	228.07
351.737	246.38
352.119	231.24
352.502	254.51
352.884	263.78
353.267	258.35
353.65	289.77
354.032	287.05
354.414	292.48
354.797	310.78
355.179	315.75
355.562	315.53
355.944	337.67
356.326	320.95
356.709	323.89
357.091	351.91
357.473	351.46
357.855	345.81
358.238	329.77
358.62	348.07
359.002	347.39
359.384	324.34
359.766	354.85
360.148	354.62
360.53	337.45
360.912	337
361.294	323.44
361.676	340.84
362.057	337.67
362.439	327.05
362.821	332.48
363.203	334.28
363.584	310.78
363.966	323.66
364.348	314.85
364.729	316.66
365.111	311.23
365.493	322.99
365.874	308.97
366.256	303.55
366.637	315.08
367.019	312.14
367.4	315.3
367.781	304.68
368.163	326.38
368.544	322.31
368.925	320.95
369.306	338.35
369.688	306.49
370.069	320.73
370.45	322.53
370.831	304.23
371.212	313.49
371.593	313.95
371.974	318.69
372.355	301.74
372.736	304.23
373.117	287.96
373.498	317.11
373.879	325.02
374.26	335.41
374.641	299.71
375.021	314.4
375.402	326.83
375.783	333.61
376.163	316.43
376.544	320.73
376.925	330.22
377.305	322.31
377.686	334.74
378.066	311.46
378.447	331.12
378.827	330.44
379.208	320.5
379.588	325.47
379.968	331.8
380.349	337.67
380.729	325.47
381.109	328.86
381.489	325.02
381.87	326.83
382.25	344.45
382.63	331.35
383.01	349.2
383.39	332.93
383.77	349.88
384.15	359.37
384.53	337
384.91	346.94
385.29	355.98
385.67	356.66
386.049	353.49
386.429	346.04
386.809	349.65
387.189	347.39
387.568	354.85
387.948	333.38
388.328	351.69
388.707	361.63
389.087	342.65
389.466	375.87
389.846	370.22
390.225	360.27
390.605	374.06
390.984	347.17
391.363	367.73
391.743	373.15
392.122	374.28
392.501	367.73
392.881	363.44
393.26	369.54
393.639	362.76
394.018	370.89
394.397	369.09
394.776	347.62
395.155	379.93
395.534	371.35
395.913	382.65
396.292	368.86
396.671	385.81
397.05	391.01
397.429	391.68
397.808	365.47
398.186	367.96
398.565	400.95
398.944	387.39
399.323	377.9
399.701	376.32
400.08	394.62
400.458	387.84
400.837	411.8
401.215	392.59
401.594	393.94
401.972	399.14
402.351	384
402.729	410.89
403.107	399.37
403.486	406.83
403.864	407.73
404.242	388.52
404.62	412.48
404.999	410.44
405.377	402.53
405.755	424.68
406.133	431.23
406.511	409.54
406.889	422.87
407.267	425.58
407.645	428.07
408.023	428.75
408.401	432.59
408.779	445.24
409.156	452.25
409.534	455.86
409.912	458.58
410.29	441.17
410.667	443.89
411.045	449.08
411.422	441.85
411.8	454.06
412.178	457.45
412.555	443.43
412.933	462.64
413.31	478.69
413.687	459.71
414.065	482.3
414.442	479.59
414.819	466.26
415.197	474.62
415.574	500.61
415.951	505.81
416.328	494.51
416.705	487.5
417.082	478.69
417.46	498.12
417.837	494.73
418.214	498.8
418.591	479.37
418.967	506.48
419.344	492.7
419.721	506.94
420.098	527.27
420.475	500.16
420.852	519.14
421.228	521.62
421.605	525.24
421.982	527.95
422.358	537.67
422.735	525.24
423.111	538.57
423.488	543.77
423.864	532.7
424.241	537.22
424.617	551.91
424.994	558.23
425.37	550.55
425.746	554.17
426.123	569.08
426.499	547.61
426.875	557.56
427.251	564.56
427.627	565.24
428.003	578.12
428.379	581.28
428.756	570.66
429.132	575.86
429.507	584.67
429.883	619.48
430.259	608.18
430.635	609.98
431.011	601.17
431.387	636.65
431.763	618.12
432.138	631.68
432.514	620.61
432.89	652.24
433.265	654.73
433.641	650.66
434.016	663.54
434.392	646.82
434.767	659.25
435.143	679.59
435.518	682.52
435.894	680.72
436.269	695.41
436.644	674.39
437.02	725.46
437.395	694.28
437.77	702.18
438.145	722.3
438.52	710.77
438.895	693.82
439.271	706.25
439.646	736.76
440.021	726.37
440.395	744.22
440.77	749.64
441.145	730.66
441.52	760.26
441.895	749.64
442.27	759.36
442.645	745.57
443.019	770.21
443.394	774.95
443.769	770.21
444.143	774.95
444.518	795.06
444.892	770.21
445.267	740.38
445.641	762.75
446.016	790.32
446.39	790.54
446.764	807.94
447.139	823.76
447.513	816.53
447.887	806.59
448.262	820.83
448.636	822.18
449.01	802.07
449.384	839.58
449.758	825.57
450.132	850.66
450.506	871.22
450.88	853.59
451.254	845.91
451.628	859.92
452.002	859.02
452.376	892.01
452.75	892.46
453.123	863.31
453.497	878.45
453.871	897.43
454.244	937.66
454.618	933.37
454.992	920.26
455.365	955.06
455.739	966.13
456.112	956.42
456.486	968.39
456.859	976.08
457.232	977.66
457.606	966.58
457.979	1006.81
458.352	997.77
458.725	1027.83
459.099	1022.85
459.472	1051.1
459.845	1054.49
460.218	1040.03
460.591	1066.24
460.964	1088.39
461.337	1126.13
461.71	1088.84
462.083	1092.91
462.456	1140.59
462.829	1116.19
463.201	1152.79
463.574	1151.44
463.947	1157.31
464.32	1160.7
464.692	1195.73
465.065	1180.14
465.438	1221.27
465.81	1259.23
466.183	1256.52
466.555	1282.06
466.928	1272.11
467.3	1294.71
467.672	1287.71
468.045	1295.39
468.417	1324.32
468.789	1348.04
469.161	1365.44
469.534	1362.96
469.906	1393.92
470.278	1420.13
470.65	1418.78
471.022	1460.58
471.394	1472.79
471.766	1478.44
472.138	1518.66
472.51	1505.33
472.882	1562.5
473.253	1536.97
473.625	1599.11
473.997	1645.89
474.369	1651.54
474.74	1656.28
475.112	1687.02
475.484	1715.94
475.855	1743.51
476.227	1774.25
476.598	1797.3
476.97	1825.32
477.341	1850.86
477.713	1900.35
478.084	1920.68
478.455	1962.94
478.827	2007.46
479.198	2051.75
479.569	2035.94
479.94	2103.5
480.311	2119.55
480.682	2191.19
481.053	2238.64
481.424	2290.39
481.795	2317.51
482.166	2336.49
482.537	2384.4
482.908	2440.9
483.279	2459.65
483.65	2485.64
484.021	2538.29
484.391	2628.69
484.762	2625.07
485.133	2655.35
485.503	2717.95
485.874	2774.67
486.244	2820.77
486.615	2884.5
486.985	2874.11
487.356	2943.71
487.726	2996.81
488.097	3058.28
488.467	3049.47
488.837	3121.56
489.207	3167.88
489.578	3207.66
489.948	3293.3
490.318	3335.34
490.688	3325.17
491.058	3369.91
491.428	3432.51
491.798	3458.95
492.168	3581.21
492.538	3593.18
492.908	3607.42
493.278	3651.49
493.648	3666.63
494.017	3722.9
494.387	3814.19
494.757	3812.16
495.126	3863.91
495.496	3889.67
495.866	3945.94
496.235	3956.79
496.605	4026.17
496.974	4061.87
497.344	4041.31
497.713	4122.43
498.082	4110.68
498.452	4194.52
498.821	4213.28
499.19	4265.03
499.559	4283.79
499.928	4307.74
500.298	4311.13
500.667	4383.44
501.036	4357.23
501.405	4430
501.774	4454.85
502.143	4458.92
502.512	4490.33
502.88	4497.11
503.249	4519.71
503.618	4559.48
503.987	4590.67
504.356	4655.53
504.724	4631.35
505.093	4698.92
505.462	4652.59
505.83	4733.94
506.199	4761.51
506.567	4813.04
506.936	4786.37
507.304	4863.43
507.672	4882.87
508.041	4912.92
508.409	4948.63
508.777	4938.91
509.145	5006.25
509.514	4945.46
509.882	5017.33
510.25	4993.37
510.618	5058.23
510.986	5034.73
511.354	5063.65
511.722	5105.46
512.09	5177.77
512.458	5176.19
512.826	5180.03
513.193	5255.74
513.561	5216.87
513.929	5286.25
514.297	5287.38
514.664	5357.66
515.032	5342.74
515.4	5375.06
515.767	5372.8
516.135	5493.7
516.502	5302.29
516.869	5466.13
517.237	5469.07
517.604	5434.04
517.972	5562.17
518.339	5531.44
518.706	5528.27
519.073	5544.09
519.44	5555.84
519.808	5605.11
520.175	5625.45
520.542	5684.43
520.909	5707.03
521.276	5714.93
521.643	5750.41
522.009	5757.65
522.376	5835.38
522.743	5853.24
523.11	5903.63
523.477	5949.73
523.843	5965.32
524.21	5944.31
524.577	6001.71
524.943	6025.89
525.31	6012.33
525.676	6065.66
526.043	6102.72
526.409	6162.15
526.776	6181.36
527.142	6239.89
527.508	6216.84
527.874	6341.13
528.241	6295.48
528.607	6274.92
528.973	6424.97
529.339	6411.19
529.705	6457.29
530.071	6513.33
530.437	6509.04
530.803	6532.54
531.169	6606.89
531.535	6618.64
531.901	6583.39
532.267	6582.48
532.632	6684.17
532.998	6648.92
533.364	6751.29
533.73	6782.03
534.095	6827
534.461	6816.83
534.826	6862.25
535.192	6907.67
535.557	6959.42
535.923	6943.83
536.288	6966.2
536.653	6997.61
537.019	6967.33
537.384	6978.4
537.749	7121.45
538.114	7068.57
538.479	7097.95
538.845	7135.91
539.21	7136.59
539.575	7186.08
539.94	7224.05
540.305	7271.73
540.67	7290.71
541.034	7292.07
541.399	7392.18
541.764	7377.72
542.129	7396.47
542.494	7424.49
542.858	7422.46
543.223	7486.64
543.587	7587.88
543.952	7535
544.316	7563.47
544.681	7566.19
545.045	7554.21
545.41	7603.47
545.774	7650.93
546.138	7690.25
546.503	7695.9
546.867	7798.72
547.231	7825.16
547.595	7809.57
547.959	7827.2
548.324	7848.44
548.688	7914.65
549.052	7943.58
549.416	7963.91
549.779	7958.49
550.143	7997.59
550.507	8035.33
550.871	8108.77
551.235	8074.65
551.599	8132.95
551.962	8153.51
552.326	8216.79
552.689	8277.8
553.053	8205.72
553.417	8228.77
553.78	8359.38
554.143	8281.87
554.507	8383.34
554.87	8402.55
555.234	8415.88
555.597	8425.37
555.96	8430.57
556.323	8465.6
556.686	8525.26
557.05	8528.42
557.413	8504.47
557.776	8505.14
558.139	8668.98
558.502	8670.11
558.865	8651.35
559.228	8720.51
559.59	8761.41
559.953	8698.58
560.316	8887.28
560.679	8778.36
561.041	8902.2
561.404	8925.25
561.767	8984.9
562.129	8918.47
562.492	8966.15
562.854	8979.93
563.217	9034.17
563.579	9106.26
563.941	9063.32
564.304	9092.25
564.666	9144.22
565.028	9119.14
565.39	9220.61
565.753	9324.33
566.115	9254.95
566.477	9308.51
566.839	9353.26
567.201	9441.62
567.563	9461.05
567.925	9492.46
568.287	9498.11
568.648	9516.87
569.01	9565.68
569.372	9626.47
569.734	9586.25
570.095	9733.13
570.457	9746.92
570.819	9788.27
571.18	9809.06
571.542	9871.89
571.903	9885.22
572.265	9952.11
572.626	9975.84
572.987	10044.31
573.349	10124.99
573.71	10139.68
574.071	10229.17
574.432	10200.69
574.794	10301.71
575.155	10375.83
575.516	10390.07
575.877	10473.45
576.238	10533.56
576.599	10644.97
576.96	10692.66
577.32	10772.2
577.681	10832.99
578.042	10925.19
578.403	11023.27
578.763	11119.31
579.124	11186.2
579.485	11336.03
579.845	11371.73
580.206	11471.62
580.566	11534.67
580.927	11784.15
581.287	11882.91
581.648	11916.35
582.008	12144.37
582.368	12286.97
582.728	12463.23
583.089	12632.72
583.449	12746.84
583.809	12880.17
584.169	13042.88
584.529	13222.76
584.889	13481.74
585.249	13658.45
585.609	13765.12
585.969	14137.76
586.329	14291.88
586.688	14527.36
587.048	14790.85
587.408	14884.64
587.768	15087.34
588.127	15447.11
588.487	15721.9
588.846	15962.8
589.206	16202.57
589.565	16454.09
589.925	16758.03
590.284	17009.78
590.643	17409.77
591.003	17681.17
591.362	18047.72
591.721	18209.52
592.08	18583.75
592.44	18917.98
592.799	19157.07
593.158	19435.93
593.517	19758.18
593.876	20240.2
594.235	20407.43
594.593	20825.05
594.952	21176.9
595.311	21352.49
595.67	21696.21
596.029	22220.49
596.387	22581.38
596.746	22933.24
597.104	23176.17
597.463	23489.16
597.822	23895.7
598.18	24121.46
598.538	24461.11
598.897	24815.9
599.255	25060.87
599.613	25767.29
599.972	25898.13
600.33	26276.2
600.688	26508.51
601.046	26920.7
601.404	27303.29
601.762	27522.27
602.12	27983.28
602.478	28378.75
602.836	28639.98
603.194	28882.91
603.552	29052.63
603.91	29397.25
604.268	29830.68
604.625	29999.72
604.983	30427.96
605.341	30615.52
605.698	30935.06
606.056	31466.57
606.413	31534.37
606.771	31942.72
607.128	32245.31
607.485	32354.01
607.843	32738.86
608.2	33165.29
608.557	33466.75
608.914	33556.46
609.272	34018.37
609.629	34333.17
609.986	34595.31
610.343	34741.52
610.7	34998.01
611.057	35343.53
611.414	35477.99
611.771	35734.03
612.127	36050.18
612.484	36305.32
612.841	36470.28
613.198	36665.08
613.554	36798.41
613.911	37138.97
614.267	37290.38
614.624	37518.39
614.98	37637.48
615.337	38034.08
615.693	38113.18
616.05	38360.86
616.406	38686.95
616.762	38637.68
617.118	38789.77
617.475	38957.68
617.831	39252.58
618.187	39441.28
618.543	39569.19
618.899	39937.76
619.255	40089.17
619.611	40089.17
619.967	40434.93
620.323	40442.61
620.678	40420.24
621.034	40485.09
621.39	40907.91
621.746	40722.38
622.101	41365.07
622.457	41126.66
622.812	41249.14
623.168	41555.35
623.523	41687.55
623.879	41883.47
624.234	41688.23
624.589	41836.92
624.945	41960.54
625.3	42227.65
625.655	42196.24
626.01	42256.8
626.365	42364.59
626.72	42410.69
627.075	42494.08
627.43	42497.7
627.785	42549.9
628.14	42746.05
628.495	42803.22
628.85	42815.2
629.205	42705.6
629.559	42970.45
629.914	42888.42
630.269	43072.37
630.623	42898.59
630.978	42817.46
631.332	43090
631.687	43277.79
632.041	43154.63
632.396	43220.39
632.75	43057.23
633.104	43187.4
633.459	43140.17
633.813	43220.39
634.167	43257.22
634.521	43238.92
634.875	43362.08
635.229	43294.96
635.583	43271.24
635.937	43229.88
636.291	43196.66
636.645	43139.26
636.999	43257.9
637.352	43276.66
637.706	43144.23
638.06	43307.17
638.413	43185.36
638.767	43133.84
639.121	43203.44
639.474	43161.41
639.828	43027.17
640.181	43233.04
640.534	43177.23
640.888	43223.55
641.241	43034.18
641.594	43165.02
641.947	43301.29
642.301	43026.95
642.654	43048.19
643.007	43200.95
643.36	43240.28
643.713	42998.93
644.066	43142.65
644.419	42972.94
644.771	42709.44
645.124	42473.06
645.477	42305.84
645.83	41967.77
646.182	42004.38
646.535	41919.86
646.888	42030.82
647.24	41676.25
647.593	42055.45
647.945	41923.7
648.298	41796.47
648.65	41751.05
649.002	41634.67
649.355	41779.75
649.707	41704.72
650.059	42062.23
650.411	42302
650.763	42402.11
651.115	42887.06
651.467	42636.22
651.819	42656.56
652.171	42562.33
652.523	42610.69
652.875	42637.81
653.227	42440.52
653.578	42725.71
653.93	42577.02
654.282	42364.59
654.633	42358.04
654.985	42449.56
655.337	42461.31
655.688	42579.28
656.039	42647.52
656.391	42209.79
656.742	42376.12
657.094	42439.62
657.445	42391.48
657.796	42270.58
658.147	42243.24
658.498	42275.1
658.849	42412.05
659.2	42356.23
659.551	42270.58
659.902	42293.86
660.253	42261.77
660.604	42324.59
660.955	42257.7
661.306	42312.84
661.656	42183.58
662.007	42316.23
662.358	42222.9
662.708	42163.92
663.059	42135.45
663.409	41908.79
663.76	42258.83
664.11	42136.12
664.461	42075.11
664.811	42224.93
665.161	42175.22
665.511	42155.11
665.862	42130.25
666.212	42277.59
666.562	42258.83
666.912	42130.47
667.262	42116.92
667.612	42057.03
667.962	42231.71
668.312	42171.83
668.662	42232.17
669.011	42015.22
669.361	42122.34
669.711	42080.98
670.06	42043.24
670.41	41877.6
670.76	41946.07
671.109	42056.8
671.459	42003.47
671.808	41811.61
672.157	41951.04
672.507	41919.86
672.856	41778.17
673.205	41852.97
673.554	41933.19
673.904	41823.36
674.253	42149.68
674.602	41967.99
674.951	41297.28
675.3	41229.48
675.649	41735
675.998	41720.32
676.346	41827.43
676.695	41925.73
677.044	41592.41
677.393	41698.62
677.741	41656.81
678.09	41654.33
678.438	41519.19
678.787	41556.03
679.135	41463.6
679.484	41234.45
679.832	41377.95
680.181	41247.33
680.529	41285.3
680.877	41099.99
681.225	41268.8
681.573	41347.22
681.922	41127.79
682.27	41126.66
682.618	41071.52
682.966	40970.73
683.314	41141.35
683.661	40906.1
684.009	40676.95
684.357	40689.16
684.705	40599.21
685.053	40666.11
685.4	40558.54
685.748	40517.86
686.095	40396.73
686.443	40294.14
686.79	40201.03
687.138	40276.96
687.485	40304.99
687.832	40159.68
688.18	40139.34
688.527	39937.99
688.874	39888.5
689.221	39923.53
689.568	39747.94
689.915	39714.94
690.262	39578.68
690.609	39445.57
690.956	39485.35
691.303	39386.14
691.65	39151.12
691.997	39126.03
692.344	39019.6
692.69	39017.34
693.037	38933.27
693.383	38663.45
693.73	38926.94
694.077	38521.53
694.423	38601.53
694.769	38543.22
695.116	38379.61
695.462	38458.93
695.808	38278.6
696.155	38207.41
696.501	37957.93
696.847	38022.33
697.193	37776.46
697.539	37885.61
697.885	37640.65
698.231	37599.07
698.577	37463.48
698.923	37349.58
699.269	37297.83
699.614	36975.81
699.96	37062.58
700.306	37132.64
700.651	36976.49
700.997	36785.53
701.342	36882.7
701.688	36676.15
702.033	36683.39
702.379	36578.08
702.724	36468.25
703.069	36476.61
703.415	36148.03
703.76	36216.96
704.105	36148.48
704.45	36125.66
704.795	35833.92
705.14	35879.34
705.485	35715.05
705.83	35539.24
706.175	35692.68
706.52	35563.87
706.865	35481.84
707.209	35336.53
707.554	35285.91
707.899	35329.52
708.243	35141.96
708.588	35062.64
708.932	34825.81
709.277	34799.37
709.621	34806.37
709.966	34594.85
710.31	34731.8
710.654	34497.45
710.998	34497
711.342	34456.1
711.687	34409.55
712.031	34207.29
712.375	34122.78
712.719	34115.09
713.063	34150.8
713.407	34141.98
713.75	34118.93
714.094	33990.8
714.438	33869.9
714.782	33816.12
715.125	33665.61
715.469	33736.12
715.812	33394.66
716.156	33334.77
716.499	33422.23
716.843	33423.36
717.186	33270.59
717.53	33327.99
717.873	33278.96
718.216	33220.65
718.559	32958.96
718.902	32892.75
719.246	32995.12
719.589	32945.63
719.932	32640.33
720.275	32695.92
720.617	32676.26
720.96	32583.38
721.303	32620.89
721.646	32624.28
721.989	32343.16
722.331	32485.08
722.674	32331.64
723.016	32280.79
723.359	32403.05
723.701	32293.9
724.044	32222.71
724.386	31963.74
724.729	32095.03
725.071	32054.58
725.413	32048.25
725.755	32101.13
726.097	31824.98
726.439	31678.09
726.782	31847.81
727.124	31842.16
727.465	31782.5
727.807	31670.64
728.149	31450.53
728.491	31460.92
728.833	31569.85
729.175	31427.93
729.516	31321.04
729.858	31281.72
730.199	31348.16
730.541	31308.61
730.882	31208.95
731.224	31350.42
731.565	30990.2
731.906	31126.02
732.248	31130.99
732.589	30951.11
732.93	30775.74
733.271	30865.91
733.612	30884.22
733.953	30962.41
734.294	30562.19
734.635	30670.44
734.976	30811.9
735.317	30495.53
735.658	30571.23
735.999	30479.48
736.339	30455.75
736.68	30495.98
737.021	30409.43
737.361	30350.67
737.702	30445.58
738.042	30211.47
738.383	30238.81
738.723	30320.16
739.063	30200.17
739.404	30230
739.744	30089.89
740.084	29970.57
740.424	30089.21
740.764	30037.01
741.104	30019.61
741.444	29848.31
741.784	29838.82
742.124	29859.16
742.464	29685.15
742.804	29620.75
743.143	29694.87
743.483	29769.44
743.823	29541.88
744.162	29613.06
744.502	29589.33
744.841	29363.58
745.181	29532.61
745.52	29352.51
745.86	29384.37
746.199	29343.24
746.538	29305.95
746.877	29249.68
747.216	29213.07
747.556	29226.41
747.895	29244.71
748.234	29088.11
748.573	28989.8
748.911	28989.12
749.25	28973.98
749.589	28923.59
749.928	28907.32
750.267	28809.92
750.605	28785.97
750.944	28779.19
751.283	28715.46
751.621	28783.48
751.96	28512.53
752.298	28625.97
752.636	28538.97
752.975	28437.27
753.313	28327.45
753.651	28576.03
753.989	28371.74
754.327	28300.33
754.666	28104.63
755.004	28124.06
755.342	28134.01
755.679	28054.23
756.017	27849.95
756.355	27875.71
756.693	27791.64
757.031	27929.49
757.368	27830.29
757.706	27655.37
758.044	27636.62
758.381	27586.9
758.719	27571.76
759.056	27513.23
759.394	27446.11
759.731	27259.45
760.068	27316.85
