Data from hue_270_FLMS001491_00100.txt Node
Date: Tue Feb 07 15:57:58 GMT 2017
User: dcchb
Spectrometer: FLMS00149
Trigger mode: 0
Integration Time (sec): 2.000000E-2
Scans to average: 10
Electric dark correction enabled: true
Nonlinearity correction enabled: false
Boxcar width: 0
XAxis mode: Wavelengths
Number of Pixels in Spectrum: 2048
>>>>>Begin Spectral Data<<<<<
341.393	-14
341.776	-14
342.16	-14
342.543	-46.09
342.927	-72.07
343.31	-63.71
343.693	-44.28
344.077	-70.27
344.46	-65.07
344.843	-48.57
345.226	-38.63
345.61	-36.82
345.993	-5.64
346.376	-0.21
346.759	1.37
347.142	21.71
347.525	37.75
347.908	56.06
348.291	57.41
348.674	85.21
349.057	113.68
349.44	124.3
349.823	116.85
350.206	144.87
350.588	181.25
350.971	209.73
351.354	205.88
351.737	250.85
352.119	256.28
352.502	251.31
352.884	270.29
353.267	286.79
353.65	287.01
354.032	295.37
354.414	301.48
354.797	305.09
355.179	306.22
355.562	335.15
355.944	307.8
356.326	329.95
356.709	317.75
357.091	324.98
357.473	335.6
357.855	342.15
358.238	333.11
358.62	328.59
359.002	350.29
359.384	326.56
359.766	334.47
360.148	344.41
360.53	323.62
360.912	357.29
361.294	302.83
361.676	331.53
362.057	323.62
362.439	339.21
362.821	336.95
363.203	313.68
363.584	318.2
363.966	309.38
364.348	304.19
364.729	313.9
365.111	317.07
365.493	318.65
365.874	319.33
366.256	316.84
366.637	311.42
367.019	302.61
367.4	305.99
367.781	302.61
368.163	305.99
368.544	311.42
368.925	328.82
369.306	340.12
369.688	314.13
370.069	308.03
370.45	309.38
370.831	313.9
371.212	319.1
371.593	296.96
371.974	315.71
372.355	319.55
372.736	302.38
373.117	327.01
373.498	304.19
373.879	314.13
374.26	301.93
374.641	303.06
375.021	338.08
375.402	324.98
375.783	299.67
376.163	319.33
376.544	312.55
376.925	331.3
377.305	321.36
377.686	339.67
378.066	339.89
378.447	330.85
378.827	350.29
379.208	311.19
379.588	336.05
379.968	329.72
380.349	335.82
380.729	321.36
381.109	324.53
381.489	362.49
381.87	342.6
382.25	344.41
382.63	326.56
383.01	322.04
383.39	336.28
383.77	344.41
384.15	349.16
384.53	345.09
384.91	331.53
385.29	343.51
385.67	333.79
386.049	341.25
386.429	367.01
386.809	348.93
387.189	370.85
387.568	365.88
387.948	326.56
388.328	355.03
388.707	355.03
389.087	358.2
389.466	358.65
389.846	379.67
390.225	366.11
390.605	370.63
390.984	361.81
391.363	371.76
391.743	381.92
392.122	349.61
392.501	377.86
392.881	369.95
393.26	366.78
393.639	389.38
394.018	379.67
394.397	393.9
394.776	374.69
395.155	388.03
395.534	397.07
395.913	391.64
396.292	360.91
396.671	400.91
397.05	394.13
397.429	408.59
397.808	388.7
398.186	404.3
398.565	396.61
398.944	413.34
399.323	403.85
399.701	412.43
400.08	408.59
400.458	393.22
400.837	417.4
401.215	415.6
401.594	425.77
401.972	431.42
402.351	425.09
402.729	436.16
403.107	420.57
403.486	460.79
403.864	432.09
404.242	447.23
404.62	446.1
404.999	456.73
405.377	432.77
405.755	462.6
406.133	462.83
406.511	473.45
406.889	449.95
407.267	464.41
407.645	479.55
408.023	484.52
408.401	479.32
408.779	461.24
409.156	503.5
409.534	505.99
409.912	496.27
410.29	491.3
410.667	506.67
411.045	541.47
411.422	518.42
411.8	515.25
412.178	550.51
412.555	536.05
412.933	550.73
413.31	550.73
413.687	580.79
414.065	570.62
414.442	581.92
414.819	596.16
415.197	602.94
415.574	600
415.951	607.23
416.328	626.66
416.705	634.57
417.082	588.7
417.46	638.19
417.837	638.64
418.214	660.11
418.591	674.35
418.967	657.4
419.344	676.61
419.721	672.99
420.098	699.2
420.475	697.4
420.852	716.38
421.228	704.85
421.605	722.48
421.982	711.86
422.358	744.4
422.735	736.27
423.111	753.44
423.488	777.17
423.864	755.25
424.241	786.21
424.617	782.14
424.994	794.8
425.37	814.91
425.746	821.91
426.123	800.9
426.499	848.35
426.875	856.49
427.251	872.99
427.627	856.26
428.003	877.28
428.379	905.53
428.756	912.53
429.132	921.12
429.507	920.44
429.883	946.2
430.259	939.2
430.635	918.63
431.011	979.65
431.387	971.74
431.763	1002.7
432.138	1014.68
432.514	1023.49
432.89	1030.5
433.265	1096.71
433.641	1064.17
434.016	1077.5
434.392	1106.2
434.767	1119.98
435.143	1098.52
435.518	1143.71
435.894	1152.3
436.269	1191.85
436.644	1204.5
437.02	1206.99
437.395	1200.89
437.77	1249.7
438.145	1242.69
438.52	1294.9
438.895	1262.35
439.271	1277.72
439.646	1339.19
440.021	1320.21
440.395	1345.74
440.77	1348.45
441.145	1383.71
441.52	1383.25
441.895	1403.37
442.27	1393.42
442.645	1417.83
443.019	1409.02
443.394	1431.16
443.769	1438.62
444.143	1420.77
444.518	1474.1
444.892	1487.66
445.267	1516.36
445.641	1500.54
446.016	1499.64
446.39	1533.99
446.764	1538.05
447.139	1542.57
447.513	1517.49
447.887	1537.15
448.262	1558.84
448.636	1553.65
449.01	1593.87
449.384	1605.17
449.758	1612.63
450.132	1616.02
450.506	1628.22
450.88	1673.87
451.254	1658.05
451.628	1650.37
452.002	1681.33
452.376	1692.62
452.75	1689.01
453.123	1701.89
453.497	1757.48
453.871	1741.21
454.244	1738.95
454.618	1755.9
454.992	1774.43
455.365	1818.72
455.739	1852.85
456.112	1870.7
456.486	1813.3
456.859	1898.72
457.232	1891.26
457.606	1884.03
457.979	1919.74
458.352	1940.3
458.725	1972.84
459.099	2011.94
459.472	2007.64
459.845	2032.5
460.218	2067.08
460.591	2060.75
460.964	2080.19
461.337	2111.37
461.71	2178.26
462.083	2153.4
462.456	2178.94
462.829	2143.91
463.201	2194.98
463.574	2228.88
463.947	2264.14
464.32	2274.3
464.692	2301.42
465.065	2302.1
465.438	2340.97
465.81	2378.03
466.183	2370.35
466.555	2459.84
466.928	2469.78
467.3	2447.86
467.672	2467.75
468.045	2530.12
468.417	2545.94
468.789	2525.82
469.161	2532.15
469.534	2588.87
469.906	2640.85
470.278	2620.96
470.65	2679.94
471.022	2731.24
471.394	2774.63
471.766	2782.99
472.138	2797.23
472.51	2838.58
472.882	2878.81
473.253	2896.66
473.625	2934.85
473.997	3009.88
474.369	3012.82
474.74	3032.25
475.112	3107.73
475.484	3121.51
475.855	3125.58
476.227	3205.13
476.598	3291.23
476.97	3278.35
477.341	3364.67
477.713	3369.87
478.084	3436.53
478.455	3480.37
478.827	3499.81
479.198	3562.86
479.569	3580.48
479.94	3634.27
480.311	3671.33
480.682	3711.78
481.053	3789.74
481.424	3871.1
481.795	3833.13
482.166	3913.13
482.537	3928.5
482.908	4039.91
483.279	4026.35
483.65	4114.93
484.021	4120.36
484.391	4252.78
484.762	4192.22
485.133	4261.6
485.503	4295.04
485.874	4369.62
486.244	4387.7
486.615	4500.69
486.985	4522.61
487.356	4569.61
487.726	4609.84
488.097	4711.08
488.467	4716.73
488.837	4760.34
489.207	4834.69
489.578	4883.95
489.948	4919.43
490.318	4965.31
490.688	4968.92
491.058	5003.95
491.428	5081.69
491.798	5161.69
492.168	5194.45
492.538	5232.87
492.908	5267.22
493.278	5289.59
493.648	5363.71
494.017	5402.13
494.387	5403.26
494.757	5467.89
495.126	5524.16
495.496	5563.03
495.866	5446.42
496.235	5581.79
496.605	5655.68
496.974	5631.5
497.344	5667.44
497.713	5712.86
498.082	5729.58
498.452	5733.2
498.821	5749.02
499.19	5772.07
499.559	5849.58
499.928	5850.93
500.298	5892.51
500.667	5835.11
501.036	5898.84
501.405	5967.99
501.774	5977.94
502.143	6033.08
502.512	6026.3
502.88	6020.42
503.249	6071.27
503.618	6103.13
503.987	6114.43
504.356	6142.9
504.724	6149
505.093	6166.41
505.462	6160.98
505.83	6233.75
506.199	6214.99
506.567	6303.35
506.936	6309.9
507.304	6326.63
507.672	6390.58
508.041	6382.9
508.409	6410.47
508.777	6423.35
509.145	6486.62
509.514	6399.85
509.882	6487.08
510.25	6479.84
510.618	6475.78
510.986	6513.29
511.354	6525.27
511.722	6567.07
512.09	6650.23
512.458	6583.12
512.826	6616.56
513.193	6691.82
513.561	6671.93
513.929	6647.3
514.297	6755.77
514.664	6721.65
515.032	6740.4
515.4	6740.63
515.767	6759.61
516.135	6742.21
516.502	6765.71
516.869	6823.56
517.237	6836.22
517.604	6809.55
517.972	6866.73
518.339	6891.13
518.706	6873.51
519.073	6861.3
519.44	6888.19
519.808	6958.93
520.175	6937.23
520.542	6997.34
520.909	7007.06
521.276	7025.82
521.643	7000.73
522.009	7091.81
522.376	7088.87
522.743	7068.75
523.11	7128.41
523.477	7191.01
523.843	7187.62
524.21	7238.69
524.577	7260.61
524.943	7249.32
525.31	7286.15
525.676	7317.34
526.043	7318.47
526.409	7394.85
526.776	7393.49
527.142	7419.03
527.508	7445.02
527.874	7452.93
528.241	7484.11
528.607	7486.14
528.973	7534.96
529.339	7574.96
529.705	7548.06
530.071	7567.95
530.437	7560.27
530.803	7600.04
531.169	7601.62
531.535	7622.41
531.901	7699.7
532.267	7694.73
532.632	7714.16
532.998	7686.37
533.364	7687.04
533.73	7679.13
534.095	7766.59
534.461	7759.58
534.826	7772.69
535.192	7785.8
535.557	7812.69
535.923	7804.33
536.288	7800.04
536.653	7833.48
537.019	7787.61
537.384	7831.22
537.749	7840.26
538.114	7883.2
538.479	7821.05
538.845	7896.76
539.21	7880.26
539.575	7869.41
539.94	7890.65
540.305	7900.82
540.67	7902.63
541.034	7897.89
541.399	7974.49
541.764	7939.01
542.129	7967.04
542.494	7896.08
542.858	7994.38
543.223	7918.22
543.587	7992.35
543.952	7939.69
544.316	7952.12
544.681	7960.93
545.045	8045.45
545.41	8004.78
545.774	7985.34
546.138	8035.74
546.503	7982.4
546.867	7964.55
547.231	7992.35
547.595	8090.2
547.959	8077.32
548.324	8109.86
548.688	8053.81
549.052	8151.21
549.416	8104.21
549.779	8102.17
550.143	8123.19
550.507	8119.8
550.871	8122.96
551.235	8098.33
551.599	8163.87
551.962	8096.52
552.326	8158.9
552.689	8195.73
553.053	8201.83
553.417	8167.26
553.78	8185.11
554.143	8131.1
554.507	8215.62
554.87	8194.6
555.234	8301.26
555.597	8205.22
555.96	8265.79
556.323	8247.48
556.686	8276.18
557.05	8347.59
557.413	8287.93
557.776	8324.77
558.139	8347.82
558.502	8398.66
558.865	8383.97
559.228	8442.73
559.59	8468.72
559.953	8473.24
560.316	8514.14
560.679	8517.53
561.041	8545.33
561.404	8599.79
561.767	8642.72
562.129	8588.04
562.492	8668.26
562.854	8639.33
563.217	8672.1
563.579	8735.6
563.941	8702.38
564.304	8785.77
564.666	8760.91
565.028	8811.53
565.39	8774.25
565.753	8857.86
566.115	8904.86
566.477	8981.47
566.839	8940.34
567.201	8990.06
567.563	8998.65
567.925	9013.34
568.287	9037.97
568.648	9060.57
569.01	9124.07
569.372	9197.74
569.734	9174.01
570.095	9182.82
570.457	9283.61
570.819	9261.47
571.18	9262.14
571.542	9402.25
571.903	9320.22
572.265	9380.33
572.626	9381.91
572.987	9428.24
573.349	9368.58
573.71	9500.1
574.071	9529.48
574.432	9521.35
574.794	9533.55
575.155	9616.26
575.516	9564.51
575.877	9630.27
576.238	9675.69
576.599	9758.4
576.96	9766.99
577.32	9711.17
577.681	9758.4
578.042	9827.1
578.403	9840.66
578.763	9807.89
579.124	9926.31
579.485	9927.21
579.845	10040.43
580.206	9994.1
580.566	9977.15
580.927	9985.74
581.287	10107.32
581.648	10083.59
582.008	10147.54
582.368	10134.44
582.728	10159.75
583.089	10168.33
583.449	10197.49
583.809	10164.72
584.169	10324.49
584.529	10215.34
584.889	10344.37
585.249	10298.27
585.609	10327.88
585.969	10427.76
586.329	10366.97
586.688	10452.39
587.048	10430.7
587.408	10426.18
587.768	10429.34
588.127	10502.79
588.487	10500.75
588.846	10604.03
589.206	10636.34
589.565	10625.5
589.925	10708.89
590.284	10695.78
590.643	10739.39
591.003	10780.3
591.362	10792.72
591.721	10768.09
592.08	10865.04
592.44	10861.42
592.799	10800.41
593.158	10834.98
593.517	10838.6
593.876	10921.99
594.235	10873.85
594.593	10912.04
594.952	10932.83
595.311	10971.93
595.67	10970.12
596.029	11113.62
596.387	11020.74
596.746	11038.14
597.104	11050.8
597.463	11052.38
597.822	11147.29
598.18	11063.9
598.538	11045.6
598.897	11194.3
599.255	11040.4
599.613	11271.81
599.972	11171.02
600.33	11143.68
600.688	11140.29
601.046	11217.12
601.404	11227.52
601.762	11246.27
602.12	11342.09
602.478	11259.61
602.836	11347.51
603.194	11184.35
603.552	11312.49
603.91	11271.13
604.268	11426.15
604.625	11322.88
604.983	11377.79
605.341	11277.46
605.698	11400.62
606.056	11375.08
606.413	11396.32
606.771	11407.62
607.128	11514.29
607.485	11388.42
607.843	11372.14
608.2	11482.88
608.557	11464.12
608.914	11487.17
609.272	11535.76
609.629	11566.04
609.986	11538.92
610.343	11535.08
610.7	11585.7
611.057	11500.28
611.414	11500.73
611.771	11559.48
612.127	11604.68
612.484	11554.06
612.841	11692.36
613.198	11661.18
613.554	11635.87
613.911	11681.51
614.267	11707.73
614.624	11728.75
614.98	11765.58
615.337	11735.07
615.693	11784.79
616.05	11685.36
616.406	11795.64
616.762	11684.9
617.118	11780.04
617.475	11716.99
617.831	11823.66
618.187	11837.22
618.543	11779.37
618.899	11846.26
619.255	11868.18
619.611	11789.99
619.967	11929.64
620.323	11894.84
620.678	11832.92
621.034	11874.5
621.39	11866.37
621.746	11832.02
622.101	11997.89
622.457	11919.02
622.812	11878.57
623.168	11918.57
623.523	11865.92
623.879	11989.98
624.234	11845.58
624.589	11947.27
624.945	11919.47
625.3	11963.54
625.655	11993.37
626.01	11882.41
626.365	11937.33
626.72	11845.13
627.075	11870.21
627.43	11890.55
627.785	11807.84
628.14	11920.6
628.495	11887.16
628.85	11865.46
629.205	11826.6
629.559	11867.27
629.914	11815.3
630.269	11838.57
630.623	11702.31
630.978	11758.12
631.332	11755.41
631.687	11848.52
632.041	11872.47
632.396	11871.34
632.75	11778.69
633.104	11739.37
633.459	11718.12
633.813	11694.62
634.167	11754.73
634.521	11700.5
634.875	11797.67
635.229	11711.57
635.583	11642.42
635.937	11647.84
636.291	11686.71
636.645	11613.49
636.999	11557.68
637.352	11669.31
637.706	11547.28
638.06	11592.7
638.413	11612.82
638.767	11547.51
639.121	11568.07
639.474	11512.71
639.828	11474.51
640.181	11520.39
640.534	11543.44
640.888	11503.67
641.241	11487.17
641.594	11502.08
641.947	11475.42
642.301	11441.07
642.654	11480.84
643.007	11488.75
643.36	11442.2
643.713	11416.44
644.066	11443.33
644.419	11390
644.771	11323.78
645.124	11237.91
645.477	11198.59
645.83	11106.84
646.182	11085.82
646.535	11008.76
646.888	11018.26
647.24	10904.81
647.593	11055.32
647.945	11026.39
648.298	10926.28
648.65	10940.97
649.002	10938.26
649.355	11030.91
649.707	10960.4
650.059	10971.03
650.411	11107.97
650.763	11147.07
651.115	11313.39
651.467	11211.7
651.819	11227.52
652.171	11208.53
652.523	11206.05
652.875	11176.9
653.227	11173.73
653.578	11270.23
653.93	11199.95
654.282	11166.27
654.633	11133.28
654.985	11214.41
655.337	11214.18
655.688	11208.76
656.039	11199.49
656.391	11094.41
656.742	11145.94
657.094	11134.41
657.445	11306.38
657.796	11204.92
658.147	11118.14
658.498	11166.27
658.849	11116.33
659.2	11166.5
659.551	11148.65
659.902	11267.97
660.253	11156.56
660.604	11280.62
660.955	11175.77
661.306	11197.46
661.656	11203.34
662.007	11222.09
662.358	11208.76
662.708	11217.8
663.059	11207.4
663.409	11224.58
663.76	11196.56
664.11	11172.15
664.461	11246.27
664.811	11259.38
665.161	11208.76
665.511	11207.18
665.862	11183
666.212	11262.99
666.562	11247.63
666.912	11206.05
667.262	11178.03
667.612	11206.27
667.962	11203.34
668.312	11160.85
668.662	11239.94
669.011	11210.34
669.361	11186.16
669.711	11152.94
670.06	11083.11
670.41	11121.08
670.76	11149.78
671.109	11218.25
671.459	11189.32
671.808	11115.2
672.157	11157.69
672.507	11026.16
672.856	11077.24
673.205	11152.04
673.554	11112.94
673.904	11127.86
674.253	11154.3
674.602	11075.88
674.951	10924.47
675.3	10881.31
675.649	11032.49
675.998	10963.79
676.346	11016
676.695	11005.15
677.044	11043.79
677.393	11091.02
677.741	11010.57
678.09	10982.32
678.438	10931.25
678.787	10907.75
679.135	10955.66
679.484	10960.86
679.832	10941.65
680.181	10798.83
680.529	10893.74
680.877	10890.35
681.225	10861.2
681.573	10857.58
681.922	10808.77
682.27	10759.96
682.618	10808.32
682.966	10787.98
683.314	10789.79
683.661	10739.17
684.009	10724.25
684.357	10662.56
684.705	10683.12
685.053	10599.96
685.4	10645.61
685.748	10559.28
686.095	10587.08
686.443	10501.21
686.79	10514.99
687.138	10509.79
687.485	10507.76
687.832	10459.4
688.18	10472.28
688.527	10410.81
688.874	10352.28
689.221	10353.64
689.568	10387.31
689.915	10369.46
690.262	10260.99
690.609	10278.16
690.956	10164.72
691.303	10213.98
691.65	10140.76
691.997	10097.6
692.344	10150.26
692.69	10091.5
693.037	10059.64
693.383	9946.87
693.73	10073.2
694.077	10004.5
694.423	9877.27
694.769	9859.19
695.116	9831.39
695.462	9829.36
695.808	9752.07
696.155	9776.25
696.501	9702.36
696.847	9783.94
697.193	9594.34
697.539	9685.18
697.885	9592.98
698.231	9606.77
698.577	9582.14
698.923	9550.5
699.269	9396.38
699.614	9445.42
699.96	9420.33
700.306	9446.55
700.651	9310.5
700.997	9321.35
701.342	9358.19
701.688	9325.42
702.033	9290.17
702.379	9273.67
702.724	9251.3
703.069	9269.37
703.415	9089.94
703.76	9164.07
704.105	9098.98
704.45	9061.24
704.795	8980.79
705.14	8920.46
705.485	9011.08
705.83	8980.34
706.175	8981.47
706.52	8909.61
706.865	8874.58
707.209	8919.78
707.554	8797.07
707.899	8891.08
708.243	8734.47
708.588	8694.93
708.932	8667.13
709.277	8731.08
709.621	8727.92
709.966	8644.76
710.31	8682.72
710.654	8539.9
710.998	8570.86
711.342	8619.9
711.687	8533.58
712.031	8521.6
712.375	8530.64
712.719	8516.85
713.063	8440.47
713.407	8506.91
713.75	8425.1
714.094	8467.36
714.438	8403.86
714.782	8495.84
715.125	8330.64
715.469	8382.84
715.812	8349.17
716.156	8305.33
716.499	8320.47
716.843	8339.91
717.186	8281.83
717.53	8327.25
717.873	8257.88
718.216	8350.08
718.559	8274.37
718.902	8183.75
719.246	8203.64
719.589	8169.74
719.932	8172.68
720.275	8168.84
720.617	8159.57
720.96	8168.16
721.303	8152.12
721.646	8165
721.989	8104.21
722.331	8136.98
722.674	8038.9
723.016	8126.13
723.359	8085.9
723.701	8098.78
724.044	8009.75
724.386	7986.47
724.729	8091.1
725.071	8002.97
725.413	8042.51
725.755	8021.5
726.097	7952.8
726.439	7959.13
726.782	7986.24
727.124	8025.79
727.465	7972.91
727.807	8028.28
728.149	7952.57
728.491	7962.29
728.833	8008.39
729.175	7932.46
729.516	7895.17
729.858	7919.58
730.199	7918
730.541	7963.42
730.882	7900.82
731.224	7854.5
731.565	7876.19
731.906	7899.02
732.248	7913.93
732.589	7888.17
732.93	7818.57
733.271	7855.63
733.612	7941.5
733.953	7877.55
734.294	7893.59
734.635	7831.9
734.976	7880.26
735.317	7865.57
735.658	7822.18
735.999	7822.41
736.339	7842.52
736.68	7847.27
737.021	7849.53
737.361	7903.31
737.702	7884.1
738.042	7867.38
738.383	7847.72
738.723	7882.97
739.063	7802.29
739.404	7913.03
739.744	7890.65
740.084	7869.41
740.424	7917.55
740.764	7950.54
741.104	7968.17
741.444	7959.35
741.784	7897.66
742.124	8008.62
742.464	7967.71
742.804	7911.22
743.143	7961.16
743.483	7991.67
743.823	7979.01
744.162	8061.05
744.502	8061.72
744.841	8074.6
745.181	8105.34
745.52	8117.54
745.86	8143.53
746.199	8181.27
746.538	8241.15
746.877	8259.91
747.216	8278.21
747.556	8293.81
747.895	8345.11
748.234	8402.28
748.573	8433.01
748.911	8433.01
749.25	8517.3
749.589	8493.58
749.928	8606.57
750.267	8689.05
750.605	8743.29
750.944	8800.23
751.283	8796.62
751.621	8911.42
751.96	8987.35
752.298	9029.61
752.636	9064.63
752.975	9220.34
753.313	9282.71
753.651	9421.24
753.989	9392.08
754.327	9504.62
754.666	9588.24
755.004	9703.49
755.342	9827.78
755.679	9962.01
756.017	10034.55
756.355	10194.32
756.693	10159.97
757.031	10404.26
757.368	10477.48
757.706	10694.87
758.044	10847.86
758.381	10962.21
758.719	10989.56
759.056	11147.29
759.394	11311.36
759.731	11427.74
760.068	11507.51
760.405	11666.37
760.743	11811.23
761.08	12082.86
761.417	12170.54
761.754	12307.04
762.091	12443.3
762.428	12588.16
762.765	12648.72
763.102	12905.44
