Data from hue_250_FLMS001491_00044.txt Node
Date: Tue Feb 07 16:01:01 GMT 2017
User: dcchb
Spectrometer: FLMS00149
Trigger mode: 0
Integration Time (sec): 2.000000E-2
Scans to average: 10
Electric dark correction enabled: true
Nonlinearity correction enabled: false
Boxcar width: 0
XAxis mode: Wavelengths
Number of Pixels in Spectrum: 2048
>>>>>Begin Spectral Data<<<<<
341.393	-9.31
341.776	-9.31
342.16	-9.31
342.543	-64.9
342.927	-65.13
343.31	-52.47
343.693	-61.96
344.077	-57.89
344.46	-63.77
344.843	-81.85
345.226	-16.77
345.61	-14.73
345.993	-21.96
346.376	-3.21
346.759	11.26
347.142	15.32
347.525	46.74
347.908	59.62
348.291	72.72
348.674	80.86
349.057	88.09
349.44	119.5
349.823	128.54
350.206	161.76
350.588	176
350.971	203.57
351.354	224.81
351.737	239.5
352.119	244.47
352.502	256.9
352.884	268.2
353.267	287.18
353.65	274.98
354.032	295.54
354.414	288.31
354.797	304.81
355.179	319.5
355.562	319.5
355.944	312.27
356.326	326.05
356.709	328.31
357.091	316.79
357.473	319.72
357.855	326.28
358.238	355.2
358.62	330.57
359.002	338.71
359.384	337.35
359.766	340.29
360.148	347.97
360.53	343.9
360.912	320.18
361.294	361.98
361.676	336.22
362.057	307.97
362.439	337.58
362.821	337.12
363.203	332.83
363.584	333.28
363.966	319.72
364.348	327.18
364.729	302.32
365.111	304.13
365.493	311.14
365.874	310.23
366.256	315.88
366.637	331.47
367.019	331.02
367.4	296.9
367.781	307.29
368.163	300.51
368.544	296
368.925	301.87
369.306	318.59
369.688	288.09
370.069	315.66
370.45	298.93
370.831	317.01
371.212	313.85
371.593	298.48
371.974	324.92
372.355	305.94
372.736	332.15
373.117	315.43
373.498	309.55
373.879	319.05
374.26	311.36
374.641	313.4
375.021	311.59
375.402	298.48
375.783	313.85
376.163	314.07
376.544	323.11
376.925	304.81
377.305	330.57
377.686	330.57
378.066	319.5
378.447	339.38
378.827	321.31
379.208	329.21
379.588	327.86
379.968	329.21
380.349	350.23
380.729	317.24
381.109	319.5
381.489	350.46
381.87	320.18
382.25	341.42
382.63	351.81
383.01	324.92
383.39	346.62
383.77	337.58
384.15	343.23
384.53	348.88
384.91	318.59
385.29	355.43
385.67	340.29
386.049	343
386.429	339.38
386.809	353.85
387.189	342.55
387.568	361.08
387.948	365.15
388.328	364.24
388.707	353.85
389.087	363.34
389.466	354.75
389.846	340.29
390.225	366.95
390.605	352.49
390.984	387.97
391.363	361.08
391.743	351.59
392.122	366.95
392.501	375.09
392.881	379.83
393.26	380.74
393.639	386.61
394.018	382.09
394.397	365.82
394.776	373.73
395.155	397.46
395.534	395.2
395.913	371.25
396.292	400.63
396.671	393.39
397.05	399.72
397.429	412.83
397.808	383
398.186	403.34
398.565	400.63
398.944	402.43
399.323	374.64
399.701	404.24
400.08	414.64
400.458	397.69
400.837	423.22
401.215	403.11
401.594	402.21
401.972	386.84
402.351	413.28
402.729	421.42
403.107	420.74
403.486	438.59
403.864	430
404.242	440.17
404.62	446.27
404.999	437.23
405.377	432.26
405.755	437.23
406.133	451.25
406.511	443.11
406.889	461.64
407.267	475.2
407.645	455.99
408.023	470.23
408.401	458.48
408.779	486.05
409.156	479.72
409.534	481.75
409.912	486.5
410.29	493.96
410.667	491.7
411.045	511.13
411.422	524.46
411.8	527.18
412.178	548.42
412.555	528.98
412.933	533.95
413.31	544.35
413.687	550.45
414.065	552.03
414.442	568.3
414.819	580.96
415.197	568.76
415.574	582.32
415.951	589.77
416.328	607.17
416.705	596.33
417.082	633.16
417.46	623.9
417.837	624.12
418.214	619.38
418.591	638.58
418.967	628.87
419.344	636.78
419.721	631.81
420.098	673.84
420.475	667.51
420.852	685.82
421.228	695.76
421.605	691.69
421.982	701.41
422.358	705.25
422.735	716.55
423.111	724.01
423.488	724.23
423.864	759.49
424.241	772.82
424.617	765.36
424.994	779.82
425.37	766.27
425.746	797.45
426.123	798.13
426.499	799.94
426.875	819.37
427.251	848.3
427.627	861.86
428.003	857.11
428.379	857.34
428.756	882.87
429.132	878.58
429.507	903.44
429.883	893.04
430.259	902.08
430.635	908.63
431.011	928.07
431.387	927.62
431.763	955.64
432.138	949.76
432.514	974.62
432.89	968.29
433.265	1020.72
433.641	1018.24
434.016	1012.59
434.392	1043.55
434.767	1040.83
435.143	1045.81
435.518	1092.13
435.894	1122.41
436.269	1104.11
436.644	1134.17
437.02	1167.38
437.395	1140.72
437.77	1163.99
438.145	1165.12
438.52	1213.26
438.895	1225.69
439.271	1246.03
439.646	1241.51
440.021	1250.32
440.395	1272.01
440.77	1262.52
441.145	1298.23
441.52	1325.8
441.895	1316.08
442.27	1345.23
442.645	1348.62
443.019	1371.9
443.394	1353.59
443.769	1385.23
444.143	1373.48
444.518	1383.65
444.892	1393.14
445.267	1422.29
445.641	1424.33
446.016	1436.53
446.39	1439.24
446.764	1460.71
447.139	1439.92
447.513	1491.22
447.887	1468.39
448.262	1482.86
448.636	1491.44
449.01	1536.19
449.384	1521.95
449.758	1548.62
450.132	1557.43
450.506	1584.32
450.88	1571.44
451.254	1571.89
451.628	1609.41
452.002	1580.26
452.376	1641.04
452.75	1635.62
453.123	1649.18
453.497	1676.98
453.871	1646.69
454.244	1747.03
454.618	1731.44
454.992	1754.94
455.365	1768.5
455.739	1816.63
456.112	1810.76
456.486	1829.29
456.859	1856.63
457.232	1864.99
457.606	1878.78
457.979	1894.6
458.352	1931.88
458.725	1933.24
459.099	1935.73
459.472	1977.08
459.845	2000.36
460.218	1993.58
460.591	2006.46
460.964	2008.72
461.337	2079.9
461.71	2102.5
462.083	2142.27
462.456	2110.18
462.829	2134.59
463.201	2201.93
463.574	2196.51
463.947	2220.92
464.32	2230.86
464.692	2209.17
465.065	2286.45
465.438	2295.72
465.81	2314.47
466.183	2344.08
466.555	2409.61
466.928	2422.49
467.3	2387.47
467.672	2459.33
468.045	2502.04
468.417	2520.34
468.789	2534.81
469.161	2548.14
469.534	2588.59
469.906	2671.53
470.278	2685.08
470.65	2653.22
471.022	2739.55
471.394	2764.86
471.766	2797.4
472.138	2805.99
472.51	2851.63
472.882	2901.8
473.253	2947
473.625	3000.56
473.997	3020.67
474.369	3047.56
474.74	3047.79
475.112	3077.16
475.484	3152.64
475.855	3181.12
476.227	3198.74
476.598	3312.19
476.97	3349.7
477.341	3392.18
477.713	3438.74
478.084	3444.84
478.455	3508.34
478.827	3566.64
479.198	3642.8
479.569	3685.74
479.94	3730.71
480.311	3787.2
480.682	3821.1
481.053	3881.21
481.424	3944.03
481.795	4000.3
482.166	4039.4
482.537	4067.65
482.908	4193.75
483.279	4206.17
483.65	4226.74
484.021	4337.24
484.391	4382.44
484.762	4400.07
485.133	4437.58
485.503	4516.68
485.874	4593.06
486.244	4609.55
486.615	4689.78
486.985	4761.64
487.356	4781.98
487.726	4845.93
488.097	4911.24
488.467	4928.19
488.837	5007.28
489.207	5032.82
489.578	5109.2
489.948	5112.14
490.318	5215.87
490.688	5226.03
491.058	5328.41
491.428	5349.65
491.798	5398.01
492.168	5471.9
492.538	5486.59
492.908	5554.16
493.278	5597.32
493.648	5585.12
494.017	5672.8
494.387	5750.77
494.757	5758.68
495.126	5816.08
495.496	5785.12
495.866	5856.98
496.235	5940.37
496.605	5932.01
496.974	6010.87
497.344	6071.44
497.713	6074.83
498.082	6080.02
498.452	6142.85
498.821	6144.88
499.19	6157.08
499.559	6183.98
499.928	6210.87
500.298	6243.41
500.667	6269.4
501.036	6300.81
501.405	6352.33
501.774	6352.11
502.143	6405.66
502.512	6429.17
502.88	6373.35
503.249	6416.74
503.618	6515.72
503.987	6473.01
504.356	6576.73
504.724	6593.91
505.093	6586
505.462	6587.58
505.83	6635.94
506.199	6644.08
506.567	6726.79
506.936	6710.06
507.304	6823.28
507.672	6800.46
508.041	6767.92
508.409	6864.18
508.777	6883.17
509.145	6924.75
509.514	6903.96
509.882	6909.38
510.25	6951.41
510.618	6927.91
510.986	6958.19
511.354	7029.38
511.722	7015.37
512.09	7094.46
512.458	7034.12
512.826	7108.7
513.193	7098.75
513.561	7118.19
513.929	7185.53
514.297	7216.49
514.664	7270.5
515.032	7305.3
515.4	7335.81
515.767	7286.32
516.135	7411.97
516.502	7255.81
516.869	7397.96
517.237	7403.38
517.604	7354.11
517.972	7423.27
518.339	7419.2
518.706	7449.03
519.073	7471.63
519.44	7469.59
519.808	7555.47
520.175	7465.07
520.542	7557.27
520.909	7541
521.276	7592.98
521.643	7689.02
522.009	7687.21
522.376	7654.9
522.743	7663.71
523.11	7770.37
523.477	7820.99
523.843	7794.33
524.21	7806.98
524.577	7856.7
524.943	7898.28
525.31	7921.78
525.676	7988
526.043	7920.88
526.409	7999.07
526.776	8004.04
527.142	7928.11
527.508	8027.77
527.874	8082.46
528.241	8162.91
528.607	8110.25
528.973	8111.61
529.339	8051.95
529.705	8171.04
530.071	8185.51
530.437	8187.54
530.803	8230.02
531.169	8250.36
531.535	8206.3
531.901	8236.35
532.267	8211.04
532.632	8241.77
532.998	8290.14
533.364	8222.79
533.73	8205.84
534.095	8291.49
534.461	8329.46
534.826	8319.29
535.192	8288.78
535.557	8346.4
535.923	8299.85
536.288	8351.38
536.653	8311.15
537.019	8282.23
537.384	8285.39
537.749	8312.06
538.114	8313.41
538.479	8322.68
538.845	8290.81
539.21	8319.29
539.575	8333.75
539.94	8319.51
540.305	8344.37
540.67	8340.08
541.034	8296.91
541.399	8347.99
541.764	8289.01
542.129	8349.79
542.494	8387.76
542.858	8367.87
543.223	8322.22
543.587	8356.8
543.952	8270.25
544.316	8331.04
544.681	8288.33
545.045	8344.37
545.41	8343.47
545.774	8289.23
546.138	8282
546.503	8319.74
546.867	8349.79
547.231	8359.29
547.595	8301.66
547.959	8360.42
548.324	8349.57
548.688	8366.52
549.052	8340.3
549.416	8329.46
549.779	8306.41
550.143	8299.17
550.507	8402.67
550.871	8359.96
551.235	8288.78
551.599	8347.31
551.962	8404.03
552.326	8346.86
552.689	8354.54
553.053	8315.9
553.417	8309.8
553.78	8425.72
554.143	8345.73
554.507	8369.91
554.87	8375.56
555.234	8377.36
555.597	8334.43
555.96	8373.97
556.323	8457.14
556.686	8414.65
557.05	8481.09
557.413	8420.53
557.776	8443.35
558.139	8494.88
558.502	8488.1
558.865	8479.73
559.228	8536.91
559.59	8574.65
559.953	8561.09
560.316	8628.88
560.679	8569.45
561.041	8627.3
561.404	8640.86
561.767	8726.51
562.129	8667.07
562.492	8688.77
562.854	8744.36
563.217	8718.15
563.579	8732.84
563.941	8761.31
564.304	8805.15
564.666	8808.77
565.028	8861.42
565.39	8876.79
565.753	8900.06
566.115	8865.26
566.477	8985.94
566.839	8971.47
567.201	8958.14
567.563	9016.22
567.925	9072.94
568.287	9029.78
568.648	9037.91
569.01	9060.51
569.372	9125.14
569.734	9135.08
570.095	9216.21
570.457	9205.82
570.819	9230.9
571.18	9255.99
571.542	9194.74
571.903	9254.4
572.265	9238.13
572.626	9342.31
572.987	9277.91
573.349	9357.45
573.71	9313.84
574.071	9412.14
574.432	9396.77
574.794	9486.94
575.155	9455.53
575.516	9467.05
575.877	9484
576.238	9486.26
576.599	9531.23
576.96	9578.91
577.32	9528.52
577.681	9556.54
578.042	9654.85
578.403	9676.09
578.763	9641.96
579.124	9708.85
579.485	9709.08
579.845	9746.37
580.206	9724.45
580.566	9730.32
580.927	9720.61
581.287	9760.38
581.648	9789.76
582.008	9857.1
582.368	9831.79
582.728	9837.67
583.089	9912.24
583.449	9870.43
583.809	9886.7
584.169	9884.67
584.529	9860.26
584.889	9919.47
585.249	9924.22
585.609	9867.04
585.969	10001.28
586.329	9916.53
586.688	9956.08
587.048	9949.98
587.408	10033.82
587.768	9900.04
588.127	9989.75
588.487	9979.58
588.846	10053.7
589.206	9972.12
589.565	10015.06
589.925	10074.04
590.284	10037.43
590.643	10101.16
591.003	10124.21
591.362	10135.28
591.721	10122.18
592.08	10148.17
592.44	10103.65
592.799	10138.45
593.158	10170.54
593.517	10189.29
593.876	10192.46
594.235	10174.38
594.593	10229.97
594.952	10229.75
595.311	10270.42
595.67	10185.23
596.029	10254.83
596.387	10246.24
596.746	10251.67
597.104	10254.83
597.463	10265.9
597.822	10305.9
598.18	10298.9
598.538	10206.24
598.897	10305.9
599.255	10251.89
599.613	10367.59
599.972	10399.46
600.33	10329.4
600.688	10273.36
601.046	10311.55
601.404	10397.42
601.762	10285.34
602.12	10349.06
602.478	10328.95
602.836	10444.43
603.194	10354.49
603.552	10404.88
603.91	10349.97
604.268	10421.83
604.625	10353.81
604.983	10450.98
605.341	10363.07
605.698	10436.97
606.056	10376.18
606.413	10408.5
606.771	10490.76
607.128	10398.1
607.485	10420.25
607.843	10339.8
608.2	10524.88
608.557	10528.95
608.914	10487.37
609.272	10521.26
609.629	10464.77
609.986	10474.94
610.343	10423.19
610.7	10552.67
611.057	10556.74
611.414	10592
611.771	10611.43
612.127	10615.95
612.484	10615.05
612.841	10661.82
613.198	10610.98
613.554	10594.71
613.911	10722.84
614.267	10704.31
614.624	10664.31
614.98	10674.03
615.337	10742.05
615.693	10753.8
616.05	10675.38
616.406	10784.31
616.762	10675.38
617.118	10693.24
617.475	10650.3
617.831	10707.02
618.187	10715.38
618.543	10833.12
618.899	10788.6
619.255	10715.16
619.611	10728.49
619.967	10722.61
620.323	10815.72
620.678	10813.23
621.034	10713.12
621.39	10821.59
621.746	10743.86
622.101	10853.01
622.457	10809.39
622.812	10863.63
623.168	10834.93
623.523	10832.44
623.879	10847.36
624.234	10749.51
624.589	10796.06
624.945	10763.52
625.3	10841.71
625.655	10810.29
626.01	10842.38
626.365	10740.47
626.72	10892.33
627.075	10795.15
627.43	10741.37
627.785	10779.56
628.14	10725.1
628.495	10775.72
628.85	10751.54
629.205	10750.64
629.559	10721.48
629.914	10765.78
630.269	10756.06
630.623	10709.05
630.978	10652.11
631.332	10713.57
631.687	10754.25
632.041	10686.91
632.396	10648.27
632.75	10641.94
633.104	10684.65
633.459	10601.26
633.813	10635.16
634.167	10638.1
634.521	10543.41
634.875	10564.65
635.229	10570.75
635.583	10511.77
635.937	10560.36
636.291	10578.44
636.645	10558.55
636.999	10472.45
637.352	10540.92
637.706	10416.86
638.06	10523.75
638.413	10446.24
638.767	10443.52
639.121	10403.53
639.474	10428.84
639.828	10374.6
640.181	10457.54
640.534	10447.14
640.888	10369.18
641.241	10340.7
641.594	10365.56
641.947	10318.1
642.301	10323.98
642.654	10367.37
643.007	10317.2
643.36	10265.22
643.713	10319.69
644.066	10339.8
644.419	10319.69
644.771	10168.28
645.124	10165.79
645.477	10137.54
645.83	10043.08
646.182	9995.63
646.535	9957.44
646.888	9935.29
647.24	9931
647.593	9994.72
647.945	9897.1
648.298	9811.68
648.65	9860.72
649.002	9888.96
649.355	9886.7
649.707	9930.77
650.059	10013.93
650.411	10108.39
650.763	10091.22
651.115	10141.84
651.467	10107.71
651.819	10179.35
652.171	10166.92
652.523	10130.99
652.875	10175.28
653.227	10099.35
653.578	10111.56
653.93	10043.08
654.282	10095.51
654.633	10031.33
654.985	10037.43
655.337	10078.34
655.688	10091.44
656.039	10088.05
656.391	9943.65
656.742	10067.72
657.094	10074.95
657.445	10038.79
657.796	10053.93
658.147	10020.49
658.498	10109.3
658.849	10051.44
659.2	10095.96
659.551	9984.55
659.902	10119.47
660.253	10086.02
660.604	10022.52
660.955	10008.73
661.306	10054.16
661.656	10046.25
662.007	10051.67
662.358	10042.63
662.708	10019.58
663.059	10014.38
663.409	10005.8
663.76	10085.79
664.11	10060.48
664.461	10067.94
664.811	10070.43
665.161	10009.19
665.511	10080.14
665.862	10047.6
666.212	10069.07
666.562	10045.34
666.912	10050.54
667.262	10008.06
667.612	10025
667.962	10080.82
668.312	10010.77
668.662	10069.07
669.011	10105
669.361	10006.02
669.711	10036.08
670.06	9984.78
670.41	9965.57
670.76	9975.74
671.109	9989.75
671.459	10024.55
671.808	9998.11
672.157	10010.99
672.507	9982.75
672.856	9938.23
673.205	9942.07
673.554	9974.84
673.904	9926.93
674.253	10008.96
674.602	9926.93
674.951	9846.25
675.3	9680.83
675.649	9862.07
675.998	9861.17
676.346	9861.39
676.695	9953.59
677.044	9849.64
677.393	9814.16
677.741	9864.78
678.09	9775.07
678.438	9782.3
678.787	9812.35
679.135	9825.69
679.484	9778.68
679.832	9805.12
680.181	9768.29
680.529	9747.05
680.877	9680.16
681.225	9723.09
681.573	9772.58
681.922	9684.45
682.27	9651.46
682.618	9708.63
682.966	9662.3
683.314	9684.67
683.661	9606.26
684.009	9597.9
684.357	9501.18
684.705	9444.68
685.053	9556.77
685.4	9559.48
685.748	9455.75
686.095	9455.53
686.443	9377.11
686.79	9354.51
687.138	9425.92
687.485	9471.57
687.832	9387.51
688.18	9410.11
688.527	9339.83
688.874	9334.18
689.221	9272.03
689.568	9255.31
689.915	9237.68
690.262	9182.54
690.609	9215.31
690.956	9191.13
691.303	9125.59
691.65	9135.08
691.997	9035.43
692.344	9052.83
692.69	9044.01
693.037	9002.43
693.383	8911.36
693.73	8991.13
694.077	8979.16
694.423	8890.35
694.769	8928.54
695.116	8891.25
695.462	8842.89
695.808	8857.8
696.155	8820.52
696.501	8765.15
696.847	8717.92
697.193	8691.03
697.539	8656
697.885	8630.92
698.231	8583.23
698.577	8586.62
698.923	8582.1
699.269	8553.86
699.614	8482.9
699.96	8472.28
700.306	8411.04
700.651	8390.02
700.997	8360.19
701.342	8350.7
701.688	8383.47
702.033	8381.66
702.379	8285.39
702.724	8277.71
703.069	8259.85
703.415	8186.86
703.76	8220.31
704.105	8169.46
704.45	8192.28
704.795	8135.34
705.14	8039.52
705.485	8059.41
705.83	8039.07
706.175	7992.52
706.52	7996.36
706.865	7931.73
707.209	7890.37
707.554	7886.98
707.899	7932.63
708.243	7884.5
708.588	7899.64
708.932	7814.44
709.277	7798.17
709.621	7806.76
709.966	7837.49
710.31	7816.93
710.654	7646.76
710.998	7677.27
711.342	7747.32
711.687	7712.98
712.031	7664.16
712.375	7606.76
712.719	7594.33
713.063	7611.28
713.407	7616.71
713.75	7563.37
714.094	7555.92
714.438	7530.61
714.782	7510.49
715.125	7494.22
715.469	7510.04
715.812	7442.7
716.156	7434.56
716.499	7452.42
716.843	7419.2
717.186	7417.62
717.53	7481.57
717.873	7416.71
718.216	7458.52
718.559	7367.9
718.902	7328.8
719.246	7342.14
719.589	7364.96
719.932	7305.3
720.275	7316.38
720.617	7296.71
720.96	7289.94
721.303	7310.5
721.646	7244.06
721.989	7166.77
722.331	7212.65
722.674	7260.78
723.016	7244.06
723.359	7221.69
723.701	7276.38
724.044	7189.37
724.386	7195.47
724.729	7153.22
725.071	7202.48
725.413	7177.62
725.755	7211.52
726.097	7127
726.439	7117.51
726.782	7114.8
727.124	7176.27
727.465	7193.67
727.807	7140.79
728.149	7087
728.491	7087.91
728.833	7148.92
729.175	7057.85
729.516	7060.56
729.858	7091.3
730.199	7128.58
730.541	7094.23
730.882	7033.67
731.224	7164.52
731.565	7058.08
731.906	7131.75
732.248	7059.66
732.589	7016.04
732.93	7052.43
733.271	7052.65
733.612	7044.52
733.953	7008.36
734.294	7067.12
734.635	7011.07
734.976	6995.48
735.317	6988.25
735.658	7030.28
735.999	6974.01
736.339	7038.19
736.68	6965.2
737.021	7025.76
737.361	7019.43
737.702	7043.84
738.042	6995.03
738.383	6999.1
738.723	7039.77
739.063	7015.14
739.404	7050.39
739.744	7055.82
740.084	7016.5
740.424	7031.19
740.764	7052.43
741.104	7057.63
741.444	7059.21
741.784	7016.04
742.124	7067.57
742.464	7046.1
742.804	7101.69
743.143	7045.2
743.483	7111.18
743.823	7046.1
744.162	7030.96
744.502	7059.21
744.841	7097.17
745.181	7153.89
745.52	7175.59
745.86	7180.56
746.199	7255.59
746.538	7208.81
746.877	7283.83
747.216	7298.75
747.556	7317.05
747.895	7300.1
748.234	7391.85
748.573	7365.41
748.911	7391.18
749.25	7437.05
749.589	7455.81
749.928	7497.84
750.267	7573.54
750.605	7554.56
750.944	7620.32
751.283	7698.96
751.621	7770.15
751.96	7757.27
752.298	7809.24
752.636	7895.57
752.975	7897.15
753.313	7948.22
753.651	8083.59
753.989	8136.69
754.327	8191.83
754.666	8211.27
755.004	8321.09
755.342	8398.61
755.679	8437.02
756.017	8506.63
756.355	8685.38
756.693	8678.83
757.031	8746.17
757.368	8848.31
757.706	8980.74
758.044	8981.87
758.381	9157
758.719	9240.84
759.056	9335.08
759.394	9384.34
759.731	9405.13
760.068	9574.85
760.405	9639.48
760.743	9734.84
761.08	9882.41
761.417	9918.11
761.754	10102.97
762.091	10160.59
762.428	10250.31
762.765	10319.69
763.102	10445.78
763.438	10593.13
763.775	10565.56
764.112	10719.45
764.449	10914.7
764.785	10901.82
765.122	10935.94
765.458	11065.43
