Data from hue_110_FLMS001491_00070.txt Node
Date: Tue Feb 07 17:01:41 GMT 2017
User: dcchb
Spectrometer: FLMS00149
Trigger mode: 0
Integration Time (sec): 2.000000E-2
Scans to average: 10
Electric dark correction enabled: true
Nonlinearity correction enabled: false
Boxcar width: 0
XAxis mode: Wavelengths
Number of Pixels in Spectrum: 2048
>>>>>Begin Spectral Data<<<<<
341.393	-2.23
341.776	-2.23
342.16	-2.23
342.543	-74.09
342.927	-64.15
343.31	-64.15
343.693	-74.09
344.077	-72.29
344.46	-59.86
344.843	-48.11
345.226	-46.3
345.61	-28.67
345.993	-35.23
346.376	5.23
346.759	32.57
347.142	18.78
347.525	29.41
347.908	60.82
348.291	77.99
348.674	96.07
349.057	107.82
349.44	146.92
349.823	136.75
350.206	186.46
350.588	210.64
350.971	212.45
351.354	229.4
351.737	243.19
352.119	252.23
352.502	262.17
352.884	288.61
353.267	295.84
353.65	286.35
354.032	315.95
354.414	310.75
354.797	318.21
355.179	316.18
355.562	341.04
355.944	320.7
356.326	331.09
356.709	352.56
357.091	330.19
357.473	337.19
357.855	369.96
358.238	343.52
358.62	333.13
359.002	349.85
359.384	333.35
359.766	362.96
360.148	357.53
360.53	328.16
360.912	340.13
361.294	349.17
361.676	342.39
362.057	340.13
362.439	328.83
362.821	347.14
363.203	339.23
363.584	340.13
363.966	314.14
364.348	332
364.729	336.74
365.111	333.35
365.493	324.09
365.874	320.7
366.256	313.01
366.637	328.83
367.019	314.6
367.4	303.98
367.781	316.63
368.163	305.1
368.544	327.7
368.925	313.01
369.306	333.35
369.688	314.37
370.069	320.25
370.45	303.75
370.831	345.33
371.212	314.37
371.593	330.87
371.974	317.31
372.355	319.57
372.736	328.16
373.117	328.83
373.498	316.63
373.879	341.04
374.26	314.82
374.641	297.42
375.021	318.44
375.402	338.32
375.783	331.32
376.163	325.9
376.544	341.71
376.925	346.46
377.305	318.21
377.686	315.73
378.066	329.29
378.447	330.42
378.827	335.16
379.208	344.65
379.588	329.51
379.968	331.32
380.349	356.18
380.729	350.53
381.109	333.58
381.489	352.34
381.87	354.14
382.25	342.39
382.63	358.89
383.01	328.38
383.39	357.08
383.77	344.43
384.15	362.05
384.53	341.94
384.91	355.95
385.29	341.04
385.67	367.93
386.049	346.01
386.429	339
386.809	345.33
387.189	366.12
387.568	375.61
387.948	369.74
388.328	379
388.707	368.15
389.087	367.25
389.466	385.55
389.846	362.73
390.225	382.39
390.605	376.29
390.984	384.42
391.363	373.35
391.743	379.45
392.122	390.07
392.501	379
392.881	379
393.26	363.63
393.639	379.91
394.018	383.97
394.397	396.85
394.776	379
395.155	400.02
395.534	374.93
395.913	392.79
396.292	386.46
396.671	413.8
397.05	406.12
397.429	405.22
397.808	389.85
398.186	406.8
398.565	411.99
398.944	411.09
399.323	421.26
399.701	413.58
400.08	423.52
400.458	399.79
400.837	411.54
401.215	419.45
401.594	425.55
401.972	409.51
402.351	417.19
402.729	443.18
403.107	429.4
403.486	426.46
403.864	444.99
404.242	413.35
404.62	423.07
404.999	434.82
405.377	438.66
405.755	436.85
406.133	423.97
406.511	438.66
406.889	434.82
407.267	456.06
407.645	462.84
408.023	464.87
408.401	467.13
408.779	430.98
409.156	452.67
409.534	448.83
409.912	462.39
410.29	478.43
410.667	472.33
411.045	491.31
411.422	477.76
411.8	481.6
412.178	496.29
412.555	485.67
412.933	496.96
413.31	489.28
413.687	509.85
414.065	508.72
414.442	493.57
414.819	513.91
415.197	520.01
415.574	494.93
415.951	519.56
416.328	521.82
416.705	517.3
417.082	529.05
417.46	522.05
417.837	520.92
418.214	526.34
418.591	541.93
418.967	519.79
419.344	560.47
419.721	538.55
420.098	525.89
420.475	572.67
420.852	551.65
421.228	559.56
421.605	544.87
421.982	574.7
422.358	571.31
422.735	567.47
423.111	565.44
423.488	573.57
423.864	588.49
424.241	607.7
424.617	602.95
424.994	590.07
425.37	594.36
425.746	591.43
426.123	612.44
426.499	608.37
426.875	627.36
427.251	621.25
427.627	612.67
428.003	639.33
428.379	663.29
428.756	664.42
429.132	658.54
429.507	647.47
429.883	675.04
430.259	670.29
430.635	664.87
431.011	671.2
431.387	684.08
431.763	703.74
432.138	696.73
432.514	707.13
432.89	700.12
433.265	716.17
433.641	714.36
434.016	714.81
434.392	752.78
434.767	758.43
435.143	769.05
435.518	769.5
435.894	748.71
436.269	787.13
436.644	783.28
437.02	778.54
437.395	792.1
437.77	787.8
438.145	811.08
438.52	828.03
438.895	826
439.271	827.8
439.646	834.13
440.021	834.81
440.395	850.4
440.77	823.06
441.145	838.42
441.52	857.41
441.895	861.93
442.27	859.44
442.645	851.98
443.019	877.97
443.394	856.95
443.769	894.47
444.143	890.17
444.518	891.76
444.892	899.67
445.267	904.86
445.641	908.48
446.016	930.17
446.39	920.23
446.764	914.58
447.139	915.94
447.513	930.63
447.887	953.45
448.262	929.04
448.636	964.52
449.01	964.75
449.384	968.59
449.758	970.17
450.132	969.95
450.506	980.12
450.88	1024.63
451.254	993.22
451.628	1013.56
452.002	1038.19
452.376	1038.19
452.75	1040.45
453.123	1039.77
453.497	1050.62
453.871	1061.7
454.244	1103.05
454.618	1092.43
454.992	1110.28
455.365	1136.5
455.739	1133.56
456.112	1124.97
456.486	1152.54
456.859	1166.1
457.232	1178.75
457.606	1179.88
457.979	1184.4
458.352	1192.99
458.725	1235.48
459.099	1244.97
459.472	1290.62
459.845	1293.1
460.218	1283.16
460.591	1325.42
460.964	1309.15
461.337	1375.59
461.71	1371.07
462.083	1378.07
462.456	1370.84
462.829	1399.09
463.201	1418.97
463.574	1433.21
463.947	1437.73
464.32	1502.14
464.692	1517.95
465.065	1506.88
465.438	1550.27
465.81	1558.18
466.183	1594.34
466.555	1625.97
466.928	1622.13
467.3	1650.15
467.672	1671.4
468.045	1708.23
468.417	1751.17
468.789	1763.6
469.161	1767.89
469.534	1820.77
469.906	1824.16
470.278	1866.42
470.65	1919.75
471.022	1957.49
471.394	1986.19
471.766	2064.15
472.138	2053.08
472.51	2104.83
472.882	2145.73
473.253	2205.62
473.625	2216.69
473.997	2263.47
474.369	2337.37
474.74	2346.41
475.112	2378.04
475.484	2485.61
475.855	2530.81
476.227	2561.54
476.598	2652.39
476.97	2660.75
477.341	2772.84
477.713	2874.98
478.084	2907.97
478.455	2994.75
478.827	3039.5
479.198	3175.09
479.569	3188.19
479.94	3329.88
480.311	3352.93
480.682	3493.95
481.053	3601.97
481.424	3664.34
481.795	3757.44
482.166	3865.01
482.537	3977.55
482.908	4068.62
483.279	4185
483.65	4297.32
484.021	4414.83
484.391	4492.57
484.762	4620.47
485.133	4671.32
485.503	4803.29
485.874	4986.34
486.244	5097.75
486.615	5210.29
486.985	5359.44
487.356	5541.13
487.726	5572.76
488.097	5770.05
488.467	5841.91
488.837	6099.98
489.207	6188.79
489.578	6324.38
489.948	6438.73
490.318	6586.97
490.688	6732.05
491.058	6861.09
491.428	7045.72
491.798	7119.16
492.168	7375.65
492.538	7514.18
492.908	7591.24
493.278	7791.69
493.648	7911.46
494.017	8086.37
494.387	8239.13
494.757	8278.91
495.126	8473.7
495.496	8486.58
495.866	8657.88
496.235	8815.39
496.605	8962.73
496.974	9051.77
497.344	9221.71
497.713	9278.2
498.082	9496.95
498.452	9602.94
498.821	9698.76
499.19	9785.31
499.559	9901.69
499.928	10125.19
500.298	10165.41
500.667	10351.62
501.036	10393.65
501.405	10472.75
501.774	10553.42
502.143	10696.02
502.512	10755.45
502.88	10897.82
503.249	10976.46
503.618	11092.84
503.987	11154.76
504.356	11260.3
504.724	11363.12
505.093	11428.2
505.462	11482.66
505.83	11607.41
506.199	11728.99
506.567	11942.54
506.936	11895.08
507.304	12013.72
507.672	12117.22
508.041	12172.14
508.409	12293.49
508.777	12389.53
509.145	12530.77
509.514	12508.17
509.882	12581.62
510.25	12594.05
510.618	12659.81
510.986	12772.57
511.354	12809.86
511.722	12960.37
512.09	13047.59
512.458	13008.05
512.826	13139.12
513.193	13226.35
513.561	13250.75
513.929	13393.35
514.297	13438.09
514.664	13456.62
515.032	13512.22
515.4	13628.14
515.767	13673.57
516.135	13723.06
516.502	13591.99
516.869	13759.44
517.237	13837.18
517.604	13873.56
517.972	13888.48
518.339	14037.17
518.706	13986.33
519.073	14073.1
519.44	14064.97
519.808	14261.8
520.175	14084.4
520.542	14361.46
520.909	14360.55
521.276	14343.83
521.643	14488.23
522.009	14516.03
522.376	14535.92
522.743	14673.77
523.11	14685.74
523.477	14755.57
523.843	14828.11
524.21	14905.63
524.577	14919.41
524.943	14930.71
525.31	14937.26
525.676	15083.02
526.043	15142.91
526.409	15132.96
526.776	15288.44
527.142	15235.56
527.508	15148.78
527.874	15317.82
528.241	15342.9
528.607	15364.6
528.973	15396.46
529.339	15370.47
529.705	15414.54
530.071	15429.23
530.437	15503.35
530.803	15518.04
531.169	15550.58
531.535	15428.78
531.901	15437.59
532.267	15490.92
532.632	15537.47
532.998	15568.43
533.364	15609.11
533.73	15478.04
534.095	15604.36
534.461	15598.26
534.826	15577.7
535.192	15605.04
535.557	15619.96
535.923	15657.47
536.288	15529.79
536.653	15563.69
537.019	15383.13
537.384	15514.65
537.749	15365.73
538.114	15499.51
538.479	15515.1
538.845	15387.65
539.21	15374.31
539.575	15461.32
539.94	15428.32
540.305	15429.68
540.67	15369.34
541.034	15339.51
541.399	15379.74
541.764	15342.22
542.129	15254.09
542.494	15280.98
542.858	15330.47
543.223	15202.57
543.587	15277.82
543.952	15203.92
544.316	15266.75
544.681	15067.43
545.045	15101.1
545.41	15163.7
545.774	15075.34
546.138	14972.97
546.503	15046.86
546.867	14876.7
547.231	14997.6
547.595	15005.28
547.959	14935.23
548.324	14941.33
548.688	14866.3
549.052	14916.02
549.416	14886.64
549.779	14793.31
550.143	14725.52
550.507	14787.21
550.871	14789.24
551.235	14734.1
551.599	14752.63
551.962	14718.74
552.326	14687.1
552.689	14729.36
553.053	14712.18
553.417	14619.3
553.78	14786.76
554.143	14582.47
554.507	14714.9
554.87	14534.11
555.234	14678.29
555.597	14592.19
555.96	14512.87
556.323	14528.69
556.686	14508.8
557.05	14546.31
557.413	14504.96
557.776	14509.25
558.139	14587.89
558.502	14518.52
558.865	14556.48
559.228	14625.18
559.59	14611.85
559.953	14550.15
560.316	14594.45
560.679	14567.55
561.041	14654.78
561.404	14699.75
561.767	14673.09
562.129	14565.97
562.492	14676.03
562.854	14607.55
563.217	14554.22
563.579	14609.59
563.941	14715.12
564.304	14763.03
564.666	14679.19
565.028	14725.52
565.39	14669.25
565.753	14711.96
566.115	14804.61
566.477	14838.51
566.839	14828.34
567.201	14969.35
567.563	14951.27
567.925	14962.8
568.287	14856.59
568.648	14915.79
569.01	14902.91
569.372	15011.61
569.734	14930.48
570.095	15019.97
570.457	14939.52
570.819	15065.85
571.18	14960.99
571.542	15061.78
571.903	15120.08
572.265	15127.77
572.626	15102.91
572.987	15132.74
573.349	15126.18
573.71	15099.52
574.071	15219.52
574.432	15216.58
574.794	15288.89
575.155	15214.32
575.516	15229.68
575.877	15165.51
576.238	15236.01
576.599	15234.2
576.96	15229.68
577.32	15253.86
577.681	15264.49
578.042	15297.25
578.403	15309.68
578.763	15282.11
579.124	15233.75
579.485	15321.43
579.845	15431.94
580.206	15294.99
580.566	15296.35
580.927	15333.86
581.287	15339.06
581.648	15192.62
582.008	15282.79
582.368	15265.62
582.728	15302.68
583.089	15170.02
583.449	15211.38
583.809	15247.99
584.169	15299.96
584.529	15218.61
584.889	15305.84
585.249	15231.04
585.609	15142.23
585.969	15256.8
586.329	15178.16
586.688	15250.7
587.048	15135.68
587.408	15253.41
587.768	15164.15
588.127	15247.31
588.487	15082.8
588.846	15178.39
589.206	15125.28
589.565	15056.58
589.925	15145.39
590.284	15094.09
590.643	15025.4
591.003	15090.93
591.362	15129.12
591.721	15101.1
592.08	15010.48
592.44	15203.7
592.799	15084.38
593.158	15079.18
593.517	14979.07
593.876	15132.06
594.235	15078.5
594.593	15011.61
594.952	14969.58
595.311	14950.82
595.67	15002.8
596.029	15091.61
596.387	15074.66
596.746	15076.47
597.104	14960.54
597.463	14986.75
597.822	15006.64
598.18	14895.91
598.538	14939.3
598.897	15024.04
599.255	14883.93
599.613	15095.45
599.972	14916.7
600.33	15022.46
600.688	14884.16
601.046	14974.55
601.404	15055.45
601.762	14944.95
602.12	15008.67
602.478	15011.16
602.836	15044.83
603.194	14949.01
603.552	14972.06
603.91	14863.82
604.268	14852.07
604.625	14876.47
604.983	15088.9
605.341	14879.86
605.698	14979.3
606.056	15010.71
606.413	15046.86
606.771	14989.69
607.128	15035.34
607.485	14980.2
607.843	14994.21
608.2	14955.34
608.557	15117.6
608.914	15081.21
609.272	15106.07
609.629	15073.76
609.986	15070.14
610.343	15033.31
610.7	15097.94
611.057	15130.48
611.414	15123.02
611.771	15100.87
612.127	15137.03
612.484	15105.85
612.841	15145.84
613.198	15172.74
613.554	15168.67
613.911	15210.93
614.267	15121.66
614.624	15223.58
614.98	15247.31
615.337	15329.12
615.693	15283.24
616.05	15242.57
616.406	15324.37
616.762	15273.98
617.118	15267.2
617.475	15334.31
617.831	15356.23
618.187	15405.27
618.543	15419.06
618.899	15448.44
619.255	15368.44
619.611	15399.17
619.967	15413.18
620.323	15491.6
620.678	15316.01
621.034	15379.96
621.39	15441.43
621.746	15380.87
622.101	15498.83
622.457	15372.05
622.812	15438.04
623.168	15515.1
623.523	15374.99
623.879	15475.55
624.234	15362.56
624.589	15386.06
624.945	15468.32
625.3	15508.77
625.655	15389.45
626.01	15370.25
626.365	15500.86
626.72	15440.53
627.075	15444.37
627.43	15407.08
627.785	15382.22
628.14	15340.87
628.495	15454.09
628.85	15400.08
629.205	15435.55
629.559	15366.63
629.914	15319.4
630.269	15292.51
630.623	15308.78
630.978	15191.95
631.332	15325.5
631.687	15416.12
632.041	15228.33
632.396	15320.08
632.75	15219.97
633.104	15207.54
633.459	15214.32
633.813	15192.4
634.167	15137.48
634.521	15139.07
634.875	15191.04
635.229	15114.89
635.583	15062.23
635.937	15078.5
636.291	15093.42
636.645	15095.9
636.999	15015.9
637.352	15071.95
637.706	14994.66
638.06	14978.39
638.413	14983.14
638.767	14948.34
639.121	14986.3
639.474	14826.53
639.828	14919.64
640.181	14939.75
640.534	14953.31
640.888	14864.27
641.241	14751.28
641.594	14875.12
641.947	14876.47
642.301	14745.18
642.654	14876.47
643.007	14788.34
643.36	14762.13
643.713	14763.03
644.066	14785.85
644.419	14759.64
644.771	14669.25
645.124	14537.27
645.477	14466.99
645.83	14378.41
646.182	14390.84
646.535	14262.48
646.888	14406.2
647.24	14266.09
647.593	14299.99
647.945	14300.22
648.298	14259.31
648.65	14190.62
649.002	14219.32
649.355	14238.3
649.707	14256.38
650.059	14375.47
650.411	14565.07
650.763	14504.96
651.115	14586.99
651.467	14599.42
651.819	14662.02
652.171	14583.83
652.523	14580.66
652.875	14507.67
653.227	14426.54
653.578	14625.41
653.93	14584.5
654.282	14489.82
654.633	14459.08
654.985	14508.12
655.337	14556.48
655.688	14509.7
656.039	14684.84
656.391	14500.89
656.742	14535.69
657.094	14528.69
657.445	14610.94
657.796	14595.12
658.147	14625.18
658.498	14600.77
658.849	14580.89
659.2	14550.61
659.551	14522.36
659.902	14680.77
660.253	14568.46
660.604	14649.36
660.955	14604.39
661.306	14619.76
661.656	14563.71
662.007	14586.76
662.358	14659.08
662.708	14598.97
663.059	14715.35
663.409	14568.23
663.76	14611.62
664.11	14660.89
664.461	14616.82
664.811	14668.8
665.161	14633.99
665.511	14673.77
665.862	14584.28
666.212	14664.28
666.562	14609.59
666.912	14680.32
667.262	14650.26
667.612	14607.1
667.962	14723.03
668.312	14593.09
668.662	14650.49
669.011	14623.6
669.361	14595.58
669.711	14594.45
670.06	14580.89
670.41	14618.85
670.76	14625.86
671.109	14625.18
671.459	14504.51
671.808	14516.03
672.157	14574.33
672.507	14535.92
672.856	14622.24
673.205	14487.33
673.554	14534.79
673.904	14480.1
674.253	14515.8
674.602	14507.9
674.951	14326.88
675.3	14213.67
675.649	14379.09
675.998	14353.78
676.346	14407.33
676.695	14461.12
677.044	14301.35
677.393	14405.98
677.741	14434.22
678.09	14264.29
678.438	14262.03
678.787	14325.98
679.135	14340.89
679.484	14178.64
679.832	14182.93
680.181	14233.55
680.529	14155.14
680.877	14170.28
681.225	14104.29
681.573	14226.77
681.922	14132.54
682.27	14057.74
682.618	14106.78
682.966	14069.49
683.314	14019.55
683.661	14010.28
684.009	13921.24
684.357	13894.58
684.705	13875.82
685.053	13916.95
685.4	13858.42
685.748	13799.44
686.095	13811.42
686.443	13750.4
686.79	13736.84
687.138	13768.03
687.485	13696.17
687.832	13707.92
688.18	13660.23
688.527	13605.09
688.874	13559.9
689.221	13472.89
689.568	13512.67
689.915	13480.8
690.262	13481.93
690.609	13443.06
690.956	13284.42
691.303	13362.61
691.65	13221.38
691.997	13185.44
692.344	13156.97
692.69	13122.17
693.037	13102.51
693.383	12941.16
693.73	13065.22
694.077	12920.37
694.423	12921.95
694.769	12890.54
695.116	12818.22
695.462	12727.83
695.808	12628.62
696.155	12715.4
696.501	12582.52
696.847	12642.18
697.193	12561.73
697.539	12552.92
697.885	12535.74
698.231	12391.11
698.577	12335.75
698.923	12288.52
699.269	12315.41
699.614	12260.95
699.96	12243.77
700.306	12174.4
700.651	12109.31
700.997	12065.02
701.342	12108.64
701.688	12025.47
702.033	12021.18
702.379	11987.74
702.724	11934.18
703.069	11960.17
703.415	11876.1
703.76	11694.86
704.105	11765.37
704.45	11758.82
704.795	11642.66
705.14	11668.2
705.485	11617.58
705.83	11517.69
706.175	11498.71
706.52	11440.63
706.865	11437.69
707.209	11425.49
707.554	11397.69
707.899	11408.54
708.243	11227.98
708.588	11237.92
708.932	11185.04
709.277	11261.88
709.621	11165.38
709.966	11067.99
710.31	11149.57
710.654	11028.89
710.998	11040.19
711.342	11087.87
711.687	10977.82
712.031	10882.23
712.375	10870.93
712.719	10880.19
713.063	10947.31
713.407	10944.15
713.75	10889.69
714.094	10840.2
714.438	10859.4
714.782	10838.16
715.125	10779.41
715.469	10766.07
715.812	10764.49
716.156	10644.95
716.499	10695.11
716.843	10688.11
717.186	10643.59
717.53	10670.48
717.873	10617.38
718.216	10634.32
718.559	10611.05
718.902	10528.34
719.246	10498.28
719.589	10504.84
719.932	10446.31
720.275	10541.67
720.617	10512.75
720.96	10462.13
721.303	10486.98
721.646	10485.63
721.989	10420.32
722.331	10477.04
722.674	10477.72
723.016	10505.74
723.359	10376.7
723.701	10372.86
724.044	10364.05
724.386	10266.42
724.729	10404.73
725.071	10333.09
725.413	10247.22
725.755	10260.78
726.097	10236.37
726.439	10178.74
726.782	10231.62
727.124	10270.49
727.465	10206.09
727.807	10230.27
728.149	10202.02
728.491	10217.61
728.833	10284.05
729.175	10129.48
729.516	10202.92
729.858	10143.49
730.199	10169.03
730.541	10174.22
730.882	10089.71
731.224	10193.21
731.565	10149.59
731.906	10163.38
732.248	10187.56
732.589	10103.04
732.93	10068.24
733.271	10132.87
733.612	10105.07
733.953	10132.87
734.294	10141.46
734.635	10084.96
734.976	10115.69
735.317	10102.81
735.658	10133.32
735.999	10154.56
736.339	10142.13
736.68	10188.01
737.021	10142.36
737.361	10101.91
737.702	10180.33
738.042	10125.64
738.383	10121.34
738.723	10130.16
739.063	10162.7
739.404	10212.19
739.744	10165.86
740.084	10201.34
740.424	10218.74
740.764	10226.2
741.104	10195.69
741.444	10267.33
741.784	10226.65
742.124	10287.89
742.464	10219.87
742.804	10314.56
743.143	10279.98
743.483	10380.32
743.823	10338.74
744.162	10305.75
744.502	10422.35
744.841	10413.77
745.181	10503.25
745.52	10514.1
745.86	10644.72
746.199	10540.77
746.538	10613.08
746.877	10636.13
747.216	10742.8
747.556	10676.13
747.895	10786.41
748.234	10809.46
748.573	10871.83
748.911	10979.85
749.25	11026.18
749.589	11012.62
749.928	11181.66
750.267	11240.64
750.605	11276.79
750.944	11272.05
751.283	11410.12
751.621	11465.49
751.96	11587.97
752.298	11651.7
752.636	11761.53
752.975	11855.08
753.313	11858.7
753.651	12196.32
753.989	12121.29
754.327	12197.67
754.666	12341.4
755.004	12391.79
755.342	12626.36
755.679	12741.16
756.017	12828.17
