Data from hue_40_FLMS001491_84.txt Node
Date: Mon Feb 06 15:08:40 GMT 2017
User: dcchb
Spectrometer: FLMS00149
Trigger mode: 0
Integration Time (sec): 2.000000E-2
Scans to average: 10
Electric dark correction enabled: true
Nonlinearity correction enabled: false
Boxcar width: 0
XAxis mode: Wavelengths
Number of Pixels in Spectrum: 2048
>>>>>Begin Spectral Data<<<<<
341.393	27.65
341.776	27.65
342.16	27.65
342.543	-61.83
342.927	-61.83
343.31	-74.04
343.693	-79.69
344.077	-68.16
344.46	-50.54
344.843	-49.86
345.226	-50.31
345.61	-37.88
345.993	-16.41
346.376	2.12
346.759	4.38
347.142	30.37
347.525	29.91
347.908	58.61
348.291	98.61
348.674	88.9
349.057	113.98
349.44	124.83
349.823	130.93
350.206	177.71
350.588	199.4
350.971	206.63
351.354	201.21
351.737	223.58
352.119	241.66
352.502	275.78
352.884	258.61
353.267	254.54
353.65	282.34
354.032	312.84
354.414	309.23
354.797	313.3
355.179	327.08
355.562	319.4
355.944	337.03
356.326	334.99
356.709	332.73
357.091	324.82
357.473	345.61
357.855	353.07
358.238	367.08
358.62	336.8
359.002	357.59
359.384	346.52
359.766	334.09
360.148	337.03
360.53	353.75
360.912	353.07
361.294	342
361.676	337.48
362.057	337.03
362.439	302.9
362.821	316.91
363.203	326.18
363.584	314.43
363.966	311.71
364.348	315.33
364.729	327.08
365.111	320.75
365.493	346.29
365.874	343.8
366.256	318.72
366.637	312.17
367.019	305.39
367.4	316.01
367.781	336.12
368.163	306.07
368.544	311.26
368.925	319.17
369.306	323.24
369.688	323.24
370.069	329.12
370.45	311.71
370.831	321.66
371.212	294.54
371.593	328.21
371.974	320.75
372.355	330.25
372.736	301.09
373.117	316.91
373.498	320.08
373.879	326.63
374.26	324.14
374.641	310.81
375.021	346.06
375.402	331.38
375.783	339.96
376.163	339.06
376.544	319.85
376.925	334.31
377.305	344.26
377.686	334.54
378.066	312.17
378.447	349.45
378.827	330.7
379.208	351.04
379.588	325.27
379.968	333.41
380.349	339.51
380.729	355.78
381.109	325.05
381.489	326.63
381.87	349.23
382.25	346.52
382.63	332.28
383.01	330.7
383.39	335.44
383.77	361.21
384.15	353.75
384.53	348.78
384.91	359.62
385.29	346.06
385.67	364.59
386.049	379.51
386.429	345.39
386.809	374.09
387.189	360.98
387.568	357.14
387.948	368.21
388.328	351.26
388.707	366.4
389.087	350.58
389.466	370.92
389.846	365.5
390.225	375.89
390.605	387.19
390.984	373.63
391.363	371.6
391.743	377.7
392.122	377.48
392.501	383.35
392.881	384.93
393.26	383.58
393.639	376.57
394.018	385.61
394.397	389.68
394.776	376.8
395.155	388.32
395.534	382.45
395.913	379.74
396.292	387.42
396.671	397.59
397.05	379.96
397.429	396.46
397.808	387.19
398.186	399.17
398.565	386.97
398.944	396.46
399.323	378.38
399.701	408.44
400.08	397.36
400.458	405.72
400.837	418.15
401.215	392.84
401.594	411.15
401.972	418.15
402.351	394.88
402.729	408.44
403.107	406.63
403.486	417.7
403.864	418.6
404.242	414.76
404.62	406.85
404.999	407.98
405.377	425.16
405.755	428.55
406.133	442.56
406.511	432.39
406.889	447.98
407.267	435.55
407.645	432.16
408.023	443.69
408.401	446.17
408.779	426.51
409.156	463.58
409.534	478.72
409.912	466.97
410.29	451.6
410.667	456.34
411.045	453.86
411.422	492.95
411.8	501.54
412.178	450.47
412.555	483.69
412.933	472.84
413.31	490.24
413.687	495.44
414.065	496.79
414.442	486.17
414.819	472.84
415.197	487.76
415.574	482.56
415.951	520.52
416.328	511.03
416.705	513.74
417.082	504.7
417.46	514.42
417.837	508.55
418.214	528.21
418.591	530.01
418.967	503.35
419.344	531.6
419.721	542.67
420.098	529.34
420.475	542.67
420.852	541.77
421.228	535.44
421.605	551.03
421.982	541.09
422.358	551.03
422.735	550.13
423.111	564.59
423.488	544.7
423.864	557.81
424.241	574.76
424.617	575.66
424.994	582.67
425.37	569.11
425.746	573.4
426.123	576.57
426.499	564.59
426.875	585.61
427.251	562.1
427.627	596.45
428.003	614.31
428.379	612.72
428.756	616.34
429.132	607.98
429.507	623.57
429.883	617.24
430.259	649.33
430.635	632.61
431.011	651.82
431.387	646.85
431.763	664.02
432.138	682.55
432.514	652.5
432.89	657.92
433.265	675.77
433.641	671.93
434.016	682.1
434.392	688.65
434.767	678.03
435.143	715.09
435.518	714.64
435.894	711.7
436.269	725.26
436.644	724.13
437.02	734.08
437.395	765.26
437.77	721.87
438.145	720.07
438.52	749.22
438.895	769.78
439.271	747.86
439.646	765.49
440.021	762.32
440.395	778.37
440.77	780.4
441.145	787.18
441.52	789.67
441.895	796.45
442.27	774.98
442.645	808.43
443.019	825.15
443.394	799.16
443.769	822.44
444.143	806.17
444.518	814.75
444.892	823.11
445.267	857.24
445.641	847.29
446.016	866.05
446.39	857.92
446.764	868.99
447.139	867.41
447.513	857.24
447.887	868.76
448.262	885.71
448.636	869.44
449.01	886.84
449.384	877.35
449.758	888.65
450.132	897.01
450.506	917.12
450.88	944.92
451.254	897.46
451.628	893.39
452.002	920.29
452.376	949.66
452.75	954.41
453.123	926.84
453.497	955.99
453.871	976.33
454.244	974.52
454.618	1004.13
454.992	1015.65
455.365	1002.54
455.739	1024.92
456.112	1040.28
456.486	1049.32
456.859	1050.45
457.232	1070.34
457.606	1079.6
457.979	1079.15
458.352	1083.67
458.725	1109.21
459.099	1116.67
459.472	1129.55
459.845	1152.82
460.218	1149.66
460.591	1140.62
460.964	1195.53
461.337	1205.7
461.71	1206.83
462.083	1210.22
462.456	1246.38
462.829	1247.28
463.201	1271.46
463.574	1257.45
463.947	1300.84
464.32	1312.82
464.692	1310.56
465.065	1322.76
465.438	1347.17
465.81	1328.86
466.183	1381.07
466.555	1389.65
466.928	1422.19
467.3	1414.74
467.672	1471.46
468.045	1488.63
468.417	1471.68
468.789	1482.76
469.161	1511.23
469.534	1555.3
469.906	1563.21
470.278	1581.74
470.65	1612.25
471.022	1654.05
471.394	1711.9
471.766	1711.45
472.138	1726.82
472.51	1763.88
472.882	1811.79
473.253	1832.58
473.625	1831.45
473.997	1868.28
474.369	1945.34
474.74	1961.62
475.112	1977.21
475.484	2060.37
475.855	2096.75
476.227	2120.71
476.598	2153.25
476.97	2223.3
477.341	2255.39
477.713	2337.2
478.084	2356.63
478.455	2400.47
478.827	2484.09
479.198	2538.78
479.569	2566.34
479.94	2676.4
480.311	2708.26
480.682	2766.57
481.053	2845.66
481.424	2955.94
481.795	3001.36
482.166	3090.62
482.537	3188.02
482.908	3205.42
483.279	3280.45
483.65	3369.71
484.021	3472.99
484.391	3507.56
484.762	3588.92
485.133	3691.74
485.503	3778.06
485.874	3889.7
486.244	3957.95
486.615	4071.39
486.985	4185.74
487.356	4240.88
487.726	4312.74
488.097	4475.67
488.467	4517.03
488.837	4666.18
489.207	4750.92
489.578	4826.62
489.948	4955.21
490.318	5060.29
490.688	5100.29
491.058	5215.54
491.428	5343.67
491.798	5461.18
492.168	5591.8
492.538	5650.33
492.908	5757.22
493.278	5906.37
493.648	5989.31
494.017	6074.73
494.387	6174.84
494.757	6241.73
495.126	6399.92
495.496	6497.09
495.866	6567.14
496.235	6669.97
496.605	6738.44
496.974	6764.2
497.344	7034.48
497.713	6983.4
498.082	7131.42
498.452	7226.79
498.821	7297.29
499.19	7399.66
499.559	7573.22
499.928	7599.66
500.298	7679.66
500.667	7824.74
501.036	7872.87
501.405	8037.84
501.774	8008.46
502.143	8102.24
502.512	8190.15
502.88	8296.14
503.249	8316.02
503.618	8475.79
503.987	8583.81
504.356	8575.9
504.724	8639.41
505.093	8775
505.462	8833.98
505.83	8952.62
506.199	9003.46
506.567	9122.78
506.936	9164.82
507.304	9251.59
507.672	9330.23
508.041	9412.72
508.409	9472.6
508.777	9594.18
509.145	9590.57
509.514	9686.84
509.882	9733.39
510.25	9824.69
510.618	9896.77
510.986	9955.76
511.354	10105.58
511.722	10153.94
512.09	10248.63
512.458	10313.94
512.826	10417.44
513.193	10461.28
513.561	10518.23
513.929	10543.08
514.297	10745.79
514.664	10752.34
515.032	10828.95
515.4	10896.97
515.767	10858.1
516.135	11061.26
516.502	10975.16
516.869	11197.08
517.237	11254.25
517.604	11253.12
517.972	11375.6
518.339	11411.76
518.706	11452.21
519.073	11498.09
519.44	11635.71
519.808	11641.81
520.175	11693.34
520.542	11902.14
520.909	11950.96
521.276	11963.39
521.643	12058.52
522.009	12196.37
522.376	12291.51
522.743	12325.18
523.11	12389.59
523.477	12518.85
523.843	12670.49
524.21	12758.62
524.577	12769.92
524.943	12853.98
525.31	12957.03
525.676	13029.35
526.043	13088.1
526.409	13158.83
526.776	13247.87
527.142	13330.36
527.508	13381.2
527.874	13599.05
528.241	13655.32
528.607	13647.86
528.973	13788.65
529.339	13865.71
529.705	13913.39
530.071	13968.53
530.437	14082.43
530.803	14131.69
531.169	14244
531.535	14197.23
531.901	14399.25
532.267	14316.32
532.632	14509.31
532.998	14461.63
533.364	14591.34
533.73	14653.26
534.095	14773.93
534.461	14787.27
534.826	14930.54
535.192	14879.24
535.557	15043.76
535.923	14970.99
536.288	15091.21
536.653	15243.07
537.019	15211.21
537.384	15288.95
537.749	15373.47
538.114	15345.67
538.479	15372.56
538.845	15516.51
539.21	15542.05
539.575	15686.45
539.94	15746.56
540.305	15788.14
540.67	15747.24
541.034	15825.66
541.399	15915.82
541.764	15915.82
542.129	15998.31
542.494	16060
542.858	16087.12
543.223	16117.63
543.587	16309.94
543.952	16343.84
544.316	16401.01
544.681	16424.96
545.045	16466.32
545.41	16674.67
545.774	16632.64
546.138	16649.82
546.503	16760.77
546.867	16695.46
547.231	16873.99
547.595	16947.66
547.959	17003.48
548.324	16996.93
548.688	17080.99
549.052	17139.52
549.416	17142.01
549.779	17224.94
550.143	17200.08
550.507	17374.09
550.871	17524.14
551.235	17412.06
551.599	17561.66
551.962	17630.81
552.326	17689.56
552.689	17752.61
553.053	17705.83
553.417	17741.31
553.78	17999.39
554.143	17972.49
554.507	17983.11
554.87	18049.33
555.234	18187.18
555.597	18039.61
555.96	18364.57
556.323	18337.68
556.686	18391.01
557.05	18407.28
557.413	18504.91
557.776	18554.85
558.139	18699.71
558.502	18817.44
558.865	18772.47
559.228	18887.72
559.59	18893.15
559.953	18941.96
560.316	19148.51
560.679	19175.4
561.041	19317.09
561.404	19321.84
561.767	19439.12
562.129	19379.91
562.492	19532.23
562.854	19579.46
563.217	19641.15
563.579	19687.25
563.941	19899
564.304	19872.1
564.666	19971.31
565.028	19941.93
565.39	20121.59
565.753	20132.21
566.115	20198.88
566.477	20362.26
566.839	20431.41
567.201	20524.29
567.563	20582.82
567.925	20658.98
568.287	20729.94
568.648	20708.92
569.01	20915.69
569.372	21029.81
569.734	20962.02
570.095	21110.94
570.457	21178.06
570.819	21324.5
571.18	21288.56
571.542	21459.86
571.903	21467.99
572.265	21678.61
572.626	21639.52
572.987	21794.77
573.349	21877.02
573.71	21920.86
574.071	22044.48
574.432	22074.76
574.794	22245.38
575.155	22244.92
575.516	22332.6
575.877	22548.42
576.238	22705.02
576.599	22654.86
576.96	22834.74
577.32	22856.66
577.681	23053.04
578.042	23122.19
578.403	23268.17
578.763	23292.58
579.124	23369.41
579.485	23562.63
579.845	23692.8
580.206	23843.07
580.566	24039.9
580.927	24057.76
581.287	24313.57
581.648	24357.18
582.008	24581.81
582.368	24753.56
582.728	24824.74
583.089	24885.98
583.449	24979.54
583.809	25251.62
584.169	25521.67
584.529	25478.74
584.889	25920.08
585.249	25855
585.609	26005.28
585.969	26359.17
586.329	26388.32
586.688	26591.02
587.048	26626.73
587.408	26815.88
587.768	27078.47
588.127	27233.72
588.487	27320.5
588.846	27720.71
589.206	27691.56
589.565	27984.43
589.925	28062.4
590.284	28333.13
590.643	28508.94
591.003	28764.07
591.362	29009.94
591.721	29109.6
592.08	29299.88
592.44	29465.3
592.799	29672.07
593.158	29832.75
593.517	29942.8
593.876	30207.88
594.235	30250.59
594.593	30558.83
594.952	30694.42
595.311	30794.3
595.67	31024.13
596.029	31314.52
596.387	31538.46
596.746	31811.23
597.104	31658.91
597.463	31796.31
597.822	32068.39
598.18	32098.45
598.538	32235.4
598.897	32639
599.255	32438.33
599.613	33065.88
599.972	32916.96
600.33	33211.19
600.688	33247.8
601.046	33445.98
601.404	33738.63
601.762	33713.77
602.12	33932.53
602.478	34061.11
602.836	34239.41
603.194	34267.21
603.552	34298.17
603.91	34391.95
604.268	34637.14
604.625	34800.3
604.983	34947.41
605.341	34953.97
605.698	35344.24
606.056	35299.72
606.413	35509.43
606.771	35653.61
607.128	35787.62
607.485	35672.14
607.843	35833.27
608.2	36140.6
608.557	36230.77
608.914	36313.93
609.272	36508.05
609.629	36548.28
609.986	36750.98
610.343	36648.39
610.7	36964.08
611.057	36996.4
611.414	37000.92
611.771	37162.27
612.127	37283.85
612.484	37404.75
612.841	37595.48
613.198	37585.09
613.554	37703.73
613.911	37974
614.267	37980.1
614.624	37915.25
614.98	38173.32
615.337	38347.1
615.693	38170.61
616.05	38275.69
616.406	38490.37
616.762	38416.93
617.118	38488.11
617.475	38587.32
617.831	38669.35
618.187	38863.92
618.543	39065.72
618.899	39164.25
619.255	39118.6
619.611	39170.81
619.967	39434.08
620.323	39404.02
620.678	39356.11
621.034	39290.58
621.39	39392.72
621.746	39246.28
622.101	39818.7
622.457	39513.62
622.812	39678.59
623.168	39796.1
623.523	39873.39
623.879	39821.64
624.234	39555.2
624.589	39925.36
624.945	39850.79
625.3	40031.8
625.655	39907.51
626.01	40051.24
626.365	40121.29
626.72	40088.52
627.075	40046.26
627.43	40074.74
627.785	39985.93
628.14	40143.44
628.495	40159.48
628.85	40213.04
629.205	40054.62
629.559	40284.68
629.914	40087.84
630.269	40306.6
630.623	40171.01
630.978	39944.8
631.332	40247.61
631.687	40255.07
632.041	40262.53
632.396	40135.53
632.75	40044
633.104	40288.52
633.459	39865.48
633.813	39921.07
634.167	39847.62
634.521	40102.31
634.875	40072.25
635.229	40036.55
635.583	39853.95
635.937	39884.69
636.291	39892.6
636.645	39781.86
636.999	39819.38
637.352	39933.95
637.706	39705.71
638.06	39998.81
638.413	39741.64
638.767	39762.43
639.121	39790.9
639.474	39657.35
639.828	39578.25
640.181	39637.46
640.534	39862.09
640.888	39614.64
641.241	39455.09
641.594	39645.6
641.947	39615.99
642.301	39632.49
642.654	39517.46
643.007	39598.14
643.36	39480.4
643.713	39442.66
644.066	39623.68
644.419	39380.97
644.771	39122.9
645.124	38949.34
645.477	38712.51
645.83	38423.48
646.182	38261
646.535	38292.64
646.888	38355.23
647.24	38065.3
647.593	38238.4
647.945	38232.07
648.298	37959.76
648.65	37998.41
649.002	37917.05
649.355	38190.72
649.707	37922.25
650.059	38202.7
650.411	38463.93
650.763	38760.87
651.115	39057.36
651.467	38784.83
651.819	38769.46
652.171	38795.45
652.523	38763.59
652.875	38697.82
653.227	38395.46
653.578	38849.01
653.93	38571.27
654.282	38548.68
654.633	38488.56
654.985	38517.04
655.337	38538.73
655.688	38523.59
656.039	38543.48
656.391	38301
656.742	38359.75
657.094	38488.11
657.445	38572.86
657.796	38519.3
658.147	38323.37
658.498	38426.42
658.849	38478.62
659.2	38460.54
659.551	38371.96
659.902	38480.2
660.253	38398.17
660.604	38369.92
660.955	38259.42
661.306	38413.54
661.656	38217.84
662.007	38272.98
662.358	38289.02
662.708	38244.5
663.059	38207.89
663.409	37895.36
663.76	38273.65
664.11	38202.02
664.461	38269.14
664.811	38239.76
665.161	38343.26
665.511	38241.79
665.862	38194.11
666.212	38316.82
666.562	38363.37
666.912	38127.22
667.262	38271.85
667.612	38168.35
667.962	38227.78
668.312	38092.42
668.662	38340.09
669.011	38132.42
669.361	38174.22
669.711	38086.31
670.06	37960.44
670.41	37987.79
670.76	38037.05
671.109	38062.36
671.459	38017.39
671.808	38009.03
672.157	38038.41
672.507	37705.31
672.856	37845.19
673.205	37870.95
673.554	37953.44
673.904	37816.27
674.253	38085.41
674.602	37874.8
674.951	37341.7
675.3	37192.55
675.649	37726.78
675.998	37774.01
676.346	37639.32
676.695	37783.5
677.044	37594.58
677.393	37670.73
677.741	37591.19
678.09	37625.99
678.438	37350.06
678.787	37490.85
679.135	37621.92
679.484	37333.79
679.832	37440.46
680.181	37146.45
680.529	37338.99
680.877	37227.35
681.225	37200.46
681.573	37423.73
681.922	37064.65
682.27	36902.62
682.618	37068.04
682.966	37035.27
683.314	36982.39
683.661	36842.73
684.009	36725.67
684.357	36543.98
684.705	36518.45
685.053	36733.36
685.4	36551.21
685.748	36486.58
686.095	36435.51
686.443	36348.51
686.79	36393.7
687.138	36376.08
687.485	36259.7
687.832	36156.42
688.18	36149.42
688.527	35881.85
688.874	35850.67
689.221	35777.45
689.568	35743.78
689.915	35750.56
690.262	35845.02
690.609	35724.8
690.956	35655.87
691.303	35396.44
691.65	35385.82
691.997	35346.5
692.344	35165.49
692.69	35215.43
693.037	35129.1
693.383	34999.16
693.73	35028.32
694.077	34777.25
694.423	34781.77
694.769	34638.5
695.116	34613.19
695.462	34675.33
695.808	34214.1
696.155	34611.6
696.501	34256.59
696.847	34144.27
697.193	33983.15
697.539	34068.57
697.885	33834
698.231	33652.53
698.577	33733.21
698.923	33684.4
699.269	33588.81
699.614	33319.21
699.96	33277.4
700.306	33350.62
700.651	33201.02
700.997	33070.4
701.342	33009.39
701.688	33018.65
702.033	32803.74
702.379	32954.47
702.724	32661.37
703.069	32794.48
703.415	32427.71
703.76	32460.93
704.105	32491.21
704.45	32409.4
704.795	32206.47
705.14	32050.32
705.485	32099.35
705.83	31932.13
706.175	32010.54
706.52	31843.32
706.865	31855.97
707.209	31695.52
707.554	31599.48
707.899	31775.97
708.243	31464.79
708.588	31546.83
708.932	31307.74
709.277	31357.23
709.621	31332.59
709.966	31184.58
710.31	31201.3
710.654	30983.9
710.998	30928.76
711.342	30977.58
711.687	30910.01
712.031	30633.18
712.375	30732.38
712.719	30605.61
713.063	30631.6
713.407	30561.99
713.75	30511.82
714.094	30549.11
714.438	30303.24
714.782	30397.48
715.125	30203.36
715.469	30179.63
715.812	29956.13
716.156	29873.88
716.499	29889.02
716.843	29963.59
717.186	29847.44
717.53	29854.44
717.873	29953.65
718.216	29817.83
718.559	29719.08
718.902	29494.9
719.246	29509.59
719.589	29526.99
719.932	29336.94
720.275	29383.49
720.617	29383.49
720.96	29274.34
721.303	29242.93
721.646	29220.33
721.989	29081.58
722.331	29071.86
722.674	28944.86
723.016	29138.53
723.359	28991.64
723.701	29149.6
724.044	28837.74
724.386	28594.36
724.729	28822.15
725.071	28734.47
725.413	28726.56
725.755	28583.97
726.097	28482.27
726.439	28413.8
726.782	28374.48
727.124	28549.84
727.465	28361.15
727.807	28355.5
728.149	28233.24
728.491	28300.58
728.833	28322.96
729.175	28174.71
729.516	28122.96
729.858	28089.97
730.199	28046.58
730.541	27948.28
730.882	27962.51
731.224	28136.75
731.565	27811.56
731.906	27822.18
732.248	27865.34
732.589	27675.06
732.93	27576.53
733.271	27605.69
733.612	27750.32
733.953	27560.04
734.294	27472.58
734.635	27572.47
734.976	27632.58
735.317	27447.95
735.658	27353.72
735.999	27329.54
736.339	27356.65
736.68	27384.9
737.021	27311.46
737.361	27046.38
737.702	27194.62
738.042	26995.31
738.383	27127.06
738.723	27140.39
739.063	26954.63
739.404	27002.09
739.744	26856.1
740.084	26786.73
740.424	27042.31
740.764	26714.64
741.104	26938.36
741.444	26513.96
741.784	26626.96
742.124	26646.39
742.464	26653.62
742.804	26552.38
743.143	26569.78
743.483	26452.04
743.823	26299.51
744.162	26374.08
744.502	26306.74
744.841	26249.56
745.181	26361.43
745.52	26274.42
745.86	26377.92
746.199	26280.07
746.538	26106.06
746.877	26099.51
747.216	26234.88
747.556	26050.7
747.895	26091.15
748.234	25981.32
748.573	26012.28
748.911	25886.86
749.25	26002.11
749.589	25758.5
749.928	25783.81
750.267	25660.43
750.605	25709.92
750.944	25611.16
751.283	25632.63
751.621	25617.49
751.96	25595.12
752.298	25450.94
752.636	25508.11
752.975	25305.41
753.313	25195.81
753.651	25295.24
753.989	25150.84
754.327	25182.7
754.666	25015.47
755.004	25037.39
755.342	25138.63
755.679	25048.01
756.017	24908.81
756.355	24888.02
756.693	24730.28
757.031	24835.82
757.368	24667.01
