Data from hue_110_FLMS001491_00089.txt Node
Date: Tue Feb 07 17:01:57 GMT 2017
User: dcchb
Spectrometer: FLMS00149
Trigger mode: 0
Integration Time (sec): 2.000000E-2
Scans to average: 10
Electric dark correction enabled: true
Nonlinearity correction enabled: false
Boxcar width: 0
XAxis mode: Wavelengths
Number of Pixels in Spectrum: 2048
>>>>>Begin Spectral Data<<<<<
341.393	-3.45
341.776	-3.45
342.16	-3.45
342.543	-66.27
342.927	-49.09
343.31	-59.72
343.693	-68.08
344.077	-66.27
344.46	-57.68
344.843	-39.38
345.226	-51.13
345.61	-29.21
345.993	-2.09
346.376	-24.46
346.759	11.24
347.142	17.57
347.525	41.07
347.908	47.85
348.291	65.48
348.674	84.01
349.057	130.79
349.44	127.17
349.823	151.8
350.206	189.09
350.588	206.27
350.971	206.49
351.354	215.98
351.737	237.68
352.119	277
352.502	260.28
352.884	267.28
353.267	283.1
353.65	296.21
354.032	319.94
354.414	294.4
354.797	315.87
355.179	319.71
355.562	311.12
355.944	330.33
356.326	334.4
356.709	348.41
357.091	367.39
357.473	327.84
357.855	338.69
358.238	335.3
358.62	344.79
359.002	328.97
359.384	341.18
359.766	323.78
360.148	292.14
360.53	359.26
360.912	339.82
361.294	334.17
361.676	331.46
362.057	338.24
362.439	330.1
362.821	314.06
363.203	312.03
363.584	324.23
363.966	321.74
364.348	331.23
364.729	317
365.111	306.15
365.493	323.1
365.874	309.77
366.256	292.14
366.637	312.25
367.019	297.11
367.4	302.53
367.781	321.29
368.163	309.31
368.544	321.07
368.925	309.09
369.306	325.13
369.688	305.47
370.069	311.12
370.45	302.99
370.831	321.29
371.212	316.55
371.593	307.28
371.974	327.17
372.355	324
372.736	325.58
373.117	314.51
373.498	312.03
373.879	316.32
374.26	307.28
374.641	320.84
375.021	297.79
375.402	315.87
375.783	318.13
376.163	322.65
376.544	319.48
376.925	335.3
377.305	335.3
377.686	323.55
378.066	340.95
378.447	309.31
378.827	328.07
379.208	323.55
379.588	333.95
379.968	350.44
380.349	344.79
380.729	349.09
381.109	325.58
381.489	329.88
381.87	348.18
382.25	340.95
382.63	336.21
383.01	335.98
383.39	336.66
383.77	332.14
384.15	322.65
384.53	334.85
384.91	354.28
385.29	345.7
385.67	356.09
386.049	371.46
386.429	352.7
386.809	342.76
387.189	368.75
387.568	358.13
387.948	371.23
388.328	332.36
388.707	366.49
389.087	359.48
389.466	372.36
389.846	346.6
390.225	382.76
390.605	370.56
390.984	353.83
391.363	378.24
391.743	376.66
392.122	384.57
392.501	364
392.881	395.87
393.26	381.85
393.639	370.56
394.018	381.85
394.397	375.98
394.776	380.27
395.155	381.63
395.534	378.69
395.913	373.72
396.292	380.95
396.671	385.24
397.05	367.62
397.429	387.28
397.808	378.46
398.186	396.32
398.565	387.5
398.944	402.19
399.323	385.92
399.701	391.35
400.08	393.38
400.458	375.98
400.837	393.38
401.215	393.83
401.594	408.52
401.972	404.68
402.351	405.81
402.729	399.93
403.107	398.35
403.486	425.02
403.864	427.5
404.242	416.88
404.62	415.07
404.999	425.47
405.377	433.6
405.755	415.75
406.133	442.42
406.511	436.77
406.889	428.63
407.267	438.12
407.645	432.02
408.023	428.18
408.401	445.81
408.779	451.91
409.156	433.6
409.534	439.71
409.912	455.98
410.29	442.42
410.667	446.26
411.045	462.76
411.422	461.4
411.8	459.37
412.178	462.76
412.555	476.32
412.933	457.33
413.31	482.87
413.687	474.06
414.065	500.95
414.442	485.13
414.819	494.85
415.197	480.16
415.574	499.59
415.951	509.99
416.328	504.34
416.705	509.76
417.082	487.61
417.46	498.91
417.837	505.47
418.214	511.57
418.591	519.48
418.967	508.63
419.344	515.64
419.721	540.95
420.098	524.22
420.475	531
420.852	512.47
421.228	534.39
421.605	523.55
421.982	540.49
422.358	552.92
422.735	543.66
423.111	537.78
423.488	551.79
423.864	542.3
424.241	580.04
424.617	555.64
424.994	563.32
425.37	547.95
425.746	563.09
426.123	575.52
426.499	567.61
426.875	594.5
427.251	578.46
427.627	589.76
428.003	603.09
428.379	594.5
428.756	603.32
429.132	626.82
429.507	607.16
429.883	625.69
430.259	620.49
430.635	625.01
431.011	631.57
431.387	652.13
431.763	661.85
432.138	642.19
432.514	663.65
432.89	665.46
433.265	681.73
433.641	680.6
434.016	701.17
434.392	705.91
434.767	693.03
435.143	683.99
435.518	702.52
435.894	715.4
436.269	709.98
436.644	736.87
437.02	741.62
437.395	731
437.77	733.48
438.145	752.69
438.52	742.52
438.895	765.8
439.271	762.86
439.646	797.21
440.021	776.19
440.395	772.58
440.77	766.25
441.145	783.65
441.52	797.44
441.895	802.86
442.27	816.65
442.645	806.93
443.019	789.3
443.394	824.33
443.769	857.1
444.143	827.72
444.518	851.22
444.892	840.6
445.267	828.85
445.641	852.12
446.016	845.35
446.39	862.07
446.764	873.37
447.139	851.67
447.513	879.24
447.887	883.54
448.262	875.4
448.636	872.46
449.01	889.64
449.384	908.17
449.758	900.26
450.132	899.81
450.506	925.57
450.88	931.44
451.254	938.22
451.628	938.22
452.002	962.63
452.376	933.25
452.75	952.01
453.123	979.13
453.497	966.47
453.871	1023.19
454.244	1018
454.618	993.59
454.992	1018.67
455.365	1029.97
455.739	1019.58
456.112	1048.73
456.486	1042.85
456.859	1073.36
457.232	1080.37
457.606	1102.06
457.979	1106.13
458.352	1120.59
458.725	1139.57
459.099	1157.88
459.472	1158.78
459.845	1171.89
460.218	1194.49
460.591	1200.82
460.964	1204.21
461.337	1234.04
461.71	1248.05
462.083	1266.58
462.456	1272.68
462.829	1310.19
463.201	1293.47
463.574	1328.5
463.947	1325.33
464.32	1376.4
464.692	1365.56
465.065	1376.18
465.438	1389.29
465.81	1420.92
466.183	1418.89
466.555	1467.48
466.928	1519.45
467.3	1500.7
467.672	1530.98
468.045	1556.74
468.417	1594.03
468.789	1587.7
469.161	1616.4
469.534	1640.35
469.906	1694.59
470.278	1719.67
470.65	1740.69
471.022	1743.85
471.394	1796.28
471.766	1848.26
472.138	1861.36
472.51	1917.41
472.882	1933.45
473.253	1999.66
473.625	1994.24
473.997	2077.4
474.369	2085.54
474.74	2121.92
475.112	2198.76
475.484	2265.19
475.855	2282.6
476.227	2348.58
476.598	2433.1
476.97	2483.27
477.341	2560.78
477.713	2581.34
478.084	2605.75
478.455	2729.59
478.827	2763.71
479.198	2873.54
479.569	2906.31
479.94	3016.36
480.311	3088.22
480.682	3193.08
481.053	3280.54
481.424	3363.92
481.795	3442.56
482.166	3530.02
482.537	3627.87
482.908	3706.29
483.279	3851.37
483.65	3957.58
484.021	4055.2
484.391	4103.11
484.762	4210.68
485.133	4277.8
485.503	4414.97
485.874	4566.15
486.244	4633.04
486.615	4808.18
486.985	4924.33
487.356	5029.19
487.726	5152.35
488.097	5285.23
488.467	5365.23
488.837	5589.18
489.207	5686.35
489.578	5847.93
489.948	5947.36
490.318	6122.72
490.688	6174.24
491.058	6270.29
491.428	6472.54
491.798	6586.66
492.168	6787.11
492.538	6840.44
492.908	7002.7
493.278	7176.93
493.648	7252.18
494.017	7383.03
494.387	7616.01
494.757	7733.07
495.126	7821.43
495.496	7964.25
495.866	8001.32
496.235	8121.99
496.605	8334.87
496.974	8418.03
497.344	8537.35
497.713	8666.83
498.082	8788.64
498.452	8868.64
498.821	8999.93
499.19	9137.56
499.559	9249.87
499.928	9300.26
500.298	9471.11
500.667	9576.19
501.036	9655.06
501.405	9719.69
501.774	9772.34
502.143	9884.66
502.512	10027.48
502.88	10158.32
503.249	10194.93
503.618	10302.72
503.987	10326.23
504.356	10451.19
504.724	10629.72
505.093	10549.27
505.462	10668.59
505.83	10667.46
506.199	10874.69
506.567	10985.87
506.936	10995.36
507.304	11175.69
507.672	11190.84
508.041	11312.41
508.409	11408.46
508.777	11459.53
509.145	11498.85
509.514	11592.86
509.882	11635.8
510.25	11705.4
510.618	11737.94
510.986	11866.3
511.354	11901.78
511.722	11968.89
512.09	12117.37
512.458	12081.89
512.826	12153.52
513.193	12211.83
513.561	12282.56
513.929	12346.51
514.297	12450.24
514.664	12441.65
515.032	12513.29
515.4	12605.71
515.767	12651.14
516.135	12654.3
516.502	12593.06
516.869	12807.52
517.237	12867.18
517.604	12740.85
517.972	12873.28
518.339	12917.12
518.706	12900.4
519.073	12983.1
519.44	13057.45
519.808	13175.64
520.175	13163.67
520.542	13194.85
520.909	13318.69
521.276	13132.71
521.643	13290.89
522.009	13374.96
522.376	13353.94
522.743	13378.57
523.11	13494.73
523.477	13577.89
523.843	13559.14
524.21	13703.99
524.577	13701.73
524.943	13706.7
525.31	13810.65
525.676	13800.71
526.043	13911.22
526.409	13917.09
526.776	13916.41
527.142	13955.28
527.508	14030.54
527.874	14021.27
528.241	14032.34
528.607	14011.78
528.973	14093.81
529.339	14037.31
529.705	14059.46
530.071	14136.29
530.437	14175.16
530.803	14141.04
531.169	14193.47
531.535	14182.85
531.901	14202.73
532.267	14161.38
532.632	14171.77
532.998	14157.09
533.364	14176.29
533.73	14183.98
534.095	14222.17
534.461	14299
534.826	14220.13
535.192	14230.76
535.557	14188.95
535.923	14280.7
536.288	14145.79
536.653	14205.9
537.019	14093.81
537.384	14119.35
537.749	14192.79
538.114	14136.52
538.479	14058.78
538.845	13983.98
539.21	14052.68
539.575	13941.72
539.94	13971.33
540.305	14000.48
540.67	13957.77
541.034	13928.16
541.399	13972.01
541.764	13885.68
542.129	13937.2
542.494	13765.68
542.858	13885.23
543.223	13788.96
543.587	13851.1
543.952	13695.85
544.316	13727.49
544.681	13736.31
545.045	13665.35
545.41	13685.23
545.774	13649.75
546.138	13542.41
546.503	13531.79
546.867	13513.71
547.231	13581.73
547.595	13516.88
547.959	13525.92
548.324	13424
548.688	13406.82
549.052	13362.08
549.416	13376.31
549.779	13350.33
550.143	13314.85
550.507	13303.32
550.871	13277.33
551.235	13249.76
551.599	13302.19
551.962	13245.7
552.326	13181.97
552.689	13231.23
553.053	13092.25
553.417	13086.83
553.78	13300.16
554.143	13176.55
554.507	13125.7
554.87	13190.56
555.234	13260.61
555.597	13053.61
555.96	13129.99
556.323	13092.93
556.686	13046.15
557.05	13075.53
557.413	13022.65
557.776	12986.72
558.139	13057
558.502	12978.36
558.865	13016.78
559.228	13045.02
559.59	13043.44
559.953	13059.04
560.316	13144.91
560.679	12998.47
561.041	13184.91
561.404	13019.94
561.767	13123.44
562.129	12969.32
562.492	13168.41
562.854	13078.24
563.217	13039.6
563.579	13129.32
563.941	13183.33
564.304	13163.44
564.666	13166.38
565.028	13177.68
565.39	13196.66
565.753	13174.96
566.115	13210.9
566.477	13269.65
566.839	13256.77
567.201	13308.29
567.563	13298.58
567.925	13360.27
568.287	13328.86
568.648	13292.48
569.01	13349.42
569.372	13341.74
569.734	13351.68
570.095	13373.15
570.457	13356.65
570.819	13415.18
571.18	13410.89
571.542	13464.22
571.903	13470.55
572.265	13475.75
572.626	13496.54
572.987	13467.84
573.349	13548.74
573.71	13555.29
574.071	13614.27
574.432	13565.91
574.794	13654.27
575.155	13634.16
575.516	13482.53
575.877	13577.89
576.238	13613.37
576.599	13645.01
576.96	13607.72
577.32	13589.42
577.681	13647.95
578.042	13600.26
578.403	13632.58
578.763	13658.57
579.124	13577.21
579.485	13741.96
579.845	13650.88
580.206	13659.02
580.566	13644.1
580.927	13630.32
581.287	13740.37
581.648	13592.35
582.008	13705.8
582.368	13669.64
582.728	13650.66
583.089	13626.25
583.449	13631.9
583.809	13631.68
584.169	13607.27
584.529	13547.38
584.889	13646.59
585.249	13571.11
585.609	13596.2
585.969	13564.56
586.329	13599.81
586.688	13582.19
587.048	13507.84
587.408	13478.46
587.768	13542.64
588.127	13478.46
588.487	13486.37
588.846	13612.47
589.206	13515.52
589.565	13453.38
589.925	13538.57
590.284	13583.54
590.643	13475.75
591.003	13526.82
591.362	13497.67
591.721	13446.37
592.08	13421.51
592.44	13515.52
592.799	13456.31
593.158	13384.45
593.517	13448.63
593.876	13471.45
594.235	13409.53
594.593	13426.03
594.952	13410.89
595.311	13357.56
595.67	13345.81
596.029	13492.92
596.387	13437.1
596.746	13324.56
597.104	13345.58
597.463	13342.87
597.822	13402.75
598.18	13315.07
598.538	13323.21
598.897	13404.34
599.255	13311.68
599.613	13479.82
599.972	13341.06
600.33	13506.26
600.688	13352.81
601.046	13401.63
601.404	13503.77
601.762	13470.55
602.12	13445.24
602.478	13414.73
602.836	13363.66
603.194	13327.95
603.552	13400.04
603.91	13298.35
604.268	13393.94
604.625	13305.81
604.983	13390.78
605.341	13302.87
605.698	13458.12
606.056	13409.53
606.413	13382.42
606.771	13433.49
607.128	13434.39
607.485	13432.58
607.843	13406.6
608.2	13502.19
608.557	13440.04
608.914	13420.61
609.272	13525.69
609.629	13463.32
609.986	13528.85
610.343	13430.1
610.7	13565.01
611.057	13513.49
611.414	13480.94
611.771	13518.91
612.127	13581.96
612.484	13546.48
612.841	13661.28
613.198	13629.19
613.554	13516.88
613.911	13663.54
614.267	13667.83
614.624	13638.68
614.98	13652.47
615.337	13632.58
615.693	13665.8
616.05	13665.12
616.406	13744.44
616.762	13708.96
617.118	13716.64
617.475	13734.5
617.831	13724.1
618.187	13710.54
618.543	13700.83
618.899	13854.95
619.255	13780.15
619.611	13853.14
619.967	13818.11
620.323	13832.35
620.678	13874.38
621.034	13720.49
621.39	13792.35
621.746	13740.6
622.101	13942.4
622.457	13781.5
622.812	13795.51
623.168	13865.79
623.523	13871.22
623.879	13852.23
624.234	13772.01
624.589	13850.65
624.945	13893.36
625.3	13882.52
625.655	13817.21
626.01	13863.76
626.365	13819.47
626.72	13771.11
627.075	13856.3
627.43	13805.23
627.785	13790.54
628.14	13786.93
628.495	13825.57
628.85	13742.41
629.205	13786.93
629.559	13780.37
629.914	13672.35
630.269	13734.27
630.623	13772.46
630.978	13571.34
631.332	13704.67
631.687	13812.69
632.041	13645.91
632.396	13649.98
632.75	13682.3
633.104	13767.04
633.459	13635.29
633.813	13656.76
634.167	13622.41
634.521	13651.56
634.875	13633.71
635.229	13614.27
635.583	13533.6
635.937	13496.31
636.291	13498.8
636.645	13458.8
636.999	13511.45
637.352	13460.38
637.706	13413.83
638.06	13411.79
638.413	13458.35
638.767	13421.29
639.121	13440.27
639.474	13374.96
639.828	13279.14
640.181	13310.78
640.534	13358.91
640.888	13303.1
641.241	13288.41
641.594	13280.72
641.947	13401.63
642.301	13322.08
642.654	13343.77
643.007	13312.59
643.36	13336.54
643.713	13304
644.066	13329.99
644.419	13237.79
644.771	13169.09
645.124	13016.55
645.477	13062.42
645.83	12980.62
646.182	12899.27
646.535	12852.26
646.888	12909.43
647.24	12785.37
647.593	12882.09
647.945	12779.95
648.298	12774.07
648.65	12739.95
649.002	12683.68
649.355	12824.01
649.707	12766.61
650.059	12873.96
650.411	12963.9
650.763	12973.61
651.115	13091.58
651.467	13057.68
651.819	13016.32
652.171	13098.58
652.523	13024.46
652.875	13069.2
653.227	13031.47
653.578	13130.9
653.93	13063.33
654.282	12982.65
654.633	13058.36
654.985	13077.57
655.337	13102.42
655.688	13020.39
656.039	13002.99
656.391	12984.69
656.742	13026.49
657.094	13071.46
657.445	13105.59
657.796	13012.93
658.147	13076.44
658.498	13094.29
658.849	13154.17
659.2	13019.49
659.551	13068.75
659.902	13127.51
660.253	13091.8
660.604	13136.32
660.955	13006.83
661.306	13169.54
661.656	13125.47
662.007	13097.45
662.358	13126.6
662.708	13048.41
663.059	13134.51
663.409	13057.68
663.76	13194.62
664.11	13182.2
664.461	13141.07
664.811	13130.22
665.161	13151.46
665.511	13075.31
665.862	13119.15
666.212	13121.86
666.562	13127.51
666.912	13130.45
667.262	13115.3
667.612	13153.95
667.962	13186.94
668.312	13113.95
668.662	13193.72
669.011	13154.85
669.361	13017.45
669.711	13144.68
670.06	13171.12
670.41	13083.22
670.76	13031.47
671.109	13087.73
671.459	13085.48
671.808	13083.67
672.157	13166.83
672.507	13071.92
672.856	13048.19
673.205	13121.18
673.554	13099.03
673.904	13009.09
674.253	13078.24
674.602	12993.5
674.951	12867.18
675.3	12787.63
675.649	13016.55
675.998	12901.3
676.346	12993.5
676.695	13004.35
677.044	12884.35
677.393	12899.72
677.741	12914.86
678.09	12883.45
678.438	12864.92
678.787	12892.49
679.135	12853.39
679.484	12716.67
679.832	12861.53
680.181	12710.12
680.529	12807.06
680.877	12795.09
681.225	12722.77
681.573	12835.09
681.922	12623.79
682.27	12746.95
682.618	12670.8
682.966	12636.45
683.314	12703.79
683.661	12604.13
684.009	12556.68
684.357	12449.79
684.705	12499.28
685.053	12534.53
685.4	12490.01
685.748	12395.1
686.095	12359.84
686.443	12318.49
686.79	12325.72
687.138	12393.29
687.485	12359.62
687.832	12301.99
688.18	12345.83
688.527	12212.05
688.874	12228.32
689.221	12129.34
689.568	12073.3
689.915	12092.05
690.262	12025.62
690.609	12057.48
690.956	11999.4
691.303	11945.62
691.65	11957.82
691.997	11870.37
692.344	11721.67
692.69	11743.36
693.037	11746.98
693.383	11637.38
693.73	11701.56
694.077	11688.45
694.423	11609.81
694.769	11522.8
695.116	11438.74
695.462	11461.56
695.808	11388.12
696.155	11466.99
696.501	11306.31
696.847	11339.31
697.193	11339.31
697.539	11258.18
697.885	11262.7
698.231	11110.16
698.577	11188.35
698.923	11154.9
699.269	11069.71
699.614	10983.38
699.96	11035.36
700.306	10983.84
700.651	10910.39
700.997	10894.35
701.342	10842.37
701.688	10835.59
702.033	10775.71
702.379	10767.34
702.724	10748.36
703.069	10789.72
703.415	10588.14
703.76	10602.38
704.105	10589.27
704.45	10575.94
704.795	10543.17
705.14	10468.59
705.485	10441.48
705.83	10402.38
706.175	10374.13
706.52	10367.81
706.865	10302.27
707.209	10354.7
707.554	10282.84
707.899	10296.17
708.243	10228.15
708.588	10170.98
708.932	10034.03
709.277	10106.57
709.621	10083.97
709.966	10057.98
710.31	10055.27
710.654	9968.04
710.998	10011.21
711.342	10015.05
711.687	9929.85
712.031	9884.43
712.375	9839.23
712.719	9913.81
713.063	9908.61
713.407	9866.58
713.75	9823.41
714.094	9760.14
714.438	9751.78
714.782	9739.8
715.125	9705
715.469	9797.88
715.812	9636.3
716.156	9653.7
716.499	9645.34
716.843	9663.87
717.186	9554.72
717.53	9614.61
717.873	9671.33
718.216	9533.93
718.559	9532.57
718.902	9452.8
719.246	9503.2
719.589	9467.49
719.932	9471.78
720.275	9448.96
720.617	9453.03
720.96	9435.4
721.303	9469.53
721.646	9474.72
721.989	9407.15
722.331	9400.37
722.674	9346.14
723.016	9392.24
723.359	9359.7
723.701	9340.49
724.044	9370.77
724.386	9272.47
724.729	9354.73
725.071	9346.14
725.413	9273.15
725.755	9336.65
726.097	9289.42
726.439	9253.71
726.782	9240.38
727.124	9276.08
727.465	9248.97
727.807	9352.47
728.149	9218.68
728.491	9158.8
728.833	9242.41
729.175	9233.6
729.516	9171.91
729.858	9239.02
730.199	9202.19
730.541	9137.33
730.882	9196.54
731.224	9213.49
731.565	9142.08
731.906	9111.12
732.248	9188.63
732.589	9180.49
732.93	9174.17
733.271	9148.63
733.612	9157.44
733.953	9185.69
734.294	9091.23
734.635	9122.19
734.976	9152.02
735.317	9126.03
735.658	9157.22
735.999	9185.92
736.339	9189.53
736.68	9211.45
737.021	9145.01
737.361	9147.05
737.702	9211.23
738.042	9152.47
738.383	9201.96
738.723	9177.1
739.063	9125.81
739.404	9202.41
739.744	9222.75
740.084	9183.88
740.424	9168.29
740.764	9232.47
741.104	9278.8
741.444	9177.33
741.784	9256.2
742.124	9314.95
742.464	9269.98
742.804	9253.94
743.143	9320.6
743.483	9332.58
743.823	9328.74
744.162	9452.35
744.502	9391.56
744.841	9390.43
745.181	9483.76
745.52	9454.38
745.86	9479.69
746.199	9550.65
746.538	9537.32
746.877	9616.41
747.216	9664.32
747.556	9698.9
747.895	9752.23
748.234	9761.27
748.573	9847.37
748.911	9954.48
749.25	9922.17
749.589	9996.97
749.928	10058.44
750.267	10171.88
750.605	10191.54
750.944	10276.96
751.283	10327.13
751.621	10497.07
751.96	10516.5
752.298	10605.09
752.636	10670.62
752.975	10724.63
753.313	10843.73
753.651	10970.5
753.989	11056.15
754.327	11206.2
754.666	11245.98
755.004	11373.43
755.342	11558.74
755.679	11606.19
756.017	11717.38
756.355	11895.9
756.693	11951.72
757.031	12127.99
757.368	12292.5
757.706	12355.55
758.044	12461.76
758.381	12602.32
758.719	12826.5
