Data from hue_320_FLMS001491_71.txt Node
Date: Mon Feb 06 15:47:40 GMT 2017
User: dcchb
Spectrometer: FLMS00149
Trigger mode: 0
Integration Time (sec): 2.000000E-2
Scans to average: 10
Electric dark correction enabled: true
Nonlinearity correction enabled: false
Boxcar width: 0
XAxis mode: Wavelengths
Number of Pixels in Spectrum: 2048
>>>>>Begin Spectral Data<<<<<
341.393	-7.85
341.776	-7.85
342.16	-7.85
342.543	-62.99
342.927	-54.86
343.31	-61.64
343.693	-77.91
344.077	-41.75
344.46	-54.86
344.843	-62.77
345.226	-60.28
345.61	-32.26
345.993	-6.5
346.376	8.87
346.759	23.78
347.142	10.68
347.525	34.63
347.908	65.59
348.291	79.83
348.674	80.73
349.057	93.84
349.44	115.99
349.823	134.97
350.206	167.51
350.588	188.53
350.971	212.25
351.354	255.19
351.737	228.53
352.119	255.64
352.502	255.19
352.884	281.41
353.267	289.31
353.65	294.06
354.032	280.95
354.414	308.3
354.797	333.38
355.179	321.63
355.562	321.18
355.944	321.63
356.326	323.66
356.709	347.39
357.091	318.92
357.473	329.99
357.855	345.58
358.238	318.47
358.62	318.92
359.002	309.2
359.384	333.38
359.766	336.09
360.148	348.97
360.53	354.17
360.912	335.19
361.294	322.08
361.676	340.39
362.057	328.41
362.439	335.19
362.821	313.04
363.203	312.59
363.584	310.78
363.966	314.17
364.348	312.59
364.729	305.59
365.111	321.63
365.493	318.92
365.874	323.44
366.256	318.01
366.637	312.59
367.019	307.39
367.4	313.27
367.781	312.59
368.163	320.73
368.544	315.75
368.925	313.95
369.306	295.42
369.688	301.52
370.069	318.24
370.45	300.39
370.831	300.84
371.212	311.91
371.593	312.14
371.974	302.65
372.355	306.49
372.736	292.7
373.117	307.85
373.498	321.86
373.879	317.56
374.26	329.54
374.641	318.47
375.021	331.57
375.402	327.73
375.783	330.9
376.163	331.12
376.544	329.99
376.925	308.75
377.305	309.88
377.686	331.57
378.066	318.24
378.447	311.91
378.827	323.89
379.208	311.91
379.588	319.37
379.968	347.84
380.349	319.82
380.729	325.7
381.109	337
381.489	340.39
381.87	327.05
382.25	331.57
382.63	325.7
383.01	331.35
383.39	313.04
383.77	324.34
384.15	323.21
384.53	348.3
384.91	336.54
385.29	356.43
385.67	346.94
386.049	319.6
386.429	343.78
386.809	354.85
387.189	347.84
387.568	334.28
387.948	348.52
388.328	323.89
388.707	375.19
389.087	349.65
389.466	352.82
389.846	362.08
390.225	368.63
390.605	365.47
390.984	357.56
391.363	347.62
391.743	361.85
392.122	355.98
392.501	366.37
392.881	375.41
393.26	376.32
393.639	371.12
394.018	367.73
394.397	340.39
394.776	360.05
395.155	366.6
395.534	363.89
395.913	367.28
396.292	372.7
396.671	388.07
397.05	356.66
397.429	381.97
397.808	379.03
398.186	361.4
398.565	378.13
398.944	401.18
399.323	361.4
399.701	387.39
400.08	378.58
400.458	385.58
400.837	395.53
401.215	394.85
401.594	393.94
401.972	388.29
402.351	394.4
402.729	401.85
403.107	400.95
403.486	403.21
403.864	414.73
404.242	408.41
404.62	414.51
404.999	432.14
405.377	431.68
405.755	411.8
406.133	427.84
406.511	438.46
406.889	451.12
407.267	433.27
407.645	435.53
408.023	451.57
408.401	441.85
408.779	462.42
409.156	448.63
409.534	440.95
409.912	439.37
410.29	479.37
410.667	478.01
411.045	474.62
411.422	492.47
411.8	487.28
412.178	503.09
412.555	482.76
412.933	490.67
413.31	505.81
413.687	508.52
414.065	506.48
414.442	522.08
414.819	532.7
415.197	549.87
415.574	546.26
415.951	539.25
416.328	532.7
416.705	567.95
417.082	551
417.46	560.04
417.837	573.37
418.214	576.09
418.591	562.53
418.967	573.37
419.344	588.29
419.721	576.09
420.098	613.83
420.475	605.46
420.852	610.66
421.228	646.37
421.605	631.68
421.982	652.47
422.358	629.42
422.735	654.73
423.111	640.49
423.488	656.99
423.864	658.12
424.241	672.58
424.617	674.16
424.994	703.54
425.37	691.34
425.746	676.65
426.123	693.6
426.499	698.8
426.875	715.07
427.251	728.4
427.627	747.83
428.003	727.04
428.379	733.14
428.756	751.45
429.132	743.54
429.507	755.52
429.883	775.4
430.259	762.97
430.635	780.6
431.011	798.91
431.387	808.17
431.763	811.11
432.138	821.73
432.514	835.51
432.89	864.44
433.265	845.23
433.641	845.68
434.016	857.89
434.392	864.89
434.767	885
435.143	889.75
435.518	882.52
435.894	904.89
436.269	899.02
436.644	941.5
437.02	938.56
437.395	924.33
437.77	921.16
438.145	933.59
438.52	984.21
438.895	988.96
439.271	970.65
439.646	990.54
440.021	975.4
440.395	986.25
440.77	1009.3
441.145	1018.56
441.52	1024.44
441.895	1015.17
442.27	1024.21
442.645	1018.33
443.019	1030.76
443.394	1043.64
443.769	1068.28
444.143	1039.8
444.518	1032.35
444.892	1064.89
445.267	1071.21
445.641	1052.46
446.016	1066.02
446.39	1066.02
446.764	1065.79
447.139	1093.14
447.513	1056.98
447.887	1082.74
448.262	1070.99
448.636	1071.21
449.01	1093.36
449.384	1113.25
449.758	1103.3
450.132	1132.46
450.506	1130.42
450.88	1137.2
451.254	1140.37
451.628	1132.91
452.002	1140.37
452.376	1141.5
452.75	1154.15
453.123	1153.02
453.497	1166.13
453.871	1143.98
454.244	1163.87
454.618	1182.4
454.992	1196.41
455.365	1205.67
455.739	1240.93
456.112	1223.53
456.486	1227.37
456.859	1247.03
457.232	1265.11
457.606	1245.22
457.979	1247.71
458.352	1289.06
458.725	1282.06
459.099	1284.32
459.472	1291.32
459.845	1303.07
460.218	1323.64
460.591	1320.25
460.964	1319.12
461.337	1347.59
461.71	1376.74
462.083	1389.85
462.456	1395.5
462.829	1348.95
463.201	1425.78
463.574	1398.44
463.947	1424.2
464.32	1465.1
464.692	1422.17
465.065	1448.61
465.438	1465.1
465.81	1482.96
466.183	1486.57
466.555	1543.74
466.928	1507.81
467.3	1494.03
467.672	1533.35
468.045	1569.28
468.417	1559.56
468.789	1572.22
469.161	1605.89
469.534	1599.34
469.906	1608.83
470.278	1644.31
470.65	1625.1
471.022	1683.63
471.394	1693.12
471.766	1694.48
472.138	1679.11
472.51	1748.49
472.882	1771.31
473.253	1757.07
473.625	1785.55
473.997	1793
474.369	1813.12
474.74	1825.77
475.112	1849.27
475.484	1890.63
475.855	1888.59
476.227	1922.49
476.598	1948.71
476.97	1970.85
477.341	2001.13
477.713	1974.47
478.084	1997.52
478.455	2041.81
478.827	2095.59
479.198	2147.8
479.569	2078.87
479.94	2145.08
480.311	2164.75
480.682	2217.85
481.053	2245.65
481.424	2254.91
481.795	2237.96
482.166	2329.71
482.537	2321.58
482.908	2360.45
483.279	2398.64
483.65	2397.28
484.021	2432.76
484.391	2449.48
484.762	2444.74
485.133	2519.09
485.503	2516.83
485.874	2561.12
486.244	2538.52
486.615	2584.62
486.985	2647.44
487.356	2665.3
487.726	2656.94
488.097	2713.66
488.467	2745.75
488.837	2747.1
489.207	2765.18
489.578	2805.41
489.948	2830.26
490.318	2826.42
490.688	2828.91
491.058	2922.24
491.428	2909.36
491.798	2967.21
492.168	2991.84
492.538	3003.37
492.908	3017.6
493.278	3027.55
493.648	3014.44
494.017	3121.78
494.387	3132.4
494.757	3101.67
495.126	3138.28
495.496	3179.63
495.866	3164.95
496.235	3217.6
496.605	3187.09
496.974	3200.88
497.344	3241.33
497.713	3269.8
498.082	3231.38
498.452	3312.51
498.821	3319.52
499.19	3331.49
499.559	3340.99
499.928	3357.48
500.298	3399.06
500.667	3371.95
501.036	3380.31
501.405	3417.14
501.774	3415.11
502.143	3469.8
502.512	3467.76
502.88	3477.71
503.249	3523.58
503.618	3493.3
503.987	3479.06
504.356	3547.08
504.724	3543.92
505.093	3520.42
505.462	3553.41
505.83	3536.01
506.199	3607.65
506.567	3612.16
506.936	3605.16
507.304	3664.14
507.672	3631.37
508.041	3674.76
508.409	3690.35
508.777	3667.3
509.145	3713.86
509.514	3693.74
509.882	3731.94
510.25	3767.42
510.618	3741.2
510.986	3755.89
511.354	3731.71
511.722	3786.62
512.09	3786.4
512.458	3809.9
512.826	3842.89
513.193	3835.89
513.561	3836.11
513.929	3846.28
514.297	3882.67
514.664	3863.68
515.032	3896.68
515.4	3924.7
515.767	3902.33
516.135	3899.84
516.502	3908.43
516.869	3932.61
517.237	3941.65
517.604	3943.46
517.972	3969.44
518.339	3946.62
518.706	3951.82
519.073	3942.78
519.44	3967.18
519.808	3956.11
520.175	4023.45
520.542	4035.43
520.909	4061.42
521.276	4016.67
521.643	4079.72
522.009	4103
522.376	4134.19
522.743	4094.19
523.11	4166.27
523.477	4208.53
523.843	4176.67
524.21	4240.17
524.577	4275.42
524.943	4262.77
525.31	4267.97
525.676	4295.08
526.043	4354.74
526.409	4337.8
526.776	4343.9
527.142	4370.34
527.508	4401.3
527.874	4405.36
528.241	4382.77
528.607	4407.4
528.973	4493.27
529.339	4443.1
529.705	4505.47
530.071	4522.2
530.437	4547.96
530.803	4486.94
531.169	4587.73
531.535	4565.81
531.901	4562.2
532.267	4597
532.632	4604.91
532.998	4624.12
533.364	4719.93
533.73	4686.49
534.095	4702.76
534.461	4761.97
534.826	4750.89
535.192	4744.79
535.557	4814.39
535.923	4809.65
536.288	4825.24
536.653	4869.53
537.019	4851
537.384	4908.85
537.749	4870.66
538.114	4883.77
538.479	4900.49
538.845	4973.26
539.21	4954.28
539.575	5008.29
539.94	4977.55
540.305	5033.6
540.67	5072.01
541.034	5037.44
541.399	5056.87
541.764	5115.4
542.129	5153.59
542.494	5109.3
542.858	5158.79
543.223	5163.08
543.587	5166.7
543.952	5217.32
544.316	5227.26
544.681	5234.95
545.045	5250.09
545.41	5284.21
545.774	5350.42
546.138	5330.99
546.503	5392.01
546.867	5335.28
547.231	5415.28
547.595	5429.07
547.959	5444.43
548.324	5469.29
548.688	5498.44
549.052	5513.58
549.416	5531.21
549.779	5519.23
550.143	5595.16
550.507	5596.97
550.871	5635.84
551.235	5584.32
551.599	5631.77
551.962	5690.3
552.326	5654.82
552.689	5707.25
553.053	5673.58
553.417	5641.26
553.78	5735.5
554.143	5739.34
554.507	5760.36
554.87	5740.47
555.234	5816.4
555.597	5791.32
555.96	5818.21
556.323	5796.06
556.686	5823.63
557.05	5889.39
557.413	5900.24
557.776	5941.82
558.139	5949.28
558.502	6011.2
558.865	5991.54
559.228	6010.07
559.59	6022.27
559.953	6008.94
560.316	6105.43
560.679	6098.2
561.041	6052.55
561.404	6140.23
561.767	6150.86
562.129	6193.79
562.492	6214.58
562.854	6219.33
563.217	6154.02
563.579	6234.92
563.941	6272.66
564.304	6219.33
564.666	6292.32
565.028	6293.22
565.39	6262.49
565.753	6344.3
566.115	6417.51
566.477	6404.41
566.839	6434.92
567.201	6423.39
567.563	6512.88
567.925	6454.12
568.287	6514.01
568.648	6531.18
569.01	6509.26
569.372	6608.02
569.734	6598.3
570.095	6644.4
570.457	6699.09
570.819	6682.37
571.18	6704.74
571.542	6765.75
571.903	6762.59
572.265	6844.62
572.626	6923.94
572.987	6906.54
573.349	6977.5
573.71	6992.19
574.071	7019.76
574.432	7017.95
574.794	7125.74
575.155	7181.11
575.516	7243.48
575.877	7190.38
576.238	7282.12
576.599	7277.15
576.96	7449.13
577.32	7418.39
577.681	7565.51
578.042	7681.44
578.403	7690.7
578.763	7820.19
579.124	7892.73
579.485	7995.78
579.845	8044.59
580.206	8121.88
580.566	8250.46
580.927	8386.28
581.287	8481.42
581.648	8580.4
582.008	8713.5
582.368	8854.06
582.728	9044.79
583.089	9104.22
583.449	9287.27
583.809	9469.41
584.169	9565.91
584.529	9702.85
584.889	9967.25
585.249	10121.37
585.609	10254.48
585.969	10447.92
586.329	10675.03
586.688	10825.99
587.048	11037.05
587.408	11222.13
587.768	11432.52
588.127	11712.52
588.487	11824.83
588.846	12180.75
589.206	12331.94
589.565	12599.73
589.925	12944.12
590.284	13072.71
590.643	13305.92
591.003	13665.23
591.362	13954.04
591.721	14116.75
592.08	14470.64
592.44	14674.92
592.799	14958.76
593.158	15257.28
593.517	15540.89
593.876	15860.88
594.235	15971.84
594.593	16336.8
594.952	16679.84
595.311	16865.15
595.67	17273.05
596.029	17647.95
596.387	17864.9
596.746	18165.45
597.104	18349.4
597.463	18620.58
597.822	19072.32
598.18	19129.72
598.538	19559.32
598.897	19884.28
599.255	20023.71
599.613	20614.88
599.972	20719.74
600.33	20985.49
600.688	21207.86
601.046	21615.31
601.404	21950.44
601.762	22110.44
602.12	22520.82
602.478	22785.67
602.836	23028.38
603.194	23187.7
603.552	23413.68
603.91	23662.49
604.268	24064.73
604.625	24103.83
604.983	24473.76
605.341	24557.38
605.698	25008.21
606.056	25296.57
606.413	25401.65
606.771	25715.99
607.128	25951.24
607.485	26057.22
607.843	26406.14
608.2	26718.22
608.557	27019.69
608.914	27049.29
609.272	27400.69
609.629	27591.42
609.986	27870.51
610.343	28022.6
610.7	28408.12
611.057	28461.23
611.414	28601.79
611.771	28870.94
612.127	29104.38
612.484	29178.27
612.841	29409.68
613.198	29570.13
613.554	29721.53
613.911	29972.15
614.267	30183.44
614.624	30282.42
614.98	30506.82
615.337	30782.98
615.693	30806.25
616.05	30964.44
616.406	31208.73
616.762	31287.14
617.118	31513.58
617.475	31650.07
617.831	31734.14
618.187	31950.63
618.543	32153.56
618.899	32379.09
619.255	32344.52
619.611	32425.19
619.967	32730.72
620.323	32884.62
620.678	32962.13
621.034	33015.69
621.39	33146.98
621.746	33108.34
622.101	33630.58
622.457	33459.74
622.812	33550.59
623.168	33643.01
623.523	33823.57
623.879	33920.97
624.234	33834.42
624.589	34053.62
624.945	34024.7
625.3	34252.26
625.655	34335.2
626.01	34329.32
626.365	34410.23
626.72	34433.73
627.075	34620.16
627.43	34561.18
627.785	34788.97
628.14	34746.04
628.495	34854.96
628.85	35004.33
629.205	34796.88
629.559	35021.96
629.914	34912.58
630.269	35088.17
630.623	35032.81
630.978	34993.49
631.332	35130.66
631.687	35235.29
632.041	35193.26
632.396	35300.15
632.75	35168.4
633.104	35289.07
633.459	35105.35
633.813	35350.77
634.167	35309.86
634.521	35335.85
634.875	35404.32
635.229	35273.93
635.583	35136.99
635.937	35336.08
636.291	35215.63
636.645	35326.13
636.999	35302.63
637.352	35323.42
637.706	35150.54
638.06	35390.31
638.413	35292.46
638.767	35277.1
639.121	35302.41
639.474	35148.28
639.828	35318.68
640.181	35377.88
640.534	35255.4
640.888	35231.45
641.241	35052.47
641.594	35172.92
641.947	35273.93
642.301	35008.18
642.654	35319.35
643.007	35374.04
643.36	35171.34
643.713	35178.11
644.066	35310.09
644.419	35148.96
644.771	35070.55
645.124	34664
645.477	34617
645.83	34385.37
646.182	34273.51
646.535	34240.74
646.888	34271.7
647.24	34096.11
647.593	34228.08
647.945	34189.21
648.298	34050.46
648.65	34023.79
649.002	33879.17
649.355	34199.84
649.707	34199.61
650.059	34217.69
650.411	34662.42
650.763	34729.54
651.115	35071.9
651.467	34913.04
651.819	34954.62
652.171	34792.81
652.523	34768.63
652.875	34821.29
653.227	34727.96
653.578	34908.29
653.93	35057.44
654.282	34763.44
654.633	34713.72
654.985	34744.45
655.337	34756.43
655.688	34671.69
656.039	34890.21
656.391	34683.21
656.742	34718.92
657.094	34669.88
657.445	34759.59
657.796	34638.92
658.147	34624.68
658.498	34549.2
658.849	34669.2
659.2	34656.77
659.551	34508.75
659.902	34673.04
660.253	34522.54
660.604	34627.17
660.955	34423.56
661.306	34701.29
661.656	34593.5
662.007	34504.46
662.358	34386.5
662.708	34524.8
663.059	34374.75
663.409	34354.18
663.76	34624.68
664.11	34578.36
664.461	34613.84
664.811	34546.04
665.161	34559.37
665.511	34397.12
665.862	34468.53
666.212	34672.59
666.562	34637.11
666.912	34620.84
667.262	34405.03
667.612	34518.92
667.962	34473.95
668.312	34542.2
668.662	34572.48
669.011	34606.6
669.361	34500.39
669.711	34571.12
670.06	34376.1
670.41	34496.55
670.76	34421.07
671.109	34438.47
671.459	34390.34
671.808	34339.94
672.157	34410.9
672.507	34284.13
672.856	34163.45
673.205	34204.81
673.554	34288.42
673.904	34204.35
674.253	34415.65
674.602	34232.15
674.951	33769.79
675.3	33702.67
675.649	34130.91
675.998	34177.69
676.346	34188.99
676.695	34434.86
677.044	34003.23
677.393	34177.91
677.741	34146.28
678.09	34014.08
678.438	33951.48
678.787	33964.59
679.135	34177.46
679.484	33874.42
679.832	34023.79
680.181	33819.96
680.529	33859.96
680.877	33767.98
681.225	33778.15
681.573	33969.78
681.922	33643.47
682.27	33622.68
682.618	33575.22
682.966	33563.47
683.314	33565.95
683.661	33382.23
684.009	33293.42
684.357	33252.97
684.705	33288.9
685.053	33251.16
685.4	33202.8
685.748	32993.77
686.095	33224.72
686.443	33067.89
686.79	32862.92
687.138	32943.82
687.485	33033.09
687.832	32954.44
688.18	32932.75
688.527	32712.19
688.874	32631.06
689.221	32642.59
689.568	32548.81
689.915	32497.06
690.262	32376.38
690.609	32333.44
690.956	32169.61
691.303	32246.21
691.65	32192.2
691.997	32073.34
692.344	31954.02
692.69	31969.84
693.037	31973.23
693.383	31748.6
693.73	31794.02
694.077	31606.91
694.423	31602.39
694.769	31528.27
695.116	31505.89
695.462	31406.24
695.808	31306.35
696.155	31416.86
696.501	31007.6
696.847	31052.57
697.193	30899.58
697.539	30985
697.885	30807.16
698.231	30702.53
698.577	30679.48
698.923	30638.57
699.269	30403.32
699.614	30355.64
699.96	30291.24
700.306	30286.49
700.651	30107.74
700.997	30148.87
701.342	30113.39
701.688	30025.03
702.033	29949.1
702.379	29955.2
702.724	29798.14
703.069	29852.6
703.415	29547.53
703.76	29488.77
704.105	29523.12
704.45	29477.25
704.795	29301.43
705.14	29303.47
705.485	29179.18
705.83	29078.39
706.175	29157.93
706.52	29038.16
706.865	29054.43
707.209	28937.15
707.554	28820.99
707.899	28878.39
708.243	28844.95
708.588	28790.03
708.932	28483.15
709.277	28508.46
709.621	28653.09
709.966	28295.58
710.31	28457.84
710.654	28103.27
710.998	28282.02
711.342	28284.06
711.687	28105.76
712.031	28007.46
712.375	27982.6
712.719	27977.4
713.063	27838.42
713.407	27930.62
713.75	27723.85
714.094	27780.34
714.438	27654.24
714.782	27831.64
715.125	27513.01
715.469	27650.4
715.812	27444.08
716.156	27327.25
716.499	27297.42
716.843	27334.48
717.186	27106.46
717.53	27430.52
717.873	27313.91
718.216	27308.27
718.559	27034.15
718.902	26849.97
719.246	27009.06
719.589	26885.23
719.932	26867.82
720.275	26784.21
720.617	26817.66
720.96	26772.01
721.303	26672.58
721.646	26668.28
721.989	26562.97
722.331	26585.12
722.674	26482.52
723.016	26462.64
723.359	26492.02
723.701	26485.91
724.044	26323.21
724.386	26207.28
724.729	26325.24
725.071	26268.74
725.413	26243.89
725.755	26147.17
726.097	26112.59
726.439	25911.24
726.782	25985.14
727.124	26099.71
727.465	25987.17
727.807	25908.98
728.149	25838.47
728.491	25831.47
728.833	25837.34
729.175	25759.38
729.516	25722.32
729.858	25669.89
730.199	25774.97
730.541	25576.11
730.882	25613.62
731.224	25660.4
731.565	25412.72
731.906	25470.35
732.248	25453.4
732.589	25321.88
732.93	25369.11
733.271	25167.08
733.612	25301.09
733.953	25196.46
734.294	25200.3
734.635	25070.13
734.976	25173.86
735.317	24977.48
735.658	24987.65
735.999	25047.53
736.339	24948.55
736.68	24946.97
737.021	25071.94
737.361	24879.4
737.702	24879.85
738.042	24802.12
738.383	24732.97
738.723	24894.32
739.063	24715.34
739.404	24792.4
739.744	24658.62
740.084	24547.89
740.424	24735.45
740.764	24518.28
741.104	24461.56
741.444	24450.26
741.784	24428.34
742.124	24509.47
742.464	24371.62
742.804	24353.54
743.143	24323.03
743.483	24219.08
743.823	24137.95
744.162	24173.66
744.502	24141.12
744.841	24066.99
745.181	24177.5
745.52	23914.23
745.86	24117.61
746.199	23962.14
746.538	23969.82
746.877	23997.17
747.216	24027.45
747.556	23888.69
747.895	23878.52
748.234	23848.92
748.573	23763.73
748.911	23694.57
749.25	23612.77
749.589	23488.48
749.928	23639.89
750.267	23563.28
750.605	23473.34
750.944	23446.22
751.283	23492.09
751.621	23565.09
751.96	23318.31
752.298	23352.89
752.636	23266.34
752.975	23211.88
753.313	23103.4
753.651	23190.41
753.989	23189.73
754.327	22998.77
754.666	22875.39
755.004	22880.36
755.342	22970.75
755.679	22887.82
756.017	22759.68
756.355	22823.64
756.693	22731.21
757.031	22667.71
757.368	22552.91
757.706	22660.25
758.044	22455.51
758.381	22498.9
758.719	22369.19
759.056	22379.36
759.394	22342.29
759.731	22167.84
760.068	22135.75
760.405	22086.71
