Data from hue_280_FLMS001491_00033.txt Node
Date: Tue Feb 07 15:55:11 GMT 2017
User: dcchb
Spectrometer: FLMS00149
Trigger mode: 0
Integration Time (sec): 2.000000E-2
Scans to average: 10
Electric dark correction enabled: true
Nonlinearity correction enabled: false
Boxcar width: 0
XAxis mode: Wavelengths
Number of Pixels in Spectrum: 2048
>>>>>Begin Spectral Data<<<<<
341.393	-22.84
341.776	-22.84
342.16	-22.84
342.543	-41.37
342.927	-57.41
343.31	-59.45
343.693	-57.64
344.077	-67.58
344.46	-66.23
344.843	-75.04
345.226	-49.96
345.61	-27.58
345.993	-20.13
346.376	-9.96
346.759	16.71
347.142	12.64
347.525	69.14
347.908	39.53
348.291	91.51
348.674	95.58
349.057	108.46
349.44	142.81
349.823	125.86
350.206	145.07
350.588	183.94
350.971	204.27
351.354	247.21
351.737	223.71
352.119	216.93
352.502	251.5
352.884	270.71
353.267	272.75
353.65	265.29
354.032	288.11
354.414	308.9
354.797	297.61
355.179	285.63
355.562	308.45
355.944	311.39
356.326	301.22
356.709	329.24
357.091	326.08
357.473	329.69
357.855	322.46
358.238	328.11
358.62	328.56
359.002	321.79
359.384	362.24
359.766	318.17
360.148	331.28
360.53	323.14
360.912	333.31
361.294	320.43
361.676	322.46
362.057	320.2
362.439	300.32
362.821	313.65
363.203	308
363.584	317.04
363.966	326.76
364.348	322.46
364.729	304.38
365.111	306.87
365.493	307.1
365.874	315.46
366.256	318.62
366.637	293.09
367.019	308
367.4	338.28
367.781	288.57
368.163	311.84
368.544	298.74
368.925	297.61
369.306	322.01
369.688	334.89
370.069	309.36
370.45	308.68
370.831	292.18
371.212	308
371.593	308.68
371.974	312.29
372.355	295.57
372.736	303.25
373.117	305.51
373.498	316.81
373.879	310.49
374.26	292.18
374.641	303.25
375.021	312.29
375.402	308.9
375.783	302.12
376.163	324.05
376.544	329.69
376.925	321.11
377.305	339.41
377.686	344.16
378.066	317.27
378.447	332.63
378.827	299.86
379.208	317.04
379.588	305.06
379.968	311.84
380.349	340.09
380.729	338.28
381.109	333.08
381.489	342.12
381.87	338.51
382.25	316.81
382.63	317.94
383.01	324.5
383.39	336.7
383.77	342.58
384.15	336.93
384.53	338.06
384.91	353.42
385.29	359.3
385.67	343.48
386.049	362.46
386.429	343.25
386.809	347.1
387.189	345.74
387.568	351.84
387.948	340.77
388.328	371.73
388.707	362.01
389.087	358.17
389.466	362.91
389.846	374.44
390.225	353.2
390.605	342.58
390.984	370.82
391.363	381.9
391.743	371.95
392.122	372.18
392.501	370.82
392.881	394.55
393.26	370.6
393.639	374.44
394.018	376.47
394.397	390.94
394.776	398.39
395.155	378.28
395.534	363.82
395.913	402.69
396.292	363.37
396.671	384.38
397.05	375.34
397.429	384.83
397.808	388
398.186	391.61
398.565	410.37
398.944	419.41
399.323	386.42
399.701	417.38
400.08	391.84
400.458	428.45
400.837	417.83
401.215	420.31
401.594	405.17
401.972	409.47
402.351	419.86
402.729	434.32
403.107	429.81
403.486	434.32
403.864	425.29
404.242	435.45
404.62	437.49
404.999	436.36
405.377	424.16
405.755	453.08
406.133	468.67
406.511	462.8
406.889	463.02
407.267	476.13
407.645	470.71
408.023	485.62
408.401	498.5
408.779	471.84
409.156	489.46
409.534	486.75
409.912	491.5
410.29	514.55
410.667	521.1
411.045	523.59
411.422	536.47
411.8	524.27
412.178	540.99
412.555	533.53
412.933	562.68
413.31	583.7
413.687	562.23
414.065	570.59
414.442	578.73
414.819	603.59
415.197	581.67
415.574	601.33
415.951	595
416.328	613.3
416.705	591.38
417.082	604.04
417.46	617.6
417.837	630.48
418.214	623.92
418.591	649.23
418.967	680.19
419.344	657.14
419.721	692.17
420.098	703.7
420.475	686.75
420.852	696.24
421.228	705.5
421.605	709.8
421.982	712.06
422.358	728.78
422.735	770.14
423.111	746.86
423.488	753.64
423.864	754.32
424.241	771.49
424.617	790.47
424.994	801.32
425.37	795.9
425.746	792.06
426.123	804.26
426.499	804.03
426.875	839.74
427.251	868.21
427.627	857.14
428.003	866.86
428.379	870.92
428.756	899.17
429.132	880.87
429.507	928.32
429.883	889
430.259	924.71
430.635	937.59
431.011	952.05
431.387	975.33
431.763	973.52
432.138	984.82
432.514	986.85
432.89	993.63
433.265	1034.08
433.641	1051.26
434.016	1038.38
434.392	1063.69
434.767	1119.96
435.143	1097.58
435.518	1092.16
435.894	1119.28
436.269	1112.72
436.644	1165.6
437.02	1130.35
437.395	1176
437.77	1213.51
438.145	1202.44
438.52	1208.54
438.895	1238.15
439.271	1219.61
439.646	1259.61
440.021	1296.45
440.395	1275.66
440.77	1272.04
441.145	1272.95
441.52	1308.43
441.895	1332.61
442.27	1312.95
442.645	1325.37
443.019	1336
443.394	1348.2
443.769	1371.7
444.143	1358.82
444.518	1383.23
444.892	1344.81
445.267	1376.45
445.641	1393.85
446.016	1397.01
446.39	1429.78
446.764	1411.93
447.139	1430.68
447.513	1456.22
447.887	1442.66
448.262	1439.95
448.636	1460.74
449.01	1459.61
449.384	1474.3
449.758	1443.79
450.132	1486.05
450.506	1516.1
450.88	1523.34
451.254	1526.05
451.628	1498.25
452.002	1517.01
452.376	1555.88
452.75	1552.26
453.123	1530.12
453.497	1599.04
453.871	1615.08
454.244	1634.07
454.618	1609.44
454.992	1639.26
455.365	1639.04
455.739	1663.44
456.112	1704.35
456.486	1696.44
456.859	1710.22
457.232	1728.08
457.606	1723.78
457.979	1758.81
458.352	1768.75
458.725	1759.71
459.099	1772.59
459.472	1829.32
459.845	1838.36
460.218	1875.64
460.591	1864.8
460.964	1868.64
461.337	1895.08
461.71	1927.39
462.083	1950.22
462.456	1947.05
462.829	1943.44
463.201	1958.13
463.574	1971.46
463.947	1995.19
464.32	2048.75
464.692	2034.73
465.065	2071.12
465.438	2100.04
465.81	2130.33
466.183	2114.51
466.555	2155.41
466.928	2144.34
467.3	2153.38
467.672	2194.73
468.045	2253.03
468.417	2248.97
468.789	2252.36
469.161	2291.45
469.534	2331.68
469.906	2365.35
470.278	2373.03
470.65	2357.44
471.022	2406.48
471.394	2431.79
471.766	2462.75
472.138	2430.88
472.51	2480.15
472.882	2535.06
473.253	2603.31
473.625	2570.09
473.997	2665.45
474.369	2653.48
474.74	2649.63
475.112	2665.68
475.484	2702.74
475.855	2736.19
476.227	2756.3
476.598	2846.69
476.97	2861.61
477.341	2918.78
477.713	2909.29
478.084	2931.89
478.455	3036.52
478.827	3061.6
479.198	3084.2
479.569	3096.85
479.94	3181.82
480.311	3190.41
480.682	3267.24
481.053	3282.16
481.424	3306.79
481.795	3322.84
482.166	3394.47
482.537	3422.72
482.908	3496.84
483.279	3523.28
483.65	3538.42
484.021	3609.61
484.391	3627.24
484.762	3648.03
485.133	3702.71
485.503	3705.43
485.874	3773.22
486.244	3803.95
486.615	3888.92
486.985	3903.61
487.356	3924.85
487.726	3958.53
488.097	4017.06
488.467	4042.82
488.837	4092.08
489.207	4121.91
489.578	4168.69
489.948	4229.93
490.318	4244.62
490.688	4261.34
491.058	4300.44
491.428	4336.6
491.798	4405.29
492.168	4467.89
492.538	4441.45
492.908	4506.31
493.278	4516.48
493.648	4574.33
494.017	4583.82
494.387	4625.85
494.757	4655.68
495.126	4699.75
495.496	4698.39
495.866	4721.22
496.235	4761.89
496.605	4788.11
496.974	4835.34
497.344	4853.19
497.713	4851.61
498.082	4902
498.452	4934.77
498.821	4963.02
499.19	4945.39
499.559	5023.36
499.928	4958.27
500.298	5053.64
500.667	5143.35
501.036	5052.28
501.405	5061.32
501.774	5041.21
502.143	5097.03
502.512	5167.76
502.88	5164.14
503.249	5112.39
503.618	5234.88
503.987	5164.6
504.356	5221.77
504.724	5244.82
505.093	5251.15
505.462	5297.93
505.83	5326.17
506.199	5288.66
506.567	5344.7
506.936	5381.31
507.304	5430.8
507.672	5383.35
508.041	5448.2
508.409	5514.64
508.777	5505.6
509.145	5560.52
509.514	5476.45
509.882	5504.02
510.25	5538.82
510.618	5561.2
510.986	5583.12
511.354	5608.88
511.722	5614.08
512.09	5682.1
512.458	5657.24
512.826	5689.33
513.193	5682.77
513.561	5697.24
513.929	5781.98
514.297	5767.52
514.664	5764.58
515.032	5772.49
515.4	5819.72
515.767	5874.41
516.135	5848.42
516.502	5827.4
516.869	5890.68
517.237	5849.1
517.604	5853.62
517.972	5895.2
518.339	5898.59
518.706	5930.9
519.073	5937.91
519.44	6015.19
519.808	5988.08
520.175	6022.43
520.542	6066.27
520.909	6108.53
521.276	6072.82
521.643	6105.81
522.009	6122.76
522.376	6158.24
522.743	6128.19
523.11	6239.82
523.477	6298.8
523.843	6294.06
524.21	6289.54
524.577	6346.94
524.943	6379.03
525.31	6368.41
525.676	6394.85
526.043	6435.07
526.409	6411.79
526.776	6473.49
527.142	6439.82
527.508	6470.32
527.874	6577.67
528.241	6586.93
528.607	6537.22
528.973	6625.12
529.339	6619.25
529.705	6720.94
530.071	6715.52
530.437	6742.86
530.803	6695.63
531.169	6783.54
531.535	6715.29
531.901	6799.81
532.267	6779.92
532.632	6819.92
532.998	6823.31
533.364	6873.25
533.73	6873.03
534.095	6920.03
534.461	6947.15
534.826	6957.54
535.192	6987.6
535.557	6980.82
535.923	6969.52
536.288	7011.1
536.653	7009.97
537.019	7041.16
537.384	7042.29
537.749	7049.97
538.114	7060.14
538.479	7120.02
538.845	7122.96
539.21	7103.3
539.575	7084.09
539.94	7156.18
540.305	7156.86
540.67	7114.6
541.034	7160.93
541.399	7172
541.764	7248.38
542.129	7221.94
542.494	7241.6
542.858	7240.02
543.223	7291.77
543.587	7338.78
543.952	7303.52
544.316	7324.99
544.681	7302.62
545.045	7397.08
545.41	7372
545.774	7324.31
546.138	7410.86
546.503	7399.11
546.867	7408.83
547.231	7454.03
547.595	7500.13
547.959	7491.54
548.324	7431.43
548.688	7517.75
549.052	7503.74
549.416	7538.54
549.779	7515.27
550.143	7527.47
550.507	7586.23
550.871	7628.49
551.235	7560.24
551.599	7683.4
551.962	7559.34
552.326	7623.06
552.689	7648.15
553.053	7629.16
553.417	7587.58
553.78	7746.22
554.143	7678.2
554.507	7689.28
554.87	7692.89
555.234	7786.67
555.597	7666.9
555.96	7825.77
556.323	7787.8
556.686	7836.62
557.05	7856.95
557.413	7876.84
557.776	7874.36
558.139	7899.21
558.502	7957.06
558.865	7882.04
559.228	7981.92
559.59	8028.25
559.953	7954.13
560.316	8078.87
560.679	8057.18
561.041	8068.25
561.404	8164.06
561.767	8173.33
562.129	8093.56
562.492	8205.87
562.854	8232.54
563.217	8157.06
563.579	8283.38
563.941	8263.72
564.304	8236.38
564.666	8323.61
565.028	8367.22
565.39	8332.42
565.753	8447
566.115	8459.65
566.477	8437.96
566.839	8458.52
567.201	8515.02
567.563	8495.36
567.925	8576.71
568.287	8656.26
568.648	8592.75
569.01	8639.53
569.372	8659.87
569.734	8642.47
570.095	8722.02
570.457	8799.53
570.819	8815.57
571.18	8779.64
571.542	8875.91
571.903	8839.53
572.265	8904.84
572.626	8943.03
572.987	8931.73
573.349	8912.97
573.71	8971.05
574.071	8957.72
574.432	9062.57
574.794	9152.06
575.155	9171.04
575.516	9156.81
575.877	9253.3
576.238	9217.14
576.599	9268.67
576.96	9327.2
577.32	9311.83
577.681	9386.86
578.042	9409.68
578.403	9512.5
578.763	9527.87
579.124	9558.38
579.485	9632.27
579.845	9654.42
580.206	9660.3
580.566	9686.74
580.927	9686.96
581.287	9796.34
581.648	9782.33
582.008	9951.59
582.368	9890.35
582.728	9997.69
583.089	10060.29
583.449	10020.29
583.809	10150.23
584.169	10202.66
584.529	10200.62
584.889	10387.74
585.249	10315.87
585.609	10272.48
585.969	10444.23
586.329	10415.08
586.688	10583.66
587.048	10565.58
587.408	10622.08
587.768	10714.28
588.127	10764.22
588.487	10813.49
588.846	10996.76
589.206	10899.59
589.565	10971.22
589.925	11140.26
590.284	11121.05
590.643	11199.47
591.003	11275.4
591.362	11410.53
591.721	11486.92
592.08	11518.33
592.44	11609.62
592.799	11590.87
593.158	11727.81
593.517	11751.99
593.876	11858.66
594.235	11834.02
594.593	11904.98
594.952	12036.05
595.311	12050.74
595.67	12100.46
596.029	12323.5
596.387	12293.22
596.746	12330.51
597.104	12381.81
597.463	12353.56
597.822	12443.73
598.18	12465.19
598.538	12502.26
598.897	12726.43
599.255	12588.36
599.613	12892.75
599.972	12802.59
600.33	12840.55
600.688	12946.09
601.046	12979.31
601.404	13091.17
601.762	13049.36
602.12	13196.93
602.478	13158.74
602.836	13255.46
603.194	13213.88
603.552	13318.28
603.91	13322.12
604.268	13413.64
604.625	13375.45
604.983	13511.5
605.341	13458.39
605.698	13492.74
606.056	13595.33
606.413	13572.06
606.771	13650.93
607.128	13718.72
607.485	13651.6
607.843	13762.56
608.2	13793.52
608.557	13897.02
608.914	13868.55
609.272	13901.32
609.629	13956
609.986	14072.16
610.343	13984.93
610.7	14123.91
611.057	14065.83
611.414	14178.14
611.771	14247.07
612.127	14174.08
612.484	14290.01
612.841	14274.86
613.198	14248.2
613.554	14332.49
613.911	14478.93
614.267	14415.65
614.624	14399.61
614.98	14410
615.337	14455.2
615.693	14524.35
616.05	14482.09
616.406	14593.5
616.762	14513.73
617.118	14528.19
617.475	14546.27
617.831	14644.8
618.187	14655.87
618.543	14665.59
618.899	14707.4
619.255	14783.55
619.611	14745.59
619.967	14799.82
620.323	14856.77
620.678	14845.47
621.034	14858.35
621.39	14779.26
621.746	14724.34
622.101	14932.25
622.457	14784.46
622.812	14851.8
623.168	15000.95
623.523	14867.84
623.879	14927.73
624.234	14858.8
624.589	14958.46
624.945	14968.18
625.3	14944.45
625.655	15017.44
626.01	14979.7
626.365	14989.42
626.72	14983.77
627.075	15011.79
627.43	14973.6
627.785	14901.51
628.14	15010.66
628.495	15036.88
628.85	15002.3
629.205	14983.77
629.559	15037.78
629.914	14897.45
630.269	15072.81
630.623	14961.85
630.978	14938.35
631.332	14991.46
631.687	14964.56
632.041	14882.08
632.396	14965.24
632.75	14912.81
633.104	14899.26
633.459	14840.95
633.813	14870.33
634.167	14812.03
634.521	14804.34
634.875	14822.65
635.229	14774.74
635.583	14801.4
635.937	14750.56
636.291	14720.5
636.645	14827.17
636.999	14747.85
637.352	14680.73
637.706	14730.45
638.06	14771.12
638.413	14660.39
638.767	14685.93
639.121	14756.21
639.474	14609.32
639.828	14600.51
640.181	14646.38
640.534	14620.84
640.888	14570.9
641.241	14539.72
641.594	14591.24
641.947	14654.52
642.301	14568.64
642.654	14536.78
643.007	14544.01
643.36	14625.82
643.713	14587.85
644.066	14547.4
644.419	14527.97
644.771	14401.87
645.124	14261.31
645.477	14298.37
645.83	14187.86
646.182	14137.02
646.535	14146.73
646.888	14193.06
647.24	14033.06
647.593	14155.55
647.945	14083.68
648.298	14117.35
648.65	14040.07
649.002	14022.67
649.355	14119.16
649.707	14113.06
650.059	14133.85
650.411	14258.37
650.763	14352.38
651.115	14483.45
651.467	14386.5
651.819	14359.61
652.171	14406.16
652.523	14337.91
652.875	14433.05
653.227	14374.75
653.578	14475.76
653.93	14424.01
654.282	14430.11
654.633	14368.65
654.985	14306.95
655.337	14369.1
655.688	14411.36
656.039	14431.92
656.391	14407.52
656.742	14415.43
657.094	14364.81
657.445	14375.88
657.796	14395.54
658.147	14410
658.498	14348.31
658.849	14487.06
659.2	14357.8
659.551	14363.45
659.902	14479.15
660.253	14386.27
660.604	14437.8
660.955	14317.12
661.306	14469.21
661.656	14403.67
662.007	14439.61
662.358	14511.69
662.708	14386.95
663.059	14483.22
663.409	14425.14
663.76	14492.49
664.11	14452.04
664.461	14555.99
664.811	14578.81
665.161	14488.64
665.511	14500.4
665.862	14589.43
666.212	14499.04
666.562	14538.59
666.912	14577.91
667.262	14514.63
667.612	14500.17
667.962	14544.24
668.312	14564.8
668.662	14551.69
669.011	14497.46
669.361	14470.79
669.711	14463.33
670.06	14432.6
670.41	14483.22
670.76	14448.65
671.109	14430.57
671.459	14450.45
671.808	14475.09
672.157	14468.08
672.507	14339.5
672.856	14395.09
673.205	14341.76
673.554	14359.61
673.904	14343.56
674.253	14369.55
674.602	14316.22
674.951	14144.92
675.3	14164.59
675.649	14266.96
675.998	14240.52
676.346	14313.28
676.695	14317.12
677.044	14192.16
677.393	14252.49
677.741	14281.42
678.09	14214.08
678.438	14118.71
678.787	14218.14
679.135	14161.65
679.484	14081.2
679.832	14094.98
680.181	14084.36
680.529	14110.8
680.877	14069.45
681.225	14008.43
681.573	14188.99
681.922	13941.54
682.27	13958.94
682.618	13954.65
682.966	13885.04
683.314	13907.87
683.661	13967.3
684.009	13883.46
684.357	13742
684.705	13709
685.053	13818.61
685.4	13773.18
685.748	13748.1
686.095	13629.01
686.443	13683.24
686.79	13600.98
687.138	13655.67
687.485	13622.9
687.832	13418.84
688.18	13541.1
688.527	13418.16
688.874	13488.44
689.221	13390.82
689.568	13317.6
689.915	13248.23
690.262	13329.13
690.609	13342.91
690.956	13234.44
691.303	13196.02
691.65	13157.38
691.997	13215.46
692.344	13038.97
692.69	12996.93
693.037	13104.73
693.383	12859.53
693.73	12936.82
694.077	12831.29
694.423	12892.98
694.769	12837.16
695.116	12794.9
695.462	12786.54
695.808	12685.53
696.155	12650.95
696.501	12607.56
696.847	12581.12
697.193	12515.14
697.539	12547.23
697.885	12459.55
698.231	12363.95
698.577	12406.21
698.923	12326.22
699.269	12275.14
699.614	12169.61
699.96	12130.51
700.306	12183.62
700.651	12132.1
700.997	11983.85
701.342	12014.13
701.688	12043.06
702.033	11911.99
702.379	11819.11
702.724	11845.32
703.069	11887.81
703.415	11709.73
703.76	11743.63
704.105	11796.74
704.45	11742.95
704.795	11557.87
705.14	11572.34
705.485	11540.02
705.83	11504.99
706.175	11481.27
706.52	11453.24
706.865	11373.92
707.209	11388.84
707.554	11349.74
707.899	11372.12
708.243	11309.07
708.588	11290.76
708.932	11181.61
709.277	11183.87
709.621	11183.42
709.966	11075.17
710.31	11098.23
710.654	11091.45
710.998	11050.54
711.342	11016.19
711.687	10994.73
712.031	10892.13
712.375	10918.12
712.719	10929.64
713.063	10865.24
713.407	10866.59
713.75	10914.73
714.094	10819.14
714.438	10747.73
714.782	10845.58
715.125	10717.9
715.469	10754.51
715.812	10650.78
716.156	10601.52
716.499	10676.54
716.843	10651.01
717.186	10555.87
717.53	10656.2
717.873	10583.44
718.216	10575.75
718.559	10531.91
718.902	10476.32
719.246	10552.02
719.589	10441.07
719.932	10469.77
720.275	10444.01
720.617	10479.48
720.96	10493.27
721.303	10440.39
721.646	10392.03
721.989	10418.24
722.331	10458.47
722.674	10368.53
723.016	10431.35
723.359	10398.36
723.701	10307.29
724.044	10349.77
724.386	10247.63
724.729	10237.46
725.071	10355.87
725.413	10279.26
725.755	10288.08
726.097	10239.72
726.439	10200.85
726.782	10185.71
727.124	10208.98
727.465	10185.25
727.807	10210.34
728.149	10124.92
728.491	10227.06
728.833	10289.88
729.175	10193.84
729.516	10166.05
729.858	10153.84
730.199	10175.09
730.541	10116.33
730.882	10153.84
731.224	10135.99
731.565	10076.33
731.906	10131.47
732.248	10137.8
732.589	10109.78
732.93	10091.02
733.271	10151.13
733.612	10181.41
733.953	10192.49
734.294	10128.76
734.635	10208.08
734.976	10164.46
735.317	10066.84
735.658	10082.43
735.999	10114.3
736.339	10093.28
736.68	10147.29
737.021	10077.46
737.361	10123.56
737.702	10163.11
738.042	10223.45
738.383	10143
738.723	10120.62
739.063	10139.61
739.404	10216.44
739.744	10198.14
740.084	10151.58
740.424	10219.15
740.764	10190.23
741.104	10270.68
741.444	10215.08
741.784	10221.41
742.124	10262.31
742.464	10257.34
742.804	10226.61
743.143	10291.24
743.483	10282.2
743.823	10314.52
744.162	10381.86
744.502	10393.61
744.841	10340.05
745.181	10478.81
745.52	10466.6
745.86	10538.47
746.199	10600.39
746.538	10613.72
746.877	10640.38
747.216	10670.21
747.556	10723.55
747.895	10835.41
748.234	10805.8
748.573	10836.54
748.911	10923.09
749.25	10997.66
749.589	10997.89
749.928	11112.69
750.267	11269.97
750.605	11216.87
750.944	11302.74
751.283	11381.61
751.621	11516.75
751.96	11506.8
752.298	11586.35
752.636	11680.36
752.975	11755.38
753.313	11784.53
753.651	12025.88
753.989	12078.54
754.327	12154.92
754.666	12187.01
755.004	12332.77
755.342	12478.53
755.679	12622.48
756.017	12677.62
756.355	12794.68
756.693	12958.06
757.031	13023.82
757.368	13124.39
757.706	13361.67
758.044	13443.93
758.381	13602.11
758.719	13687.76
759.056	13876.91
759.394	14004.82
759.731	13990.58
