Data from hue_30_FLMS001491_26.txt Node
Date: Mon Feb 06 15:04:56 GMT 2017
User: dcchb
Spectrometer: FLMS00149
Trigger mode: 0
Integration Time (sec): 2.000000E-2
Scans to average: 10
Electric dark correction enabled: true
Nonlinearity correction enabled: false
Boxcar width: 0
XAxis mode: Wavelengths
Number of Pixels in Spectrum: 2048
>>>>>Begin Spectral Data<<<<<
341.393	-18.88
341.776	-18.88
342.16	-18.88
342.543	-79
342.927	-73.35
343.31	-81.48
343.693	-71.76
344.077	-69.96
344.46	-39
344.843	-64.76
345.226	-50.75
345.61	-31.31
345.993	-39.9
346.376	4.84
346.759	29.02
347.142	32.19
347.525	39.87
347.908	65.86
348.291	59.31
348.674	91.85
349.057	125.97
349.44	127.33
349.823	147.21
350.206	165.29
350.588	211.62
350.971	206.42
351.354	235.12
351.737	226.76
352.119	244.84
352.502	267.21
352.884	271.05
353.267	266.31
353.65	286.65
354.032	308.11
354.414	294.55
354.797	313.54
355.179	345.85
355.562	316.02
355.944	351.28
356.326	329.13
356.709	337.49
357.091	336.59
357.473	323.48
357.855	356.25
358.238	365.29
358.62	365.51
359.002	349.02
359.384	335.68
359.766	358.96
360.148	354.44
360.53	358.28
360.912	326.64
361.294	334.33
361.676	339.98
362.057	323.48
362.439	344.72
362.821	323.25
363.203	331.39
363.584	330.03
363.966	327.77
364.348	319.19
364.729	334.78
365.111	329.13
365.493	323.71
365.874	319.64
366.256	322.35
366.637	333.65
367.019	312.63
367.4	328.45
367.781	328.23
368.163	321.45
368.544	295.01
368.925	318.51
369.306	316.93
369.688	327.32
370.069	320.54
370.45	300.43
370.831	340.2
371.212	312.18
371.593	335.01
371.974	311.5
372.355	319.41
372.736	319.41
373.117	335.01
373.498	303.59
373.879	329.36
374.26	318.28
374.641	308.57
375.021	328.9
375.402	322.8
375.783	336.81
376.163	341.11
376.544	339.52
376.925	337.94
377.305	316.93
377.686	331.62
378.066	329.13
378.447	344.5
378.827	339.07
379.208	336.81
379.588	319.19
379.968	323.71
380.349	321.45
380.729	337.04
381.109	353.99
381.489	362.35
381.87	339.75
382.25	340.2
382.63	346.98
383.01	346.08
383.39	366.87
383.77	342.91
384.15	355.8
384.53	369.13
384.91	356.47
385.29	351.73
385.67	344.5
386.049	335.91
386.429	357.6
386.809	358.73
387.189	339.98
387.568	370.03
387.948	373.65
388.328	363.25
388.707	363.25
389.087	351.73
389.466	364.16
389.846	370.26
390.225	371.39
390.605	371.16
390.984	365.51
391.363	376.36
391.743	366.87
392.122	378.62
392.501	375.68
392.881	382.69
393.26	365.96
393.639	356.02
394.018	360.32
394.397	379.75
394.776	381.78
395.155	377.04
395.534	384.95
395.913	376.59
396.292	395.79
396.671	382.46
397.05	385.85
397.429	384.27
397.808	398.96
398.186	380.2
398.565	432.63
398.944	402.35
399.323	397.83
399.701	375
400.08	402.35
400.458	393.08
400.837	396.47
401.215	394.44
401.594	398.96
401.972	424.49
402.351	412.74
402.729	408.22
403.107	400.77
403.486	422.46
403.864	418.62
404.242	432.63
404.62	413.65
404.999	431.73
405.377	424.04
405.755	426.3
406.133	416.81
406.511	424.04
406.889	425.62
407.267	448
407.645	420.2
408.023	454.32
408.401	445.51
408.779	433.08
409.156	453.42
409.534	449.8
409.912	446.87
410.29	459.52
410.667	474.21
411.045	438.96
411.422	454.78
411.8	480.99
412.178	446.41
412.555	463.36
412.933	484.15
413.31	474.44
413.687	481.67
414.065	476.7
414.442	476.7
414.819	503.36
415.197	513.98
415.574	495.23
415.951	473.76
416.328	492.74
416.705	508.56
417.082	543.81
417.46	496.58
417.837	501.33
418.214	515.79
418.591	519.41
418.967	546.75
419.344	527.54
419.721	521.67
420.098	528.22
420.475	526.19
420.852	520.54
421.228	549.91
421.605	537.26
421.982	551.5
422.358	536.13
422.735	522.8
423.111	544.94
423.488	551.5
423.864	558.5
424.241	557.82
424.617	555.34
424.994	561.44
425.37	555.79
425.746	566.41
426.123	583.36
426.499	588.78
426.875	570.48
427.251	607.99
427.627	602.34
428.003	597.37
428.379	614.09
428.756	615.45
429.132	626.07
429.507	611.83
429.883	613.42
430.259	636.01
430.635	628.78
431.011	619.07
431.387	649.12
431.763	631.27
432.138	625.39
432.514	680.76
432.89	649.12
433.265	662.23
433.641	653.19
434.016	656.35
434.392	709.23
434.767	691.83
435.143	695.45
435.518	695.67
435.894	719.85
436.269	715.56
436.644	694.77
437.02	711.27
437.395	706.97
437.77	730.7
438.145	738.16
438.52	753.75
438.895	749.91
439.271	715.56
439.646	751.49
440.021	761.21
440.395	784.94
440.77	745.16
441.145	776.58
441.52	766.63
441.895	777.71
442.27	764.6
442.645	787.2
443.019	775.22
443.394	786.07
443.769	803.02
444.143	796.69
444.518	801.89
444.892	800.76
445.267	796.69
445.641	809.34
446.016	839.4
446.39	856.57
446.764	845.27
447.139	824.48
447.513	822
447.887	863.58
448.262	849.57
448.636	855.67
449.01	884.37
449.384	864.03
449.758	853.41
450.132	890.7
450.506	891.83
450.88	872.39
451.254	901.77
451.628	901.32
452.002	886.18
452.376	909.45
452.75	916.46
453.123	946.74
453.497	923.69
453.871	902.67
454.244	946.06
454.618	961.88
454.992	991.26
455.365	975.67
455.739	978.15
456.112	998.04
456.486	1004.37
456.859	1000.3
457.232	1037.13
457.606	996
457.979	1013.18
458.352	1052.5
458.725	1067.19
459.099	1062.44
459.472	1077.58
459.845	1097.7
460.218	1103.8
460.591	1081.88
460.964	1122.33
461.337	1145.15
461.71	1133.18
462.083	1164.36
462.456	1172.5
462.829	1198.26
463.201	1190.35
463.574	1235.32
463.947	1217.02
464.32	1245.49
464.692	1247.98
465.065	1242.33
465.438	1276.9
465.81	1283.68
466.183	1309.44
466.555	1339.5
466.928	1351.93
467.3	1348.54
467.672	1366.84
468.045	1376.79
468.417	1398.48
468.789	1448.65
469.161	1413.4
469.534	1423.34
469.906	1510.57
470.278	1511.7
470.65	1479.83
471.022	1537.91
471.394	1557.57
471.766	1573.16
472.138	1599.15
472.51	1616.1
472.882	1674.86
473.253	1671.24
473.625	1699.04
473.997	1762.54
474.369	1763.22
474.74	1795.76
475.112	1837.56
475.484	1866.72
475.855	1882.08
476.227	1926.6
476.598	1963.89
476.97	2000.27
477.341	2065.36
477.713	2063.1
478.084	2099.25
478.455	2177.22
478.827	2178.8
479.198	2281.17
479.569	2304.22
479.94	2371.11
480.311	2373.82
480.682	2423.09
481.053	2511.45
481.424	2567.26
481.795	2586.7
482.166	2687.26
482.537	2674.38
482.908	2793.02
483.279	2823.75
483.65	2840.48
484.021	2953.02
484.391	2957.99
484.762	3052.45
485.133	3081.15
485.503	3080.02
485.874	3202.27
486.244	3289.73
486.615	3367.69
486.985	3385.55
487.356	3467.58
487.726	3539.21
488.097	3604.07
488.467	3653.56
488.837	3761.13
489.207	3772.66
489.578	3879.54
489.948	3929.71
490.318	3965.87
490.688	4037.73
491.058	4145.07
491.428	4189.59
491.798	4222.36
492.168	4372.64
492.538	4339.19
492.908	4396.59
493.278	4552.75
493.648	4563.37
494.017	4578.96
494.387	4672.97
494.757	4734.89
495.126	4793.19
495.496	4781.44
495.866	4904.83
496.235	4959.52
496.605	5035.9
496.974	5084.48
497.344	5148.66
497.713	5194.76
498.082	5206.06
498.452	5328.77
498.821	5304.14
499.19	5378.49
499.559	5360.18
499.928	5457.13
500.298	5510.91
500.667	5506.62
501.036	5548.43
501.405	5623
501.774	5659.39
502.143	5755.88
502.512	5732.6
502.88	5848.08
503.249	5788.65
503.618	5853.28
503.987	5883.56
504.356	6019.15
504.724	5960.39
505.093	6032.03
505.462	6027.51
505.83	6127.4
506.199	6200.39
506.567	6217.34
506.936	6211.69
507.304	6296.88
507.672	6304.11
508.041	6362.42
508.409	6403.77
508.777	6507.72
509.145	6574.16
509.514	6519.02
509.882	6511.79
510.25	6569.64
510.618	6618.23
510.986	6662.07
511.354	6691.9
511.722	6754.95
512.09	6843.76
512.458	6806.47
512.826	6854.38
513.193	6896.64
513.561	6903.87
513.929	6930.99
514.297	7045.34
514.664	7084.88
515.032	7079.69
515.4	7073.81
515.767	7186.58
516.135	7157.42
516.502	7155.62
516.869	7277.65
517.237	7246.46
517.604	7270.19
517.972	7347.48
518.339	7375.05
518.706	7313.35
519.073	7349.51
519.44	7465.67
519.808	7543.4
520.175	7486.68
520.542	7531.2
520.909	7550.41
521.276	7601.93
521.643	7702.5
522.009	7734.58
522.376	7766.9
522.743	7791.98
523.11	7846.9
523.477	7864.07
523.843	7946.33
524.21	8034.92
524.577	8029.94
524.943	8145.87
525.31	8118.08
525.676	8192.43
526.043	8210.96
526.409	8246.66
526.776	8339.77
527.142	8344.29
527.508	8397.62
527.874	8456.15
528.241	8457.73
528.607	8554.22
528.973	8619.99
529.339	8606.2
529.705	8625.18
530.071	8724.84
530.437	8744.5
530.803	8781.11
531.169	8844.16
531.535	8881
531.901	8908.34
532.267	9002.12
532.632	9021.56
532.998	9010.03
533.364	9073.53
533.73	9100.42
534.095	9173.87
534.461	9183.59
534.826	9253.87
535.192	9247.99
535.557	9356.91
535.923	9304.26
536.288	9357.82
536.653	9398.72
537.019	9467.42
537.384	9497.7
537.749	9480.3
538.114	9550.81
538.479	9578.38
538.845	9643.01
539.21	9617.25
539.575	9724.36
539.94	9752.16
540.305	9701.54
540.67	9745.15
541.034	9861.76
541.399	9939.5
541.764	9829.9
542.129	9976.33
542.494	10000.74
542.858	10061.76
543.223	10066.05
543.587	10153.5
543.952	10195.99
544.316	10182.66
544.681	10238.02
545.045	10245.93
545.41	10295.87
545.774	10325.25
546.138	10375.87
546.503	10507.85
546.867	10453.84
547.231	10551.91
547.595	10552.36
547.959	10613.15
548.324	10613.15
548.688	10648.18
549.052	10671
549.416	10692.25
549.779	10753.26
550.143	10784.9
550.507	10836.42
550.871	10904.9
551.235	10859.47
551.599	10968.62
551.962	10983.99
552.326	11034.61
552.689	11144.44
553.053	11068.28
553.417	11050.2
553.78	11201.84
554.143	11170.43
554.507	11176.53
554.87	11230.09
555.234	11346.69
555.597	11281.61
555.96	11323.19
556.323	11430.31
556.686	11442.74
557.05	11507.82
557.413	11461.27
557.776	11580.36
558.139	11630.75
558.502	11648.83
558.865	11631.43
559.228	11700.81
559.59	11748.49
559.953	11781.71
560.316	11830.75
560.679	11922.27
561.041	11926.11
561.404	11991.2
561.767	11994.13
562.129	11996.39
562.492	12124.53
562.854	12156.62
563.217	12123.4
563.579	12125.43
563.941	12262.15
564.304	12300.11
564.666	12364.97
565.028	12390.73
565.39	12435.03
565.753	12495.14
566.115	12466.89
566.477	12576.27
566.839	12588.92
567.201	12679.31
567.563	12600.9
567.925	12760.44
568.287	12763.61
568.648	12856.26
569.01	12828.24
569.372	12988.46
569.734	12912.98
570.095	12992.3
570.457	13111.84
570.819	13150.49
571.18	13202.69
571.542	13219.41
571.903	13316.81
572.265	13349.58
572.626	13365.4
572.987	13510.25
573.349	13510.25
573.71	13600.42
574.071	13690.59
574.432	13773.75
574.794	13841.09
575.155	13936.23
575.516	13930.58
575.877	14065.27
576.238	14202.66
576.599	14294.19
576.96	14354.75
577.32	14481.07
577.681	14529.43
578.042	14770.11
578.403	14773.27
578.763	14856.21
579.124	15028.4
579.485	15228.4
579.845	15358.11
580.206	15391.11
580.566	15489.18
580.927	15802.4
581.287	15893.47
581.648	16063.18
582.008	16307.24
582.368	16422.49
582.728	16673.56
583.089	16672.2
583.449	16971.18
583.809	17161.91
584.169	17390.38
584.529	17606.42
584.889	17871.27
585.249	18051.38
585.609	18231.94
585.969	18466.28
586.329	18673.96
586.688	18925.48
587.048	19153.04
587.408	19343.09
587.768	19619.47
588.127	19937.65
588.487	20124.54
588.846	20538.99
589.206	20683.4
589.565	20867.12
589.925	21371.06
590.284	21519.99
590.643	21817.83
591.003	22168.56
591.362	22501.43
591.721	22827.52
592.08	23002.21
592.44	23415.08
592.799	23548.86
593.158	23859.36
593.517	24150.65
593.876	24429.29
594.235	24616.4
594.593	25002.83
594.952	25297.51
595.311	25504.96
595.67	25876.03
596.029	26304.72
596.387	26627.42
596.746	26935.89
597.104	27084.81
597.463	27320.74
597.822	27683.21
598.18	27855.41
598.538	28129.08
598.897	28525.9
599.255	28642.51
599.613	29358.65
599.972	29523.39
600.33	29705.08
600.688	29864.85
601.046	30291.73
601.404	30636.58
601.762	30839.74
602.12	31239.73
602.478	31372.38
602.836	31643.79
603.194	31648.31
603.552	31998.13
603.91	32134.4
604.268	32475.18
604.625	32720.37
604.983	32954.94
605.341	33043.98
605.698	33468.6
606.056	33782.04
606.413	33804.86
606.771	34226.54
607.128	34466.09
607.485	34447.1
607.843	34688.23
608.2	35117.14
608.557	35307.42
608.914	35487.3
609.272	35826.73
609.629	36054.97
609.986	36232.37
610.343	36265.13
610.7	36762.3
611.057	36826.48
611.414	36955.06
611.771	36951.9
612.127	37352.34
612.484	37386.01
612.841	37647.92
613.198	37680.92
613.554	37937.63
613.911	38222.14
614.267	38312.76
614.624	38476.6
614.98	38560.89
615.337	38898.74
615.693	38867.33
616.05	38965.85
616.406	39327.43
616.762	39277.48
617.118	39302.34
617.475	39462.79
617.831	39702.11
618.187	39945.04
618.543	40093.73
618.899	40234.07
619.255	40224.58
619.611	40389.55
619.967	40558.13
620.323	40724.9
620.678	40688.52
621.034	40697.56
621.39	40781.4
621.746	40760.16
622.101	41276.98
622.457	41015.97
622.812	41239.24
623.168	41404.66
623.523	41539.35
623.879	41679.23
624.234	41369.41
624.589	41619.34
624.945	41680.81
625.3	41890.52
625.655	41912.22
626.01	41867.7
626.365	41970.29
626.72	41946.79
627.075	42050.52
627.43	42108.82
627.785	41899.79
628.14	42165.54
628.495	42239.89
628.85	42166.67
629.205	42100.01
629.559	42491.19
629.914	42164.19
630.269	42330.96
630.623	42387.91
630.978	42250.29
631.332	42474.69
631.687	42463.62
632.041	42382.04
632.396	42654.57
632.75	42285.09
633.104	42546.55
633.459	42318.76
633.813	42273.34
634.167	42309.49
634.521	42414.35
634.875	42490.73
635.229	42411.64
635.583	42180.46
635.937	42337.97
636.291	42271.3
636.645	42247.58
636.999	42288.03
637.352	42509.49
637.706	42215.94
638.06	42313.79
638.413	42316.27
638.767	42236.28
639.121	42340.91
639.474	41984.53
639.828	42138.2
640.181	42196.28
640.534	42153.79
640.888	42078.31
641.241	41986.57
641.594	42004.64
641.947	42193.34
642.301	42071.76
642.654	42055.26
643.007	42064.76
643.36	41984.08
643.713	42000.58
644.066	42085.32
644.419	41850.3
644.771	41655.95
645.124	41288.73
645.477	41202.86
645.83	41057.32
646.182	40797.22
646.535	40779.37
646.888	41057.78
647.24	40762.19
647.593	40964.22
647.945	40858.91
648.298	40719.48
648.65	40520.16
649.002	40574.17
649.355	40732.81
649.707	40584.34
650.059	40712.25
650.411	41200.6
650.763	41261.39
651.115	41617.76
651.467	41583.86
651.819	41504.09
652.171	41422.51
652.523	41427.26
652.875	41457.09
653.227	41074.27
653.578	41505.45
653.93	41434.49
654.282	41268.84
654.633	41070.88
654.985	41296.64
655.337	41229.07
655.688	41305
656.039	41350.88
656.391	41131.67
656.742	41174.84
657.094	41175.51
657.445	41237.66
657.796	41160.6
658.147	41089.41
658.498	41111.11
658.849	41170.09
659.2	41013.94
659.551	41024.33
659.902	41134.16
660.253	41039.92
660.604	41063.2
660.955	41059.81
661.306	41069.08
661.656	41075.4
662.007	40989.3
662.358	40940.94
662.708	40929.87
663.059	40847.16
663.409	40732.81
663.76	40934.84
664.11	40973.94
664.461	41006.25
664.811	40988.17
665.161	40909.31
665.511	40891.68
665.862	40875.41
666.212	40947.04
666.562	41032.47
666.912	40929.42
667.262	40891
667.612	40870.44
667.962	40833.38
668.312	40742.3
668.662	41004.67
669.011	40893.94
669.361	40909.98
669.711	40792.02
670.06	40823.43
670.41	40725.58
670.76	40769.2
671.109	40794.51
671.459	40766.71
671.808	40714.96
672.157	40797.44
672.507	40586.38
672.856	40530.78
673.205	40656.21
673.554	40590.22
673.904	40459.15
674.253	40611.01
674.602	40405.36
674.951	39927.86
675.3	39746.85
675.649	40421.18
675.998	40461.63
676.346	40357.23
676.695	40532.14
677.044	40126.73
677.393	40272.49
677.741	40388.42
678.09	40250.11
678.438	40204.24
678.787	40271.81
679.135	40372.6
679.484	40067.97
679.832	40156.78
680.181	40028.2
680.529	40111.59
680.877	39782.1
681.225	39886.06
681.573	40089.44
681.922	39804.02
682.27	39613.29
682.618	39832.27
682.966	39667.08
683.314	39661.2
683.661	39647.64
684.009	39491.94
684.357	39458.04
684.705	39408.55
685.053	39318.39
685.4	39285.17
685.748	39055.57
686.095	39266.64
686.443	39009.02
686.79	38955.23
687.138	38902.13
687.485	38836.14
687.832	38773.99
688.18	38790.49
688.527	38573.77
688.874	38622.81
689.221	38548.46
689.568	38475.02
689.915	38381.91
690.262	38282.26
690.609	38162.94
690.956	38141.24
691.303	38020.79
691.65	38038.42
691.997	37848.14
692.344	37711.88
692.69	37706.45
693.037	37577.87
693.383	37405.89
693.73	37429.17
694.077	37189.4
694.423	37376.97
694.769	37254.71
695.116	37080.71
695.462	37120.25
695.808	36865.34
696.155	36995.74
696.501	36616.99
696.847	36643.66
697.193	36344.45
697.539	36696.76
697.885	36199.15
698.231	36216.1
698.577	36255.42
698.923	36118.47
699.269	35935.43
699.614	35825.15
699.96	35809.78
700.306	35752.83
700.651	35593.97
700.997	35513.06
701.342	35519.16
701.688	35284.14
702.033	35306.06
702.379	35248.21
702.724	35208.66
703.069	35162.34
703.415	34849.8
703.76	34823.36
704.105	34887.32
704.45	34693.42
704.795	34567.55
705.14	34547.44
705.485	34293.89
705.83	34238.07
706.175	34368.46
706.52	34260.89
706.865	34174.79
707.209	34042.37
707.554	33958.3
707.899	34108.35
708.243	33811.19
708.588	33725.31
708.932	33533.45
709.277	33503.4
709.621	33522.61
709.966	33361.93
710.31	33509.95
710.654	33156.52
710.998	33152.22
711.342	33179.79
711.687	33134.59
712.031	32879.46
712.375	32844.21
712.719	32844.66
713.063	32756.98
713.407	32791.33
713.75	32713.14
714.094	32678.79
714.438	32572.58
714.782	32536.19
715.125	32532.58
715.469	32567.6
715.812	32207.16
716.156	32149.76
716.499	32239.93
716.843	32116.99
717.186	32078.35
717.53	32157.45
717.873	32099.59
718.216	32000.39
718.559	31872.48
718.902	31678.36
719.246	31759.72
719.589	31565.82
719.932	31447.86
720.275	31511.13
720.617	31460.74
720.96	31394.75
721.303	31401.53
721.646	31299.39
721.989	31194.08
722.331	31236.34
722.674	31235.44
723.016	31286.28
723.359	31243.8
723.701	31192.73
724.044	30891.72
724.386	30706.64
724.729	30991.6
725.071	30821.44
725.413	30778.05
725.755	30708.9
726.097	30711.16
726.439	30538.73
726.782	30492.4
727.124	30724.26
727.465	30453.76
727.807	30406.76
728.149	30348.23
728.491	30268.23
728.833	30456.25
729.175	30253.09
729.516	30300.55
729.858	30115.01
730.199	30190.49
730.541	30035.24
730.882	30163.83
731.224	30081.57
731.565	29772.65
731.906	29990.27
732.248	29952.08
732.589	29791.41
732.93	29711.18
733.271	29764.29
733.612	29724.74
733.953	29748.92
734.294	29550.28
734.635	29458.53
734.976	29681.8
735.317	29421.7
735.658	29487.91
735.999	29369.72
736.339	29361.59
736.68	29486.33
737.021	29330.4
737.361	29062.61
737.702	29381.47
738.042	29198.2
738.383	29191.87
738.723	29174.25
739.063	29013.35
739.404	29106.45
739.744	28879.79
740.084	28805.22
740.424	28951.2
740.764	28815.61
741.104	28892.9
741.444	28699.01
741.784	28573.81
742.124	28768.38
742.464	28666.46
742.804	28518.22
743.143	28553.25
743.483	28500.14
743.823	28452.91
744.162	28468.95
744.502	28534.72
744.841	28318.45
745.181	28376.98
745.52	28379.92
745.86	28240.49
746.199	28177.44
746.538	28184.44
746.877	28277.1
747.216	28261.05
747.556	28056.76
747.895	28186.02
748.234	28089.98
748.573	28042.98
748.911	27991.91
749.25	27908.29
749.589	27869.65
749.928	27792.14
750.267	27926.82
750.605	27658.35
750.944	27687.28
751.283	27607.96
751.621	27646.83
751.96	27547.4
752.298	27494.52
752.636	27607.06
752.975	27412.71
753.313	27420.85
753.651	27405.03
753.989	27298.82
754.327	27128.65
754.666	27068.99
755.004	27014.53
755.342	27072.38
755.679	27065.6
756.017	26942.67
756.355	27032.61
756.693	26887.75
757.031	26904.7
757.368	26738.15
757.706	26700.64
758.044	26684.59
758.381	26717.36
758.719	26625.39
759.056	26561.21
