Data from hue_70_FLMS001491_37.txt Node
Date: Mon Feb 06 15:20:46 GMT 2017
User: dcchb
Spectrometer: FLMS00149
Trigger mode: 0
Integration Time (sec): 2.000000E-2
Scans to average: 10
Electric dark correction enabled: true
Nonlinearity correction enabled: false
Boxcar width: 0
XAxis mode: Wavelengths
Number of Pixels in Spectrum: 2048
>>>>>Begin Spectral Data<<<<<
341.393	4.08
341.776	4.08
342.16	4.08
342.543	-76.37
342.927	-61.91
343.31	-74.33
343.693	-70.04
344.077	-54.9
344.46	-59.65
344.843	-59.65
345.226	-36.6
345.61	-24.84
345.993	-16.93
346.376	-1.79
346.759	27.58
347.142	34.59
347.525	41.82
347.908	36.85
348.291	59.67
348.674	76.4
349.057	121.82
349.44	152.55
349.823	145.77
350.206	144.64
350.588	201.36
350.971	198.65
351.354	227.35
351.737	231.42
352.119	256.05
352.502	271.19
352.884	267.58
353.267	288.14
353.65	287.46
354.032	295.83
354.414	304.64
354.797	313.9
355.179	313
355.562	345.99
355.944	328.59
356.326	329.95
356.709	370.63
357.091	344.41
357.473	339.21
357.855	343.06
358.238	357.97
358.62	343.06
359.002	348.25
359.384	337.41
359.766	342.83
360.148	337.18
360.53	331.53
360.912	332.43
361.294	342.83
361.676	339.67
362.057	350.51
362.439	340.8
362.821	331.3
363.203	305.09
363.584	318.42
363.966	336.28
364.348	336.28
364.729	320.91
365.111	313.23
365.493	318.88
365.874	343.06
366.256	347.8
366.637	298.99
367.019	307.8
367.4	334.02
367.781	307.35
368.163	336.28
368.544	305.54
368.925	321.59
369.306	328.37
369.688	331.3
370.069	311.64
370.45	326.56
370.831	311.42
371.212	314.13
371.593	324.98
371.974	310.97
372.355	302.15
372.736	308.03
373.117	335.82
373.498	331.98
373.879	295.15
374.26	321.14
374.641	322.72
375.021	310.29
375.402	321.14
375.783	313.23
376.163	336.73
376.544	333.34
376.925	337.86
377.305	326.33
377.686	320.46
378.066	341.93
378.447	312.55
378.827	328.82
379.208	311.19
379.588	317.29
379.968	343.51
380.349	339.21
380.729	321.81
381.109	341.25
381.489	333.34
381.87	337.41
382.25	324.53
382.63	345.77
383.01	348.03
383.39	349.38
383.77	345.54
384.15	340.57
384.53	346.67
384.91	323.85
385.29	348.48
385.67	340.12
386.049	354.81
386.429	344.19
386.809	348.93
387.189	371.98
387.568	363.17
387.948	354.36
388.328	362.49
388.707	348.71
389.087	345.99
389.466	360.91
389.846	360
390.225	363.39
390.605	368.14
390.984	359.78
391.363	372.43
391.743	353.68
392.122	355.71
392.501	368.82
392.881	368.14
393.26	380.8
393.639	360.68
394.018	366.11
394.397	382.38
394.776	359.33
395.155	368.82
395.534	368.59
395.913	364.07
396.292	377.63
396.671	373.11
397.05	376.28
397.429	377.86
397.808	381.47
398.186	379.89
398.565	385.99
398.944	369.04
399.323	382.38
399.701	389.83
400.08	380.34
400.458	388.48
400.837	381.7
401.215	382.6
401.594	379.67
401.972	381.7
402.351	389.61
402.729	390.06
403.107	400.23
403.486	405.2
403.864	402.72
404.242	384.64
404.62	396.84
404.999	411.53
405.377	413.79
405.755	406.78
406.133	409.95
406.511	382.6
406.889	427.8
407.267	402.72
407.645	394.13
408.023	432.09
408.401	415.6
408.779	432.09
409.156	415.14
409.534	412.88
409.912	432.09
410.29	457.18
410.667	432.55
411.045	411.98
411.422	436.39
411.8	462.37
412.178	453.56
412.555	441.58
412.933	423.96
413.31	445.2
413.687	462.37
414.065	458.08
414.442	452.43
414.819	450.4
415.197	466.89
415.574	464.86
415.951	482.71
416.328	464.18
416.705	464.63
417.082	481.13
417.46	469.61
417.837	474.8
418.214	473.9
418.591	502.83
418.967	486.33
419.344	475.03
419.721	503.28
420.098	510.96
420.475	509.61
420.852	527.46
421.228	514.58
421.605	502.6
421.982	481.13
422.358	505.76
422.735	517.74
423.111	505.76
423.488	513.9
423.864	512.09
424.241	533.33
424.617	527.68
424.994	525.2
425.37	531.98
425.746	534.46
426.123	532.43
426.499	534.46
426.875	544.18
427.251	561.81
427.627	549.15
428.003	559.77
428.379	563.16
428.756	543.73
429.132	564.97
429.507	573.33
429.883	580.34
430.259	589.83
430.635	582.15
431.011	597.96
431.387	583.5
431.763	608.13
432.138	599.77
432.514	618.08
432.89	599.32
433.265	625.76
433.641	614.91
434.016	608.13
434.392	615.37
434.767	613.33
435.143	650.39
435.518	630.73
435.894	666.21
436.269	654.01
436.644	678.19
437.02	652.43
437.395	636.38
437.77	674.35
438.145	665.99
438.52	677.28
438.895	680.22
439.271	664.63
439.646	682.26
440.021	687.91
440.395	693.1
440.77	672.54
441.145	720.9
441.52	703.72
441.895	697.62
442.27	717.28
442.645	717.51
443.019	717.74
443.394	728.58
443.769	737.85
444.143	732.42
444.518	752.76
444.892	751.86
445.267	755.7
445.641	748.24
446.016	777.39
446.39	760.9
446.764	774.68
447.139	794.8
447.513	780.78
447.887	769.03
448.262	754.12
448.636	753.21
449.01	744.85
449.384	814.23
449.758	800.9
450.132	793.67
450.506	795.7
450.88	799.99
451.254	825.3
451.628	828.69
452.002	817.39
452.376	809.48
452.75	845.19
453.123	825.53
453.497	839.31
453.871	854
454.244	847.9
454.618	860.56
454.992	880.44
455.365	896.26
455.739	891.52
456.112	907.56
456.486	915.92
456.859	914.57
457.232	936.03
457.606	918.18
457.979	954.57
458.352	967.45
458.725	972.87
459.099	957.05
459.472	996.82
459.845	1016.26
460.218	993.43
460.591	1015.81
460.964	1025.98
461.337	1049.25
461.71	1060.55
462.083	1059.87
462.456	1070.72
462.829	1100.32
463.201	1119.08
463.574	1116.14
463.947	1136.71
464.32	1142.81
464.692	1145.29
465.065	1159.53
465.438	1168.12
465.81	1173.09
466.183	1181.45
466.555	1221.68
466.928	1255.35
467.3	1264.61
467.672	1272.52
468.045	1302.35
468.417	1314.78
468.789	1301.9
469.161	1350.49
469.534	1340.54
469.906	1402.69
470.278	1405.4
470.65	1440.88
471.022	1475.46
471.394	1489.92
471.766	1516.36
472.138	1554.32
472.51	1557.94
472.882	1619.41
473.253	1637.94
473.625	1680.2
473.997	1738.73
474.369	1735.56
474.74	1788.89
475.112	1825.73
475.484	1862.34
475.855	1909.57
476.227	1932.84
476.598	1992.5
476.97	2020.98
477.341	2105.27
477.713	2137.59
478.084	2192.72
478.455	2249.9
478.827	2300.74
479.198	2397.01
479.569	2402.44
479.94	2520.85
480.311	2582.55
480.682	2644.01
481.053	2766.27
481.424	2799.26
481.795	2873.61
482.166	2971.91
482.537	3035.64
482.908	3160.16
483.279	3212.13
483.65	3307.95
484.021	3457.32
484.391	3520.6
484.762	3589.3
485.133	3669.97
485.503	3795.62
485.874	3886.24
486.244	4025.9
486.615	4122.17
486.985	4192.22
487.356	4401.48
487.726	4474.02
488.097	4645.09
488.467	4714.01
488.837	4851.41
489.207	4948.36
489.578	5086.43
489.948	5204.62
490.318	5320.33
490.688	5360.55
491.058	5564.39
491.428	5760.31
491.798	5812.29
492.168	5995.79
492.538	6142.23
492.908	6255.22
493.278	6363.69
493.648	6515.55
494.017	6696.11
494.387	6822.89
494.757	6897.46
495.126	7127.28
495.496	7206.38
495.866	7324.57
496.235	7484.79
496.605	7639.14
496.974	7711.22
497.344	7925
497.713	8020.37
498.082	8167.93
498.452	8299.23
498.821	8451.32
499.19	8570.41
499.559	8728.82
499.928	8774.02
500.298	8870.29
500.667	9114.12
501.036	9141.69
501.405	9308.02
501.774	9381.69
502.143	9582.59
502.512	9661
502.88	9750.04
503.249	9821
503.618	10025.51
503.987	10109.8
504.356	10264.83
504.724	10304.83
505.093	10478.38
505.462	10531.04
505.83	10718.38
506.199	10820.97
506.567	10945.04
506.936	11142.32
507.304	11224.58
507.672	11255.31
508.041	11423.22
508.409	11556.32
508.777	11608.75
509.145	11692.36
509.514	11781.4
509.882	11954.28
510.25	12071.11
510.618	12118.34
510.986	12168.96
511.354	12360.37
511.722	12605.78
512.09	12670.64
512.458	12707.25
512.826	12884.87
513.193	12919.45
513.561	12954.93
513.929	13081.03
514.297	13261.36
514.664	13271.3
515.032	13386.1
515.4	13507.23
515.767	13593.78
516.135	13620.45
516.502	13633.33
516.869	13901.8
517.237	13949.93
517.604	13889.59
517.972	14036.26
518.339	14183.82
518.706	14180.43
519.073	14295.46
519.44	14392.63
519.808	14610.25
520.175	14567.54
520.542	14746.29
520.909	14865.61
521.276	14874.2
521.643	15065.61
522.009	15152.84
522.376	15245.71
522.743	15273.96
523.11	15366.16
523.477	15647.74
523.843	15569.32
524.21	15818.81
524.577	15789.66
524.943	15995.53
525.31	15987.62
525.676	16076.2
526.043	16186.26
526.409	16294.27
526.776	16437.55
527.142	16432.58
527.508	16510.09
527.874	16570.2
528.241	16726.58
528.607	16706.47
528.973	16902.85
529.339	16900.81
529.705	17108.72
530.071	17140.81
530.437	17118.89
530.803	17289.73
531.169	17268.94
531.535	17422.83
531.901	17331.54
532.267	17378.09
532.632	17549.16
532.998	17553.68
533.364	17686.78
533.73	17599.78
534.095	17775.59
534.461	17803.39
534.826	17945.3
535.192	17947.34
535.557	18010.39
535.923	18035.7
536.288	18074.12
536.653	18168.58
537.019	18069.37
537.384	18179.42
537.749	18238.86
538.114	18255.35
538.479	18182.13
538.845	18239.08
539.21	18252.64
539.575	18375.58
539.94	18376.03
540.305	18423.48
540.67	18409.93
541.034	18432.98
541.399	18397.5
541.764	18511.84
542.129	18610.37
542.494	18591.84
542.858	18616.02
543.223	18651.5
543.587	18659.18
543.952	18632.97
544.316	18703.25
544.681	18680.88
545.045	18736.7
545.41	18801.1
545.774	18849.69
546.138	18823.93
546.503	18820.08
546.867	18832.06
547.231	18940.76
547.595	18930.82
547.959	18937.6
548.324	18980.08
548.688	18926.75
549.052	19066.41
549.416	18994.77
549.779	18934.21
550.143	18958.16
550.507	19115.67
550.871	19185.05
551.235	19073.64
551.599	19255.78
551.962	19223.92
552.326	19314.31
552.689	19294.2
553.053	19268.66
553.417	19302.11
553.78	19414.64
554.143	19342.1
554.507	19461.42
554.87	19510.69
555.234	19579.61
555.597	19473.63
555.96	19557.92
556.323	19620.52
556.686	19616.45
557.05	19829.78
557.413	19679.95
557.776	19736.9
558.139	19810.57
558.502	19819.15
558.865	19835.65
559.228	19891.02
559.59	20034.06
559.953	20029.09
560.316	20198.35
560.679	20078.36
561.041	20225.25
561.404	20336.43
561.767	20322.64
562.129	20323.1
562.492	20395.86
562.854	20522.41
563.217	20534.16
563.579	20566.03
563.941	20669.3
564.304	20733.48
564.666	20856.64
565.028	20856.41
565.39	20811.67
565.753	20916.07
566.115	20996.52
566.477	21085.34
566.839	21146.58
567.201	21182.51
567.563	21189.51
567.925	21342.96
568.287	21448.26
568.648	21371.43
569.01	21511.99
569.372	21621.14
569.734	21609.84
570.095	21684.42
570.457	21735.04
570.819	21769.16
571.18	21849.61
571.542	21876.95
571.903	21934.13
572.265	21954.92
572.626	22044.86
572.987	22002.37
573.349	22119.43
573.71	22082.6
574.071	22171.41
574.432	22144.97
574.794	22362.14
575.155	22402.14
575.516	22235.36
575.877	22350.61
576.238	22361.69
576.599	22419.76
576.96	22400.56
577.32	22394
577.681	22507.44
578.042	22600.1
578.403	22658.63
578.763	22652.98
579.124	22658.85
579.485	22594.45
579.845	22753.99
580.206	22702.92
580.566	22612.75
580.927	22746.76
581.287	22820.43
581.648	22779.08
582.008	22751.28
582.368	22807.1
582.728	22807.1
583.089	22829.24
583.449	22803.26
583.809	22756.93
584.169	22851.84
584.529	22767.1
584.889	22916.93
585.249	22721.22
585.609	22801.45
585.969	22911.95
586.329	22896.14
586.688	22896.36
587.048	22950.6
587.408	22801
587.768	22791.73
588.127	22843.26
588.487	22711.73
588.846	22993.53
589.206	22758.06
589.565	22830.37
589.925	22940.2
590.284	22901.56
590.643	22942.91
591.003	22944.04
591.362	22915.12
591.721	22871.96
592.08	22876.93
592.44	23007.09
592.799	22950.6
593.158	22860.2
593.517	22932.07
593.876	22909.02
594.235	22999.41
594.593	22882.35
594.952	23038.96
595.311	22927.77
595.67	22885.29
596.029	23081.44
596.387	23027.66
596.746	23062.46
597.104	22932.74
597.463	23024.04
597.822	23008.45
598.18	22909.24
598.538	22874.21
598.897	23009.13
599.255	22893.65
599.613	23132.29
599.972	23117.6
600.33	23022.69
600.688	22997.15
601.046	23118.28
601.404	23136.35
601.762	23051.84
602.12	23251.61
602.478	23121.44
602.836	23231.04
603.194	23078.73
603.552	23246.86
603.91	23215.9
604.268	23344.26
604.625	23227.2
604.983	23342.45
605.341	23106.53
605.698	23318.27
606.056	23363.24
606.413	23322.79
606.771	23367.08
607.128	23417.7
607.485	23285.96
607.843	23361.89
608.2	23516.68
608.557	23608.21
608.914	23405.95
609.272	23629.22
609.629	23622.67
609.986	23738.82
610.343	23651.6
610.7	23737.24
611.057	23771.59
611.414	23660.41
611.771	23753.06
612.127	23819.5
612.484	23800.07
612.841	23925.94
613.198	23886.62
613.554	23872.38
613.911	23944.92
614.267	23994.41
614.624	23849.56
614.98	24086.16
615.337	24191.92
615.693	24069.89
616.05	23973.85
616.406	24288.87
616.762	24044.58
617.118	24162.32
617.475	24132.03
617.831	24234.86
618.187	24208.64
618.543	24190.11
618.899	24418.36
619.255	24248.42
619.611	24363.89
619.967	24360.28
620.323	24423.1
620.678	24263.33
621.034	24288.64
621.39	24419.94
621.746	24353.95
622.101	24623.55
622.457	24466.26
622.812	24529.99
623.168	24528.41
623.523	24453.61
623.879	24548.07
624.234	24365.48
624.589	24583.1
624.945	24545.58
625.3	24607.95
625.655	24564.57
626.01	24489.77
626.365	24577.45
626.72	24539.71
627.075	24543.32
627.43	24538.58
627.785	24539.48
628.14	24579.71
628.495	24613.6
628.85	24506.94
629.205	24461.07
629.559	24719.36
629.914	24485.47
630.269	24555.3
630.623	24460.84
630.978	24501.97
631.332	24649.08
631.687	24562.76
632.041	24439.6
632.396	24485.25
632.75	24322.09
633.104	24472.59
633.459	24299.71
633.813	24317.11
634.167	24347.85
634.521	24293.84
634.875	24357.79
635.229	24384.68
635.583	24244.8
635.937	24283.22
636.291	24268.98
636.645	24285.7
636.999	24254.74
637.352	24171.81
637.706	24017.46
638.06	24202.77
638.413	24077.8
638.767	24028.31
639.121	24014.3
639.474	24009.78
639.828	24041.19
640.181	24006.61
640.534	24022.89
640.888	24025.37
641.241	23879.61
641.594	24019.04
641.947	23992.83
642.301	23936.33
642.654	23868.99
643.007	23920.29
643.36	23969.1
643.713	23838.26
644.066	23904.7
644.419	23790.12
644.771	23666.06
645.124	23283.24
645.477	23363.02
645.83	23364.6
646.182	23288.22
646.535	23040.54
646.888	23083.93
647.24	22961.22
647.593	23178.61
647.945	23031.05
648.298	22834.44
648.65	23029.24
649.002	22807.78
649.355	23120.31
649.707	22945.17
650.059	23010.93
650.411	23289.57
650.763	23255.9
651.115	23566.4
651.467	23457.7
651.819	23492.28
652.171	23408.89
652.523	23394.43
652.875	23403.01
653.227	23237.14
653.578	23462.22
653.93	23350.13
654.282	23341.32
654.633	23099.29
654.985	23340.42
655.337	23532.05
655.688	23464.93
656.039	23541.54
656.391	23249.57
656.742	23349.68
657.094	23278.95
657.445	23401.66
657.796	23370.25
658.147	23310.14
658.498	23290.7
658.849	23363.69
659.2	23241.66
659.551	23211.83
659.902	23287.09
660.253	23336.58
660.604	23412.73
660.955	23252.96
661.306	23350.59
661.656	23361.43
662.007	23378.38
662.358	23242.11
662.708	23275.33
663.059	23263.81
663.409	23139.52
663.76	23350.13
664.11	23300.87
664.461	23396.69
664.811	23257.48
665.161	23311.04
665.511	23309.68
665.862	23332.51
666.212	23385.16
666.562	23291.15
666.912	23282.57
667.262	23133.87
667.612	23148.78
667.962	23210.03
668.312	23295.22
668.662	23338.16
669.011	23314.43
669.361	23231.04
669.711	23361.21
670.06	23251.15
670.41	23114.89
670.76	23098.16
671.109	23237.14
671.459	23259.97
671.808	23273.75
672.157	23192.4
672.507	23184.72
672.856	23092.74
673.205	23163.7
673.554	23135.45
673.904	23112.85
674.253	23157.6
674.602	23151.95
674.951	22840.32
675.3	22682.58
675.649	23028.11
675.998	22890.49
676.346	22950.6
676.695	23111.04
677.044	22926.64
677.393	23001.67
677.741	23059.52
678.09	22969.13
678.438	22857.04
678.787	22894.55
679.135	22846.65
679.484	22650.72
679.832	22901.78
680.181	22714.45
680.529	22806.19
680.877	22690.94
681.225	22627.89
681.573	22826.53
681.922	22592.41
682.27	22541.34
682.618	22652.75
682.966	22488.24
683.314	22616.59
683.661	22412.31
684.009	22364.85
684.357	22301.35
684.705	22391.52
685.053	22306.09
685.4	22298.86
685.748	22137.06
686.095	22076.04
686.443	22076.5
686.79	22044.86
687.138	22005.76
687.485	21878.99
687.832	21871.53
688.18	21920.57
688.527	21834.47
688.874	21614.81
689.221	21723.51
689.568	21769.61
689.915	21637.86
690.262	21608.03
690.609	21451.2
690.956	21444.87
691.303	21450.98
691.65	21318.55
691.997	21333.69
692.344	21274.26
692.69	21157.2
693.037	21178.67
693.383	20904.55
693.73	21069.06
694.077	20984.1
694.423	20909.97
694.769	20794.04
695.116	20839.92
695.462	20779.13
695.808	20754.72
696.155	20650.77
696.501	20486.93
696.847	20583.65
697.193	20380.04
697.539	20470.66
697.885	20335.3
698.231	20185.7
698.577	20148.41
698.923	20193.83
699.269	20021.63
699.614	19915.2
699.96	19909.77
700.306	19893.5
700.651	19759.72
700.997	19695.54
701.342	19574.87
701.688	19696.22
702.033	19575.77
702.379	19571.02
702.724	19482.21
703.069	19524.47
703.415	19284.25
703.76	19301.2
704.105	19361.76
704.45	19154.31
704.795	19120.64
705.14	19084.48
705.485	18999.74
705.83	18919.97
706.175	18975.56
706.52	18982.34
706.865	18853.08
707.209	18796.13
707.554	18704.16
707.899	18737.15
708.243	18649.24
708.588	18649.69
708.932	18452.64
709.277	18456.03
709.621	18469.81
709.966	18444.27
710.31	18361.57
710.654	18145.53
710.998	18362.02
711.342	18218.29
711.687	18209.03
712.031	18082.7
712.375	18032.53
712.719	18017.62
713.063	18046.77
713.407	18030.5
713.75	17916.15
714.094	17952.99
714.438	17868.24
714.782	17940.11
715.125	17747.8
715.469	17793.9
715.812	17744.86
716.156	17665.54
716.499	17618.99
716.843	17760
717.186	17573.11
717.53	17538.99
717.873	17655.37
718.216	17590.51
718.559	17496.28
718.902	17430.74
719.246	17429.61
719.589	17318.2
719.932	17306.45
720.275	17306.23
720.617	17266
720.96	17237.98
721.303	17225.32
721.646	17224.87
721.989	17054.25
722.331	17129.28
722.674	17121.15
723.016	17131.32
723.359	17070.53
723.701	17136.51
724.044	17024.43
724.386	16925.67
724.729	16999.34
725.071	16900.59
725.413	17039.57
725.755	16943.3
726.097	16914.82
726.439	16733.36
726.782	16809.29
727.124	16935.84
727.465	16810.65
727.807	16840.48
728.149	16706.92
728.491	16705.56
728.833	16779.46
729.175	16663.76
729.516	16703.76
729.858	16624.21
730.199	16677.09
730.541	16652.68
730.882	16606.81
731.224	16684.55
731.565	16539.24
731.906	16603.42
732.248	16548.28
732.589	16570.65
732.93	16522.74
733.271	16487.04
733.612	16464.21
733.953	16581.27
734.294	16395.97
734.635	16428.51
734.976	16522.74
735.317	16470.77
735.658	16484.55
735.999	16402.75
736.339	16356.87
736.68	16471.9
737.021	16395.74
737.361	16308.74
737.702	16445.23
738.042	16454.5
738.383	16334.05
738.723	16397.32
739.063	16241.17
739.404	16398.23
739.744	16348.51
740.084	16291.56
740.424	16341.73
740.764	16282.98
741.104	16424.44
741.444	16295.18
741.784	16239.14
742.124	16266.48
742.464	16191.23
742.804	16280.72
743.143	16380.37
743.483	16259.02
743.823	16269.64
744.162	16314.39
744.502	16434.38
744.841	16277.55
745.181	16410.66
745.52	16350.09
745.86	16335.63
746.199	16358.23
746.538	16434.61
746.877	16463.08
747.216	16465.8
747.556	16519.35
747.895	16506.02
748.234	16508.73
748.573	16525.91
748.911	16549.41
749.25	16663.3
749.589	16575.85
749.928	16648.39
750.267	16741.49
750.605	16816.52
750.944	16761.38
751.283	16739.46
751.621	16825.11
751.96	16889.29
752.298	16952.79
752.636	16911.89
752.975	17000.25
753.313	17090.64
753.651	17201.6
753.989	17107.59
754.327	17226.45
754.666	17181.26
755.004	17376.73
755.342	17353.46
755.679	17441.14
756.017	17492.89
756.355	17577.18
756.693	17521.14
757.031	17668.7
757.368	17691.53
