Data from hue_330_FLMS001491_30.txt Node
Date: Mon Feb 06 15:45:11 GMT 2017
User: dcchb
Spectrometer: FLMS00149
Trigger mode: 0
Integration Time (sec): 2.000000E-2
Scans to average: 10
Electric dark correction enabled: true
Nonlinearity correction enabled: false
Boxcar width: 0
XAxis mode: Wavelengths
Number of Pixels in Spectrum: 2048
>>>>>Begin Spectral Data<<<<<
341.393	-4.19
341.776	-4.19
342.16	-4.19
342.543	-65.66
342.927	-83.06
343.31	-73.12
343.693	-64.98
344.077	-76.74
344.46	-63.63
344.843	-46.91
345.226	-23.4
345.61	-18.66
345.993	-32.22
346.376	2.13
346.759	8.01
347.142	31.28
347.525	30.38
347.908	58.4
348.291	65.41
348.674	86.65
349.057	117.38
349.44	125.97
349.823	135.24
350.206	163.71
350.588	204.61
350.971	213.65
351.354	230.83
351.737	215.91
352.119	228.79
352.502	255.23
352.884	272.41
353.267	270.6
353.65	266.98
354.032	293.42
354.414	299.75
354.797	305.63
355.179	321.22
355.562	306.08
355.944	330.94
356.326	322.35
356.709	312.41
357.091	336.81
357.473	340.43
357.855	321.22
358.238	324.61
358.62	353.08
359.002	344.72
359.384	340.88
359.766	338.17
360.148	331.62
360.53	339.52
360.912	342.91
361.294	323.48
361.676	317.38
362.057	337.49
362.439	312.41
362.821	311.05
363.203	336.36
363.584	322.35
363.966	315.34
364.348	324.38
364.729	336.81
365.111	305.4
365.493	317.15
365.874	321.67
366.256	310.6
366.637	308.11
367.019	306.76
367.4	303.14
367.781	315.34
368.163	297.72
368.544	303.14
368.925	306.31
369.306	318.28
369.688	317.15
370.069	304.5
370.45	283.26
370.831	299.3
371.212	319.86
371.593	302.92
371.974	309.47
372.355	316.93
372.736	309.24
373.117	309.92
373.498	293.65
373.879	304.05
374.26	314.21
374.641	295.68
375.021	307.21
375.402	302.24
375.783	320.99
376.163	313.54
376.544	323.03
376.925	334.78
377.305	315.34
377.686	306.08
378.066	305.4
378.447	323.03
378.827	303.37
379.208	332.29
379.588	309.92
379.968	334.55
380.349	304.27
380.729	339.07
381.109	313.54
381.489	346.08
381.87	330.49
382.25	327.32
382.63	317.83
383.01	324.61
383.39	319.86
383.77	321.45
384.15	321.67
384.53	326.64
384.91	359.19
385.29	331.84
385.67	332.52
386.049	362.12
386.429	342.46
386.809	337.94
387.189	330.71
387.568	345.85
387.948	340.65
388.328	366.42
388.707	337.04
389.087	341.33
389.466	344.5
389.846	372.52
390.225	342.01
390.605	368
390.984	329.13
391.363	351.5
391.743	360.77
392.122	364.16
392.501	344.5
392.881	366.87
393.26	353.08
393.639	351.28
394.018	363.71
394.397	362.12
394.776	360.32
395.155	356.93
395.534	367.55
395.913	373.87
396.292	365.06
396.671	377.26
397.05	377.94
397.429	378.39
397.808	372.97
398.186	371.16
398.565	380.2
398.944	376.81
399.323	377.26
399.701	383.59
400.08	368.22
400.458	383.82
400.837	398.28
401.215	413.2
401.594	399.64
401.972	393.99
402.351	424.72
402.729	404.83
403.107	393.08
403.486	412.97
403.864	417.49
404.242	396.7
404.62	428.79
404.999	416.81
405.377	403.93
405.755	419.52
406.133	414.55
406.511	432.4
406.889	428.79
407.267	429.01
407.645	433.53
408.023	434.44
408.401	437.83
408.779	442.12
409.156	461.56
409.534	442.57
409.912	461.78
410.29	471.5
410.667	468.79
411.045	466.08
411.422	453.65
411.8	448.22
412.178	488
412.555	500.2
412.933	495.23
413.31	485.51
413.687	492.06
414.065	523.47
414.442	519.63
414.819	517.37
415.197	523.02
415.574	527.77
415.951	516.7
416.328	539.29
416.705	546.53
417.082	539.52
417.46	553.98
417.837	558.28
418.214	555.11
418.591	586.07
418.967	596.47
419.344	578.16
419.721	609.35
420.098	606.64
420.475	590.37
420.852	610.48
421.228	630.82
421.605	628.78
421.982	613.19
422.358	650.48
422.735	648.67
423.111	636.24
423.488	629.01
423.864	666.07
424.241	672.62
424.617	658.84
424.994	666.3
425.37	676.24
425.746	694.32
426.123	700.42
426.499	695.67
426.875	714.88
427.251	721.44
427.627	714.43
428.003	704.71
428.379	753.98
428.756	734.77
429.132	755.33
429.507	764.82
429.883	753.3
430.259	753.3
430.635	781.1
431.011	788.55
431.387	779.51
431.763	801.43
432.138	813.64
432.514	802.79
432.89	798.5
433.265	825.39
433.641	841.88
434.016	847.08
434.392	851.6
434.767	884.37
435.143	860.19
435.518	892.73
435.894	907.19
436.269	899.51
436.644	880.3
437.02	911.49
437.395	925.95
437.77	927.76
438.145	931.37
438.52	944.25
438.895	928.21
439.271	954.42
439.646	949.45
440.021	980.64
440.395	984.03
440.77	978.15
441.145	1003.01
441.52	1014.54
441.895	999.39
442.27	991.71
442.645	997.81
443.019	1019.96
443.394	1034.42
443.769	1034.42
444.143	1034.65
444.518	1049.79
444.892	1030.13
445.267	1048.66
445.641	1064.03
446.016	1075.1
446.39	1038.49
446.764	1054.53
447.139	1058.38
447.513	1053.86
447.887	1069.9
448.262	1080.52
448.636	1120.07
449.01	1104.7
449.384	1093.86
449.758	1119.62
450.132	1085.04
450.506	1109
450.88	1122.56
451.254	1094.31
451.628	1125.94
452.002	1142.89
452.376	1148.09
452.75	1164.59
453.123	1153.51
453.497	1156.9
453.871	1173.85
454.244	1209.56
454.618	1185.6
454.992	1200.75
455.365	1191.25
455.739	1206.62
456.112	1259.5
456.486	1262.66
456.859	1229.9
457.232	1285.26
457.606	1249.78
457.979	1283.91
458.352	1286.84
458.725	1286.39
459.099	1300.4
459.472	1334.3
459.845	1308.09
460.218	1337.24
460.591	1336.33
460.964	1351.93
461.337	1378.14
461.71	1391.7
462.083	1385.83
462.456	1394.64
462.829	1372.72
463.201	1430.57
463.574	1403
463.947	1431.93
464.32	1459.27
464.692	1451.13
465.065	1476.22
465.438	1512.6
465.81	1501.08
466.183	1506.5
466.555	1560.28
466.928	1536.1
467.3	1535.43
467.672	1548.76
468.045	1618.36
468.417	1558.48
468.789	1606.84
469.161	1609.77
469.534	1644.8
469.906	1680.96
470.278	1680.28
470.65	1700.85
471.022	1753.5
471.394	1745.82
471.766	1745.14
472.138	1752.14
472.51	1797.57
472.882	1798.47
473.253	1809.99
473.625	1836.21
473.997	1852.71
474.369	1871.46
474.74	1897.45
475.112	1923.21
475.484	1944.68
475.855	1967.96
476.227	1977.67
476.598	2013.83
476.97	2037.11
477.341	2125.47
477.713	2118.24
478.084	2129.99
478.455	2167.5
478.827	2200.04
479.198	2251.34
479.569	2249.76
479.94	2266.93
480.311	2298.57
480.682	2311.9
481.053	2388.06
481.424	2439.13
481.795	2432.58
482.166	2490.65
482.537	2492.01
482.908	2492.24
483.279	2567.49
483.65	2572.01
484.021	2588.73
484.391	2623.76
484.762	2663.31
485.133	2665.11
485.503	2702.63
485.874	2753.25
486.244	2804.54
486.615	2849.97
486.985	2843.19
487.356	2867.37
487.726	2898.78
488.097	2954.37
488.467	2941.04
488.837	3048.15
489.207	3051.09
489.578	3099.9
489.948	3130.64
490.318	3146
490.688	3101.26
491.058	3231.88
491.428	3238.66
491.798	3252.67
492.168	3313.01
492.538	3308.03
492.908	3370.18
493.278	3375.15
493.648	3418.31
494.017	3465.54
494.387	3439.56
494.757	3451.08
495.126	3512.55
495.496	3511.64
495.866	3563.62
496.235	3611.53
496.605	3593.9
496.974	3587.8
497.344	3642.26
497.713	3650.17
498.082	3696.27
498.452	3696.05
498.821	3699.66
499.19	3686.1
499.559	3721.36
499.928	3806.78
500.298	3756.84
500.667	3797.97
501.036	3825.31
501.405	3847.23
501.774	3842.94
502.143	3830.73
502.512	3848.59
502.88	3895.14
503.249	3941.46
503.618	3938.98
503.987	3931.07
504.356	3975.81
504.724	3994.34
505.093	4004.51
505.462	4002.03
505.83	4000.9
506.199	4036.38
506.567	4100.1
506.936	4113.44
507.304	4118.86
507.672	4142.59
508.041	4160.67
508.409	4150.05
508.777	4129.71
509.145	4190.05
509.514	4216.71
509.882	4257.61
510.25	4192.31
510.618	4239.31
510.986	4225.07
511.354	4284.05
511.722	4300.32
512.09	4312.75
512.458	4326.54
512.826	4392.3
513.193	4361.57
513.561	4346.43
513.929	4332.64
514.297	4387.78
514.664	4373.09
515.032	4433.2
515.4	4458.29
515.767	4498.74
516.135	4456.93
516.502	4467.55
516.869	4517.04
517.237	4525.86
517.604	4482.69
517.972	4538.51
518.339	4552.97
518.706	4578.28
519.073	4613.08
519.44	4549.81
519.808	4643.82
520.175	4564.27
520.542	4648.34
520.909	4663.03
521.276	4684.5
521.643	4757.71
522.009	4681.78
522.376	4736.92
522.743	4726.08
523.11	4785.06
523.477	4839.97
523.843	4846.75
524.21	4810.82
524.577	4889.01
524.943	4911.61
525.31	4904.38
525.676	5005.62
526.043	4963.58
526.409	4986.41
526.776	5012.85
527.142	5026.18
527.508	5019.4
527.874	5098.95
528.241	5109.34
528.607	5122.9
528.973	5198.61
529.339	5211.49
529.705	5182.11
530.071	5204.03
530.437	5236.8
530.803	5286.97
531.169	5309.79
531.535	5296
531.901	5304.14
532.267	5340.3
532.632	5367.64
532.998	5348.21
533.364	5439.73
533.73	5487.64
534.095	5486.28
534.461	5487.86
534.826	5579.39
535.192	5548.88
535.557	5603.79
535.923	5594.08
536.288	5600.18
536.653	5679.72
537.019	5587.75
537.384	5681.53
537.749	5641.31
538.114	5714.07
538.479	5715.43
538.845	5743.45
539.21	5736.22
539.575	5795.88
539.94	5809.89
540.305	5798.82
540.67	5859.38
541.034	5858.02
541.399	5898.47
541.764	5853.05
542.129	5982.31
542.494	5937.57
542.858	5974.41
543.223	5944.35
543.587	6067.28
543.952	6025.25
544.316	6107.06
544.681	6106.83
545.045	6182.31
545.41	6175.98
545.774	6159.71
546.138	6154.97
546.503	6202.2
546.867	6266.83
547.231	6300.27
547.595	6315.64
547.959	6286.26
548.324	6284.68
548.688	6366.03
549.052	6348.86
549.416	6353.38
549.779	6413.72
550.143	6421.85
550.507	6452.81
550.871	6513.37
551.235	6460.72
551.599	6580.49
551.962	6520.61
552.326	6566.93
552.689	6651.68
553.053	6572.58
553.417	6562.19
553.78	6650.55
554.143	6679.7
554.507	6663.65
554.87	6702.07
555.234	6763.76
555.597	6707.95
555.96	6768.96
556.323	6810.77
556.686	6768.73
557.05	6842.86
557.413	6792.01
557.776	6807.15
558.139	6877.21
558.502	6867.04
558.865	6917.88
559.228	6921.72
559.59	6988.84
559.953	7012.57
560.316	7017.54
560.679	7004.66
561.041	7117.88
561.404	7110.42
561.767	7097.77
562.129	7108.39
562.492	7133.92
562.854	7152.23
563.217	7178.89
563.579	7177.54
563.941	7230.42
564.304	7273.81
564.666	7323.75
565.028	7325.56
565.39	7353.58
565.753	7353.35
566.115	7323.07
566.477	7375.5
566.839	7420.69
567.201	7468.83
567.563	7460.24
567.925	7440.81
568.287	7513.8
568.648	7623.18
569.01	7590.18
569.372	7625.21
569.734	7576.62
570.095	7694.13
570.457	7723.06
570.819	7801.93
571.18	7777.3
571.542	7820.91
571.903	7884.41
572.265	7863.17
572.626	7975.48
572.987	8000.79
573.349	8003.05
573.71	8065.88
574.071	8133.22
574.432	8139.55
574.794	8268.58
575.155	8328.02
575.516	8309.03
575.877	8359.2
576.238	8480.33
576.599	8523.26
576.96	8555.81
577.32	8678.29
577.681	8754.44
578.042	8809.13
578.403	8895.68
578.763	8956.25
579.124	9074.44
579.485	9187.2
579.845	9295.67
580.206	9357.37
580.566	9401.66
580.927	9606.17
581.287	9760.29
581.648	9817.02
582.008	9920.52
582.368	10151.47
582.728	10291.35
583.089	10439.37
583.449	10602.98
583.809	10762.3
584.169	10858.34
584.529	11054.95
584.889	11302.63
585.249	11414.71
585.609	11565.9
585.969	11804.08
586.329	11991.42
586.688	12210.4
587.048	12462.37
587.408	12654
587.768	12865.98
588.127	13052.64
588.487	13277.94
588.846	13613.53
589.206	13756.12
589.565	14007.64
589.925	14337.35
590.284	14486.5
590.643	14811.01
591.003	15003.77
591.362	15266.82
591.721	15462.07
592.08	15850.76
592.44	16121.48
592.799	16354.02
593.158	16685.54
593.517	16907.68
593.876	17233.09
594.235	17469.7
594.593	17818.61
594.952	18149.23
595.311	18246.62
595.67	18599.84
596.029	19046.6
596.387	19452.69
596.746	19674.38
597.104	19786.7
597.463	20043.41
597.822	20441.14
598.18	20723.85
598.538	20865.09
598.897	21372.64
599.255	21382.59
599.613	22034.77
599.972	22173.75
600.33	22564.7
600.688	22744.36
601.046	23049.66
601.404	23391.12
601.762	23502.08
602.12	24081.05
602.478	24145.9
602.836	24385.22
603.194	24599
603.552	24883.96
603.91	25022.27
604.268	25475.14
604.625	25555.13
604.983	25996.7
605.341	25992.41
605.698	26484.83
606.056	26715.33
606.413	26834.42
606.771	27167.97
607.128	27529.77
607.485	27438.25
607.843	27709.2
608.2	28105.57
608.557	28462.4
608.914	28447.03
609.272	28748.72
609.629	29063.74
609.986	29309.38
610.343	29330.63
610.7	29772.2
611.057	29857.62
611.414	29938.52
611.771	30266.87
612.127	30587.32
612.484	30700.08
612.841	30799.06
613.198	31002.22
613.554	31166.06
613.911	31431.81
614.267	31533.51
614.624	31764.69
614.98	31843.56
615.337	32188.41
615.693	32237.9
616.05	32366.48
616.406	32600.6
616.762	32674.04
617.118	32831.1
617.475	32953.36
617.831	33237.87
618.187	33341.14
618.543	33462.27
618.899	33739.1
619.255	33690.29
619.611	33794.92
619.967	34005.08
620.323	34233.1
620.678	34168.69
621.034	34183.83
621.39	34348.35
621.746	34196.49
622.101	34802.35
622.457	34710.15
622.812	34690.49
623.168	35038.05
623.523	35019.07
623.879	35248.21
624.234	35037.6
624.589	35320.07
624.945	35392.84
625.3	35553.51
625.655	35506.06
626.01	35626.73
626.365	35810
626.72	35823.11
627.075	35819.27
627.43	35861.53
627.785	35877.12
628.14	36016.55
628.495	36039.6
628.85	36140.62
629.205	36056.78
629.559	36431.68
629.914	36186.27
630.269	36312.82
630.623	36259.26
630.978	36264.46
631.332	36489.08
631.687	36487.05
632.041	36507.39
632.396	36630.32
632.75	36369.54
633.104	36551
633.459	36474.62
633.813	36518.01
634.167	36598.46
634.521	36405.92
634.875	36688.63
635.229	36601.4
635.583	36457.45
635.937	36505.35
636.291	36551.23
636.645	36682.3
636.999	36506.48
637.352	36671.23
637.706	36633.94
638.06	36728.17
638.413	36591.23
638.767	36488.4
639.121	36658.8
639.474	36433.27
639.828	36504.45
640.181	36633.26
640.534	36558.91
640.888	36513.49
641.241	36383.77
641.594	36516.65
641.947	36512.36
642.301	36574.73
642.654	36546.93
643.007	36486.37
643.36	36435.98
643.713	36412.25
644.066	36545.8
644.419	36432.59
644.771	36154.18
645.124	35823.34
645.477	35632.38
645.83	35657.01
646.182	35512.61
646.535	35447.08
646.888	35571.59
647.24	35262.9
647.593	35527.75
647.945	35412.95
648.298	35224.71
648.65	35241.43
649.002	35278.95
649.355	35370.02
649.707	35270.13
650.059	35466.28
650.411	35807.29
650.763	35928.65
651.115	36322.99
651.467	36160.28
651.819	36161.41
652.171	36037.12
652.523	35920.74
652.875	36051.13
653.227	35943.56
653.578	36187.85
653.93	36107.17
654.282	35959.61
654.633	35857.91
654.985	35990.56
655.337	35983.79
655.688	35946.95
656.039	36032.15
656.391	35770.01
656.742	35868.53
657.094	35931.81
657.445	35970.23
657.796	35845.48
658.147	35771.36
658.498	35842.55
658.849	35718.93
659.2	35844.81
659.551	35667.64
659.902	35854.07
660.253	35669.9
660.604	35819.04
660.955	35621.08
661.306	35829.89
661.656	35599.84
662.007	35868.53
662.358	35566.85
662.708	35735.43
663.059	35627.18
663.409	35454.76
663.76	35764.81
664.11	35643.68
664.461	35864.92
664.811	35776.11
665.161	35683.45
665.511	35486.85
665.862	35581.76
666.212	35654.75
666.562	35778.82
666.912	35687.75
667.262	35659.95
667.612	35678.48
667.962	35683
668.312	35648.65
668.662	35762.32
669.011	35743.57
669.361	35510.35
669.711	35549.9
670.06	35453.86
670.41	35483.69
670.76	35400.07
671.109	35631.03
671.459	35438.49
671.808	35407.53
672.157	35518.26
672.507	35283.46
672.856	35462.44
673.205	35344.25
673.554	35456.12
673.904	35450.01
674.253	35580.86
674.602	35483.91
674.951	34928.9
675.3	34767.32
675.649	35333.86
675.998	35241.88
676.346	35290.47
676.695	35512.16
677.044	35155.56
677.393	35278.95
677.741	35305.61
678.09	35177.25
678.438	35036.01
678.787	35093.19
679.135	35209.34
679.484	34868.33
679.832	35109.23
680.181	34977.03
680.529	34943.81
680.877	34821.56
681.225	34846.41
681.573	35211.38
681.922	34830.37
682.27	34743.14
682.618	34687.32
682.966	34740.2
683.314	34764.61
683.661	34651.39
684.009	34551.96
684.357	34422.7
684.705	34298.18
685.053	34324.17
685.4	34408.46
685.748	34213.21
686.095	34228.35
686.443	34193.78
686.79	34093.44
687.138	34190.16
687.485	34188.13
687.832	34002.59
688.18	33973.22
688.527	33754.24
688.874	33706.56
689.221	33804.63
689.568	33551.76
689.915	33498.88
690.262	33615.49
690.609	33479.9
690.956	33467.69
691.303	33365.55
691.65	33286.91
691.997	33291.88
692.344	33138.21
692.69	33066.57
693.037	32968.27
693.383	32788.16
693.73	32928.27
694.077	32653.03
694.423	32747.49
694.769	32576.87
695.116	32497.32
695.462	32458.68
695.808	32301.85
696.155	32365.58
696.501	32234.05
696.847	32125.58
697.193	32030.22
697.539	32140.27
697.885	31830.22
698.231	31708.42
698.577	31847.62
698.923	31707.51
699.269	31618.02
699.614	31434.98
699.96	31336
700.306	31443.79
700.651	31209.9
700.997	31122.44
701.342	31176.91
701.688	31092.16
702.033	30950.92
702.379	31010.81
702.724	30801.55
703.069	30936.91
703.415	30575.57
703.76	30560.65
704.105	30639.97
704.45	30552.29
704.795	30346.19
705.14	30206.76
705.485	30194.56
705.83	30175.8
706.175	30199.08
706.52	30084.28
706.865	29937.62
707.209	29878.41
707.554	29933.1
707.899	29879.99
708.243	29690.84
708.588	29666.21
708.932	29414.01
709.277	29614.24
709.621	29467.8
709.966	29291.53
710.31	29339.67
710.654	29058.09
710.998	29257.86
711.342	29148.03
711.687	29157.07
712.031	29001.37
712.375	28932.67
712.719	28924.99
713.063	28869.4
713.407	28961.82
713.75	28706.01
714.094	28586.69
714.438	28612.91
714.782	28670.08
715.125	28503.3
715.469	28548.95
715.812	28273.03
716.156	28204.56
716.499	28240.94
716.843	28258.34
717.186	28090.43
717.53	28268.96
717.873	28233.03
718.216	28147.61
718.559	27970.89
718.902	27882.98
719.246	27929.08
719.589	27785.13
719.932	27661.29
720.275	27594.4
720.617	27635.3
720.96	27547.4
721.303	27649.99
721.646	27608.41
721.989	27388.98
722.331	27506.27
722.674	27465.59
723.016	27535.19
723.359	27404.58
723.701	27469.43
724.044	27235.09
724.386	27217.91
724.729	27146.05
725.071	27163.45
725.413	27127.75
725.755	27083.68
726.097	27026.28
726.439	26841.43
726.782	26843.69
727.124	27031.93
727.465	26774.99
727.807	26798.94
728.149	26749.23
728.491	26738.6
728.833	26772.95
729.175	26696.35
729.516	26476.69
729.858	26620.64
730.199	26582.22
730.541	26488.89
730.882	26446.18
731.224	26549.91
731.565	26372.96
731.906	26301.55
732.248	26280.99
732.589	26137.72
732.93	26146.3
733.271	26156.02
733.612	26110.6
733.953	26205.51
734.294	25968.91
734.635	25878.29
734.976	26026.31
735.317	25831.51
735.658	25813.21
735.999	25952.41
736.339	25788.8
736.68	25840.55
737.021	25785.18
737.361	25648.92
737.702	25862.47
738.042	25696.37
738.383	25672.87
738.723	25657.73
739.063	25491.41
739.404	25527.79
739.744	25551.29
740.084	25414.57
740.424	25471.07
740.764	25409.6
741.104	25412.54
741.444	25219.55
741.784	25185.65
742.124	25251.64
742.464	25297.06
742.804	25101.59
743.143	25103.85
743.483	25124.86
743.823	24996.05
744.162	24966.67
744.502	25042.83
744.841	24928.71
745.181	25048.03
745.52	24862.72
745.86	25033.79
746.199	24868.82
746.538	24751.54
746.877	24791.54
747.216	24705.44
747.556	24672.22
747.895	24554.93
748.234	24563.52
748.573	24526.01
748.911	24421.6
749.25	24446.91
749.589	24357.65
749.928	24424.77
750.267	24476.07
750.605	24224.77
750.944	24290.76
751.283	24121.5
751.621	24148.16
751.96	24112.46
752.298	24110.43
752.636	24064.32
752.975	23953.37
753.313	23908.17
753.651	24053.25
753.989	23786.82
754.327	23746.59
754.666	23708.85
755.004	23776.2
755.342	23813.26
755.679	23620.95
756.017	23507.73
756.355	23644.45
756.693	23402.65
757.031	23450.33
757.368	23413.95
757.706	23285.81
758.044	23281.07
758.381	23158.36
758.719	23142.54
759.056	23141.64
759.394	23067.97
759.731	22933.73
760.068	22879.05
760.405	22782.1
