Data from hue_24_FLMS001491_00001.txt Node
Date: Tue Feb 07 17:11:39 GMT 2017
User: dcchb
Spectrometer: FLMS00149
Trigger mode: 0
Integration Time (sec): 2.000000E-2
Scans to average: 10
Electric dark correction enabled: true
Nonlinearity correction enabled: false
Boxcar width: 0
XAxis mode: Wavelengths
Number of Pixels in Spectrum: 2048
>>>>>Begin Spectral Data<<<<<
341.393	-9.72
341.776	-9.72
342.16	-9.72
342.543	-57.63
342.927	-80
343.31	-60.56
343.693	-52.43
344.077	-67.79
344.46	-67.57
344.843	-65.08
345.226	-40.68
345.61	-49.26
345.993	-21.02
346.376	-8.14
346.759	0.68
347.142	32.54
347.525	46.33
347.908	65.31
348.291	91.07
348.674	89.04
349.057	107.57
349.44	123.61
349.823	132.43
350.206	171.52
350.588	212.88
350.971	217.85
351.354	213.55
351.737	263.95
352.119	233.44
352.502	258.52
352.884	268.24
353.267	294.23
353.65	285.19
354.032	299.43
354.414	309.82
354.797	317.73
355.179	326.09
355.562	343.27
355.944	309.37
356.326	330.84
356.709	336.49
357.091	348.69
357.473	349.6
357.855	332.65
358.238	342.14
358.62	342.36
359.002	349.14
359.384	335.81
359.766	349.82
360.148	334
360.53	358.63
360.912	339.2
361.294	341.46
361.676	343.72
362.057	336.26
362.439	337.62
362.821	341.01
363.203	315.02
363.584	330.39
363.966	318.18
364.348	331.52
364.729	328.35
365.111	309.6
365.493	327.68
365.874	325.19
366.256	306.21
366.637	334.68
367.019	312.76
367.4	295.36
367.781	312.31
368.163	329.26
368.544	305.3
368.925	341.46
369.306	334.68
369.688	314.34
370.069	323.16
370.45	317.05
370.831	315.7
371.212	333.55
371.593	296.49
371.974	326.32
372.355	316.15
372.736	304.85
373.117	315.25
373.498	312.76
373.879	301.69
374.26	325.87
374.641	313.89
375.021	310.73
375.402	313.89
375.783	308.24
376.163	328.35
376.544	319.31
376.925	324.96
377.305	343.27
377.686	329.03
378.066	319.99
378.447	346.43
378.827	343.95
379.208	338.97
379.588	330.84
379.968	308.92
380.349	346.43
380.729	346.88
381.109	350.5
381.489	331.06
381.87	322.93
382.25	349.37
382.63	354.11
383.01	349.6
383.39	342.14
383.77	348.69
384.15	345.08
384.53	335.81
384.91	355.24
385.29	376.49
385.67	324.51
386.049	347.79
386.429	367
386.809	356.6
387.189	349.37
387.568	344.85
387.948	362.25
388.328	340.56
388.707	374.91
389.087	385.3
389.466	364.28
389.846	367.9
390.225	357.96
390.605	381.68
390.984	376.49
391.363	344.85
391.743	392.31
392.122	365.64
392.501	362.48
392.881	409.93
393.26	369.93
393.639	362.25
394.018	378.3
394.397	379.43
394.776	376.94
395.155	380.55
395.534	397.96
395.913	397.28
396.292	386.66
396.671	372.19
397.05	385.75
397.429	387.79
397.808	409.25
398.186	388.92
398.565	407.9
398.944	393.44
399.323	392.76
399.701	394.11
400.08	399.76
400.458	401.8
400.837	399.54
401.215	413.55
401.594	413.77
401.972	406.54
402.351	402.25
402.729	410.84
403.107	406.54
403.486	413.1
403.864	404.06
404.242	406.32
404.62	414.23
404.999	433.89
405.377	430.95
405.755	421.46
406.133	403.15
406.511	435.69
406.889	427.79
407.267	448.35
407.645	448.58
408.023	445.41
408.401	448.8
408.779	456.94
409.156	440.67
409.534	457.62
409.912	456.71
410.29	450.84
410.667	450.61
411.045	466.65
411.422	481.34
411.8	459.65
412.178	472.76
412.555	478.41
412.933	476.15
413.31	476.82
413.687	474.34
414.065	476.82
414.442	487.22
414.819	477.95
415.197	494.9
415.574	504.85
415.951	489.25
416.328	505.75
416.705	495.81
417.082	515.01
417.46	494.22
417.837	507.78
418.214	492.42
418.591	504.62
418.967	497.39
419.344	507.11
419.721	529.03
420.098	499.42
420.475	535.81
420.852	531.29
421.228	540.78
421.605	529.7
421.982	541.91
422.358	526.77
422.735	564.5
423.111	560.89
423.488	521.57
423.864	564.5
424.241	579.42
424.617	555.01
424.994	567.67
425.37	580.32
425.746	558.86
426.123	588.69
426.499	578.06
426.875	597.95
427.251	608.35
427.627	606.31
428.003	597.5
428.379	618.51
428.756	622.58
429.132	619.64
429.507	611.74
429.883	628.46
430.259	615.8
430.635	635.92
431.011	639.53
431.387	647.21
431.763	652.41
432.138	660.32
432.514	653.54
432.89	661.68
433.265	663.94
433.641	678.85
434.016	656.93
434.392	707.1
434.767	701.45
435.143	693.09
435.518	727.89
435.894	728.79
436.269	721.79
436.644	729.25
437.02	748.45
437.395	721.79
437.77	738.96
438.145	742.58
438.52	746.87
438.895	740.09
439.271	779.41
439.646	770.38
440.021	785.29
440.395	771.96
440.77	773.76
441.145	794.78
441.52	778.28
441.895	768.34
442.27	803.82
442.645	805.18
443.019	804.05
443.394	788.23
443.769	826.19
444.143	825.97
444.518	828.23
444.892	816.7
445.267	819.19
445.641	812.63
446.016	844.05
446.39	858.73
446.764	849.92
447.139	833.2
447.513	858.51
447.887	859.64
448.262	872.29
448.636	858.06
449.01	890.6
449.384	875.46
449.758	906.64
450.132	888.56
450.506	910.26
450.88	936.7
451.254	915.68
451.628	927.21
452.002	929.92
452.376	932.18
452.75	949.35
453.123	986.64
453.497	972.63
453.871	939.86
454.244	1008.56
454.618	981.9
454.992	999.07
455.365	1027.77
455.739	985.06
456.112	1001.78
456.486	1027.09
456.859	1038.62
457.232	1047.43
457.606	1066.64
457.979	1072.29
458.352	1090.82
458.725	1084.72
459.099	1095.79
459.472	1154.77
459.845	1120.2
460.218	1131.72
460.591	1139.18
460.964	1155.68
461.337	1193.41
461.71	1205.17
462.083	1238.39
462.456	1198.84
462.829	1233.19
463.201	1240.19
463.574	1237.26
463.947	1259.63
464.32	1294.88
464.692	1309.57
465.065	1278.38
465.438	1307.08
465.81	1341.21
466.183	1358.83
466.555	1393.86
466.928	1377.14
467.3	1378.49
467.672	1393.18
468.045	1434.76
468.417	1450.13
468.789	1426.18
469.161	1458.72
469.534	1489.45
469.906	1517.7
470.278	1547.98
470.65	1560.64
471.022	1575.1
471.394	1628.88
471.766	1619.39
472.138	1651.26
472.51	1669.11
472.882	1696.23
473.253	1725.38
473.625	1704.36
473.997	1774.42
474.369	1815.09
474.74	1824.13
475.112	1829.78
475.484	1886.28
475.855	1893.06
476.227	1959.5
476.598	2006.95
476.97	2000.4
477.341	2041.08
477.713	2087.18
478.084	2095.99
478.455	2172.37
478.827	2181.86
479.198	2239.04
479.569	2245.36
479.94	2322.2
480.311	2356.77
480.682	2387.73
481.053	2478.13
481.424	2496.21
481.795	2563.55
482.166	2593.38
482.537	2613.94
482.908	2649.42
483.279	2717.44
483.65	2728.74
484.021	2822.3
484.391	2816.65
484.762	2900.71
485.133	2900.94
485.503	2978.68
485.874	3027.49
486.244	3103.87
486.615	3148.17
486.985	3202.4
487.356	3255.28
487.726	3260.25
488.097	3375.05
488.467	3386.8
488.837	3423.19
489.207	3495.05
489.578	3552.67
489.948	3606.23
490.318	3663.63
490.688	3690.52
491.058	3761.71
491.428	3776.85
491.798	3836.28
492.168	3914.25
492.538	3971.65
492.908	4022.72
493.278	4074.92
493.648	4066.56
494.017	4112.66
494.387	4206.44
494.757	4167.57
495.126	4235.37
495.496	4293.22
495.866	4296.84
496.235	4375.48
496.605	4386.78
496.974	4445.31
497.344	4472.88
497.713	4497.06
498.082	4541.8
498.452	4638.97
498.821	4626.32
499.19	4687.79
499.559	4709.71
499.928	4740.44
500.298	4810.04
500.667	4826.54
501.036	4804.17
501.405	4864.28
501.774	4897.5
502.143	4972.07
502.512	4953.99
502.88	5004.84
503.249	5001.22
503.618	5035.8
503.987	5090.04
504.356	5143.82
504.724	5096.82
505.093	5150.37
505.462	5187.89
505.83	5245.51
506.199	5264.72
506.567	5257.04
506.936	5264.49
507.304	5350.37
507.672	5382.23
508.041	5421.1
508.409	5440.08
508.777	5471.72
509.145	5523.47
509.514	5530.25
509.882	5610.7
510.25	5544.94
510.618	5579.74
510.986	5656.12
511.354	5710.36
511.722	5693.86
512.09	5740.64
512.458	5723.92
512.826	5786.97
513.193	5783.58
513.561	5801.66
513.929	5875.1
514.297	5890.92
514.664	5930.24
515.032	5860.64
515.4	5958.04
515.767	5989.45
516.135	6039.39
516.502	6023.12
516.869	6064.47
517.237	6101.31
517.604	6082.78
517.972	6149.67
518.339	6151.93
518.706	6198.03
519.073	6188.99
519.44	6229.44
519.808	6318.25
520.175	6301.76
520.542	6352.83
520.909	6419.72
521.276	6387.63
521.643	6422.43
522.009	6478.93
522.376	6455.65
522.743	6540.62
523.11	6563.44
523.477	6555.99
523.843	6690.45
524.21	6764.34
524.577	6744.68
524.943	6727.05
525.31	6763.21
525.676	6869.42
526.043	6924.79
526.409	6874.4
526.776	6925.02
527.142	7060.15
527.508	7018.35
527.874	7062.87
528.241	7087.95
528.607	7104.45
528.973	7203.65
529.339	7187.61
529.705	7221.51
530.071	7346.7
530.437	7426.92
530.803	7362.74
531.169	7428.51
531.535	7368.85
531.901	7417.88
532.267	7482.97
532.632	7530.42
532.998	7497.66
533.364	7595.96
533.73	7584.89
534.095	7647.48
534.461	7724.54
534.826	7740.81
535.192	7720.7
535.557	7854.03
535.923	7785.11
536.288	7836.86
536.653	7925.44
537.019	7903.75
537.384	7976.06
537.749	7973.12
538.114	7990.07
538.479	8013.12
538.845	8065.55
539.21	8057.64
539.575	8086.34
539.94	8145.77
540.305	8255.83
540.67	8138.77
541.034	8285.21
541.399	8309.39
541.764	8307.35
542.129	8312.78
542.494	8337.18
542.858	8430.51
543.223	8427.8
543.587	8500.34
543.952	8482.49
544.316	8480.23
544.681	8629.83
545.045	8569.49
545.41	8647
545.774	8688.36
546.138	8661.02
546.503	8690.84
546.867	8729.04
547.231	8744.4
547.595	8799.32
547.959	8847
548.324	8874.57
548.688	8866.66
549.052	8906.66
549.416	8952.76
549.779	8962.48
550.143	8994.57
550.507	9140.32
550.871	9102.36
551.235	8981.68
551.599	9193.43
551.962	9155.47
552.326	9174
552.689	9302.58
553.053	9219.87
553.417	9195.69
553.78	9392.52
554.143	9285.41
554.507	9338.96
554.87	9436.59
555.234	9442.69
555.597	9394.56
555.96	9504.38
556.323	9474.55
556.686	9562.23
557.05	9556.36
557.413	9638.16
557.776	9592.97
558.139	9675
558.502	9712.74
558.865	9699.41
559.228	9798.84
559.59	9773.08
559.953	9790.25
560.316	9905.95
560.679	9875.22
561.041	10014.43
561.404	10044.93
561.767	10050.81
562.129	9995.22
562.492	10103.69
562.854	10100.3
563.217	10137.13
563.579	10224.36
563.941	10164.25
564.304	10220.52
564.666	10313.4
565.028	10385.26
565.39	10349.56
565.753	10361.31
566.115	10422.55
566.477	10525.37
566.839	10521.08
567.201	10609.44
567.563	10585.26
567.925	10627.07
568.287	10650.57
568.648	10712.49
569.01	10676.78
569.372	10781.41
569.734	10787.29
570.095	10844.69
570.457	10972.82
570.819	10973.95
571.18	10950.67
571.542	11112.02
571.903	11051.69
572.265	11175.07
572.626	11219.14
572.987	11227.73
573.349	11294.84
573.71	11281.06
574.071	11430.43
574.432	11473.14
574.794	11600.37
575.155	11617.1
575.516	11564.67
575.877	11716.53
576.238	11836.52
576.599	11871.1
576.96	11860.03
577.32	12003.07
577.681	12175.73
578.042	12190.19
578.403	12246.68
578.763	12394.25
579.124	12468.6
579.485	12562.38
579.845	12685.77
580.206	12785.43
580.566	12872.43
580.927	12983.84
581.287	13175.25
581.648	13238.07
582.008	13490.04
582.368	13539.76
582.728	13792.41
583.089	13889.8
583.449	13980.42
583.809	14186.29
584.169	14402.11
584.529	14523.46
584.889	14852.26
585.249	14865.82
585.609	15053.62
585.969	15372.03
586.329	15441.4
586.688	15708.29
587.048	15902.41
587.408	16175.17
587.768	16486.35
588.127	16570.86
588.487	16854.25
588.846	17285.65
589.206	17374.23
589.565	17606.77
589.925	17997.72
590.284	18168.34
590.643	18439.52
591.003	18825.95
591.362	19200.4
591.721	19254.86
592.08	19615.98
592.44	19946.82
592.799	20241.95
593.158	20500.25
593.517	20781.83
593.876	21185.88
594.235	21371.42
594.593	21753.33
594.952	21944.96
595.311	22319.64
595.67	22467.88
596.029	22963.46
596.387	23290.91
596.746	23600.96
597.104	23770.45
597.463	24128.18
597.822	24550.54
598.18	24705.79
598.538	25095.16
598.897	25461.25
599.255	25600.46
599.613	26226.2
599.972	26406.09
600.33	26807.2
600.688	26862.12
601.046	27247.42
601.404	27794.75
601.762	28012.6
602.12	28482.64
602.478	28504.79
602.836	28793.14
603.194	29017.54
603.552	29364.65
603.91	29565.55
604.268	30037.63
604.625	30037.63
604.983	30498.86
605.341	30589.7
605.698	30983.14
606.056	31446.18
606.413	31541.54
606.771	31901.08
607.128	32170.68
607.485	32232.15
607.843	32503.33
608.2	32890.89
608.557	33266.47
608.914	33304.21
609.272	33699.9
609.629	33817.64
609.986	34214.24
610.343	34309.15
610.7	34725.87
611.057	34792.53
611.414	34954.79
611.771	35217.15
612.127	35462.57
612.484	35842.22
612.841	35971.03
613.198	36065.27
613.554	36197.92
613.911	36639.49
614.267	36652.14
614.624	36913.83
614.98	36968.07
615.337	37507.71
615.693	37482.63
616.05	37760.14
616.406	37928.27
616.762	38044.65
617.118	38181.59
617.475	38243.29
617.831	38429.95
618.187	38706.33
618.543	38909.49
618.899	39146.32
619.255	39176.6
619.611	39258.63
619.967	39422.47
620.323	39752.85
620.678	39711.95
621.034	39749.24
621.39	39804.15
621.746	39942.9
622.101	40477.35
622.457	40117.36
622.812	40400.29
623.168	40628.08
623.523	40593.06
623.879	40887.29
624.234	40734.52
624.589	40882.77
624.945	41077.11
625.3	41171.35
625.655	41127.73
626.01	41325.47
626.365	41311
626.72	41410.44
627.075	41395.3
627.43	41515.52
627.785	41533.82
628.14	41600.71
628.495	41699.24
628.85	41854.72
629.205	41669.64
629.559	42010.65
629.914	41957.31
630.269	41889.97
630.623	42030.53
630.978	41863.53
631.332	42136.52
631.687	42174.03
632.041	42089.06
632.396	42223.52
632.75	41929.29
633.104	42158.67
633.459	42130.42
633.813	42198.44
634.167	42169.29
634.521	42103.53
634.875	42175.84
635.229	42197.08
635.583	42128.16
635.937	42005.45
636.291	42173.13
636.645	42181.04
636.999	42128.38
637.352	42289.96
637.706	42064.88
638.06	42279.79
638.413	42144.43
638.767	42090.87
639.121	42121.15
639.474	41977.43
639.828	42022.85
640.181	42049.29
640.534	42007.26
640.888	42083.41
641.241	41966.35
641.594	42018.56
641.947	42191.66
642.301	42112.11
642.654	42068.05
643.007	42107.14
643.36	42074.6
643.713	42045.9
644.066	42144.88
644.419	41947.37
644.771	41762.97
645.124	41444.11
645.477	41243.66
645.83	41109.88
646.182	41057.45
646.535	40884.57
646.888	41002.31
647.24	40644.13
647.593	40935.19
647.945	40933.61
648.298	40609.1
648.65	40618.14
649.002	40536.11
649.355	40707.63
649.707	40852.94
650.059	40973.61
650.411	41463.99
650.763	41492.24
651.115	41860.59
651.467	41702.41
651.819	41725.23
652.171	41506.48
652.523	41501.73
652.875	41494.28
653.227	41361.17
653.578	41736.3
653.93	41535.41
654.282	41502.41
654.633	41245.02
654.985	41415.63
655.337	41439.36
655.688	41428.52
656.039	41592.35
656.391	41372.7
656.742	41467.16
657.094	41485.01
657.445	41554.84
657.796	41450.21
658.147	41482.98
658.498	41287.73
658.849	41444.56
659.2	41468.51
659.551	41291.8
659.902	41539.92
660.253	41248.63
660.604	41438.91
660.955	41128.64
661.306	41302.42
661.656	41363.43
662.007	41337.44
662.358	41259.03
662.708	41292.93
663.059	41287.73
663.409	41019.03
663.76	41480.49
664.11	41292.25
664.461	41380.38
664.811	41296.77
665.161	41103.55
665.511	41162.53
665.862	41203.21
666.212	41227.84
666.562	41175.19
666.912	41195.75
667.262	41132.48
667.612	41179.93
667.962	41307.61
668.312	41205.02
668.662	41420.38
669.011	41215.64
669.361	41231.01
669.711	41202.08
670.06	41110.78
670.41	41119.37
670.76	40928.19
671.109	41080.5
671.459	40984.69
671.808	40882.09
672.157	41111.91
672.507	40814.97
672.856	40992.59
673.205	41041.18
673.554	41242.31
673.904	40930
674.253	41191.69
674.602	40960.5
674.951	40500.18
675.3	40236.46
675.649	40937.91
675.998	40789.21
676.346	40887.51
676.695	40871.02
677.044	40708.76
677.393	40708.53
677.741	40784.46
678.09	40742.43
678.438	40591.48
678.787	40648.87
679.135	40640.29
679.484	40344.7
679.832	40560.97
680.181	40333.63
680.529	40452.04
680.877	40295.66
681.225	40198.94
681.573	40618.37
681.922	40280.07
682.27	40111.26
682.618	40181.99
682.966	40032.62
683.314	40130.92
683.661	39964.82
684.009	39809.8
684.357	39777.49
684.705	39813.19
685.053	39797.37
685.4	39820.2
685.748	39620.88
686.095	39486.42
686.443	39495.01
686.79	39452.97
687.138	39539.3
687.485	39425.18
687.832	39365.52
688.18	39304.05
688.527	39130.27
688.874	39003.72
689.221	39114
689.568	38879.2
689.915	38900.67
690.262	38710.62
690.609	38848.47
690.956	38511.3
691.303	38663.16
691.65	38300.91
691.997	38484.86
692.344	38347.69
692.69	38185.89
693.037	38243.29
693.383	37909.74
693.73	37967.36
694.077	37755.62
694.423	37789.51
694.769	37669.07
695.116	37643.08
695.462	37667.03
695.808	37453.25
696.155	37499.35
696.501	37262.98
696.847	37177.55
697.193	36936.2
697.539	37104.11
697.885	36795.19
698.231	36697.79
698.577	36799.26
698.923	36767.85
699.269	36486.05
699.614	36368.54
699.96	36338.48
700.306	36406.5
700.651	36137.58
700.997	36153.17
701.342	36143.91
701.688	35944.82
702.033	35985.49
702.379	35888.77
702.724	35819.17
703.069	35815.1
703.415	35412.63
703.76	35436.81
704.105	35430.93
704.45	35329.69
704.795	35100.55
705.14	35001.34
705.485	35062.58
705.83	34914.56
706.175	35013.09
706.52	34906.43
706.865	34759.99
707.209	34674.34
707.554	34606.1
707.899	34596.15
708.243	34388.7
708.588	34390.06
708.932	34159.55
709.277	34134.92
709.621	34188.03
709.966	34058.54
710.31	34033.46
710.654	33749.17
710.998	33786.91
711.342	33809.28
711.687	33656.52
712.031	33622.84
712.375	33442.28
712.719	33583.07
713.063	33571.55
713.407	33524.32
713.75	33317.09
714.094	33301.5
714.438	33231.22
714.782	33248.62
715.125	33122.52
715.469	33221.05
715.812	33002.07
716.156	32748.07
716.499	32826.71
716.843	32762.75
717.186	32817.67
717.53	32797.56
717.873	32785.35
718.216	32794.17
718.559	32574.51
718.902	32321.41
719.246	32452.93
719.589	32244.58
719.932	32294.74
720.275	32221.75
720.617	32200.51
720.96	32171.58
721.303	32212.26
721.646	32115.99
721.989	32003.9
722.331	31992.61
722.674	31964.36
723.016	31886.39
723.359	31797.36
723.701	31870.12
724.044	31513.97
724.386	31495.44
724.729	31560.3
725.071	31461.09
725.413	31462.68
725.755	31410.7
726.097	31301.1
726.439	31099.07
726.782	31286.41
727.124	31308.1
727.465	31177.03
727.807	31276.69
728.149	31082.8
728.491	30893.42
728.833	31120.99
729.175	30888.68
729.516	30938.85
729.858	30872.41
730.199	30911.5
730.541	30650.95
730.882	30601.68
731.224	30742.92
731.565	30499.54
731.906	30515.36
732.248	30428.35
732.589	30425.87
732.93	30246.66
733.271	30311.07
733.612	30371.63
733.953	30394.91
734.294	30382.03
734.635	30174.8
734.976	30252.54
735.317	30162.14
735.658	30055.93
735.999	30012.09
736.339	29961.47
736.68	30140
737.021	30105.65
737.361	29884.41
737.702	30029.72
738.042	29843.28
738.383	29728.94
738.723	29971.19
739.063	29576.17
739.404	29803.51
739.744	29688.71
740.084	29584.76
740.424	29553.8
740.764	29501.37
741.104	29640.35
741.444	29380.92
741.784	29293.69
742.124	29385.22
742.464	29302.28
742.804	29280.81
743.143	29225.45
743.483	29292.79
743.823	29061.38
744.162	29092.12
744.502	29102.51
744.841	29114.49
745.181	29114.26
745.52	28995.17
745.86	29081.72
746.199	28865
746.538	28906.36
746.877	29054.6
747.216	28973.7
747.556	28782.52
747.895	28866.36
748.234	28618.68
748.573	28641.05
748.911	28617.78
749.25	28622.3
749.589	28521.96
749.928	28558.8
750.267	28546.37
750.605	28451.91
750.944	28343.66
751.283	28429.31
751.621	28417.33
751.96	28142.54
752.298	28309.99
752.636	28262.76
752.975	28134.63
753.313	28006.72
753.651	28110.67
753.989	27853.5
754.327	27862.77
754.666	27824.13
755.004	27916.1
755.342	27736.9
755.679	27796.11
756.017	27553.63
756.355	27640.86
756.693	27474.53
757.031	27567.86
757.368	27406.51
757.706	27297.36
758.044	27258.49
758.381	27181.66
758.719	27167.2
759.056	27158.83
759.394	27081.32
759.731	26894.21
