Data from hue_320_FLMS001491_98.txt Node
Date: Mon Feb 06 15:48:00 GMT 2017
User: dcchb
Spectrometer: FLMS00149
Trigger mode: 0
Integration Time (sec): 2.000000E-2
Scans to average: 10
Electric dark correction enabled: true
Nonlinearity correction enabled: false
Boxcar width: 0
XAxis mode: Wavelengths
Number of Pixels in Spectrum: 2048
>>>>>Begin Spectral Data<<<<<
341.393	-33.8
341.776	-33.8
342.16	-33.8
342.543	-46.91
342.927	-62.27
343.31	-77.87
343.693	-63.85
344.077	-66.11
344.46	-43.52
344.843	-65.44
345.226	-55.94
345.61	-21.37
345.993	-25.66
346.376	-5.32
346.759	-15.95
347.142	33.09
347.525	45.75
347.908	85.07
348.291	64.28
348.674	110.15
349.057	102.7
349.44	121.23
349.823	147.67
350.206	156.25
350.588	207.1
350.971	206.42
351.354	238.51
351.737	231.51
352.119	268.11
352.502	259.53
352.884	290.94
353.267	281.22
353.65	288.9
354.032	301.33
354.414	297.27
354.797	313.08
355.179	332.07
355.562	318.96
355.944	326.19
356.326	325.97
356.709	336.59
357.091	333.65
357.473	324.38
357.855	342.46
358.238	328.45
358.62	345.4
359.002	336.14
359.384	318.06
359.766	331.62
360.148	341.56
360.53	344.04
360.912	331.39
361.294	315.12
361.676	329.81
362.057	321.67
362.439	332.97
362.821	304.27
363.203	331.39
363.584	334.33
363.966	338.4
364.348	319.86
364.729	324.16
365.111	318.51
365.493	288.9
365.874	311.05
366.256	317.15
366.637	292.52
367.019	302.92
367.4	307.66
367.781	312.18
368.163	326.87
368.544	302.69
368.925	288.45
369.306	314.21
369.688	309.7
370.069	327.77
370.45	315.12
370.831	309.7
371.212	316.02
371.593	293.42
371.974	302.24
372.355	333.2
372.736	297.94
373.117	290.26
373.498	313.08
373.879	306.08
374.26	327.1
374.641	301.33
375.021	333.42
375.402	309.47
375.783	308.57
376.163	319.19
376.544	313.08
376.925	330.71
377.305	295.68
377.686	308.11
378.066	311.96
378.447	311.28
378.827	317.6
379.208	323.93
379.588	313.99
379.968	338.4
380.349	318.28
380.729	336.59
381.109	325.29
381.489	333.65
381.87	315.12
382.25	329.81
382.63	336.81
383.01	331.16
383.39	327.77
383.77	342.91
384.15	341.56
384.53	334.1
384.91	331.16
385.29	349.69
385.67	324.84
386.049	358.73
386.429	347.21
386.809	347.66
387.189	345.17
387.568	354.44
387.948	346.53
388.328	347.43
388.707	326.42
389.087	336.14
389.466	350.6
389.846	350.6
390.225	356.25
390.605	367.32
390.984	364.16
391.363	340.43
391.743	341.33
392.122	375.68
392.501	360.09
392.881	344.27
393.26	342.01
393.639	360.99
394.018	367.09
394.397	389.02
394.776	373.87
395.155	367.55
395.534	387.21
395.913	377.72
396.292	397.83
396.671	375.91
397.05	393.53
397.429	369.13
397.808	381.33
398.186	384.27
398.565	380.2
398.944	377.26
399.323	396.7
399.701	389.02
400.08	408.22
400.458	389.69
400.837	399.18
401.215	428.56
401.594	391.05
401.972	389.02
402.351	375.23
402.729	394.89
403.107	410.03
403.486	394.44
403.864	401.22
404.242	425.85
404.62	416.13
404.999	407.09
405.377	412.52
405.755	427.66
406.133	435.57
406.511	425.85
406.889	421.33
407.267	441.9
407.645	422.23
408.023	443.03
408.401	457.04
408.779	431.73
409.156	458.39
409.534	464.95
409.912	489.8
410.29	461.56
410.667	462.69
411.045	494.1
411.422	483.25
411.8	486.41
412.178	478.05
412.555	505.62
412.933	503.36
413.31	498.84
413.687	511.27
414.065	516.7
414.442	529.12
414.819	563.25
415.197	532.29
415.574	548.56
415.951	544.49
416.328	556.24
416.705	545.62
417.082	559.41
417.46	576.13
417.837	572.74
418.214	580.87
418.591	587.88
418.967	572.97
419.344	585.85
419.721	616.35
420.098	605.28
420.475	612.06
420.852	646.86
421.228	623.36
421.605	633.08
421.982	648.67
422.358	641.89
422.735	657.93
423.111	652.06
423.488	663.13
423.864	685.96
424.241	680.31
424.617	681.89
424.994	672.62
425.37	698.16
425.746	694.54
426.123	712.62
426.499	713.75
426.875	717.59
427.251	725.5
427.627	740.19
428.003	724.37
428.379	753.53
428.756	756.46
429.132	768.44
429.507	779.06
429.883	784.71
430.259	787.2
430.635	812.96
431.011	798.04
431.387	811.38
431.763	816.12
432.138	834.2
432.514	849.79
432.89	846.63
433.265	856.57
433.641	877.82
434.016	891.6
434.392	875.56
434.767	903.58
435.143	892.96
435.518	910.36
435.894	932.05
436.269	947.19
436.644	937.7
437.02	960.3
437.395	956.91
437.77	952.84
438.145	978.6
438.52	981.32
438.895	978.38
439.271	984.03
439.646	1010.24
440.021	1023.57
440.395	993.29
440.77	996.46
441.145	1016.12
441.52	1011.6
441.895	1007.76
442.27	1052.73
442.645	1043.46
443.019	1050.69
443.394	1045.27
443.769	1047.53
444.143	1042.56
444.518	1068.77
444.892	1076.68
445.267	1066.74
445.641	1079.39
446.016	1088.43
446.39	1090.69
446.764	1115.78
447.139	1093.86
447.513	1098.6
447.887	1097.25
448.262	1127.53
448.636	1146.74
449.01	1110.58
449.384	1134.08
449.758	1125.49
450.132	1124.36
450.506	1138.83
450.88	1136.79
451.254	1158.71
451.628	1178.82
452.002	1165.49
452.376	1179.5
452.75	1155.1
453.123	1159.39
453.497	1196.9
453.871	1237.13
454.244	1221.54
454.618	1217.92
454.992	1235.77
455.365	1204.81
455.739	1238.48
456.112	1227.86
456.486	1252.04
456.859	1265.15
457.232	1265.15
457.606	1285.94
457.979	1297.01
458.352	1333.4
458.725	1308.09
459.099	1327.75
459.472	1349.89
459.845	1332.49
460.218	1347.41
460.591	1371.14
460.964	1375.88
461.337	1384.47
461.71	1358.26
462.083	1398.48
462.456	1409.78
462.829	1411.14
463.201	1426.73
463.574	1425.37
463.947	1446.39
464.32	1465.82
464.692	1501.08
465.065	1518.93
465.438	1528.65
465.81	1520.28
466.183	1544.92
466.555	1545.14
466.928	1555.54
467.3	1568.19
467.672	1603.22
468.045	1597.12
468.417	1597.35
468.789	1641.41
469.161	1644.12
469.534	1615.65
469.906	1694.97
470.278	1667.63
470.65	1699.26
471.022	1715.53
471.394	1753.73
471.766	1748.75
472.138	1762.54
472.51	1782.65
472.882	1797.11
473.253	1836.43
473.625	1874.17
473.997	1872.14
474.369	1847.28
474.74	1912.82
475.112	1908.52
475.484	1926.38
475.855	1939.48
476.227	1953.27
476.598	2011.35
476.97	2052.02
477.341	2078.91
477.713	2076.43
478.084	2080.95
478.455	2164.79
478.827	2170.66
479.198	2179.48
479.569	2188.52
479.94	2220.15
480.311	2233.94
480.682	2261.06
481.053	2304.45
481.424	2334.95
481.795	2360.26
482.166	2400.26
482.537	2411.56
482.908	2438.9
483.279	2478.23
483.65	2514.16
484.021	2518.22
484.391	2537.66
484.762	2576.98
485.133	2583.76
485.503	2626.7
485.874	2688.16
486.244	2683.64
486.615	2692.23
486.985	2702.85
487.356	2731.1
487.726	2786.01
488.097	2798.67
488.467	2814.94
488.837	2884.99
489.207	2894.03
489.578	2934.26
489.948	2988.49
490.318	2961.6
490.688	2968.61
491.058	3020.36
491.428	3071.2
491.798	3101.26
492.168	3138.1
492.538	3156.17
492.908	3156.85
493.278	3178.09
493.648	3211.54
494.017	3259.9
494.387	3275.72
494.757	3249.5
495.126	3328.82
495.496	3311.42
495.866	3342.38
496.235	3356.62
496.605	3359.56
496.974	3384.64
497.344	3425.32
497.713	3398.65
498.082	3459.67
498.452	3511.42
498.821	3511.19
499.19	3494.24
499.559	3513.68
499.928	3549.84
500.298	3559.78
500.667	3576.73
501.036	3560.01
501.405	3610.85
501.774	3574.24
502.143	3593.9
502.512	3627.8
502.88	3637.29
503.249	3608.14
503.618	3732.2
503.987	3683.17
504.356	3730.17
504.724	3732.43
505.093	3765.88
505.462	3734.46
505.83	3757.29
506.199	3806.78
506.567	3833.67
506.936	3850.17
507.304	3839.09
507.672	3885.87
508.041	3899.66
508.409	3838.42
508.777	3894.23
509.145	3933.55
509.514	3934.68
509.882	3927.23
510.25	3923.39
510.618	3948.47
510.986	3911.86
511.354	4003.61
511.722	4004.74
512.09	4074.12
512.458	4007
512.826	4042.48
513.193	4083.38
513.561	4067.34
513.929	4070.73
514.297	4093.55
514.664	4120.22
515.032	4093.55
515.4	4138.3
515.767	4133.78
516.135	4151.85
516.502	4074.57
516.869	4201.57
517.237	4190.95
517.604	4143.94
517.972	4203.15
518.339	4267.11
518.706	4211.97
519.073	4199.54
519.44	4191.63
519.808	4287.9
520.175	4261
520.542	4325.41
520.909	4318.63
521.276	4297.84
521.643	4301.45
522.009	4366.54
522.376	4353.88
522.743	4397.05
523.11	4419.42
523.477	4439.53
523.843	4435.46
524.21	4456.7
524.577	4492.41
524.943	4483.82
525.31	4557.72
525.676	4533.31
526.043	4600.2
526.409	4597.49
526.776	4631.84
527.142	4613.54
527.508	4690.82
527.874	4676.81
528.241	4731.5
528.607	4726.08
528.973	4743.7
529.339	4748
529.705	4749.13
530.071	4820.09
530.437	4826.86
530.803	4866.86
531.169	4921.33
531.535	4880.42
531.901	4866.19
532.267	4943.7
532.632	4926.75
532.998	4938.5
533.364	4979.85
533.73	4990.25
534.095	5026.41
534.461	5037.48
534.826	5084.48
535.192	5088.78
535.557	5070.7
535.923	5110.47
536.288	5094.43
536.653	5176.23
537.019	5178.95
537.384	5201.32
537.749	5236.35
538.114	5223.69
538.479	5253.75
538.845	5308.43
539.21	5339.39
539.575	5302.11
539.94	5298.94
540.305	5353.18
540.67	5351.82
541.034	5410.8
541.399	5438.37
541.764	5403.35
542.129	5472.95
542.494	5525.83
542.858	5482.89
543.223	5498.94
543.587	5544.81
543.952	5520.86
544.316	5574.64
544.681	5603.57
545.045	5616.67
545.41	5652.38
545.774	5669.78
546.138	5678.82
546.503	5702.32
546.867	5692.6
547.231	5741.64
547.595	5810.34
547.959	5761.08
548.324	5792.49
548.688	5850.57
549.052	5866.16
549.416	5867.06
549.779	5893.05
550.143	5931.24
550.507	5908.19
550.871	5974.41
551.235	5974.18
551.599	6043.1
551.962	6010.11
552.326	6023.9
552.689	6094.63
553.053	6074.74
553.417	6086.94
553.78	6118.36
554.143	6112.03
554.507	6108.86
554.87	6147.73
555.234	6249.2
555.597	6170.56
555.96	6196.09
556.323	6158.58
556.686	6269.54
557.05	6271.12
557.413	6300.72
557.776	6306.6
558.139	6373.94
558.502	6340.5
558.865	6366.71
559.228	6435.86
559.59	6360.61
559.953	6386.15
560.316	6431.34
560.679	6455.3
561.041	6503.66
561.404	6512.92
561.767	6559.02
562.129	6532.36
562.492	6595.63
562.854	6572.36
563.217	6601.96
563.579	6629.53
563.941	6601.73
564.304	6676.99
564.666	6667.27
565.028	6709.75
565.39	6733.48
565.753	6791.11
566.115	6821.61
566.477	6810.99
566.839	6788.39
567.201	6835.85
567.563	6895.28
567.925	6882.86
568.287	6867.49
568.648	6967.15
569.01	7035.62
569.372	7001.95
569.734	6968.5
570.095	7017.77
570.457	7073.59
570.819	7166.46
571.18	7110.65
571.542	7164.43
571.903	7202.4
572.265	7279.23
572.626	7262.73
572.987	7295.05
573.349	7392.22
573.71	7448.26
574.071	7435.38
574.432	7532.1
574.794	7584.31
575.155	7629.28
575.516	7670.41
575.877	7674.7
576.238	7782.27
576.599	7886.22
576.96	7928.25
577.32	7970.06
577.681	8034.92
578.042	8079.89
578.403	8194.23
578.763	8282.59
579.124	8374.57
579.485	8439.88
579.845	8526.43
580.206	8590.83
580.566	8753.77
580.927	8829.02
581.287	8968.22
581.648	9044.38
582.008	9248.22
582.368	9351.27
582.728	9482.56
583.089	9652.95
583.449	9814.3
583.809	9988.76
584.169	10092.49
584.529	10236.67
584.889	10542.42
585.249	10561.18
585.609	10779.25
585.969	11035.29
586.329	11125
586.688	11421.49
587.048	11607.25
587.408	11698.77
587.768	11997.52
588.127	12251.53
588.487	12429.15
588.846	12850.83
589.206	12888.12
589.565	13110.49
589.925	13459.63
590.284	13680.64
590.643	13931.94
591.003	14184.58
591.362	14540.28
591.721	14782.76
592.08	15013.04
592.44	15303.65
592.799	15632.91
593.158	15788.84
593.517	16130.3
593.876	16429.95
594.235	16630.17
594.593	16987.9
594.952	17218.18
595.311	17517.38
595.67	17803.47
596.029	18199.85
596.387	18477.13
596.746	18774.07
597.104	19010.67
597.463	19321.17
597.822	19555.06
598.18	19929.07
598.538	20088.61
598.897	20556.17
599.255	20571.99
599.613	21231.63
599.972	21268.01
600.33	21581.23
600.688	21781
601.046	22138.27
601.404	22456.68
601.762	22719.5
602.12	23023.22
602.478	23347.73
602.836	23528.29
603.194	23792.69
603.552	23977.32
603.91	24170.54
604.268	24512.45
604.625	24676.96
604.983	25003.51
605.341	25185.88
605.698	25501.12
606.056	25775.92
606.413	25902.02
606.771	26259.52
607.128	26423.81
607.485	26565.5
607.843	26819.05
608.2	27216.78
608.557	27516.66
608.914	27545.59
609.272	27899.7
609.629	28071.68
609.986	28357.55
610.343	28372.23
610.7	28852.67
611.057	28953.01
611.414	29155.26
611.771	29294.02
612.127	29574.46
612.484	29721.58
612.841	30000.89
613.198	29983.27
613.554	30188.23
613.911	30496.7
614.267	30753.64
614.624	30716.81
614.98	30951.15
615.337	31209.9
615.693	31371.7
616.05	31411.7
616.406	31767.85
616.762	31689.66
617.118	31754.52
617.475	32042.42
617.831	32130.78
618.187	32340.94
618.543	32632.24
618.899	32826.81
619.255	32846.24
619.611	32987.25
619.967	33147.93
620.323	33368.04
620.678	33224.76
621.034	33300.01
621.39	33338.88
621.746	33401.48
622.101	34008.24
622.457	33711.75
622.812	33832.43
623.168	34079.2
623.523	34199.65
623.879	34158.97
624.234	34351.74
624.589	34372.08
624.945	34505.41
625.3	34701.56
625.655	34576.59
626.01	34788.34
626.365	34874.89
626.72	34822.01
627.075	34837.83
627.43	34951.95
627.785	34982.23
628.14	35004.38
628.495	35196.01
628.85	35041.89
629.205	35154.88
629.559	35315.1
629.914	35198.95
630.269	35411.37
630.623	35272.39
630.978	35374.31
631.332	35465.38
631.687	35572.95
632.041	35523.46
632.396	35557.58
632.75	35641.65
633.104	35596.23
633.459	35405.27
633.813	35612.5
634.167	35534.98
634.521	35645.94
634.875	35685.94
635.229	35518.71
635.583	35547.19
635.937	35556.23
636.291	35589.45
636.645	35614.3
636.999	35509
637.352	35676
637.706	35464.48
638.06	35721.19
638.413	35709.44
638.767	35532.5
639.121	35545.38
639.474	35316.91
639.828	35476.45
640.181	35569.11
640.534	35633.74
640.888	35427.64
641.241	35366.63
641.594	35405.27
641.947	35664.7
642.301	35477.58
642.654	35563.46
643.007	35493.18
643.36	35286.85
643.713	35412.73
644.066	35505.15
644.419	35443.69
644.771	35247.53
645.124	34830.82
645.477	34767.55
645.83	34680.32
646.182	34478.51
646.535	34337.28
646.888	34496.59
647.24	34430.83
647.593	34557.16
647.945	34430.83
648.298	34329.37
648.65	34237.62
649.002	34210.95
649.355	34421.34
649.707	34362.13
650.059	34600.77
650.411	34749.69
650.763	34853.42
651.115	35179.06
651.467	35192.85
651.819	35163.47
652.171	35132.51
652.523	35082.57
652.875	34988.33
653.227	34851.84
653.578	35148.33
653.93	34981.78
654.282	34933.19
654.633	34779.3
654.985	34951.04
655.337	35003.02
655.688	34869.24
656.039	35153.98
656.391	34801.67
656.742	34864.27
657.094	34755.34
657.445	34913.08
657.796	34866.07
658.147	34801.9
658.498	34815.68
658.849	34884.61
659.2	34828.56
659.551	34798.05
659.902	34855
660.253	34859.52
660.604	34944.26
660.955	34614.1
661.306	34873.31
661.656	34692.52
662.007	34754.21
662.358	34683.93
662.708	34668.34
663.059	34606.65
663.409	34564.39
663.76	34726.64
664.11	34808.68
664.461	34845.96
664.811	34710.37
665.161	34653.2
665.511	34614.56
665.862	34716.25
666.212	34772.97
666.562	34733.87
666.912	34674.67
667.262	34638.06
667.612	34691.62
667.962	34702.46
668.312	34670.37
668.662	34704.5
669.011	34591.28
669.361	34605.52
669.711	34535.46
670.06	34561.68
670.41	34427.67
670.76	34466.99
671.109	34638.74
671.459	34431.51
671.808	34579.75
672.157	34489.81
672.507	34307.22
672.856	34445.07
673.205	34248.01
673.554	34506.08
673.904	34273.77
674.253	34543.6
674.602	34460.44
674.951	34042.59
675.3	33815.71
675.649	34257.73
675.998	34304.73
676.346	34349.03
676.695	34452.3
677.044	34134.34
677.393	34354.22
677.741	34424.96
678.09	34199.43
678.438	34027.68
678.787	34236.94
679.135	34114.46
679.484	33907.46
679.832	34128.02
680.181	33754.47
680.529	33958.75
680.877	33808.7
681.225	33935.7
681.573	34035.59
681.922	33869.26
682.27	33775.26
682.618	33732.09
682.966	33784.97
683.314	33704.52
683.661	33512.66
684.009	33470.18
684.357	33324.87
684.705	33349.05
685.053	33461.82
685.4	33404.42
685.748	33139.79
686.095	33123.75
686.443	33157.87
686.79	33029.96
687.138	33148.38
687.485	33085.56
687.832	33086.23
688.18	33100.25
688.527	32761.72
688.874	32734.83
689.221	32688.73
689.568	32605.12
689.915	32585.23
690.262	32571.45
690.609	32461.62
690.956	32383.88
691.303	32196.77
691.65	32224.34
691.997	32166.26
692.344	31877
692.69	32031.35
693.037	32004.91
693.383	31733.73
693.73	31812.82
694.077	31684.69
694.423	31696.67
694.769	31502.1
695.116	31440.85
695.462	31387.3
695.808	31370.57
696.155	31475.43
696.501	31178.94
696.847	31025.27
697.193	30938.49
697.539	31154.31
697.885	30879.29
698.231	30772.62
698.577	30774.88
698.923	30652.63
699.269	30620.08
699.614	30442.69
699.96	30375.35
700.306	30502.57
700.651	30317.27
700.997	30228.23
701.342	30179.64
701.688	30097.39
702.033	30013.1
702.379	30017.39
702.724	29913.89
703.069	29915.7
703.415	29588.25
703.76	29705.53
704.105	29694.91
704.45	29549.83
704.795	29390.74
705.14	29259.89
705.485	29376.73
705.83	29181.93
706.175	29249.5
706.52	29107.13
706.865	29022.61
707.209	29007.92
707.554	28918.21
707.899	28986.68
708.243	28700.81
708.588	28786.23
708.932	28521.38
709.277	28654.26
709.621	28476.41
709.966	28393.25
710.31	28391.89
710.654	28236.64
710.998	28209.53
711.342	28386.02
711.687	28100.6
712.031	28082.75
712.375	27995.75
712.719	27952.36
713.063	27999.14
713.407	28129.75
713.75	27881.63
714.094	27765.24
714.438	27653.61
714.782	27642.31
715.125	27593.72
715.469	27706.94
715.812	27541.97
716.156	27395.31
716.499	27375.2
716.843	27458.59
717.186	27343.56
717.53	27419.94
717.873	27300.17
718.216	27254.52
718.559	27156
718.902	26906.74
719.246	27059.5
719.589	27004.13
719.932	26899.73
720.275	26781.54
720.617	26866.06
720.96	26878.94
721.303	26776.8
721.646	26751.03
721.989	26567.54
722.331	26751.94
722.674	26514.2
723.016	26601.21
723.359	26417.26
723.701	26493.19
724.044	26392.85
724.386	26308.56
724.729	26378.16
725.071	26216.13
725.413	26300.88
725.755	26251.84
726.097	26130.71
726.439	26048.23
726.782	26076.7
727.124	25980.66
727.465	25938.4
727.807	26008.68
728.149	25970.94
728.491	25766.43
728.833	25888.68
729.175	25835.35
729.516	25698.18
729.858	25700.89
730.199	25756.48
730.541	25625.19
730.882	25669.03
731.224	25643.27
731.565	25568.01
731.906	25522.59
732.248	25589.93
732.589	25369.6
732.93	25282.82
733.271	25280.79
733.612	25314.91
733.953	25228.14
734.294	25268.59
734.635	25206.44
734.976	25278.3
735.317	25033.11
735.658	25118.53
735.999	25051.64
736.339	25099.1
736.68	25068.59
737.021	24941.14
737.361	24875.38
737.702	24959.89
738.042	24912.89
738.383	24721.26
738.723	24768.71
739.063	24771.88
739.404	24878.31
739.744	24724.65
740.084	24607.14
740.424	24605.55
740.764	24549.28
741.104	24572.33
741.444	24487.82
741.784	24393.36
742.124	24536.63
742.464	24322.4
742.804	24351.32
743.143	24255.73
743.483	24314.04
743.823	24222.51
744.162	24190.65
744.502	24138.22
744.841	24118.56
745.181	24216.86
745.52	24123.31
745.86	24071.1
746.199	23976.19
746.538	24043.53
746.877	24033.82
747.216	24105.68
747.556	23942.52
747.895	23932.58
748.234	23780.04
748.573	23888.51
748.911	23860.26
749.25	23755.63
749.589	23645.8
749.928	23705.92
750.267	23750.21
750.605	23647.39
750.944	23467.96
751.283	23500.27
751.621	23524.23
751.96	23446.04
752.298	23346.15
752.636	23440.16
752.975	23155.42
753.313	23185.7
753.651	23233.39
753.989	22998.82
754.327	23142.99
754.666	22957.24
755.004	22994.75
755.342	22945.71
755.679	22856.9
756.017	22789.1
756.355	22844.47
756.693	22746.39
757.031	22792.04
757.368	22525.16
757.706	22622.55
758.044	22455.55
758.381	22452.39
758.719	22460.3
759.056	22437.93
759.394	22323.58
759.731	22123.58
760.068	22170.59
