Data from hue_32_FLMS001491_00044.txt Node
Date: Tue Feb 07 17:23:26 GMT 2017
User: dcchb
Spectrometer: FLMS00149
Trigger mode: 0
Integration Time (sec): 2.000000E-2
Scans to average: 10
Electric dark correction enabled: true
Nonlinearity correction enabled: false
Boxcar width: 0
XAxis mode: Wavelengths
Number of Pixels in Spectrum: 2048
>>>>>Begin Spectral Data<<<<<
341.393	-35.21
341.776	-35.21
342.16	-35.21
342.543	-62.33
342.927	-64.59
343.31	-68.43
343.693	-77.02
344.077	-49.45
344.46	-58.49
344.843	-53.52
345.226	-39.96
345.61	-18.49
345.993	-32.27
346.376	-22.78
346.759	-1.54
347.142	32.36
347.525	38.23
347.908	68.52
348.291	77.1
348.674	107.38
349.057	98.34
349.44	133.82
349.823	145.58
350.206	169.53
350.588	215.4
350.971	214.5
351.354	217.44
351.737	259.24
352.119	252.24
352.502	287.04
352.884	263.31
353.267	275.06
353.65	296.31
354.032	281.62
354.414	299.47
354.797	313.03
355.179	320.49
355.562	305.8
355.944	334.27
356.326	324.33
356.709	345.12
357.091	349.19
357.473	332.01
357.855	348.96
358.238	343.08
358.62	336.76
359.002	347.6
359.384	339.92
359.766	356.42
360.148	341.95
360.53	338.56
360.912	341.95
361.294	350.09
361.676	336.76
362.057	355.29
362.439	332.24
362.821	354.61
363.203	355.06
363.584	314.38
363.966	336.98
364.348	330.2
364.729	323.65
365.111	340.15
365.493	324.78
365.874	332.91
366.256	325.46
366.637	331.33
367.019	314.16
367.4	324.33
367.781	333.82
368.163	327.27
368.544	301.5
368.925	325.23
369.306	312.58
369.688	341.05
370.069	306.25
370.45	323.2
370.831	339.92
371.212	336.3
371.593	334.04
371.974	306.02
372.355	326.14
372.736	299.92
373.117	328.62
373.498	322.97
373.879	312.12
374.26	332.69
374.641	323.65
375.021	308.73
375.402	317.32
375.783	326.81
376.163	317.32
376.544	328.85
376.925	334.95
377.305	342.41
377.686	329.53
378.066	343.08
378.447	345.12
378.827	371.56
379.208	343.08
379.588	316.42
379.968	343.31
380.349	331.56
380.729	355.74
381.109	337.21
381.489	365
381.87	354.16
382.25	326.14
382.63	349.19
383.01	347.6
383.39	375.17
383.77	374.5
384.15	360.03
384.53	361.84
384.91	344.44
385.29	364.1
385.67	369.3
386.049	355.29
386.429	355.51
386.809	351.45
387.189	346.47
387.568	381.73
387.948	375.63
388.328	360.71
388.707	374.27
389.087	358.68
389.466	373.37
389.846	346.93
390.225	381.95
390.605	375.17
390.984	355.97
391.363	365.68
391.743	388.28
392.122	370.88
392.501	367.04
392.881	382.86
393.26	367.94
393.639	382.18
394.018	381.05
394.397	398.45
394.776	373.59
395.155	404.1
395.534	399.13
395.913	376.3
396.292	415.4
396.671	390.09
397.05	376.98
397.429	412.69
397.808	377.66
398.186	393.25
398.565	405.46
398.944	404.78
399.323	411.56
399.701	417.43
400.08	398.9
400.458	413.82
400.837	417.88
401.215	400.71
401.594	434.83
401.972	408.62
402.351	408.39
402.729	434.83
403.107	434.16
403.486	435.96
403.864	394.61
404.242	436.87
404.62	429.64
404.999	434.16
405.377	440.71
405.755	423.31
406.133	447.49
406.511	448.17
406.889	455.85
407.267	436.87
407.645	454.27
408.023	461.5
408.401	466.24
408.779	451.78
409.156	456.75
409.534	454.49
409.912	449.3
410.29	478.67
410.667	471.67
411.045	466.7
411.422	461.5
411.8	476.19
412.178	489.3
412.555	509.63
412.933	487.49
413.31	466.92
413.687	475.96
414.065	506.02
414.442	492.23
414.819	508.05
415.197	510.99
415.574	511.67
415.951	508.05
416.328	503.08
416.705	498.33
417.082	492.23
417.46	518.45
417.837	545.79
418.214	510.76
418.591	501.27
418.967	523.19
419.344	562.29
419.721	559.35
420.098	544.89
420.475	541.27
420.852	554.15
421.228	551.67
421.605	582.17
421.982	565.9
422.358	561.61
422.735	569.74
423.111	563.42
423.488	559.35
423.864	567.03
424.241	582.4
424.617	567.71
424.994	589.86
425.37	572.46
425.746	572.91
426.123	601.83
426.499	581.5
426.875	589.18
427.251	625.79
427.627	626.24
428.003	619.69
428.379	600.48
428.756	622.4
429.132	623.3
429.507	630.76
429.883	652.23
430.259	642.06
430.635	636.18
431.011	656.75
431.387	664.43
431.763	671.44
432.138	669.63
432.514	674.6
432.89	663.08
433.265	700.14
433.641	704.88
434.016	690.19
434.392	706.46
434.767	715.73
435.143	725.22
435.518	699.01
435.894	725.67
436.269	739.01
436.644	732.45
437.02	751.21
437.395	766.35
437.77	734.26
438.145	757.31
438.52	750.76
438.895	760.93
439.271	785.33
439.646	777.88
440.021	824.65
440.395	797.31
440.77	790.98
441.145	787.37
441.52	799.12
441.895	792.56
442.27	811.09
442.645	825.56
443.019	825.11
443.394	823.52
443.769	826.69
444.143	831.43
444.518	848.83
444.892	849.51
445.267	837.99
445.641	875.95
446.016	838.21
446.39	868.72
446.764	882.73
447.139	880.25
447.513	878.89
447.887	884.76
448.262	851.32
448.636	897.65
449.01	896.52
449.384	894.93
449.758	915.5
450.132	910.75
450.506	903.52
450.88	901.26
451.254	926.8
451.628	941.94
452.002	967.25
452.376	935.39
452.75	979.68
453.123	985.78
453.497	983.97
453.871	973.35
454.244	962.95
454.618	1014.93
454.992	1014.93
455.365	1025.78
455.739	1021.94
456.112	1041.37
456.486	1069.17
456.859	1054.93
457.232	1037.98
457.606	1094.25
457.979	1065.78
458.352	1120.46
458.725	1080.47
459.099	1119.11
459.472	1119.11
459.845	1131.99
460.218	1142.39
460.591	1152.33
460.964	1171.54
461.337	1193.01
461.71	1196.4
462.083	1223.29
462.456	1222.16
462.829	1243.85
463.201	1260.35
463.574	1285.66
463.947	1269.61
464.32	1262.83
464.692	1308.26
465.065	1331.76
465.438	1300.35
465.81	1343.28
466.183	1374.24
466.555	1412.89
466.928	1409.72
467.3	1422.15
467.672	1447.01
468.045	1489.95
468.417	1466.67
468.789	1477.07
469.161	1528.59
469.534	1547.8
469.906	1567.91
470.278	1568.36
470.65	1618.08
471.022	1634.12
471.394	1645.42
471.766	1697.62
472.138	1695.14
472.51	1765.87
472.882	1780.11
473.253	1817.85
473.625	1854.68
473.997	1900.11
474.369	1898.07
474.74	1963.61
475.112	1981.69
475.484	1989.37
475.855	2098.52
476.227	2109.37
476.598	2138.29
476.97	2171.74
477.341	2251.73
477.713	2274.33
478.084	2300.77
478.455	2378.96
478.827	2408.11
479.198	2512.07
479.569	2517.49
479.94	2595.91
480.311	2633.87
480.682	2708.22
481.053	2784.15
481.424	2832.51
481.795	2907.08
482.166	2993.41
482.537	3021.43
482.908	3114.76
483.279	3198.15
483.65	3266.17
484.021	3327.86
484.391	3397.02
484.762	3449.44
485.133	3548.65
485.503	3587.97
485.874	3716.78
486.244	3798.36
486.615	3861.64
486.985	3931.01
487.356	4026.6
487.726	4081.29
488.097	4235.41
488.467	4247.16
488.837	4423.65
489.207	4489.87
489.578	4544.1
489.948	4632.91
490.318	4734.16
490.688	4780.71
491.058	4888.95
491.428	5010.31
491.798	5113.58
492.168	5237.87
492.538	5294.59
492.908	5342.27
493.278	5439
493.648	5547.92
494.017	5634.7
494.387	5736.39
494.757	5800.57
495.126	5839.21
495.496	5965.76
495.866	5943.16
496.235	6125.53
496.605	6164.17
496.974	6298.18
497.344	6328.69
497.713	6427.67
498.082	6547.44
498.452	6600.55
498.821	6615.01
499.19	6690.04
499.559	6805.97
499.928	6865.4
500.298	6954.66
500.667	7024.26
501.036	7016.58
501.405	7138.61
501.774	7168.67
502.143	7266.52
502.512	7255.22
502.88	7372.28
503.249	7409.11
503.618	7502.67
503.987	7577.24
504.356	7582.22
504.724	7712.61
505.093	7735.88
505.462	7721.42
505.83	7815.2
506.199	7966.39
506.567	8012.94
506.936	8036.89
507.304	8218.58
507.672	8165.7
508.041	8344.91
508.409	8276.89
508.777	8424.45
509.145	8434.17
509.514	8517.56
509.882	8490.67
510.25	8594.39
510.618	8593.94
510.986	8729.76
511.354	8751.45
511.722	8835.52
512.09	8981.95
512.458	8875.97
512.826	9025.34
513.193	9055.4
513.561	9031.44
513.929	9143.53
514.297	9247.93
514.664	9280.48
515.032	9321.83
515.4	9339.68
515.767	9453.58
516.135	9488.61
516.502	9409.29
516.869	9650.41
517.237	9651.77
517.604	9595.27
517.972	9726.34
518.339	9764.31
518.706	9754.14
519.073	9897.86
519.44	9923.85
519.808	9924.3
520.175	9974.7
520.542	10084.3
520.909	10198.87
521.276	10134.92
521.643	10313.67
522.009	10328.36
522.376	10371.07
522.743	10461.46
523.11	10540.78
523.477	10616.94
523.843	10664.85
524.21	10755.69
524.577	10815.8
524.943	10840.44
525.31	10929.25
525.676	10979.64
526.043	11044.95
526.409	11046.76
526.776	11124.27
527.142	11150.94
527.508	11334.66
527.874	11338.95
528.241	11404.26
528.607	11445.39
528.973	11523.81
529.339	11560.42
529.705	11629.12
530.071	11817.13
530.437	11757.02
530.803	11878.37
531.169	11934.87
531.535	11970.12
531.901	11921.76
532.267	12019.61
532.632	12121.08
532.998	12112.27
533.364	12283.34
533.73	12262.32
534.095	12388.87
534.461	12402.65
534.826	12589.32
535.192	12557
535.557	12547.74
535.923	12554.06
536.288	12658.24
536.653	12742.98
537.019	12675.64
537.384	12789.31
537.749	12806.03
538.114	12907.5
538.479	12883.55
538.845	13021.62
539.21	13021.62
539.575	13095.29
539.94	13113.6
540.305	13283.31
540.67	13215.74
541.034	13265.23
541.399	13325.34
541.764	13385
542.129	13456.64
542.494	13447.6
542.858	13539.57
543.223	13550.19
543.587	13695.28
543.952	13653.69
544.316	13789.74
544.681	13792.9
545.045	13738.66
545.41	13880.13
545.774	13940.92
546.138	14017.98
546.503	14014.59
546.867	14056.85
547.231	14150.18
547.595	14225.66
547.959	14239.22
548.324	14262.94
548.688	14280.8
549.052	14395.14
549.416	14438.76
549.779	14443.05
550.143	14454.8
550.507	14612.99
550.871	14569.38
551.235	14624.06
551.599	14795.36
551.962	14732.31
552.326	14758.3
552.689	14868.58
553.053	14735.7
553.417	14947.67
553.78	15149.02
554.143	15080.1
554.507	15092.07
554.87	15123.26
555.234	15313.54
555.597	15302.46
555.96	15265.18
556.323	15379.98
556.686	15349.47
557.05	15449.81
557.413	15465.17
557.776	15525.74
558.139	15597.15
558.502	15638.95
558.865	15658.39
559.228	15836.91
559.59	15726.63
559.953	15867.2
560.316	15958.72
560.679	16016.12
561.041	16044.37
561.404	16145.83
561.767	16234.64
562.129	16247.98
562.492	16382.89
562.854	16345.15
563.217	16375.66
563.579	16421.31
563.941	16599.61
564.304	16587.85
564.666	16682.77
565.028	16644.12
565.39	16664.91
565.753	16839.6
566.115	16782.2
566.477	17035.07
566.839	16937.9
567.201	17128.63
567.563	17156.88
567.925	17223.77
568.287	17233.94
568.648	17309.87
569.01	17529.75
569.372	17562.29
569.734	17543.08
570.095	17616.3
570.457	17605
570.819	17802.06
571.18	17749.63
571.542	17949.63
571.903	18011.09
572.265	18097.19
572.626	18092.67
572.987	18150.07
573.349	18221.03
573.71	18396.17
574.071	18428.03
574.432	18470.74
574.794	18728.59
575.155	18748.02
575.516	18870.51
575.877	18883.61
576.238	19035.25
576.599	19127.22
576.96	19211.51
577.32	19338.74
577.681	19433.43
578.042	19662.35
578.403	19631.62
578.763	19782.35
579.124	19913.42
579.485	20066.86
579.845	20291.03
580.206	20404.25
580.566	20512.95
580.927	20621.87
581.287	20934.41
581.648	21012.37
582.008	21251.24
582.368	21503.21
582.728	21662.75
583.089	21780.94
583.449	21924.89
583.809	22147.48
584.169	22391.32
584.529	22604.87
584.889	23065.2
585.249	23157.85
585.609	23204.4
585.969	23517.62
586.329	23680.55
586.688	24000.09
587.048	24201.89
587.408	24443.02
587.768	24611.37
588.127	24822.67
588.487	24901.76
588.846	25411.13
589.206	25377.23
589.565	25835.07
589.925	26129.07
590.284	26289.07
590.643	26542.4
591.003	26861.93
591.362	27228.93
591.721	27475.48
592.08	27602.93
592.44	27997.05
592.799	28223.03
593.158	28411.72
593.517	28737.82
593.876	28966.29
594.235	29220.52
594.593	29426.61
594.952	29802.42
595.311	29932.14
595.67	30283.09
596.029	30624.77
596.387	30874.03
596.746	31288.26
597.104	31374.81
597.463	31577.74
597.822	32056.15
598.18	32109.03
598.538	32397.61
598.897	32786.52
599.255	32792.4
599.613	33424.25
599.972	33361.43
600.33	33812.49
600.688	33796.44
601.046	34204.79
601.404	34526.37
601.762	34601.17
602.12	35003.42
602.478	35147.37
602.836	35342.16
603.194	35459.45
603.552	35721.81
603.91	35753.23
604.268	36054.91
604.625	36264.17
604.983	36530.16
605.341	36557.5
605.698	36894.67
606.056	37316.58
606.413	37182.12
606.771	37473.18
607.128	37737.13
607.485	37823.23
607.843	37942.77
608.2	38388.41
608.557	38503.89
608.914	38509.54
609.272	38728.52
609.629	39003.76
609.986	39220.93
610.343	39178
610.7	39680.35
611.057	39692.78
611.414	39893.91
611.771	39976.39
612.127	40155.37
612.484	40284.86
612.841	40522.59
613.198	40504.06
613.554	40664.06
613.911	40938.4
614.267	41084.84
614.624	41115.57
614.98	41152.41
615.337	41580.87
615.693	41628.55
616.05	41718.95
616.406	41928.66
616.762	41902.44
617.118	42073.96
617.475	42045.72
617.831	42292.94
618.187	42457.68
618.543	42534.74
618.899	42769.77
619.255	42763.89
619.611	42847.05
619.967	43054.73
620.323	43071.68
620.678	43028.06
621.034	43103.09
621.39	43086.59
621.746	43188.74
622.101	43796.63
622.457	43504.21
622.812	43607.94
623.168	43762.06
623.523	43862.17
623.879	44026
624.234	43570.42
624.589	43967.47
624.945	43970.41
625.3	44124.76
625.655	44138.32
626.01	44099.45
626.365	44352.55
626.72	44174.93
627.075	44323.4
627.43	44226.9
627.785	44227.13
628.14	44403.62
628.495	44309.39
628.85	44489.49
629.205	44211.08
629.559	44602.71
629.914	44321.59
630.269	44539.21
630.623	44342.83
630.978	44374.47
631.332	44686.1
631.687	44759.32
632.041	44594.35
632.396	44667.12
632.75	44412.66
633.104	44443.17
633.459	44433
633.813	44528.14
634.167	44480
634.521	44479.1
634.875	44667.79
635.229	44454.24
635.583	44331.08
635.937	44554.8
636.291	44543.05
636.645	44520.45
636.999	44358.88
637.352	44543.28
637.706	44308.48
638.06	44479.55
638.413	44433.9
638.767	44263.06
639.121	44404.52
639.474	44239.33
639.828	44170.18
640.181	44404.52
640.534	44258.54
640.888	44163.85
641.241	44059.22
641.594	44160.69
641.947	44328.82
642.301	44056.51
642.654	44156.85
643.007	44191.2
643.36	44151.2
643.713	44032.56
644.066	44332.89
644.419	44063.74
644.771	43718.67
645.124	43467.83
645.477	43320.71
645.83	42891.34
646.182	42871.01
646.535	42716.66
646.888	42955.07
647.24	42619.94
647.593	42969.76
647.945	42778.8
648.298	42722.99
648.65	42584.46
649.002	42508.08
649.355	42667.4
649.707	42641.41
650.059	42814.06
650.411	43304.67
650.763	43343.08
651.115	43697.88
651.467	43528.62
651.819	43609.74
652.171	43576.75
652.523	43348.96
652.875	43619.91
653.227	43240.26
653.578	43445.23
653.93	43506.7
654.282	43222.41
654.633	43158.91
654.985	43349.86
655.337	43426.47
655.688	43354.16
656.039	43459.46
656.391	43169.98
656.742	43185.12
657.094	43261.96
657.445	43369.07
657.796	43260.6
658.147	43245.23
658.498	43058.35
658.849	43310.54
659.2	43163.2
659.551	43054.05
659.902	43106.03
660.253	43084.56
660.604	43206.59
660.955	42960.27
661.306	43187.83
661.656	43015.41
662.007	43067.84
662.358	43002.75
662.708	43136.31
663.059	43017.67
663.409	42780.61
663.76	43077.78
664.11	43020.38
664.461	43231.67
664.811	43198.23
665.161	43056.99
665.511	42920.72
665.862	43031.91
666.212	43106.71
666.562	43125.69
666.912	42986.93
667.262	42834.62
667.612	43005.92
667.962	43005.69
668.312	43034.39
668.662	43082.75
669.011	43018.12
669.361	42933.83
669.711	42917.11
670.06	42866.26
670.41	42670.56
670.76	42583.1
671.109	42921.85
671.459	42774.96
671.808	42833.49
672.157	42762.53
672.507	42492.94
672.856	42586.72
673.205	42703.33
673.554	42743.55
673.904	42591.69
674.253	42838.69
674.602	42600.96
674.951	42079.16
675.3	41933.18
675.649	42584.69
675.998	42490
676.346	42523.9
676.695	42743.33
677.044	42309.89
677.393	42572.03
677.741	42541.07
678.09	42291.81
678.438	42234.64
678.787	42420.4
679.135	42463.33
679.484	42090.46
679.832	42198.25
680.181	42020.41
680.529	42202.1
680.877	42072.83
681.225	41940.63
681.573	42128.88
681.922	41960.07
682.27	41932.95
682.618	41954.87
682.966	41856.12
683.314	41835.1
683.661	41633.98
684.009	41619.96
684.357	41588.33
684.705	41509.46
685.053	41453.42
685.4	41399.18
685.748	41144.95
686.095	40996.93
686.443	41097.49
686.79	41089.13
687.138	41130.03
687.485	41125.29
687.832	40894.11
688.18	40938.85
688.527	40835.13
688.874	40646.66
689.221	40721.91
689.568	40506.55
689.915	40406.44
690.262	40476.04
690.609	40257.74
690.956	40351.07
691.303	40390.62
691.65	39960.57
691.997	40012.78
692.344	39706.12
692.69	39654.14
693.037	39860.24
693.383	39389.29
693.73	39629.51
694.077	39409.63
694.423	39314.26
694.769	39254.15
695.116	39110.43
695.462	39051.22
695.808	38992.69
696.155	39019.81
696.501	38646.26
696.847	38781.17
697.193	38445.36
697.539	38542.31
697.885	38491.01
698.231	38373.27
698.577	38266.15
698.923	38144.8
699.269	37997.24
699.614	37870.69
699.96	37727.41
700.306	37805.83
700.651	37784.36
700.997	37627.75
701.342	37563.35
701.688	37447.42
702.033	37382.34
702.379	37322
702.724	37206.97
703.069	37260.31
703.415	36962.23
703.76	36837.94
704.105	36897.38
704.45	36775.8
704.795	36594.56
705.14	36612.19
705.485	36425.07
705.83	36356.15
706.175	36505.98
706.52	36241.12
706.865	36207.68
707.209	36146.21
707.554	35979.66
707.899	35967.91
708.243	35963.62
708.588	35822.83
708.932	35429.62
709.277	35473.01
709.621	35585.32
709.966	35272.11
710.31	35426.23
710.654	35190.76
710.998	35328.6
711.342	35209.06
711.687	35147.37
712.031	34958.67
712.375	34838.45
712.719	34997.77
713.063	34837.77
713.407	34971.33
713.75	34723.42
714.094	34548.96
714.438	34562.3
714.782	34556.65
715.125	34469.19
715.469	34453.37
715.812	34195.53
716.156	34041.86
716.499	34091.58
716.843	34182.65
717.186	33891.58
717.53	34119.82
717.873	34075.08
718.216	34068.53
718.559	33848.42
718.902	33589.22
719.246	33596.22
719.589	33495.66
719.932	33559.61
720.275	33434.87
720.617	33521.42
720.96	33423.12
721.303	33208.89
721.646	33300.64
721.989	33164.14
722.331	33230.58
722.674	33050.92
723.016	33062.9
723.359	33077.36
723.701	33036.46
724.044	32826.75
724.386	32739.52
724.729	32793.3
725.071	32840.31
725.413	32690.93
725.755	32682.12
726.097	32557.83
726.439	32398.51
726.782	32454.1
727.124	32620.65
727.465	32438.96
727.807	32265.63
728.149	32248.91
728.491	32248.01
728.833	32349.25
729.175	32059.31
729.516	32104.28
729.858	32119.65
730.199	32053.89
730.541	31898.64
730.882	31906.77
731.224	31926.66
731.565	31801.24
731.906	31819.77
732.248	31727.34
732.589	31576.39
732.93	31488.48
733.271	31404.64
733.612	31569.61
733.953	31727.34
734.294	31551.3
734.635	31413.23
734.976	31476.73
735.317	31325.55
735.658	31314.47
735.999	31276.06
736.339	31314.25
736.68	31277.86
737.021	31171.43
737.361	31104.99
737.702	31169.17
738.042	30968.04
738.383	30934.6
738.723	31093.91
739.063	30915.39
739.404	30815.5
739.744	30783.19
740.084	30672.68
740.424	30729.86
740.764	30693.25
741.104	30837.88
741.444	30662.74
741.784	30629.75
742.124	30537.32
742.464	30496.87
742.804	30447.6
743.143	30307.49
743.483	30527.38
743.823	30197.89
744.162	30127.84
744.502	30321.05
744.841	30087.16
745.181	30207.61
745.52	30197.89
745.86	30095.3
746.199	30020.04
746.538	29874.96
746.877	30125.35
747.216	30043.55
747.556	29841.29
747.895	29876.77
748.234	29770.79
748.573	29586.61
748.911	29700.96
749.25	29698.7
749.589	29580.96
749.928	29564.24
750.267	29753.16
750.605	29479.04
750.944	29455.09
751.283	29312.72
751.621	29445.6
751.96	29139.16
752.298	29195.88
752.636	29292.83
752.975	29124.25
753.313	28873.63
753.651	29113.18
753.989	28859.85
754.327	28885.61
754.666	28773.75
755.004	28768.55
755.342	28898.49
755.679	28718.38
756.017	28659.18
756.355	28658.95
756.693	28553.42
757.031	28603.13
757.368	28338.73
