Data from hue_26_FLMS001491_00039.txt Node
Date: Tue Feb 07 17:13:55 GMT 2017
User: dcchb
Spectrometer: FLMS00149
Trigger mode: 0
Integration Time (sec): 2.000000E-2
Scans to average: 10
Electric dark correction enabled: true
Nonlinearity correction enabled: false
Boxcar width: 0
XAxis mode: Wavelengths
Number of Pixels in Spectrum: 2048
>>>>>Begin Spectral Data<<<<<
341.393	-1.06
341.776	-1.06
342.16	-1.06
342.543	-81.96
342.927	-60.72
343.31	-63.66
343.693	-77.67
344.077	-54.39
344.46	-57.55
344.843	-55.75
345.226	-53.71
345.61	-19.36
345.993	-6.26
346.376	-0.16
346.759	2.33
347.142	0.52
347.525	54.08
347.908	47.53
348.291	82.55
348.674	96.34
349.057	105.15
349.44	146.73
349.823	131.37
350.206	149.45
350.588	191.7
350.971	203.23
351.354	232.61
351.737	254.75
352.119	252.72
352.502	285.94
352.884	275.77
353.267	286.62
353.65	290.68
354.032	315.99
354.414	326.84
354.797	314.19
355.179	331.59
355.562	323
355.944	326.16
356.326	322.1
356.709	335.88
357.091	350.34
357.473	346.28
357.855	327.07
358.238	341.76
358.62	341.98
359.002	346.28
359.384	350.57
359.766	358.25
360.148	342.21
360.53	351.25
360.912	343.79
361.294	320.06
361.676	317.58
362.057	357.58
362.439	338.82
362.821	336.11
363.203	315.77
363.584	320.97
363.966	313.28
364.348	326.84
364.729	315.77
365.111	319.16
365.493	306.96
365.874	310.57
366.256	324.13
366.637	314.41
367.019	302.89
367.4	321.42
367.781	310.12
368.163	295.43
368.544	298.14
368.925	330.91
369.306	312.6
369.688	313.06
370.069	322.77
370.45	306.5
370.831	320.06
371.212	327.07
371.593	330.01
371.974	308.31
372.355	324.13
372.736	314.64
373.117	334.53
373.498	329.78
373.879	329.33
374.26	325.94
374.641	310.8
375.021	317.35
375.402	323.45
375.783	308.99
376.163	321.87
376.544	320.97
376.925	331.36
377.305	331.14
377.686	354.64
378.066	312.6
378.447	357.35
378.827	322.32
379.208	311.93
379.588	323.68
379.968	328.88
380.349	329.78
380.729	329.55
381.109	340.17
381.489	330.23
381.87	346.73
382.25	331.81
382.63	336.56
383.01	352.83
383.39	356.67
383.77	339.95
384.15	362.32
384.53	363.68
384.91	348.08
385.29	353.06
385.67	352.15
386.049	336.33
386.429	354.86
386.809	372.72
387.189	373.39
387.568	386.05
387.948	372.04
388.328	371.13
388.707	368.87
389.087	352.38
389.466	379.04
389.846	339.72
390.225	352.38
390.605	372.49
390.984	357.8
391.363	354.41
391.743	370.46
392.122	371.13
392.501	359.61
392.881	356.67
393.26	370.91
393.639	388.31
394.018	392.83
394.397	385.82
394.776	370.46
395.155	394.18
395.534	382.21
395.913	389.44
396.292	374.3
396.671	388.99
397.05	398.48
397.429	395.99
397.808	382.43
398.186	401.42
398.565	404.81
398.944	394.64
399.323	408.42
399.701	420.4
400.08	408.2
400.458	404.58
400.837	399.61
401.215	406.84
401.594	419.95
401.972	399.16
402.351	398.03
402.729	414.3
403.107	411.81
403.486	401.19
403.864	403.9
404.242	414.3
404.62	432.38
404.999	414.75
405.377	439.61
405.755	414.75
406.133	440.74
406.511	444.35
406.889	435.77
407.267	416.1
407.645	431.7
408.023	433.05
408.401	431.47
408.779	433.96
409.156	438.7
409.534	444.58
409.912	450.91
410.29	473.5
410.667	430.34
411.045	474.18
411.422	457.69
411.8	473.96
412.178	471.7
412.555	476.44
412.933	482.09
413.31	487.06
413.687	483.9
414.065	478.93
414.442	480.51
414.819	499.04
415.197	482.77
415.574	504.01
415.951	477.12
416.328	483
416.705	492.94
417.082	505.59
417.46	510.34
417.837	494.29
418.214	500.85
418.591	510.57
418.967	514.86
419.344	538.81
419.721	518.25
420.098	507.63
420.475	528.42
420.852	531.58
421.228	522.77
421.605	529.1
421.982	548.76
422.358	550.79
422.735	536.55
423.111	527.97
423.488	553.28
423.864	567.97
424.241	577.23
424.617	570.9
424.994	567.29
425.37	562.09
425.746	587.17
426.123	578.81
426.499	555.54
426.875	566.38
427.251	573.16
427.627	572.48
428.003	598.7
428.379	602.31
428.756	600.96
429.132	613.39
429.507	622.43
429.883	592.15
430.259	628.08
430.635	623.11
431.011	640.51
431.387	637.12
431.763	667.17
432.138	664.01
432.514	664.69
432.89	652.03
433.265	685.25
433.641	652.71
434.016	658.36
434.392	670.79
434.767	698.36
435.143	696.78
435.518	680.28
435.894	700.62
436.269	709.2
436.644	716.44
437.02	706.72
437.395	701.07
437.77	726.38
438.145	736.77
438.52	719.6
438.895	738.13
439.271	756.89
439.646	765.93
440.021	748.53
440.395	752.82
440.77	755.53
441.145	736.77
441.52	767.28
441.895	781.52
442.27	779.03
442.645	779.03
443.019	770.45
443.394	771.8
443.769	806.15
444.143	777.68
444.518	816.77
444.892	803.44
445.267	802.76
445.641	820.16
446.016	823.33
446.39	830.33
446.764	814.29
447.139	837.79
447.513	836.21
447.887	840.27
448.262	835.08
448.636	843.21
449.01	859.94
449.384	863.1
449.758	873.04
450.132	889.99
450.506	889.54
450.88	900.61
451.254	872.36
451.628	902.42
452.002	881.63
452.376	923.21
452.75	899.48
453.123	912.36
453.497	915.3
453.871	920.27
454.244	967.05
454.618	948.97
454.992	986.94
455.365	958.46
455.739	976.54
456.112	985.36
456.486	1013.6
456.859	1019.25
457.232	1043.21
457.606	1034.39
457.979	1030.78
458.352	1049.53
458.725	1055.41
459.099	1082.3
459.472	1075.07
459.845	1101.06
460.218	1119.36
460.591	1106.48
460.964	1136.31
461.337	1148.74
461.71	1154.84
462.083	1158.23
462.456	1151.9
462.829	1191
463.201	1191.9
463.574	1175.86
463.947	1215.18
464.32	1215.41
464.692	1231
465.065	1251.56
465.438	1278.91
465.81	1270.77
466.183	1300.83
466.555	1316.42
466.928	1319.36
467.3	1345.35
467.672	1367.27
468.045	1382.86
468.417	1399.58
468.789	1434.16
469.161	1399.58
469.534	1457.89
469.906	1458.34
470.278	1479.35
470.65	1518
471.022	1528.39
471.394	1536.3
471.766	1588.5
472.138	1572.01
472.51	1626.47
472.882	1631.44
473.253	1643.42
473.625	1676.41
473.997	1733.58
474.369	1737.65
474.74	1766.58
475.112	1796.63
475.484	1810.19
475.855	1862.62
476.227	1872.11
476.598	1925.67
476.97	1936.97
477.341	1974.48
477.713	2043.18
478.084	2055.16
478.455	2094.93
478.827	2085.21
479.198	2155.72
479.569	2201.37
479.94	2250.18
480.311	2292.44
480.682	2322.27
481.053	2397.52
481.424	2458.54
481.795	2477.75
482.166	2518.2
482.537	2532.43
482.908	2626.44
483.279	2633.22
483.65	2711.86
484.021	2766.55
484.391	2813.33
484.762	2847.91
485.133	2911.18
485.503	2898.98
485.874	2985.08
486.244	3038.63
486.615	3117.28
486.985	3110.27
487.356	3165.19
487.726	3248.35
488.097	3301
488.467	3325.18
488.837	3414.67
489.207	3467.78
489.578	3501
489.948	3607.43
490.318	3598.39
490.688	3663.25
491.058	3686.08
491.428	3769.91
491.798	3840.2
492.168	3896.24
492.538	3921.32
492.908	3985.73
493.278	4029.57
493.648	4048.33
494.017	4070.02
494.387	4154.76
494.757	4231.15
495.126	4289
495.496	4262.78
495.866	4308.88
496.235	4407.41
496.605	4396.57
496.974	4465.72
497.344	4526.28
497.713	4524.47
498.082	4576.22
498.452	4638.37
498.821	4650.12
499.19	4695.31
499.559	4752.94
499.928	4724.47
500.298	4785.26
500.667	4821.41
501.036	4844.46
501.405	4904.12
501.774	4946.16
502.143	4933.73
502.512	4970.56
502.88	5018.7
503.249	4998.36
503.618	5098.92
503.987	5073.61
504.356	5123.33
504.724	5134.17
505.093	5190.22
505.462	5236.77
505.83	5282.42
506.199	5303.89
506.567	5362.87
506.936	5363.32
507.304	5424.56
507.672	5410.1
508.041	5476.99
508.409	5494.39
508.777	5467.95
509.145	5539.36
509.514	5533.71
509.882	5565.35
510.25	5582.3
510.618	5674.72
510.986	5694.38
511.354	5692.35
511.722	5741.16
512.09	5789.75
512.458	5782.97
512.826	5856.87
513.193	5877.66
513.561	5834.72
513.929	5938.22
514.297	5975.05
514.664	5969.41
515.032	5982.96
515.4	6029.97
515.767	6005.34
516.135	6109.29
516.502	6085.33
516.869	6093.7
517.237	6162.85
517.604	6170.98
517.972	6208.27
518.339	6251.88
518.706	6266.35
519.073	6286.46
519.44	6303.18
519.808	6327.81
520.175	6354.93
520.542	6422.5
520.909	6458.43
521.276	6428.38
521.643	6491.2
522.009	6501.37
522.376	6551.31
522.743	6603.06
523.11	6622.04
523.477	6719.44
523.843	6726.67
524.21	6762.38
524.577	6787.69
524.943	6867.23
525.31	6875.37
525.676	6927.8
526.043	6977.51
526.409	7005.76
526.776	7032.88
527.142	6989.94
527.508	7073.78
527.874	7162.59
528.241	7183.16
528.607	7183.38
528.973	7253.44
529.339	7252.31
529.705	7274.68
530.071	7380.89
530.437	7372.31
530.803	7401.91
531.169	7497.95
531.535	7480.78
531.901	7508.12
532.267	7546.99
532.632	7535.47
532.998	7566.2
533.364	7653.43
533.73	7646.65
534.095	7773.65
534.461	7734.1
534.826	7771.62
535.192	7799.64
535.557	7861.11
535.923	7920.09
536.288	7951.05
536.653	8056.36
537.019	7847.32
537.384	7953.99
537.749	8009.13
538.114	7991.5
538.479	8034.21
538.845	8134.09
539.21	8120.31
539.575	8160.99
539.94	8197.14
540.305	8216.35
540.67	8293.41
541.034	8313.98
541.399	8318.5
541.764	8391.94
542.129	8410.02
542.494	8391.26
542.858	8523.69
543.223	8476.68
543.587	8579.05
543.952	8560.75
544.316	8605.72
544.681	8524.37
545.045	8635.1
545.41	8707.19
545.774	8709.45
546.138	8708.77
546.503	8790.8
546.867	8760.97
547.231	8862.89
547.595	8915.54
547.959	8886.62
548.324	8937.24
548.688	8930.68
549.052	9049.32
549.416	9024.69
549.779	9072.6
550.143	9072.83
550.507	9153.95
550.871	9182.2
551.235	9142.88
551.599	9216.55
551.962	9181.98
552.326	9248.64
552.689	9316.66
553.053	9273.05
553.417	9377.9
553.78	9437.56
554.143	9378.58
554.507	9455.87
554.87	9515.98
555.234	9530.89
555.597	9530.44
555.96	9566.15
556.323	9579.03
556.686	9625.58
557.05	9689.53
557.413	9691.57
557.776	9714.39
558.139	9769.08
558.502	9817.44
558.865	9866.03
559.228	9904.67
559.59	9866.03
559.953	9909.41
560.316	10004.55
560.679	9989.86
561.041	10063.08
561.404	10069.18
561.767	10127.71
562.129	10089.75
562.492	10168.39
562.854	10201.38
563.217	10204.77
563.579	10252.23
563.941	10322.29
564.304	10358.22
564.666	10438.67
565.028	10529.29
565.39	10487.25
565.753	10559.34
566.115	10488.61
566.477	10622.16
566.839	10634.82
567.201	10641.37
567.563	10658.32
567.925	10736.29
568.287	10742.61
568.648	10724.08
569.01	10777.41
569.372	10905.32
569.734	10883.17
570.095	11001.59
570.457	11047.92
570.819	11058.54
571.18	11035.71
571.542	11169.49
571.903	11246.33
572.265	11247.23
572.626	11314.12
572.987	11375.82
573.349	11444.74
573.71	11537.17
574.071	11564.74
574.432	11548.69
574.794	11712.98
575.155	11634.79
575.516	11739.2
575.877	11827.1
576.238	11878.4
576.599	11950.49
576.96	12031.17
577.32	12113.42
577.681	12240.88
578.042	12293.76
578.403	12456.69
578.763	12514.32
579.124	12625.73
579.485	12717.25
579.845	12800.64
580.206	12890.35
580.566	13022.33
580.927	13129.22
581.287	13335.09
581.648	13318.14
582.008	13591.8
582.368	13695.3
582.728	13864.79
583.089	13965.58
583.449	14108.63
583.809	14338.68
584.169	14531.89
584.529	14694.37
584.889	14961.03
585.249	15100.46
585.609	15240.8
585.969	15479.21
586.329	15650.73
586.688	15951.97
587.048	16131.17
587.408	16272.19
587.768	16503.14
588.127	16654.55
588.487	16963.01
588.846	17326.85
589.206	17485.94
589.565	17804.8
589.925	18051.12
590.284	18348.29
590.643	18507.15
591.003	18800.71
591.362	19311.2
591.721	19403.4
592.08	19693.34
592.44	20035.02
592.799	20259.65
593.158	20443.6
593.517	20788.45
593.876	21187.76
594.235	21335.55
594.593	21598.15
594.952	22045.59
595.311	22220.28
595.67	22567.16
596.029	23055.06
596.387	23376.63
596.746	23724.64
597.104	23689.84
597.463	24135.48
597.822	24465.87
598.18	24729.59
598.538	25010.71
598.897	25448.44
599.255	25484.15
599.613	26130.23
599.972	26292.49
600.33	26590.11
600.688	26818.8
601.046	27175.18
601.404	27529.06
601.762	27752.11
602.12	28149.39
602.478	28390.74
602.836	28592.09
603.194	28712.99
603.552	29062.13
603.91	29237.72
604.268	29762.45
604.625	29904.6
604.983	30210.35
605.341	30345.71
605.698	30764.23
606.056	31115.18
606.413	31249.87
606.771	31575.96
607.128	31848.72
607.485	32024.77
607.843	32138.89
608.2	32562.15
608.557	32818.19
608.914	33033.55
609.272	33272.42
609.629	33626.08
609.986	33953.53
610.343	33864.04
610.7	34257.7
611.057	34327.53
611.414	34603.91
611.771	34766.61
612.127	35113.5
612.484	35230.56
612.841	35593.03
613.198	35579.7
613.554	35851.56
613.911	36175.16
614.267	36281.15
614.624	36425.1
614.98	36632.55
615.337	36883.17
615.693	37019.66
616.05	37159.77
616.406	37567.9
616.762	37460.33
617.118	37652.87
617.475	37639.76
617.831	37997.26
618.187	38154.77
618.543	38304.6
618.899	38579.85
619.255	38628.43
619.611	38594.54
619.967	39043.34
620.323	39150.23
620.678	38983.45
621.034	39055.31
621.39	39127.4
621.746	39216.44
622.101	39799.93
622.457	39542.76
622.812	39699.59
623.168	39904.78
623.523	40056.87
623.879	40119.24
624.234	40081.05
624.589	40282.18
624.945	40326.92
625.3	40553.81
625.655	40424.54
626.01	40626.8
626.365	40748.6
626.72	40802.84
627.075	40793.8
627.43	40730.3
627.785	40764.2
628.14	40974.36
628.495	41174.58
628.85	41009.61
629.205	40987.47
629.559	41302.04
629.914	41106.79
630.269	41287.35
630.623	41168.48
630.978	41191.53
631.332	41456.16
631.687	41476.04
632.041	41431.07
632.396	41410.51
632.75	41486.44
633.104	41584.29
633.459	41375.93
633.813	41381.58
634.167	41503.39
634.521	41420.68
634.875	41530.28
635.229	41463.84
635.583	41513.56
635.937	41427.68
636.291	41396.72
636.645	41432.43
636.999	41393.11
637.352	41560.33
637.706	41245.77
638.06	41482.82
638.413	41487.34
638.767	41404.63
639.121	41475.59
639.474	41274.47
639.828	41419.77
640.181	41449.6
640.534	41365.99
640.888	41329.38
641.241	41198.08
641.594	41342.94
641.947	41458.19
642.301	41381.81
642.654	41364.18
643.007	41375.71
643.36	41423.16
643.713	41142.27
644.066	41340.9
644.419	41157.41
644.771	40956.73
645.124	40653.69
645.477	40598.55
645.83	40307.71
646.182	40174.38
646.535	40098.9
646.888	40170.54
647.24	39966.7
647.593	40274.27
647.945	40091.22
648.298	39982.75
648.65	39856.88
649.002	39900.49
649.355	40024.1
649.707	39951.34
650.059	40171.22
650.411	40476.07
650.763	40730.75
651.115	41003.29
651.467	40862.05
651.819	40989.95
652.171	40831.31
652.523	40773.69
652.875	40861.82
653.227	40716.29
653.578	41039.67
653.93	40769.17
654.282	40685.55
654.633	40642.17
654.985	40748.83
655.337	40741.37
655.688	40713.58
656.039	40920.12
656.391	40459.12
656.742	40655.95
657.094	40663.41
657.445	40882.84
657.796	40621.15
658.147	40574.6
658.498	40595.16
658.849	40668.61
659.2	40486.46
659.551	40380.48
659.902	40672
660.253	40540.93
660.604	40594.71
660.955	40369.63
661.306	40606.91
661.656	40370.31
662.007	40494.15
662.358	40493.02
662.708	40575.5
663.059	40447.37
663.409	40273.14
663.76	40579.57
664.11	40436.97
664.461	40412.57
664.811	40515.39
665.161	40526.01
665.511	40395.62
665.862	40542.28
666.212	40580.7
666.562	40589.51
666.912	40510.87
667.262	40514.94
667.612	40561.26
667.962	40520.59
668.312	40288.95
668.662	40584.54
669.011	40352.23
669.361	40461.38
669.711	40326.69
670.06	40370.31
670.41	40268.16
670.76	40234.04
671.109	40378.22
671.459	40205.34
671.808	40318.33
672.157	40342.51
672.507	39968.06
672.856	40015.97
673.205	40129.18
673.554	40174.83
673.904	40208.5
674.253	40294.83
674.602	40094.84
674.951	39591.35
675.3	39543.44
675.649	40229.52
675.998	39937.33
676.346	40053.25
676.695	40103.42
677.044	39895.52
677.393	40118.34
677.741	40025.01
678.09	39875.18
678.438	39766.48
678.787	39941.62
679.135	39693.72
679.484	39586.83
679.832	39790.89
680.181	39509.77
680.529	39675.64
680.877	39413.5
681.225	39582.31
681.573	39653.04
681.922	39509.54
682.27	39257.12
682.618	39405.14
682.966	39230.23
683.314	39261.64
683.661	39163.79
684.009	39088.08
684.357	39050.57
684.705	39045.37
685.053	38990.91
685.4	39031.36
685.748	38768.99
686.095	38749.79
686.443	38817.13
686.79	38568.1
687.138	38705.49
687.485	38724.48
687.832	38556.57
688.18	38514.31
688.527	38331.04
688.874	38425.27
689.221	38213.08
689.568	38092.18
689.915	38124.27
690.262	38183.93
690.609	37977.6
690.956	37823.03
691.303	37760.21
691.65	37630.72
691.997	37697.38
692.344	37373.33
692.69	37494.45
693.037	37385.75
693.383	37090.17
693.73	37232.09
694.077	37084.97
694.423	36959.55
694.769	36918.65
695.116	36871.19
695.462	36905.77
695.808	36668.71
696.155	36778.76
696.501	36489.05
696.847	36483.63
697.193	36210.64
697.539	36372.22
697.885	36097.2
698.231	36066.47
698.577	36116.64
698.923	36035.28
699.269	35816.08
699.614	35689.3
699.96	35633.26
700.306	35548.06
700.651	35337.9
700.997	35346.49
701.342	35250.67
701.688	35269.2
702.033	35106.72
702.379	35071.69
702.724	34994.18
703.069	35156.89
703.415	34726.16
703.76	34732.26
704.105	34687.29
704.45	34537.47
704.795	34402.56
705.14	34359.39
705.485	34368.21
705.83	34257.02
706.175	34258.6
706.52	34095.67
706.865	34073.98
707.209	33996.01
707.554	33960.31
707.899	33870.14
708.243	33713.08
708.588	33615.46
708.932	33532.97
709.277	33557.38
709.621	33537.72
709.966	33274.45
710.31	33309.48
710.654	33030.84
710.998	33096.15
711.342	33199.65
711.687	32991.97
712.031	32860.22
712.375	32751.3
712.719	32751.3
713.063	32717.85
713.407	32897.51
713.75	32581.13
714.094	32690.96
714.438	32493.91
714.782	32613.22
715.125	32321.93
715.469	32436.05
715.812	32101.15
716.156	32177.08
716.499	32177.98
716.843	32164.65
717.186	32003.07
717.53	32080.36
717.873	32007.82
718.216	32014.14
718.559	31924.65
718.902	31609.86
719.246	31707.94
719.589	31658.22
719.932	31482.86
720.275	31461.84
720.617	31495.06
720.96	31382.75
721.303	31425.68
721.646	31333.94
721.989	31211.23
722.331	31281.28
722.674	31089.42
723.016	31280.38
723.359	31025.02
723.701	31196.99
724.044	30894.85
724.386	30811.46
724.729	31021.4
725.071	31016.88
725.413	30799.49
725.755	30803.78
726.097	30587.29
726.439	30577.8
726.782	30547.06
727.124	30653.28
727.465	30449.21
727.807	30404.69
728.149	30363.79
728.491	30263.23
728.833	30389.1
729.175	30176.45
729.516	30121.76
729.858	30143.91
730.199	30077.25
730.541	30176.23
730.882	29998.15
731.224	30023.91
731.565	29891.04
731.906	29886.29
732.248	29860.08
732.589	29876.12
732.93	29779.17
733.271	29616.02
733.612	29811.72
733.953	29973.97
734.294	29533.98
734.635	29660.53
734.976	29622.79
735.317	29519.07
735.658	29404.95
735.999	29480.43
736.339	29362.46
736.68	29453.76
737.021	29428.68
737.361	29208.79
737.702	29388.68
738.042	29159.53
738.383	29225.52
738.723	29310.71
739.063	29084.28
739.404	29048.8
739.744	29054.67
740.084	29014.67
740.424	29004.73
740.764	28861.46
741.104	28866.66
741.444	28807.22
741.784	28725.64
742.124	28805.19
742.464	28743.5
742.804	28730.39
743.143	28541.69
743.483	28575.36
743.823	28426.89
744.162	28338.08
744.502	28451.75
744.841	28223.28
745.181	28458.31
745.52	28289.04
745.86	28377.4
746.199	28289.04
746.538	28297.63
746.877	28312.32
747.216	28280
747.556	28274.36
747.895	28241.14
748.234	28155.71
748.573	28117.75
748.911	28052.89
749.25	27951.43
749.589	27941.71
749.928	27968.83
750.267	27846.57
750.605	27756.4
750.944	27736.97
751.283	27604.32
751.621	27767.02
751.96	27611.55
752.298	27527.93
752.636	27547.59
752.975	27490.2
753.313	27417.88
753.651	27445.68
753.989	27288.17
754.327	27334.72
754.666	27088.85
755.004	27207.04
755.342	27135.63
755.679	27198.68
756.017	26926.82
756.355	27105.8
756.693	26891.34
757.031	27037.1
757.368	26722.31
757.706	26786.48
758.044	26624.23
758.381	26678.92
758.719	26668.07
759.056	26594.17
759.394	26543.1
759.731	26344.01
