Data from hue_24_FLMS001491_00072.txt Node
Date: Tue Feb 07 17:12:43 GMT 2017
User: dcchb
Spectrometer: FLMS00149
Trigger mode: 0
Integration Time (sec): 2.000000E-2
Scans to average: 10
Electric dark correction enabled: true
Nonlinearity correction enabled: false
Boxcar width: 0
XAxis mode: Wavelengths
Number of Pixels in Spectrum: 2048
>>>>>Begin Spectral Data<<<<<
341.393	-3.45
341.776	-3.45
342.16	-3.45
342.543	-30.79
342.927	-49.77
343.31	-58.13
343.693	-61.3
344.077	-56.78
344.46	-74.4
344.843	-52.94
345.226	-37.34
345.61	-30.34
345.993	-17.91
346.376	2.88
346.759	25.93
347.142	20.73
347.525	48.3
347.908	38.81
348.291	59.38
348.674	95.99
349.057	97.12
349.44	145.25
349.823	155.65
350.206	167.62
350.588	200.84
350.971	212.82
351.354	222.08
351.737	230.22
352.119	227.28
352.502	278.81
352.884	282.2
353.267	299.14
353.65	295.75
354.032	300.5
354.414	303.66
354.797	305.25
355.179	324.91
355.562	316.77
355.944	322.19
356.326	329.88
356.709	326.71
357.091	339.37
357.473	335.53
357.855	350.89
358.238	345.47
358.62	352.7
359.002	340.95
359.384	323.55
359.766	352.93
360.148	345.02
360.53	354.06
360.912	352.02
361.294	331.91
361.676	344.12
362.057	324
362.439	350.22
362.821	335.98
363.203	327.84
363.584	320.61
363.966	320.61
364.348	337.11
364.729	332.82
365.111	325.58
365.493	331.46
365.874	330.78
366.256	324.91
366.637	320.84
367.019	314.29
367.4	318.81
367.781	314.06
368.163	308.64
368.544	329.2
368.925	309.54
369.306	317.9
369.688	289.88
370.069	312.93
370.45	299.37
370.831	299.6
371.212	306.6
371.593	320.84
371.974	309.99
372.355	331.01
372.736	303.66
373.117	333.27
373.498	334.17
373.879	330.33
374.26	313.61
374.641	312.7
375.021	319.48
375.402	338.47
375.783	339.82
376.163	341.86
376.544	335.3
376.925	317
377.305	328.75
377.686	321.29
378.066	323.78
378.447	340.73
378.827	339.14
379.208	327.17
379.588	341.4
379.968	342.99
380.349	339.6
380.729	331.46
381.109	352.25
381.489	333.95
381.87	342.76
382.25	326.49
382.63	350.67
383.01	352.93
383.39	322.42
383.77	344.12
384.15	335.08
384.53	341.18
384.91	350.44
385.29	347.96
385.67	339.6
386.049	349.99
386.429	362.19
386.809	360.16
387.189	353.38
387.568	372.36
387.948	354.74
388.328	367.39
388.707	380.05
389.087	347.28
389.466	357
389.846	363.32
390.225	379.37
390.605	371.23
390.984	368.97
391.363	374.17
391.743	377.56
392.122	367.39
392.501	389.99
392.881	366.49
393.26	364
393.639	369.2
394.018	357.45
394.397	368.97
394.776	388.63
395.155	402.19
395.534	378.24
395.913	399.03
396.292	390.22
396.671	396.09
397.05	376.66
397.429	413.49
397.808	404.68
398.186	386.6
398.565	379.82
398.944	410.33
399.323	428.86
399.701	412.59
400.08	411.46
400.458	404.9
400.837	408.29
401.215	423.89
401.594	388.63
401.972	408.29
402.351	418.24
402.729	385.7
403.107	417.33
403.486	414.17
403.864	411.68
404.242	390.67
404.62	433.83
404.999	441.06
405.377	445.13
405.755	427.5
406.133	426.37
406.511	442.64
406.889	452.36
407.267	431.57
407.645	426.15
408.023	456.43
408.401	474.06
408.779	453.94
409.156	428.86
409.534	454.17
409.912	453.94
410.29	452.14
410.667	463.21
411.045	468.63
411.422	457.11
411.8	472.02
412.178	473.6
412.555	476.54
412.933	455.98
413.31	478.35
413.687	497.11
414.065	479.25
414.442	476.77
414.819	495.3
415.197	489.65
415.574	498.91
415.951	496.2
416.328	496.88
416.705	493.26
417.082	505.24
417.46	527.16
417.837	509.99
418.214	507.27
418.591	488.07
418.967	503.66
419.344	511.57
419.721	510.89
420.098	506.6
420.475	554.28
420.852	553.38
421.228	535.07
421.605	548.63
421.982	558.57
422.358	537.78
422.735	549.08
423.111	531.68
423.488	548.4
423.864	553.38
424.241	547.95
424.617	563.32
424.994	572.58
425.37	569.19
425.746	564.22
426.123	571
426.499	579.82
426.875	586.14
427.251	587.27
427.627	588.85
428.003	575.75
428.379	611.9
428.756	609.19
429.132	624.79
429.507	622.98
429.883	615.52
430.259	657.1
430.635	625.24
431.011	612.58
431.387	647.16
431.763	654.39
432.138	641.28
432.514	662.3
432.89	651.45
433.265	687.38
433.641	683.09
434.016	678.57
434.392	697.78
434.767	717.66
435.143	695.52
435.518	690.32
435.894	701.62
436.269	698.46
436.644	712.69
437.02	707.5
437.395	713.15
437.77	721.28
438.145	729.19
438.52	733.03
438.895	746.36
439.271	755.63
439.646	771.67
440.021	753.82
440.395	767.38
440.77	769.64
441.145	768.74
441.52	788.85
441.895	758.12
442.27	794.72
442.645	788.85
443.019	808.51
443.394	793.14
443.769	794.95
444.143	808.06
444.518	813.93
444.892	796.76
445.267	825.01
445.641	823.88
446.016	820.49
446.39	829.98
446.764	829.98
447.139	845.57
447.513	848.28
447.887	849.19
448.262	838.34
448.636	850.32
449.01	876.3
449.384	856.19
449.758	901.16
450.132	881.73
450.506	887.15
450.88	911.78
451.254	895.74
451.628	879.47
452.002	907.49
452.376	950.2
452.75	930.77
453.123	921.73
453.497	944.1
453.871	919.02
454.244	956.75
454.618	978.22
454.992	972.12
455.365	1002.85
455.739	1012.35
456.112	980.26
456.486	1015.74
456.859	1022.29
457.232	1028.39
457.606	1020.48
457.979	1040.37
458.352	1057.77
458.725	1061.16
459.099	1082.4
459.472	1104.77
459.845	1100.25
460.218	1098.67
460.591	1112.23
460.964	1137.09
461.337	1144.32
461.71	1136.64
462.083	1158.56
462.456	1152
462.829	1184.55
463.201	1227.03
463.574	1205.11
463.947	1245.11
464.32	1266.58
464.692	1259.57
465.065	1271.1
465.438	1279.46
465.81	1281.72
466.183	1324.43
466.555	1340.25
466.928	1347.48
467.3	1343.41
467.672	1380.02
468.045	1398.32
468.417	1411.21
468.789	1424.09
469.161	1412.34
469.534	1447.36
469.906	1490.75
470.278	1498.21
470.65	1522.84
471.022	1535.04
471.394	1553.35
471.766	1577.76
472.138	1603.29
472.51	1636.96
472.882	1650.97
473.253	1675.38
473.625	1707.47
473.997	1725.77
474.369	1729.39
474.74	1774.36
475.112	1768.94
475.484	1815.71
475.855	1875.37
476.227	1876.05
476.598	1916.5
476.97	1937.52
477.341	2034.47
477.713	2051.19
478.084	2043.28
478.455	2100.91
478.827	2107.23
479.198	2164.18
479.569	2227
479.94	2247.12
480.311	2249.15
480.682	2317.85
481.053	2382.03
481.424	2435.13
481.795	2479.2
482.166	2510.61
482.537	2514.68
482.908	2607.11
483.279	2643.04
483.65	2681.23
484.021	2761.9
484.391	2764.39
484.762	2804.62
485.133	2873.99
485.503	2946.31
485.874	2954.22
486.244	2980.88
486.615	3062.24
486.985	3098.85
487.356	3144.27
487.726	3221.33
488.097	3267.65
488.467	3305.39
488.837	3351.49
489.207	3377.93
489.578	3498.16
489.948	3488.44
490.318	3573.18
490.688	3572.5
491.058	3629
491.428	3723.91
491.798	3771.14
492.168	3850.69
492.538	3853.85
492.908	3906.96
493.278	3952.16
493.648	3927.98
494.017	4012.72
494.387	4070.8
494.757	4078.93
495.126	4114.86
495.496	4102.43
495.866	4203
496.235	4234.86
496.605	4270.11
496.974	4326.84
497.344	4364.8
497.713	4392.6
498.082	4365.7
498.452	4475.08
498.821	4440.96
499.19	4498.13
499.559	4582.42
499.928	4566.6
500.298	4643.44
500.667	4626.26
501.036	4687.28
501.405	4712.59
501.774	4740.38
502.143	4777.45
502.512	4830.1
502.88	4835.3
503.249	4832.13
503.618	4844.34
503.987	4894.28
504.356	4950.32
504.724	4918.91
505.093	5001.17
505.462	5023.54
505.83	5022.41
506.199	5073.93
506.567	5099.7
506.936	5123.2
507.304	5194.61
507.672	5174.95
508.041	5236.19
508.409	5241.39
508.777	5253.36
509.145	5387.6
509.514	5364.55
509.882	5393.25
510.25	5360.71
510.618	5416.98
510.986	5432.34
511.354	5450.42
511.722	5491.32
512.09	5555.5
512.458	5540.59
512.826	5599.57
513.193	5635.05
513.561	5616.74
513.929	5682.28
514.297	5703.52
514.664	5692
515.032	5778.1
515.4	5821.49
515.767	5792.33
516.135	5781.71
516.502	5779.68
516.869	5930.64
517.237	5910.52
517.604	5895.38
517.972	5912.1
518.339	5943.29
518.706	5995.04
519.073	5988.49
519.44	6061.71
519.808	6080.69
520.175	6015.6
520.542	6174.24
520.909	6147.58
521.276	6144.64
521.643	6132.21
522.009	6215.15
522.376	6276.39
522.743	6336.05
523.11	6350.29
523.477	6348.48
523.843	6414.92
524.21	6429.83
524.577	6543.5
524.943	6545.99
525.31	6550.51
525.676	6577.17
526.043	6694.68
526.409	6675.47
526.776	6722.03
527.142	6744.85
527.508	6767.45
527.874	6798.86
528.241	6839.76
528.607	6865.98
528.973	6962.7
529.339	6933.55
529.705	7024.62
530.071	7057.39
530.437	7062.36
530.803	7090.15
531.169	7162.47
531.535	7160.89
531.901	7164.95
532.267	7231.62
532.632	7234.1
532.998	7277.27
533.364	7340.54
533.73	7285.18
534.095	7373.53
534.461	7360.65
534.826	7439.75
535.192	7440.43
535.557	7524.72
535.923	7604.94
536.288	7486.98
536.653	7664.6
537.019	7602.91
537.384	7614.21
537.749	7716.58
538.114	7661.66
538.479	7713.86
538.845	7778.5
539.21	7750.25
539.575	7776.24
539.94	7834.31
540.305	7825.95
540.67	7882.45
541.034	7924.71
541.399	7985.95
541.764	8064.14
542.129	8044.25
542.494	8059.39
542.858	8152.72
543.223	8150.01
543.587	8245.38
543.952	8150.24
544.316	8203.8
544.681	8248.77
545.045	8260.07
545.41	8288.54
545.774	8388.65
546.138	8299.61
546.503	8415.99
546.867	8341.65
547.231	8470.91
547.595	8464.58
547.959	8510.45
548.324	8495.09
548.688	8505.71
549.052	8569.89
549.416	8612.37
549.779	8616.44
550.143	8668.64
550.507	8754.06
550.871	8729.43
551.235	8743.44
551.599	8806.49
551.962	8841.74
552.326	8909.31
552.689	8941.18
553.053	8892.14
553.417	8906.38
553.78	9022.98
554.143	8989.09
554.507	9021.4
554.87	9046.71
555.234	9110.44
555.597	9104.79
555.96	9199.25
556.323	9192.47
556.686	9186.37
557.05	9268.4
557.413	9263.88
557.776	9322.86
558.139	9330.32
558.502	9387.72
558.865	9344.56
559.228	9453.25
559.59	9481.5
559.953	9493.03
560.316	9572.8
560.679	9569.18
561.041	9641.72
561.404	9635.4
561.767	9616.19
562.129	9700.03
562.492	9776.86
562.854	9743.87
563.217	9782.29
563.579	9845.11
563.941	9902.96
564.304	9926.01
564.666	10048.49
565.028	9964.2
565.39	10040.13
565.753	10079.45
566.115	10081.26
566.477	10111.54
566.839	10157.64
567.201	10219.56
567.563	10256.4
567.925	10309.28
568.287	10301.14
568.648	10329.39
569.01	10391.76
569.372	10462.95
569.734	10439.67
570.095	10540.46
570.457	10517.41
570.819	10606.22
571.18	10613.22
571.542	10644.41
571.903	10703.62
572.265	10770.06
572.626	10776.84
572.987	10852.54
573.349	10928.92
573.71	10937.96
574.071	11035.81
574.432	11084.17
574.794	11160.1
575.155	11196.71
575.516	11210.5
575.877	11342.02
576.238	11338.85
576.599	11410.26
576.96	11492.97
577.32	11575.91
577.681	11625.63
578.042	11791.05
578.403	11795.34
578.763	11980.19
579.124	11998.95
579.485	12178.38
579.845	12249.56
580.206	12356.45
580.566	12477.13
580.927	12597.13
581.287	12743.11
581.648	12783.79
582.008	12926.16
582.368	13078.02
582.728	13252.48
583.089	13386.03
583.449	13552.13
583.809	13697.66
584.169	13894.72
584.529	14085.22
584.889	14303.52
585.249	14367.93
585.609	14554.14
585.969	14834.36
586.329	14969.04
586.688	15129.49
587.048	15433.44
587.408	15524.51
587.768	15788.23
588.127	15946.42
588.487	16176.47
588.846	16589.56
589.206	16757.92
589.565	17057.57
589.925	17387.28
590.284	17543.66
590.643	17733.04
591.003	18072.24
591.362	18334.6
591.721	18664.09
592.08	18937.75
592.44	19156.5
592.799	19568.69
593.158	19723.49
593.517	20001.68
593.876	20483.92
594.235	20656.8
594.593	20945.16
594.952	21188.09
595.311	21460.4
595.67	21838.92
596.029	22358.45
596.387	22617.2
596.746	22843.86
597.104	23061.03
597.463	23459.67
597.822	23776.27
598.18	23912.08
598.538	24300.32
598.897	24723.81
599.255	24784.6
599.613	25479.27
599.972	25470.23
600.33	25798.14
600.688	26027.73
601.046	26483.77
601.404	26808.96
601.762	27121.72
602.12	27495.04
602.478	27789.5
602.836	28024.74
603.194	28232.65
603.552	28398.74
603.91	28646.87
604.268	29061.78
604.625	29337.03
604.983	29659.73
605.341	29763
605.698	30258.36
606.056	30476.66
606.413	30694.96
606.771	30983.08
607.128	31270.08
607.485	31407.48
607.843	31633.01
608.2	32039.33
608.557	32282.48
608.914	32432.09
609.272	32761.12
609.629	33126.76
609.986	33363.13
610.343	33390.25
610.7	33907.53
611.057	33904.81
611.414	34202.21
611.771	34326.72
612.127	34689.65
612.484	34822.76
612.841	35153.14
613.198	35201.73
613.554	35320.6
613.911	35760.36
614.267	35936.4
614.624	36060.01
614.98	36134.13
615.337	36580.22
615.693	36514.46
616.05	36735.93
616.406	37104.73
616.762	37035.58
617.118	37151.74
617.475	37383.14
617.831	37695
618.187	37759.63
618.543	37888.21
618.899	38140.86
619.255	38148.09
619.611	38388.54
619.967	38658.36
620.323	38736.33
620.678	38695.88
621.034	38730.9
621.39	38954.85
621.746	39046.6
622.101	39501.73
622.457	39355.52
622.812	39494.27
623.168	39697.43
623.523	39816.3
623.879	40001.15
624.234	39894.94
624.589	39959.34
624.945	40255.83
625.3	40261.71
625.655	40395.94
626.01	40386
626.365	40426.9
626.72	40543.51
627.075	40591.87
627.43	40572.21
627.785	40625.54
628.14	40786.22
628.495	40933.78
628.85	40789.38
629.205	40789.38
629.559	41077.51
629.914	40972.88
630.269	40891.52
630.623	40963.39
630.978	40935.59
631.332	41143.27
631.687	41216.49
632.041	41099.65
632.396	41297.84
632.75	41181.23
633.104	41212.87
633.459	41201.35
633.813	41141.69
634.167	41322.25
634.521	41263.49
634.875	41442.92
635.229	41495.35
635.583	41264.85
635.937	41242.47
636.291	41230.72
636.645	41443.37
636.999	41105.98
637.352	41370.38
637.706	41192.31
638.06	41358.63
638.413	41272.53
638.767	41255.36
639.121	41358.18
639.474	41138.97
639.828	41105.98
640.181	41328.8
640.534	41234.34
640.888	41123.38
641.241	40998.64
641.594	41181.23
641.947	41218.07
642.301	41091.74
642.654	41122.03
643.007	41157.51
643.36	41289.48
643.713	41072.31
644.066	41344.85
644.419	41036.38
644.771	40842.94
645.124	40607.01
645.477	40304.87
645.83	40069.17
646.182	40132.22
646.535	40039.12
646.888	40180.81
647.24	39955.96
647.593	40139.45
647.945	40097.65
648.298	39690.43
648.65	39868.73
649.002	39658.56
649.355	39949.63
649.707	39879.12
650.059	40075.5
650.411	40515.26
650.763	40477.75
651.115	41062.82
651.467	40757.06
651.819	40800.68
652.171	40718.65
652.523	40740.12
652.875	40601.81
653.227	40506
653.578	40841.58
653.93	40623.06
654.282	40470.97
654.633	40442.5
654.985	40566.33
655.337	40629.61
655.688	40456.96
656.039	40770.85
656.391	40427.13
656.742	40577.41
657.094	40511.87
657.445	40732.66
657.796	40596.84
658.147	40477.52
658.498	40478.88
658.849	40656.5
659.2	40467.35
659.551	40471.65
659.902	40578.31
660.253	40606.33
660.604	40649.04
660.955	40401.59
661.306	40502.38
661.656	40455.15
662.007	40519.1
662.358	40551.42
662.708	40558.43
663.059	40491.76
663.409	40197.98
663.76	40418.32
664.11	40344.87
664.461	40415.6
664.811	40424.87
665.161	40321.37
665.511	40312.78
665.862	40244.08
666.212	40411.08
666.562	40525.66
666.912	40429.16
667.262	40298.77
667.612	40219.22
667.962	40346
668.312	40361.37
668.662	40584.41
669.011	40414.47
669.361	40207.02
669.711	40297.42
670.06	40271.43
670.41	40107.82
670.76	40097.42
671.109	40310.52
671.459	40248.6
671.808	40028.5
672.157	40194.14
672.507	40073.47
672.856	40112.11
673.205	40200.47
673.554	40182.62
673.904	40073.01
674.253	40188.04
674.602	40045.44
674.951	39549.64
675.3	39290.44
675.649	40038.44
675.998	40012.9
676.346	39981.94
676.695	40088.83
677.044	39835.28
677.393	39870.31
677.741	39912.57
678.09	39821.72
678.438	39783.76
678.787	39780.59
679.135	39845.68
679.484	39765.23
679.832	39800.93
680.181	39468.74
680.529	39685.45
680.877	39504.67
681.225	39541.95
681.573	39687.94
681.922	39492.69
682.27	39149.65
682.618	39398.91
682.966	39374.05
683.314	39410.88
683.661	39241.17
684.009	39044.11
684.357	38886.15
684.705	38962.76
685.053	39041.85
685.4	38860.62
685.748	38769.77
686.095	38798.47
686.443	38614.3
686.79	38673.05
687.138	38700.17
687.485	38683.45
687.832	38600.74
688.18	38665.59
688.527	38282.78
688.874	38395.09
689.221	38305.83
689.568	38191.93
689.915	38046.63
690.262	38121.43
690.609	38011.6
690.956	37627.2
691.303	37869.91
691.65	37706.75
691.997	37530.03
692.344	37466.75
692.69	37397.6
693.037	37402.35
693.383	37043.72
693.73	37119.87
694.077	36975.47
694.423	37017.5
694.769	36973.89
695.116	36895.02
695.462	36853.89
695.808	36584.74
696.155	36743.38
696.501	36554.24
696.847	36514.01
697.193	36325.54
697.539	36299.33
697.885	36126.23
698.231	35956.74
698.577	35962.16
698.923	36022.05
699.269	35739.12
699.614	35579.35
699.96	35575.73
700.306	35667.48
700.651	35488.28
700.997	35299.13
701.342	35292.57
701.688	35274.95
702.033	35160.37
702.379	35074.05
702.724	35033.82
703.069	35047.84
703.415	34618.92
703.76	34588.41
704.105	34692.59
704.45	34559.49
704.795	34297.8
705.14	34297.57
705.485	34373.05
705.83	34064.81
706.175	34175.54
706.52	34117.01
706.865	34051.48
707.209	33947.75
707.554	33826.4
707.899	33821.88
708.243	33730.13
708.588	33647.19
708.932	33388.9
709.277	33338.5
709.621	33451.49
709.966	33309.8
710.31	33351.83
710.654	33079.98
710.998	33176.7
711.342	32972.18
711.687	32955.69
712.031	32823.49
712.375	32805.18
712.719	32802.47
713.063	32761.57
713.407	32869.14
713.75	32742.36
714.094	32617.39
714.438	32448.36
714.782	32548.92
715.125	32378.08
715.469	32381.24
715.812	32237.74
716.156	32010.85
716.499	32176.05
716.843	32181.24
717.186	31912.1
717.53	32063.51
717.873	32037.97
718.216	31942.38
718.559	31864.87
718.902	31799.56
719.246	31754.36
719.589	31636.17
719.932	31429.17
720.275	31464.65
720.617	31489.06
720.96	31344.66
721.303	31353.47
721.646	31490.87
721.989	31202.51
722.331	31350.31
722.674	31091.1
723.016	31161.16
723.359	31118.67
723.701	31101.05
724.044	30889.3
724.386	30742.41
724.729	30917.1
725.071	30778.12
725.413	30826.93
725.755	30701.74
726.097	30673.49
726.439	30463.78
726.782	30503.32
727.124	30622.64
727.465	30461.97
727.807	30469.88
728.149	30389.65
728.491	30272.82
728.833	30322.54
729.175	30271.92
729.516	30244.57
729.858	30158.47
730.199	30178.13
730.541	30088.19
730.882	30074.18
731.224	30162.09
731.565	29865.37
731.906	29916.45
732.248	29988.53
732.589	29702.44
732.93	29701.08
733.271	29700.86
733.612	29751.03
733.953	29716.22
734.294	29563.69
734.635	29536.34
734.976	29611.59
735.317	29406.85
735.658	29353.75
735.999	29518.72
736.339	29390.13
736.68	29499.73
737.021	29289.57
737.361	29137.93
737.702	29219.51
738.042	29145.17
738.383	29112.85
738.723	29206.86
739.063	29001.44
739.404	29152.85
739.744	28917.83
740.084	28903.59
740.424	28939.75
740.764	28822.69
741.104	28979.97
741.444	28865.17
741.784	28738.62
742.124	28728
742.464	28676.7
742.804	28691.39
743.143	28627.21
743.483	28652.3
743.823	28380.89
744.162	28455.92
744.502	28586.08
744.841	28372.3
745.181	28524.62
745.52	28393.32
745.86	28398.74
746.199	28290.5
746.538	28249.37
746.877	28338.63
747.216	28296.15
747.556	28315.13
747.895	28223.83
748.234	28138.86
748.573	28020.68
748.911	28140.45
749.25	28023.84
749.589	27797.63
749.928	27903.16
750.267	28031.3
750.605	27860.68
750.944	27860.68
751.283	27782.04
751.621	27768.93
751.96	27662.49
752.298	27652.32
752.636	27765.32
752.975	27636.28
753.313	27440.58
753.651	27680.35
753.989	27449.62
754.327	27375.27
754.666	27210.08
755.004	27220.02
755.342	27307.02
755.679	27296.63
756.017	27206.46
756.355	27192.45
756.693	27019.35
757.031	27053.7
757.368	26966.24
757.706	26948.39
758.044	26857.54
758.381	26779.58
758.719	26681.73
759.056	26765.12
759.394	26687.15
759.731	26500.72
760.068	26503.88
760.405	26388.63
