Data from hue_40_FLMS001491_17.txt Node
Date: Mon Feb 06 15:07:31 GMT 2017
User: dcchb
Spectrometer: FLMS00149
Trigger mode: 0
Integration Time (sec): 2.000000E-2
Scans to average: 10
Electric dark correction enabled: true
Nonlinearity correction enabled: false
Boxcar width: 0
XAxis mode: Wavelengths
Number of Pixels in Spectrum: 2048
>>>>>Begin Spectral Data<<<<<
341.393	-9.55
341.776	-9.55
342.16	-9.55
342.543	-70.56
342.927	-66.04
343.31	-76.21
343.693	-82.09
344.077	-67.63
344.46	-67.63
344.843	-50.9
345.226	-30.79
345.61	-33.05
345.993	-17.23
346.376	-10.68
346.759	22.54
347.142	30.23
347.525	55.99
347.908	74.29
348.291	66.61
348.674	83.11
349.057	103.44
349.44	133.05
349.823	143.67
350.206	158.36
350.588	192.71
350.971	222.76
351.354	214.85
351.737	244
352.119	278.58
352.502	288.07
352.884	289.2
353.267	290.56
353.65	296.66
354.032	312.93
354.414	312.03
354.797	319.26
355.179	312.7
355.562	328.07
355.944	337.79
356.326	341.4
356.709	343.66
357.091	342.53
357.473	341.4
357.855	342.08
358.238	345.25
358.62	325.13
359.002	334.85
359.384	343.44
359.766	329.88
360.148	339.6
360.53	341.86
360.912	350.22
361.294	343.44
361.676	341.86
362.057	339.37
362.439	318.35
362.821	341.86
363.203	337.56
363.584	358.13
363.966	330.56
364.348	328.97
364.729	318.35
365.111	320.16
365.493	300.73
365.874	304.12
366.256	330.1
366.637	336.21
367.019	326.26
367.4	331.69
367.781	322.19
368.163	310.67
368.544	321.97
368.925	319.71
369.306	329.43
369.688	320.16
370.069	309.99
370.45	311.35
370.831	313.83
371.212	324
371.593	314.06
371.974	325.36
372.355	330.78
372.736	294.63
373.117	313.61
373.498	305.47
373.879	327.84
374.26	330.1
374.641	318.13
375.021	311.12
375.402	321.29
375.783	327.39
376.163	327.62
376.544	331.46
376.925	338.69
377.305	331.46
377.686	321.07
378.066	340.73
378.447	328.3
378.827	331.23
379.208	345.25
379.588	338.47
379.968	335.3
380.349	326.49
380.729	332.59
381.109	337.56
381.489	339.37
381.87	316.77
382.25	343.66
382.63	345.92
383.01	328.52
383.39	348.86
383.77	324.23
384.15	345.47
384.53	341.86
384.91	332.82
385.29	380.5
385.67	346.38
386.049	365.13
386.429	352.7
386.809	366.94
387.189	337.79
387.568	361.52
387.948	345.92
388.328	340.27
388.707	360.84
389.087	359.26
389.466	347.5
389.846	364.91
390.225	380.5
390.605	379.82
390.984	384.79
391.363	365.13
391.743	362.65
392.122	380.95
392.501	376.66
392.881	362.19
393.26	364.68
393.639	377.11
394.018	405.36
394.397	379.82
394.776	388.86
395.155	373.49
395.534	359.03
395.913	383.89
396.292	392.93
396.671	373.49
397.05	371.69
397.429	383.44
397.808	381.85
398.186	391.35
398.565	385.02
398.944	395.64
399.323	385.47
399.701	386.83
400.08	385.47
400.458	394.74
400.837	381.63
401.215	409.42
401.594	392.25
401.972	385.47
402.351	408.29
402.729	424.11
403.107	401.29
403.486	403.32
403.864	418.92
404.242	399.48
404.62	415.3
404.999	409.88
405.377	402.19
405.755	422.53
406.133	420.95
406.511	428.63
406.889	439.03
407.267	428.63
407.645	443.32
408.023	429.76
408.401	411.01
408.779	436.77
409.156	440.84
409.534	433.38
409.912	430.44
410.29	456.2
410.667	462.98
411.045	437.67
411.422	454.62
411.8	459.59
412.178	453.94
412.555	472.25
412.933	451.68
413.31	469.54
413.687	449.65
414.065	485.81
414.442	467.95
414.819	470.21
415.197	484.68
415.574	497.56
415.951	478.35
416.328	475.64
416.705	479.03
417.082	486.94
417.46	476.99
417.837	488.74
418.214	493.49
418.591	512.92
418.967	529.87
419.344	504.34
419.721	500.04
420.098	487.39
420.475	519.7
420.852	513.83
421.228	531.68
421.605	515.41
421.982	518.8
422.358	526.26
422.735	544.79
423.111	524.45
423.488	533.94
423.864	572.36
424.241	574.39
424.617	552.7
424.994	568.06
425.37	546.37
425.746	555.86
426.123	555.64
426.499	587.27
426.875	550.66
427.251	564.9
427.627	580.27
428.003	584.56
428.379	590.66
428.756	579.36
429.132	589.08
429.507	587.05
429.883	599.48
430.259	617.78
430.635	592.47
431.011	615.07
431.387	618.46
431.763	606.48
432.138	623.66
432.514	639.25
432.89	629.31
433.265	679.93
433.641	658.46
434.016	643.09
434.392	652.81
434.767	658.23
435.143	665.46
435.518	646.93
435.894	690.77
436.269	684.22
436.644	702.3
437.02	706.37
437.395	686.93
437.77	711.34
438.145	733.71
438.52	714.73
438.895	713.6
439.271	727.38
439.646	717.44
440.021	726.25
440.395	749.3
440.77	738.46
441.145	743.65
441.52	768.06
441.895	731.45
442.27	762.64
442.645	733.03
443.019	759.47
443.394	754.05
443.769	799.92
444.143	762.41
444.518	782.97
444.892	782.97
445.267	763.54
445.641	808.06
446.016	810.32
446.39	822.75
446.764	790.66
447.139	803.99
447.513	827.49
447.887	833.37
448.262	840.15
448.636	806.93
449.01	842.63
449.384	834.5
449.758	837.21
450.132	819.13
450.506	850.09
450.88	861.16
451.254	893.03
451.628	887.6
452.002	884.44
452.376	864.33
452.75	875.85
453.123	891.9
453.497	890.09
453.871	887.38
454.244	928.51
454.618	909.75
454.992	955.17
455.365	934.16
455.739	971.44
456.112	972.8
456.486	968.05
456.859	979.58
457.232	991.78
457.606	992.23
457.979	1001.5
458.352	998.79
458.725	1023.42
459.099	1038.11
459.472	1039.69
459.845	1057.09
460.218	1068.62
460.591	1077.66
460.964	1097.77
461.337	1086.24
461.71	1107.26
462.083	1149.52
462.456	1150.65
462.829	1137.31
463.201	1205.79
463.574	1177.99
463.947	1176.18
464.32	1199.91
464.692	1238.33
465.065	1222.96
465.438	1205.79
465.81	1267.03
466.183	1288.27
466.555	1312.68
466.928	1306.58
467.3	1330.53
467.672	1368.72
468.045	1386.35
468.417	1370.98
468.789	1404.2
469.161	1415.5
469.534	1467.48
469.906	1483.52
470.278	1497.53
470.65	1522.84
471.022	1562.61
471.394	1566.23
471.766	1568.04
472.138	1609.84
472.51	1641.93
472.882	1694.14
473.253	1701.82
473.625	1763.06
473.997	1764.64
474.369	1830.63
474.74	1844.19
475.112	1869.5
475.484	1932.77
475.855	1943.85
476.227	2002.38
476.598	2073.79
476.97	2113.11
477.341	2151.98
477.713	2231.98
478.084	2250.51
478.455	2303.84
478.827	2383.38
479.198	2458.64
479.569	2465.87
479.94	2548.58
480.311	2635.13
480.682	2697.95
481.053	2765.07
481.424	2822.69
481.795	2891.17
482.166	2967.1
482.537	3033.08
482.908	3092.07
483.279	3162.35
483.65	3279.41
484.021	3365.5
484.391	3451.6
484.762	3500.87
485.133	3602.79
485.503	3692.5
485.874	3800.52
486.244	3868.32
486.615	3954.64
486.985	4083
487.356	4137.46
487.726	4251.36
488.097	4387.85
488.467	4443.44
488.837	4533.84
489.207	4685.92
489.578	4782.64
489.948	4861.06
490.318	5012.69
490.688	5074.84
491.058	5218.56
491.428	5311.89
491.798	5420.37
492.168	5547.82
492.538	5647.7
492.908	5751.2
493.278	5880.01
493.648	5929.73
494.017	6035.04
494.387	6135.6
494.757	6234.81
495.126	6393.9
495.496	6409.49
495.866	6608.81
496.235	6687.9
496.605	6775.36
496.974	6877.5
497.344	6949.14
497.713	7062.13
498.082	7165.4
498.452	7273.88
498.821	7310.26
499.19	7445.62
499.559	7537.37
499.928	7593.19
500.298	7720.19
500.667	7838.83
501.036	7849.68
501.405	8030.47
501.774	8032.73
502.143	8147.07
502.512	8232.27
502.88	8293.51
503.249	8371.7
503.618	8466.16
503.987	8539.61
504.356	8630.9
504.724	8688.75
505.093	8738.02
505.462	8822.76
505.83	8900.27
506.199	8984.57
506.567	9126.26
506.936	9206.48
507.304	9285.12
507.672	9378.23
508.041	9470.43
508.409	9488.28
508.777	9662.51
509.145	9725.56
509.514	9729.63
509.882	9883.98
510.25	9860.93
510.618	9956.07
510.986	9987.93
511.354	10114.03
511.722	10214.59
512.09	10313.12
512.458	10351.54
512.826	10381.82
513.193	10536.62
513.561	10575.26
513.929	10696.16
514.297	10812.99
514.664	10848.25
515.032	10916.94
515.4	10984.97
515.767	11035.81
516.135	11126.43
516.502	11073.78
516.869	11240.33
517.237	11284.39
517.604	11329.82
517.972	11439.64
518.339	11479.19
518.706	11577.49
519.073	11596.02
519.44	11695
519.808	11809.8
520.175	11846.64
520.542	12020.64
520.909	12072.85
521.276	12024.71
521.643	12154.65
522.009	12203.24
522.376	12296.34
522.743	12407.75
523.11	12483.46
523.477	12612.72
523.843	12668.08
524.21	12749.21
524.577	12880.73
524.943	12902.88
525.31	13006.83
525.676	13148.75
526.043	13240.27
526.409	13260.16
526.776	13401.17
527.142	13423.32
527.508	13635.52
527.874	13716.19
528.241	13717.77
528.607	13791.45
528.973	13968.39
529.339	13882.97
529.705	14054.94
530.071	14069.4
530.437	14236.86
530.803	14240.92
531.169	14355.27
531.535	14305.1
531.901	14367.93
532.267	14518.88
532.632	14640.01
532.998	14698.09
533.364	14743.96
533.73	14808.14
534.095	14853.56
534.461	14901.47
534.826	14973.34
535.192	15110.96
535.557	15122.03
535.923	15176.95
536.288	15189.37
536.653	15352.76
537.019	15367.68
537.384	15440.22
537.749	15427.79
538.114	15484.51
538.479	15527.67
538.845	15631.4
539.21	15676.14
539.575	15678.18
539.94	15843.14
540.305	15900.99
540.67	15851.28
541.034	15950.48
541.399	16085.4
541.764	16068.67
542.129	16251.72
542.494	16179.63
542.858	16218.95
543.223	16326.97
543.587	16427.08
543.952	16468.44
544.316	16508.66
544.681	16559.73
545.045	16603.8
545.41	16734.42
545.774	16837.01
546.138	16798.37
546.503	16801.99
546.867	16927.63
547.231	17055.77
547.595	17059.83
547.959	17024.35
548.324	17146.84
548.688	17196.78
549.052	17218.25
549.416	17264.57
549.779	17391.58
550.143	17409.43
550.507	17506.6
550.871	17564
551.235	17555.87
551.599	17687.39
551.962	17802.87
552.326	17744.11
552.689	17900.26
553.053	17869.53
553.417	17913.37
553.78	18086.47
554.143	18092.8
554.507	18158.79
554.87	18194.49
555.234	18359.91
555.597	18212.57
555.96	18399.91
556.323	18446.69
556.686	18480.36
557.05	18580.25
557.413	18655.95
557.776	18787.7
558.139	18807.58
558.502	18842.16
558.865	18897.3
559.228	19007.35
559.59	19060.69
559.953	19124.19
560.316	19215.48
560.679	19312.43
561.041	19455.03
561.404	19491.18
561.767	19555.14
562.129	19619.77
562.492	19807.78
562.854	19669.48
563.217	19781.57
563.579	19862.47
563.941	20013.2
564.304	19969.14
564.666	20238.73
565.028	20212.29
565.39	20364.15
565.753	20448.67
566.115	20513.3
566.477	20537.26
566.839	20606.18
567.201	20632.17
567.563	20654.54
567.925	20887.98
568.287	20809.11
568.648	20980.18
569.01	21074.19
569.372	21263.11
569.734	21159.61
570.095	21259.72
570.457	21376.78
570.819	21446.16
571.18	21492.26
571.542	21640.96
571.903	21633.95
572.265	21797.79
572.626	21873.94
572.987	21951.23
573.349	21964.56
573.71	22084.11
574.071	22175.63
574.432	22315.74
574.794	22476.41
575.155	22445.46
575.516	22548.28
575.877	22749.85
576.238	22800.02
576.599	22942.84
576.96	22950.75
577.32	23027.81
577.681	23287.92
578.042	23406.11
578.403	23479.78
578.763	23536.95
579.124	23682.26
579.485	23797.51
579.845	24031.63
580.206	24122.25
580.566	24205.63
580.927	24352.75
581.287	24480.2
581.648	24474.78
582.008	24820.76
582.368	24946.18
582.728	24985.5
583.089	25171.26
583.449	25324.7
583.809	25436.11
584.169	25697.57
584.529	25724.01
584.889	26185.24
585.249	26171.46
585.609	26238.58
585.969	26521.51
586.329	26614.84
586.688	26735.06
587.048	27015.73
587.408	27027.93
587.768	27226.12
588.127	27513.12
588.487	27591.99
588.846	27958.76
589.206	27952.65
589.565	28138.19
589.925	28384.06
590.284	28663.14
590.643	28809.13
591.003	29006.86
591.362	29323.24
591.721	29329.34
592.08	29677.13
592.44	29892.72
592.799	29999.83
593.158	30004.35
593.517	30361.41
593.876	30621.06
594.235	30666.26
594.593	30852.69
594.952	31161.84
595.311	31078.45
595.67	31492.22
596.029	31751.65
596.387	31953
596.746	32139.66
597.104	32074.35
597.463	32458.07
597.822	32650.38
598.18	32541.46
598.538	32725.64
598.897	33152.52
599.255	33099.41
599.613	33563.35
599.972	33437.71
600.33	33760.41
600.688	33867.75
601.046	34090.35
601.404	34344.8
601.762	34387.06
602.12	34638.81
602.478	34690.56
602.836	34831.8
603.194	34701.4
603.552	35058.91
603.91	35093.26
604.268	35316.53
604.625	35307.26
604.983	35657.31
605.341	35393.14
605.698	35896.85
606.056	35999.67
606.413	36046
606.771	36230.86
607.128	36451.64
607.485	36291.64
607.843	36579.77
608.2	36807.79
608.557	36937.05
608.914	36916.03
609.272	37264.5
609.629	37540.65
609.986	37652.51
610.343	37497.71
610.7	37910.36
611.057	37817.93
611.414	37981.32
611.771	37996.01
612.127	38199.17
612.484	38240.07
612.841	38421.53
613.198	38264.93
613.554	38593.51
613.911	38640.06
614.267	38687.06
614.624	38810.67
614.98	38832.82
615.337	39231.23
615.693	39087.28
616.05	39193.04
616.406	39418.57
616.762	39331.79
617.118	39336.54
617.475	39457.66
617.831	39695.4
618.187	39612.01
618.543	39748.5
618.899	40074.82
619.255	40008.84
619.611	40145.1
619.967	40177.64
620.323	40335.38
620.678	40337.64
621.034	40233.69
621.39	40368.15
621.746	40315.95
622.101	40803.84
622.457	40531.08
622.812	40675.26
623.168	40735.14
623.523	40727.91
623.879	40923.61
624.234	40557.75
624.589	40912.31
624.945	41002.03
625.3	40865.54
625.655	40968.13
626.01	40968.58
626.365	41061.69
626.72	41082.93
627.075	41134.23
627.43	41077.96
627.785	41044.51
628.14	41202.7
628.495	41323.6
628.85	41245.41
629.205	41097.85
629.559	41384.62
629.914	41235.7
630.269	41347.33
630.623	41192.98
630.978	41203.38
631.332	41287.22
631.687	41444.5
632.041	41260.55
632.396	41202.48
632.75	41212.65
633.104	41291.06
633.459	41110.95
633.813	41050.16
634.167	41095.81
634.521	41163.15
634.875	41278.63
635.229	41239.09
635.583	41098.98
635.937	41022.82
636.291	41017.85
636.645	41010.62
636.999	41057.85
637.352	41246.32
637.706	41064.4
638.06	41093.55
638.413	40992.31
638.767	40823.05
639.121	41022.59
639.474	40758.42
639.828	40849.26
640.181	40880.9
640.534	40826.44
640.888	40770.17
641.241	40640.91
641.594	40682.49
641.947	40863.95
642.301	40687.91
642.654	40834.35
643.007	40769.94
643.36	40704.86
643.713	40537.18
644.066	40806.33
644.419	40500.35
644.771	40183.52
645.124	39857.2
645.477	39899.01
645.83	39605.68
646.182	39546.93
646.535	39276.2
646.888	39521.16
647.24	39229.42
647.593	39397.78
647.945	39465.35
648.298	39306.25
648.65	39297.44
649.002	39188.97
649.355	39248.86
649.707	39209.08
650.059	39298.8
650.411	39785.56
650.763	39736.75
651.115	40289.73
651.467	40168.15
651.819	40062.84
652.171	40042.96
652.523	39926.8
652.875	40007.93
653.227	39765.45
653.578	39980.14
653.93	39920.02
654.282	39806.35
654.633	39723.64
654.985	39793.47
655.337	39841.61
655.688	39688.62
656.039	39907.14
656.391	39637.32
656.742	39617.66
657.094	39579.92
657.445	39756.86
657.796	39550.99
658.147	39563.87
658.498	39604.55
658.849	39725.68
659.2	39583.76
659.551	39536.76
659.902	39607.04
660.253	39514.38
660.604	39704.44
660.955	39266.26
661.306	39544.67
661.656	39605
662.007	39438.23
662.358	39438.23
662.708	39529.75
663.059	39571.78
663.409	39215.86
663.76	39672.35
664.11	39461.05
664.461	39456.08
664.811	39599.81
665.161	39468.51
665.511	39315.29
665.862	39429.19
666.212	39555.97
666.562	39669.63
666.912	39432.13
667.262	39459.24
667.612	39431.9
667.962	39454.5
668.312	39412.24
668.662	39395.97
669.011	39400.94
669.361	39348.51
669.711	39265.13
670.06	39155.3
670.41	39077.11
670.76	39035.08
671.109	39223.77
671.459	39235.3
671.808	39207.05
672.157	39163.89
672.507	38926.6
672.856	38967.73
673.205	39065.36
673.554	39275.97
673.904	38964.57
674.253	39235.97
674.602	39029.65
674.951	38581.98
675.3	38364.13
675.649	38955.53
675.998	38967.51
676.346	38848.87
676.695	39018.8
677.044	38658.36
677.393	38903.1
677.741	38912.59
678.09	38824.46
678.438	38699.04
678.787	38841.18
679.135	38760.96
679.484	38596.67
679.832	38607.97
680.181	38366.39
680.529	38583.56
680.877	38345.6
681.225	38489.78
681.573	38544.47
681.922	38286.17
682.27	38247.98
682.618	38414.98
682.966	38294.53
683.314	38295.43
683.661	38196.45
684.009	37986.97
684.357	37939.74
684.705	38051.82
685.053	37935.22
685.4	37832.17
685.748	37734.77
686.095	37696.35
686.443	37576.36
686.79	37552.18
687.138	37558.5
687.485	37561.44
687.832	37409.58
688.18	37370.26
688.527	37188.8
688.874	37200.77
689.221	37182.47
689.568	37083.04
689.915	36874.45
690.262	36951.97
690.609	36788.35
690.956	36672.88
691.303	36616.16
691.65	36571.86
691.997	36398.08
692.344	36313.56
692.69	36283.06
693.037	36315.37
693.383	36065.66
693.73	36123.06
694.077	35975.04
694.423	35991.77
694.769	35886.91
695.116	35685.78
695.462	35751.55
695.808	35583.41
696.155	35708.16
696.501	35370.76
696.847	35410.31
697.193	35094.16
697.539	35279.47
697.885	35080.15
698.231	34906.14
698.577	34924.22
698.923	34816.2
699.269	34691.01
699.614	34537.79
699.96	34418.25
700.306	34482.2
700.651	34459.15
700.997	34273.17
701.342	34270.23
701.688	34270.68
702.033	33998.37
702.379	33986.17
702.724	33879.73
703.069	33987.98
703.415	33607.42
703.76	33599.74
704.105	33638.61
704.45	33659.17
704.795	33386.41
705.14	33255.57
705.485	33200.65
705.83	33159.3
706.175	33213.08
706.52	33061.22
706.865	32928.34
707.209	32980.32
707.554	32909.13
707.899	32965.86
708.243	32612.87
708.588	32740.33
708.932	32616.49
709.277	32428.47
709.621	32337.17
709.966	32173.79
710.31	32333.1
710.654	32136.5
710.998	32156.84
711.342	32220.79
711.687	31941.7
712.031	31926.56
712.375	31724.76
712.719	31926.11
713.063	31755.27
713.407	31769.73
713.75	31661.03
714.094	31548.72
714.438	31506.01
714.782	31576.51
715.125	31212
715.469	31447.25
715.812	31146.24
716.156	31042.52
716.499	31129.07
716.843	31115.96
717.186	30863.31
717.53	30850.88
717.873	31009.75
718.216	30839.81
718.559	30741.06
718.902	30618.57
719.246	30579.03
719.589	30546.71
719.932	30478.01
720.275	30538.58
720.617	30372.93
720.96	30284.12
721.303	30332.93
721.646	30434.4
721.989	30164.8
722.331	30220.62
722.674	30158.7
723.016	30120.28
723.359	29993.28
723.701	30195.31
724.044	29859.95
724.386	29693.17
724.729	29989.44
725.071	29785.15
725.413	29921.87
725.755	29808.88
726.097	29572.05
726.439	29433.97
726.782	29614.08
727.124	29635.77
727.465	29444.14
727.807	29439.85
728.149	29211.15
728.491	29254.32
728.833	29330.25
729.175	29160.76
729.516	29243.02
729.858	29125.28
730.199	29186.97
730.541	29025.4
730.882	29003.47
731.224	29046.41
731.565	28907.21
731.906	28995.34
732.248	29013.19
732.589	28591.96
732.93	28641.9
733.271	28755.57
733.612	28793.99
733.953	28630.38
734.294	28531.17
734.635	28533.88
734.976	28574.33
735.317	28436.94
735.658	28459.08
735.999	28392.42
736.339	28307.67
736.68	28384.06
737.021	28329.14
737.361	28219.54
737.702	28341.35
738.042	28066.32
738.383	28116.49
738.723	28190.84
739.063	28006.21
739.404	28067.91
739.744	28042.37
740.084	27943.39
740.424	27976.61
740.764	27846.44
741.104	27900.68
741.444	27796.95
741.784	27716.95
742.124	27655.04
742.464	27671.53
742.804	27597.18
743.143	27476.51
743.483	27511.76
743.823	27459.11
744.162	27417.53
744.502	27449.17
744.841	27191.09
745.181	27456.62
745.52	27219.34
745.86	27323.52
746.199	27247.59
746.538	27079.46
746.877	27247.36
747.216	27152.9
747.556	27013.92
747.895	27081.72
748.234	26855.96
748.573	26885.34
748.911	26908.84
749.25	26890.31
749.589	26668.85
749.928	26740.71
750.267	26752.69
750.605	26602.18
750.944	26493.94
751.283	26493.03
751.621	26600.6
751.96	26353.37
752.298	26288.07
752.636	26353.37
752.975	26236.32
753.313	26066.6
753.651	26244
753.989	26168.52
754.327	26004.01
754.666	26011.69
755.004	25974.85
755.342	25951.13
755.679	25950.9
756.017	25674.52
756.355	25890.11
756.693	25719.49
757.031	25710.45
