Data from hue_20_FLMS001491_55.txt Node
Date: Mon Feb 06 15:34:19 GMT 2017
User: dcchb
Spectrometer: FLMS00149
Trigger mode: 0
Integration Time (sec): 2.000000E-2
Scans to average: 10
Electric dark correction enabled: true
Nonlinearity correction enabled: false
Boxcar width: 0
XAxis mode: Wavelengths
Number of Pixels in Spectrum: 2048
>>>>>Begin Spectral Data<<<<<
341.393	8.88
341.776	8.88
342.16	8.88
342.543	-52.81
342.927	-48.29
343.31	-57.78
343.693	-69.08
344.077	-71.11
344.46	-49.19
344.843	-67.72
345.226	-42.64
345.61	-27.5
345.993	-25.92
346.376	14.08
346.759	1.65
347.142	4.36
347.525	35.32
347.908	64.7
348.291	71.48
348.674	101.99
349.057	117.36
349.44	133.4
349.823	143.34
350.206	165.94
350.588	198.48
350.971	226.28
351.354	220.86
351.737	239.16
352.119	244.58
352.502	233.96
352.884	276.67
353.267	287.97
353.65	291.14
354.032	307.86
354.414	326.62
354.797	321.64
355.179	329.33
355.562	323.68
355.944	336.78
356.326	332.04
356.709	344.69
357.091	337.01
357.473	347.86
357.855	340.4
358.238	336.11
358.62	350.57
359.002	332.72
359.384	353.28
359.766	339.72
360.148	345.37
360.53	333.4
360.912	319.16
361.294	345.37
361.676	360.74
362.057	341.08
362.439	338.14
362.821	340.63
363.203	333.4
363.584	324.81
363.966	341.98
364.348	325.71
364.729	312.38
365.111	315.77
365.493	317.58
365.874	329.55
366.256	332.94
366.637	297.46
367.019	314.64
367.4	320.97
367.781	331.36
368.163	342.66
368.544	326.84
368.925	314.19
369.306	323.9
369.688	327.29
370.069	342.43
370.45	308.54
370.831	309.22
371.212	318.93
371.593	308.76
371.974	338.37
372.355	301.53
372.736	314.64
373.117	323.9
373.498	338.59
373.879	335.88
374.26	320.97
374.641	325.94
375.021	321.19
375.402	333.17
375.783	332.04
376.163	314.19
376.544	339.5
376.925	347.18
377.305	326.39
377.686	327.07
378.066	333.17
378.447	339.27
378.827	334.53
379.208	328.65
379.588	338.59
379.968	344.69
380.349	343.34
380.729	340.17
381.109	345.82
381.489	366.16
381.87	342.66
382.25	323.68
382.63	339.72
383.01	344.02
383.39	338.82
383.77	348.08
384.15	349.21
384.53	354.19
384.91	364.35
385.29	351.47
385.67	381.08
386.049	357.8
386.429	341.76
386.809	364.13
387.189	371.81
387.568	356.22
387.948	357.35
388.328	380.4
388.707	350.57
389.087	357.8
389.466	396.22
389.846	391.7
390.225	357.8
390.605	379.27
390.984	355.99
391.363	375.65
391.743	361.87
392.122	379.95
392.501	373.17
392.881	379.27
393.26	388.76
393.639	391.92
394.018	379.04
394.397	393.05
394.776	383.11
395.155	384.92
395.534	391.47
395.913	405.94
396.292	393.73
396.671	372.04
397.05	399.38
397.429	390.12
397.808	400.51
398.186	389.21
398.565	383.34
398.944	373.17
399.323	403.68
399.701	405.26
400.08	391.25
400.458	402.77
400.837	413.85
401.215	402.09
401.594	423.79
401.972	417.46
402.351	433.73
402.729	407.07
403.107	429.21
403.486	430.79
403.864	434.64
404.242	458.59
404.62	437.8
404.999	412.72
405.377	415.2
405.755	422.66
406.133	451.58
406.511	454.97
406.889	461.53
407.267	454.52
407.645	429.44
408.023	447.74
408.401	454.3
408.779	457.46
409.156	469.21
409.534	489.55
409.912	472.6
410.29	457.91
410.667	475.09
411.045	460.62
411.422	494.52
411.8	484.35
412.178	495.88
412.555	487.29
412.933	510.57
413.31	493.84
413.687	467.4
414.065	499.27
414.442	490.91
414.819	501.75
415.197	529.77
415.574	528.19
415.951	522.32
416.328	534.97
416.705	520.51
417.082	527.97
417.46	533.62
417.837	525.71
418.214	525.03
418.591	525.71
418.967	541.53
419.344	573.39
419.721	547.4
420.098	545.82
420.475	555.54
420.852	565.48
421.228	567.29
421.605	577.46
421.982	574.52
422.358	581.3
422.735	547.63
423.111	562.32
423.488	589.66
423.864	578.36
424.241	603.67
424.617	591.02
424.994	598.92
425.37	574.29
425.746	597.12
426.123	602.31
426.499	601.41
426.875	609.09
427.251	620.17
427.627	618.36
428.003	612.03
428.379	623.56
428.756	636.21
429.132	634.18
429.507	642.09
429.883	644.8
430.259	626.49
430.635	674.4
431.011	668.53
431.387	682.09
431.763	708.07
432.138	698.81
432.514	679.15
432.89	698.36
433.265	697.23
433.641	723.67
434.016	709.43
434.392	733.38
434.767	717.34
435.143	732.03
435.518	759.15
435.894	734.29
436.269	766.83
436.644	745.14
437.02	759.6
437.395	756.66
437.77	771.58
438.145	763.89
438.52	766.15
438.895	803.89
439.271	765.47
439.646	803.67
440.021	823.33
440.395	836.21
440.77	810.22
441.145	808.41
441.52	817.45
441.895	843.66
442.27	841.86
442.645	859.26
443.019	829.88
443.394	842.53
443.769	877.79
444.143	841.86
444.518	892.7
444.892	844.34
445.267	885.02
445.641	880.27
446.016	862.19
446.39	897
446.764	915.75
447.139	878.47
447.513	906.94
447.887	899.03
448.262	926.6
448.636	941.29
449.01	935.41
449.384	922.08
449.758	954.4
450.132	952.81
450.506	927.96
450.88	912.81
451.254	962.08
451.628	961.63
452.002	921.63
452.376	969.76
452.75	993.49
453.123	1007.05
453.497	1007.28
453.871	1016.32
454.244	1038.46
454.618	1043.43
454.992	1074.62
455.365	1035.07
455.739	1082.98
456.112	1070.32
456.486	1083.21
456.859	1077.56
457.232	1128.4
457.606	1118.69
457.979	1138.57
458.352	1138.35
458.725	1169.31
459.099	1132.7
459.472	1189.42
459.845	1179.93
460.218	1167.72
460.591	1218.12
460.964	1207.04
461.337	1230.32
461.71	1241.62
462.083	1265.35
462.456	1263.54
462.829	1263.31
463.201	1311.22
463.574	1306.93
463.947	1319.58
464.32	1329.53
464.692	1346.7
465.065	1379.02
465.438	1383.76
465.81	1384.67
466.183	1410.65
466.555	1438.22
466.928	1456.76
467.3	1444.55
467.672	1453.14
468.045	1535.17
468.417	1485.46
468.789	1508.51
469.161	1526.36
469.534	1574.49
469.906	1595.96
470.278	1598.67
470.65	1629.18
471.022	1648.84
471.394	1667.6
471.766	1703.98
472.138	1740.36
472.51	1744.43
472.882	1763.64
473.253	1790.08
473.625	1812
473.997	1845.45
474.369	1874.82
474.74	1884.54
475.112	1884.99
475.484	1978.78
475.855	1984.2
476.227	2006.12
476.598	2055.38
476.97	2071.2
477.341	2104.65
477.713	2151.43
478.084	2150.75
478.455	2287.92
478.827	2250.41
479.198	2327.24
479.569	2333.34
479.94	2412.44
480.311	2427.8
480.682	2485.43
481.053	2530.63
481.424	2594.8
481.795	2622.6
482.166	2658.53
482.537	2701.69
482.908	2783.05
483.279	2781.69
483.65	2860.56
484.021	2895.59
484.391	2923.38
484.762	2951.18
485.133	2971.97
485.503	3078.86
485.874	3100.78
486.244	3153.43
486.615	3195.69
486.985	3261
487.356	3287.44
487.726	3268.91
488.097	3420.32
488.467	3402.24
488.837	3500.77
489.207	3570.82
489.578	3611.5
489.948	3674.78
490.318	3729.24
490.688	3717.71
491.058	3797.48
491.428	3865.05
491.798	3862.79
492.168	3958.84
492.538	3986.18
492.908	4028.21
493.278	4093.52
493.648	4114.76
494.017	4152.28
494.387	4174.65
494.757	4232.5
495.126	4298.94
495.496	4246.06
495.866	4327.19
496.235	4364.02
496.605	4444.7
496.974	4468.2
497.344	4526.51
497.713	4480.86
498.082	4612.83
498.452	4649.67
498.821	4630.46
499.19	4665.03
499.559	4729.21
499.928	4788.19
500.298	4815.31
500.667	4853.28
501.036	4832.03
501.405	4855.54
501.774	4868.42
502.143	4902.31
502.512	4969.21
502.88	5008.53
503.249	4967.85
503.618	5048.07
503.987	5093.95
504.356	5052.14
504.724	5084.91
505.093	5108.64
505.462	5190.22
505.83	5173.27
506.199	5264.56
506.567	5289.65
506.936	5300.27
507.304	5328.97
507.672	5350.89
508.041	5384.79
508.409	5428.85
508.777	5439.7
509.145	5487.84
509.514	5469.31
509.882	5531.45
510.25	5556.31
510.618	5559.02
510.986	5570.09
511.354	5619.36
511.722	5731.67
512.09	5654.16
512.458	5777.32
512.826	5747.94
513.193	5817.09
513.561	5815.28
513.929	5879.46
514.297	5893.25
514.664	5844.89
515.032	5889.63
515.4	5972.12
515.767	5999.69
516.135	6033.36
516.502	5962.4
516.869	6100.02
517.237	6097.99
517.604	6053.92
517.972	6151.32
518.339	6217.08
518.706	6203.07
519.073	6218.89
519.44	6232.9
519.808	6386.34
520.175	6275.61
520.542	6397.87
520.909	6362.84
521.276	6395.61
521.643	6484.87
522.009	6486.23
522.376	6539.33
522.743	6536.62
523.11	6630.63
523.477	6677.18
523.843	6688.93
524.21	6773.23
524.577	6764.41
524.943	6778.65
525.31	6884.86
525.676	6889.61
526.043	6974.58
526.409	6980.45
526.776	6981.13
527.142	7038.76
527.508	7100.45
527.874	7088.47
528.241	7162.14
528.607	7179.09
528.973	7281.24
529.339	7256.6
529.705	7276.49
530.071	7374.34
530.437	7410.95
530.803	7484.85
531.169	7464.51
531.535	7466.54
531.901	7526.65
532.267	7616.82
532.632	7632.86
532.998	7610.04
533.364	7643.26
533.73	7715.12
534.095	7794.44
534.461	7769.13
534.826	7808
535.192	7864.27
535.557	7893.87
535.923	7880.77
536.288	7961.44
536.653	8037.37
537.019	8001.44
537.384	8051.84
537.749	8105.39
538.114	8057.71
538.479	8137.48
538.845	8106.52
539.21	8147.88
539.575	8200.08
539.94	8193.53
540.305	8295.9
540.67	8310.36
541.034	8327.76
541.399	8367.99
541.764	8317.14
542.129	8403.92
542.494	8419.96
542.858	8490.92
543.223	8529.79
543.587	8544.48
543.952	8513.75
544.316	8576.12
544.681	8645.94
545.045	8654.76
545.41	8688.66
545.774	8780.18
546.138	8800.52
546.503	8789.22
546.867	8838.48
547.231	8918.93
547.595	8875.09
547.959	8957.8
548.324	8996.67
548.688	8961.64
549.052	8964.35
549.416	9076.22
549.779	9065.14
550.143	9112.37
550.507	9176.78
550.871	9233.05
551.235	9208.64
551.599	9230.79
551.962	9272.82
552.326	9360.5
552.689	9331.58
553.053	9353.95
553.417	9391.01
553.78	9487.28
554.143	9390.33
554.507	9425.59
554.87	9513.04
555.234	9533.38
555.597	9527.05
555.96	9575.41
556.323	9635.07
556.686	9608.63
557.05	9742.41
557.413	9796.42
557.776	9757.55
558.139	9851.34
558.502	9841.39
558.865	9927.27
559.228	9900.38
559.59	9952.13
559.953	9930.66
560.316	10051.78
560.679	9996.19
561.041	10131.1
561.404	10205.23
561.767	10207.49
562.129	10221.95
562.492	10355.28
562.854	10284.09
563.217	10247.26
563.579	10367.93
563.941	10428.27
564.304	10457.2
564.666	10445.67
565.028	10560.47
565.39	10574.71
565.753	10558.66
566.115	10633.92
566.477	10745.78
566.839	10670.3
567.201	10776.06
567.563	10749.62
567.925	10841.14
568.287	10863.06
568.648	10960.46
569.01	11005.2
569.372	10957.3
569.734	10961.82
570.095	11152.32
570.457	11144.18
570.819	11140.34
571.18	11259.89
571.542	11307.8
571.903	11263.05
572.265	11359.09
572.626	11450.17
572.987	11458.53
573.349	11508.92
573.71	11531.52
574.071	11573.78
574.432	11658.3
574.794	11739.42
575.155	11696.71
575.516	11770.83
575.877	11894
576.238	11983.26
576.599	12033.88
576.96	12135.34
577.32	12173.54
577.681	12248.79
578.042	12342.57
578.403	12435.68
578.763	12437.71
579.124	12606.74
579.485	12632.51
579.845	12759.28
580.206	12818.49
580.566	12910.01
580.927	13020.07
581.287	13232.49
581.648	13272.04
582.008	13424.8
582.368	13512.71
582.728	13723.55
583.089	13778.24
583.449	13926.94
583.809	14076.54
584.169	14232.92
584.529	14337.32
584.889	14608.05
585.249	14707.48
585.609	14815.73
585.969	15034.93
586.329	15134.59
586.688	15497.52
587.048	15537.97
587.408	15816.83
587.768	15971.85
588.127	16135.47
588.487	16371.62
588.846	16783.81
589.206	16787.43
589.565	17102.45
589.925	17428.54
590.284	17583.79
590.643	17846.38
591.003	18269.87
591.362	18366.82
591.721	18640.94
592.08	18845.22
592.44	19236.17
592.799	19512.33
593.158	19778.53
593.517	20001.58
593.876	20322.93
594.235	20516.59
594.593	20886.53
594.952	21208.55
595.311	21360.64
595.67	21640.41
596.029	22103.9
596.387	22363.1
596.746	22727.83
597.104	22839.47
597.463	23099.12
597.822	23479.91
598.18	23826.79
598.538	23974.58
598.897	24470.61
599.255	24492.31
599.613	25243.7
599.972	25395.56
600.33	25708.1
600.688	25775.66
601.046	26253.84
601.404	26537
601.762	26852.92
602.12	27151.45
602.478	27503.53
602.836	27729.29
603.194	27857.64
603.552	28263.73
603.91	28332.43
604.268	28643.84
604.625	28887.45
604.983	29477.94
605.341	29445.4
605.698	29812.62
606.056	30217.36
606.413	30320.63
606.771	30628.87
607.128	30946.83
607.485	31092.13
607.843	31277.67
608.2	31657.09
608.557	31929.63
608.914	32095.95
609.272	32503.62
609.629	32724.86
609.986	33004.85
610.343	33046.66
610.7	33497.04
611.057	33752.18
611.414	33876.24
611.771	33975
612.127	34309.9
612.484	34516.68
612.841	34758.25
613.198	34784.92
613.554	35126.83
613.911	35482.98
614.267	35516.65
614.624	35605.91
614.98	35818.79
615.337	36208.84
615.693	36271.43
616.05	36331.09
616.406	36744.87
616.762	36602.72
617.118	36813.57
617.475	37018.08
617.831	37205.87
618.187	37486.32
618.543	37470.05
618.899	37796.36
619.255	37919.75
619.611	37910.26
619.967	38244.49
620.323	38442.45
620.678	38393.19
621.034	38421.66
621.39	38567.64
621.746	38705.27
622.101	39130.79
622.457	38861.42
622.812	39068.42
623.168	39183.45
623.523	39504.34
623.879	39597
624.234	39390.67
624.589	39723.32
624.945	39810.78
625.3	39877.67
625.655	40053.93
626.01	39963.99
626.365	39999.47
626.72	40156.98
627.075	40147.72
627.43	40120.6
627.785	40206.7
628.14	40360.82
628.495	40425.45
628.85	40436.07
629.205	40427.03
629.559	40704.76
629.914	40573.92
630.269	40720.81
630.623	40607.14
630.978	40556.07
631.332	40822.27
631.687	40973.23
632.041	40821.82
632.396	40973.23
632.75	40913.35
633.104	40854.82
633.459	40704.31
633.813	40910.18
634.167	40871.09
634.521	40854.14
634.875	40928.49
635.229	40956.73
635.583	40808.94
635.937	40772.56
636.291	40805.55
636.645	40972.33
636.999	40840.35
637.352	40907.02
637.706	40637.19
638.06	40894.81
638.413	40834.7
638.767	40725.1
639.121	40850.75
639.474	40638.1
639.828	40714.03
640.181	40806.68
640.534	40728.27
640.888	40723.97
641.241	40639.91
641.594	40680.13
641.947	40815.27
642.301	40757.64
642.654	40740.02
643.007	40678.55
643.36	40815.27
643.713	40665.22
644.066	40795.61
644.419	40711.99
644.771	40252.57
645.124	40069.3
645.477	40023.2
645.83	39798.12
646.182	39587.28
646.535	39462.31
646.888	39613.27
647.24	39456.66
647.593	39621.85
647.945	39625.47
648.298	39300.51
648.65	39378.92
649.002	39176.44
649.355	39488.52
649.707	39476.55
650.059	39499.82
650.411	40013.26
650.763	39986.14
651.115	40270.88
651.467	40236.53
651.819	40253.02
652.171	40231.56
652.523	40242.63
652.875	40149.07
653.227	40041.5
653.578	40411.89
653.93	40186.81
654.282	40133.25
654.633	39836.31
654.985	40124.21
655.337	39980.04
655.688	40070.43
656.039	40215.74
656.391	39845.12
656.742	40011.45
657.094	40042.41
657.445	39955.18
657.796	40011.9
658.147	39916.31
658.498	40017.32
658.849	39966.93
659.2	39848.51
659.551	39784.11
659.902	40054.61
660.253	39909.76
660.604	39883.32
660.955	39688.29
661.306	39921.05
661.656	39818.46
662.007	39875.63
662.358	39693.26
662.708	39829.31
663.059	39954.27
663.409	39706.15
663.76	39785.92
664.11	39704.56
664.461	39861.85
664.811	39879.02
665.161	39740.27
665.511	39683.09
665.862	39842.64
666.212	39855.07
666.562	39904.78
666.912	39665.47
667.262	39737.78
667.612	39619.82
667.962	39657.56
668.312	39691.46
668.662	39813.49
669.011	39750.89
669.361	39659.37
669.711	39714.51
670.06	39630.22
670.41	39593.61
670.76	39423.21
671.109	39554.51
671.459	39609.88
671.808	39588.41
672.157	39624.11
672.507	39364.46
672.856	39355.87
673.205	39527.84
673.554	39572.14
673.904	39405.14
674.253	39614.62
674.602	39469.32
674.951	39041.08
675.3	38648.32
675.649	39211.47
675.998	39297.34
676.346	39420.28
676.695	39310.45
677.044	39135.76
677.393	39204.92
677.741	39237.91
678.09	39234.97
678.438	39051.93
678.787	39286.95
679.135	39147.97
679.484	38887.41
679.832	39144.35
680.181	38861.87
680.529	39000.85
680.877	38811.71
681.225	38886.51
681.573	39007.41
681.922	38689.22
682.27	38581.43
682.618	38593.18
682.966	38498.95
683.314	38576.46
683.661	38480.87
684.009	38299.63
684.357	38202
684.705	38285.84
685.053	38260.99
685.4	38307.99
685.748	38009.24
686.095	37987.09
686.443	37867.32
686.79	37856.48
687.138	37891.5
687.485	37881.79
687.832	37820.55
688.18	37758.17
688.527	37624.84
688.874	37546.88
689.221	37496.71
689.568	37327.45
689.915	37192.76
690.262	37306.89
690.609	37186.44
690.956	37051.3
691.303	36995.48
691.65	36824.87
691.997	36853.11
692.344	36536.29
692.69	36573.8
693.037	36614.48
693.383	36414.93
693.73	36494.48
694.077	36359.79
694.423	36294.71
694.769	36136.75
695.116	36061.95
695.462	36018.78
695.808	35905.12
696.155	36055.85
696.501	35722.75
696.847	35705.57
697.193	35465.35
697.539	35565.01
697.885	35375.41
698.231	35280.05
698.577	35273.72
698.923	35145.81
699.269	35123.67
699.614	34822.88
699.96	34848.42
700.306	34876.22
700.651	34725.94
700.997	34506.06
701.342	34426.51
701.688	34447.75
702.033	34287.08
702.379	34309
702.724	34207.53
703.069	34249.79
703.415	33793.31
703.76	33952.85
704.105	33855.45
704.45	33828.11
704.795	33627.89
705.14	33524.61
705.485	33651.84
705.83	33527.32
706.175	33363.04
706.52	33322.58
706.865	33244.85
707.209	33115.81
707.554	33064.06
707.899	33074.68
708.243	32931.41
708.588	32909.26
708.932	32643.28
709.277	32710.4
709.621	32692.77
709.966	32421.82
710.31	32549.05
710.654	32292.78
710.998	32324.64
711.342	32215.49
711.687	32192.9
712.031	32119.9
712.375	31963.07
712.719	31948.61
713.063	31926.46
713.407	31904.99
713.75	31811.89
714.094	31744.09
714.438	31607.38
714.782	31659.8
715.125	31544.1
715.469	31642.4
715.812	31463.2
716.156	31273.6
716.499	31337.33
716.843	31423.88
717.186	31098.01
717.53	31352.47
717.873	31247.61
718.216	31203.32
718.559	31011.23
718.902	30880.61
719.246	30985.02
719.589	30854.85
719.932	30765.14
720.275	30792.26
720.617	30653.28
720.96	30612.37
721.303	30626.38
721.646	30498.93
721.989	30373.28
722.331	30517.01
722.674	30410.34
723.016	30466.39
723.359	30344.13
723.701	30231.37
724.044	30152.5
724.386	29904.82
724.729	30156.34
725.071	30072.73
725.413	30006.97
725.755	29967.64
726.097	29850.59
726.439	29723.13
726.782	29684.71
727.124	29796.35
727.465	29783.92
727.807	29625.73
728.149	29538.73
728.491	29591.16
728.833	29677.48
729.175	29465.74
729.516	29420.31
729.858	29372.41
730.199	29380.09
730.541	29322.69
730.882	29358.17
731.224	29320.43
731.565	29104.62
731.906	29270.26
732.248	29214.22
732.589	28945.52
732.93	28966.54
733.271	28924.28
733.612	28959.99
733.953	28980.55
734.294	28896.94
734.635	28706.21
734.976	28748.47
735.317	28697.85
735.658	28624.85
735.999	28615.14
736.339	28597.96
736.68	28730.39
737.021	28578.3
737.361	28474.8
737.702	28597.51
738.042	28510.96
738.383	28422.6
738.723	28402.04
739.063	28291.53
739.404	28442.49
739.744	28261.02
740.084	28206.79
740.424	28304.86
740.764	28104.87
741.104	28220.8
741.444	27977.19
741.784	27959.79
742.124	27995.04
742.464	27913.69
742.804	27896.96
743.143	27877.3
743.483	27903.52
743.823	27776.06
744.162	27725.67
744.502	27780.81
744.841	27631.66
745.181	27771.09
745.52	27567.26
745.86	27614.94
746.199	27531.78
746.538	27539.91
746.877	27516.18
747.216	27418.11
747.556	27404.32
747.895	27269.64
748.234	27317.09
748.573	27209.75
748.911	27147.83
749.25	27222.41
749.589	27119.58
749.928	27087.04
750.267	27198.45
750.605	26998.46
750.944	26937.44
751.283	26989.87
751.621	26969.98
751.96	26821.29
752.298	26728.63
752.636	26924.79
752.975	26726.83
753.313	26652.03
753.651	26729.09
753.989	26624.23
754.327	26613.83
754.666	26378.81
755.004	26453.61
755.342	26446.61
755.679	26349.89
756.017	26287.52
756.355	26323.22
756.693	26170.46
757.031	26203
757.368	26099.05
757.706	25978.6
758.044	25921.65
758.381	25901.31
758.719	25877.58
759.056	25898.6
759.394	25708.32
