Data from hue_38_FLMS001491_00069.txt Node
Date: Tue Feb 07 17:31:50 GMT 2017
User: dcchb
Spectrometer: FLMS00149
Trigger mode: 0
Integration Time (sec): 2.000000E-2
Scans to average: 10
Electric dark correction enabled: true
Nonlinearity correction enabled: false
Boxcar width: 0
XAxis mode: Wavelengths
Number of Pixels in Spectrum: 2048
>>>>>Begin Spectral Data<<<<<
341.393	-7.87
341.776	-7.87
342.16	-7.87
342.543	-64.36
342.927	-58.04
343.31	-72.5
343.693	-68.88
344.077	-86.06
344.46	-63.23
344.843	-28.43
345.226	-38.83
345.61	-19.84
345.993	-16.68
346.376	13.6
346.759	-14.87
347.142	14.28
347.525	44.11
347.908	64.67
348.291	74.39
348.674	91.11
349.057	107.16
349.44	133.15
349.823	138.34
350.206	166.59
350.588	209.3
350.971	219.7
351.354	216.08
351.737	231
352.119	241.84
352.502	264.89
352.884	263.76
353.267	280.04
353.65	311.22
354.032	306.02
354.414	306.47
354.797	303.31
355.179	330.88
355.562	320.71
355.944	327.94
356.326	326.36
356.709	342.18
357.091	341.28
357.473	339.92
357.855	345.34
358.238	368.17
358.62	350.09
359.002	341.05
359.384	355.74
359.766	351.45
360.148	339.47
360.53	332.24
360.912	343.08
361.294	343.31
361.676	331.11
362.057	332.01
362.439	340.6
362.821	330.66
363.203	352.35
363.584	332.69
363.966	315.29
364.348	330.66
364.729	302.86
365.111	340.15
365.493	317.1
365.874	302.86
366.256	307.38
366.637	328.85
367.019	328.4
367.4	324.78
367.781	322.97
368.163	328.62
368.544	309.86
368.925	315.06
369.306	323.88
369.688	329.3
370.069	318
370.45	334.27
370.831	318.23
371.212	325.01
371.593	318.68
371.974	325.68
372.355	302.86
372.736	327.27
373.117	305.57
373.498	304.67
373.879	306.93
374.26	307.83
374.641	324.78
375.021	313.71
375.402	332.46
375.783	338.34
376.163	329.53
376.544	333.82
376.925	338.11
377.305	341.95
377.686	320.26
378.066	318.23
378.447	316.64
378.827	350.32
379.208	350.09
379.588	344.67
379.968	332.91
380.349	325.23
380.729	344.44
381.109	334.5
381.489	342.86
381.87	349.86
382.25	329.53
382.63	358
383.01	351.9
383.39	343.08
383.77	366.81
384.15	338.11
384.53	340.82
384.91	368.39
385.29	342.86
385.67	350.09
386.049	355.29
386.429	338.56
386.809	365.68
387.189	350.54
387.568	349.19
387.948	373.82
388.328	368.17
388.707	357.55
389.087	362.29
389.466	359.13
389.846	362.52
390.225	370.2
390.605	360.71
390.984	380.37
391.363	391.22
391.743	371.56
392.122	377.21
392.501	374.5
392.881	385.57
393.26	380.37
393.639	381.73
394.018	380.82
394.397	364.78
394.776	410.65
395.155	390.77
395.534	398.9
395.913	399.81
396.292	400.94
396.671	397.77
397.05	397.55
397.429	407.49
397.808	386.92
398.186	400.48
398.565	398.9
398.944	399.35
399.323	407.94
399.701	400.26
400.08	407.72
400.458	394.16
400.837	395.06
401.215	420.37
401.594	409.98
401.972	428.05
402.351	403.42
402.729	426.47
403.107	414.49
403.486	422.63
403.864	424.21
404.242	443.87
404.62	441.84
404.999	441.39
405.377	414.04
405.755	434.16
406.133	440.26
406.511	433.25
406.889	447.04
407.267	452.23
407.645	434.16
408.023	427.15
408.401	459.01
408.779	445.45
409.156	478.9
409.534	447.04
409.912	470.09
410.29	439.8
410.667	482.97
411.045	484.78
411.422	506.24
411.8	497.43
412.178	508.05
412.555	485.91
412.933	485.23
413.31	499.92
413.687	508.96
414.065	501.72
414.442	518.67
414.819	529.97
415.197	534.49
415.574	536.3
415.951	530.65
416.328	513.02
416.705	532.91
417.082	507.6
417.46	517.32
417.837	540.37
418.214	523.64
418.591	539.46
418.967	517.32
419.344	545.79
419.721	544.21
420.098	533.36
420.475	554.38
420.852	593.93
421.228	561.38
421.605	561.84
421.982	563.64
422.358	551.67
422.735	567.94
423.111	551.67
423.488	578.33
423.864	581.27
424.241	572.91
424.617	584.66
424.994	579.24
425.37	577.2
425.746	597.31
426.123	589.18
426.499	619.46
426.875	608.39
427.251	624.66
427.627	639.12
428.003	620.82
428.379	618.11
428.756	641.38
429.132	640.93
429.507	655.84
429.883	638.9
430.259	659.01
430.635	670.08
431.011	661.95
431.387	655.62
431.763	681.61
432.138	679.57
432.514	700.59
432.89	705.56
433.265	694.49
433.641	704.43
434.016	711.89
434.392	730.42
434.767	719.8
435.143	718.44
435.518	771.32
435.894	760.02
436.269	751.89
436.644	740.59
437.02	786.91
437.395	751.89
437.77	761.38
438.145	752.79
438.52	810.87
438.895	782.62
439.271	797.76
439.646	786.24
440.021	813.35
440.395	798.67
440.77	811.09
441.145	825.33
441.52	842.05
441.895	837.76
442.27	844.77
442.645	835.95
443.019	798.21
443.394	836.4
443.769	860.36
444.143	828.04
444.518	837.08
444.892	852.9
445.267	873.47
445.641	856.52
446.016	836.18
446.39	877.08
446.764	905.56
447.139	922.96
447.513	895.16
447.887	892.9
448.262	898.1
448.636	920.7
449.01	927.93
449.384	920.47
449.758	922.96
450.132	924.76
450.506	934.71
450.88	932.22
451.254	943.52
451.628	991.88
452.002	979
452.376	977.19
452.75	996.85
453.123	1014.48
453.497	998.21
453.871	997.98
454.244	1024.2
454.618	1063.52
454.992	1052.44
455.365	1070.3
455.739	1086.12
456.112	1097.41
456.486	1106
456.859	1081.37
457.232	1090.86
457.606	1132.89
457.979	1139
458.352	1144.42
458.725	1142.39
459.099	1181.71
459.472	1201.14
459.845	1169.05
460.218	1228.71
460.591	1227.81
460.964	1208.15
461.337	1276.62
461.71	1301.03
462.083	1291.53
462.456	1296.51
462.829	1294.7
463.201	1343.96
463.574	1339.22
463.947	1346.9
464.32	1360.68
464.692	1388.48
465.065	1425.32
465.438	1436.16
465.81	1398.2
466.183	1446.56
466.555	1475.94
466.928	1500.12
467.3	1498.53
467.672	1523.39
468.045	1579.21
468.417	1564.75
468.789	1584.63
469.161	1603.84
469.534	1645.65
469.906	1653.78
470.278	1698.75
470.65	1693.11
471.022	1781.69
471.394	1807
471.766	1815.81
472.138	1809.49
472.51	1839.54
472.882	1910.05
473.253	1944.17
473.625	1956.6
473.997	1997.05
474.369	2040.21
474.74	2059.2
475.112	2107.78
475.484	2150.49
475.855	2216.48
476.227	2239.53
476.598	2306.65
476.97	2344.61
477.341	2396.59
477.713	2493.99
478.084	2452.86
478.455	2542.35
478.827	2650.82
479.198	2674.32
479.569	2754.55
479.94	2820.08
480.311	2858.5
480.682	2921.1
481.053	3023.01
481.424	3100.53
481.795	3180.52
482.166	3223.69
482.537	3321.76
482.908	3416.9
483.279	3445.38
483.65	3566.5
484.021	3657.8
484.391	3717.23
484.762	3786.38
485.133	3894.4
485.503	3954.51
485.874	4050.33
486.244	4135.75
486.615	4204.9
486.985	4374.62
487.356	4424.33
487.726	4487.83
488.097	4639.24
488.467	4698.45
488.837	4843.08
489.207	4945
489.578	5054.6
489.948	5117.2
490.318	5276.74
490.688	5325.33
491.058	5476.51
491.428	5598.77
491.798	5654.81
492.168	5769.38
492.538	5896.16
492.908	5977.96
493.278	6105.42
493.648	6139.99
494.017	6307.67
494.387	6414.79
494.757	6457.73
495.126	6643.26
495.496	6671.28
495.866	6766.87
496.235	6809.13
496.605	6992.17
496.974	7051.61
497.344	7138.61
497.713	7249.12
498.082	7383.13
498.452	7479.17
498.821	7525.72
499.19	7614.31
499.559	7683.23
499.928	7768.43
500.298	7853.4
500.667	8003.9
501.036	8051.81
501.405	8184.46
501.774	8189.88
502.143	8339.48
502.512	8344.91
502.88	8531.8
503.249	8541.96
503.618	8665.8
503.987	8740.6
504.356	8746.48
504.724	8870.77
505.093	8912.35
505.462	8962.07
505.83	9031.9
506.199	9125
506.567	9270.99
506.936	9334.49
507.304	9446.35
507.672	9470.3
508.041	9529.74
508.409	9661.26
508.777	9739.67
509.145	9774.7
509.514	9874.81
509.882	9953.9
510.25	9974.24
510.618	10052.66
510.986	10117.52
511.354	10199.55
511.722	10331.97
512.09	10423.27
512.458	10398.19
512.826	10543.27
513.193	10594.11
513.561	10658.29
513.929	10649.93
514.297	10807.22
514.664	10919.3
515.032	10920.21
515.4	11009.02
515.767	11116.59
516.135	11215.57
516.502	11082.46
516.869	11230.03
517.237	11345.73
517.604	11331.95
517.972	11402.68
518.339	11477.48
518.706	11552.06
519.073	11587.99
519.44	11759.06
519.808	11805.38
520.175	11786.17
520.542	11985.94
520.909	11990.91
521.276	12037.69
521.643	12157.69
522.009	12236.1
522.376	12362.43
522.743	12458.7
523.11	12495.08
523.477	12584.34
523.843	12625.02
524.21	12859.14
524.577	12975.29
524.943	12954.73
525.31	13107.95
525.676	13145.01
526.043	13220.94
526.409	13239.24
526.776	13391.33
527.142	13470.42
527.508	13499.8
527.874	13537.09
528.241	13675.39
528.607	13670.19
528.973	13831.32
529.339	13863.86
529.705	13972.56
530.071	14112.89
530.437	14123.74
530.803	14340.91
531.169	14320.12
531.535	14249.16
531.901	14335.94
532.267	14501.13
532.632	14513.56
532.998	14552.2
533.364	14661.13
533.73	14809.37
534.095	14876.94
534.461	14911.97
534.826	15001.23
535.192	15004.39
535.557	15204.84
535.923	15200.32
536.288	15110.38
536.653	15312.18
537.019	15287.32
537.384	15285.97
537.749	15390.37
538.114	15461.33
538.479	15423.82
538.845	15590.14
539.21	15626.07
539.575	15685.73
539.94	15780.42
540.305	15838.04
540.67	15851.83
541.034	15909
541.399	15992.39
541.764	16069.9
542.129	16129.56
542.494	16155.55
542.858	16235.32
543.223	16232.84
543.587	16370.23
543.952	16429.21
544.316	16383.57
544.681	16491.59
545.045	16558.48
545.41	16657.46
545.774	16709.21
546.138	16755.31
546.503	16849.32
546.867	16762.54
547.231	17002.31
547.595	17016.77
547.959	17128.63
548.324	17056.32
548.688	17198.46
549.052	17304.67
549.416	17359.81
549.779	17378.79
550.143	17316.2
550.507	17426.48
550.871	17486.14
551.235	17491.79
551.599	17683.19
551.962	17703.08
552.326	17653.59
552.689	17852
553.053	17780.82
553.417	17751.89
553.78	18070.75
554.143	18032.34
554.507	18103.75
554.87	18172.22
555.234	18331.09
555.597	18294.93
555.96	18231.88
556.323	18414.25
556.686	18464.19
557.05	18586.45
557.413	18588.71
557.776	18653.11
558.139	18804.29
558.502	18812.43
558.865	18901.01
559.228	18927.23
559.59	19075.25
559.953	18963.61
560.316	19261.91
560.679	19282.47
561.041	19292.19
561.404	19292.87
561.767	19524.5
562.129	19495.35
562.492	19704.16
562.854	19612.41
563.217	19707.09
563.579	19741.9
563.941	19821.44
564.304	19957.94
564.666	20032.28
565.028	20077.03
565.39	20159.96
565.753	20265.72
566.115	20259.85
566.477	20329.45
566.839	20426.85
567.201	20543.68
567.563	20666.84
567.925	20845.37
568.287	20791.59
568.648	20836.33
569.01	21011.02
569.372	21018.92
569.734	20997.68
570.095	21257.11
570.457	21212.59
570.819	21264.79
571.18	21445.13
571.542	21549.53
571.903	21554.05
572.265	21596.31
572.626	21855.06
572.987	21917.43
573.349	21931.67
573.71	21912.91
574.071	22128.95
574.432	22218.22
574.794	22326.91
575.155	22403.97
575.516	22447.14
575.877	22609.17
576.238	22633.8
576.599	22794.02
576.96	22954.69
577.32	22961.25
577.681	23046.67
578.042	23300.9
578.403	23353.33
578.763	23526.2
579.124	23691.62
579.485	23894.33
579.845	23970.94
580.206	24124.38
580.566	24221.33
580.927	24403.92
581.287	24589.68
581.648	24638.49
582.008	24989.22
582.368	24976.56
582.728	25304.69
583.089	25365.48
583.449	25506.04
583.809	25656.54
584.169	25955.29
584.529	26054.27
584.889	26390.08
585.249	26349.86
585.609	26515.05
585.969	26962.95
586.329	27019.22
586.688	27165.88
587.048	27400.23
587.408	27460.11
587.768	27767
588.127	27838.18
588.487	28155.46
588.846	28497.37
589.206	28491.72
589.565	28787.08
589.925	29140.07
590.284	29261.65
590.643	29497.12
591.003	29740.96
591.362	29952.93
591.721	30083.55
592.08	30297.1
592.44	30520.82
592.799	30686.24
593.158	30839.46
593.517	31135.72
593.876	31311.08
594.235	31433.79
594.593	31762.37
594.952	32034.23
595.311	32089.82
595.67	32331.4
596.029	32786.52
596.387	32852.74
596.746	33339.28
597.104	33127.31
597.463	33360.75
597.822	33676.9
598.18	33758.02
598.538	33911.02
598.897	34311.23
599.255	34087.96
599.613	34829.64
599.972	34740.15
600.33	35052.91
600.688	34858.56
601.046	35359.56
601.404	35557.75
601.762	35694.25
602.12	36032.54
602.478	36053.56
602.836	36271.63
603.194	36214.46
603.552	36641.79
603.91	36613.09
604.268	36866.42
604.625	36912.97
604.983	37152.51
605.341	37279.97
605.698	37376.69
606.056	37613.29
606.413	37719.5
606.771	37921.53
607.128	38008.53
607.485	38009.66
607.843	38201.52
608.2	38456.88
608.557	38624.56
608.914	38663.66
609.272	38943.2
609.629	39174.15
609.986	39379.35
610.343	39161.95
610.7	39582.05
611.057	39573.92
611.414	39740.24
611.771	39902.95
612.127	40044.41
612.484	40181.58
612.841	40390.17
613.198	40398.98
613.554	40348.36
613.911	40679.88
614.267	40730.04
614.624	40928.46
614.98	40958.29
615.337	41211.61
615.693	41125.97
616.05	41227.88
616.406	41524.6
616.762	41390.37
617.118	41559.18
617.475	41599.85
617.831	41820.19
618.187	41991.71
618.543	41977.92
618.899	42213.4
619.255	42149.22
619.611	42180.18
619.967	42466.27
620.323	42493.61
620.678	42333.39
621.034	42350.34
621.39	42419.72
621.746	42503.78
622.101	42971.79
622.457	42651.35
622.812	42855.86
623.168	42993.49
623.523	42807.5
623.879	43242.07
624.234	42788.3
624.589	43193.03
624.945	43087.27
625.3	43237.1
625.655	43202.07
626.01	43308.73
626.365	43380.82
626.72	43347.6
627.075	43370.43
627.43	43480.71
627.785	43351.44
628.14	43512.57
628.495	43467.37
628.85	43377.21
629.205	43345.57
629.559	43621.49
629.914	43427.15
630.269	43517.32
630.623	43444.32
630.978	43408.17
631.332	43488.39
631.687	43755.95
632.041	43434.38
632.396	43798.66
632.75	43547.15
633.104	43629.63
633.459	43407.26
633.813	43434.38
634.167	43577.2
634.521	43456.53
634.875	43506.02
635.229	43456.07
635.583	43422.86
635.937	43367.72
636.291	43394.83
636.645	43414.49
636.999	43413.82
637.352	43440.26
637.706	43104.22
638.06	43447.94
638.413	43263.54
638.767	43135.63
639.121	43346.25
639.474	43111.45
639.828	43260.83
640.181	43183.31
640.534	43242.75
640.888	43062.86
641.241	43009.98
641.594	43016.99
641.947	43213.82
642.301	43086.37
642.654	43044.11
643.007	43203.43
643.36	43046.37
643.713	43119.81
644.066	43122.75
644.419	42845.24
644.771	42707.17
645.124	42146.5
645.477	42348.08
645.83	42058.82
646.182	41848.43
646.535	41782.22
646.888	41917.13
647.24	41798.49
647.593	41941.54
647.945	41821.09
648.298	41676.46
648.65	41589.91
649.002	41553.53
649.355	41720.75
649.707	41606.18
650.059	41835.78
650.411	42261.53
650.763	42428.31
651.115	42595.31
651.467	42469.21
651.819	42532.03
652.171	42443.22
652.523	42363.22
652.875	42329.32
653.227	42130.01
653.578	42382.43
653.93	42393.28
654.282	42155.77
654.633	42119.39
654.985	42141.08
655.337	42381.07
655.688	42179.95
656.039	42413.39
656.391	42003.91
656.742	42144.92
657.094	42143.57
657.445	42288.65
657.796	42433.95
658.147	42147.86
658.498	42179.27
658.849	42157.8
659.2	42118.93
659.551	42100.86
659.902	42231.47
660.253	42162.32
660.604	42194.87
660.955	41970.92
661.306	42119.84
661.656	42024.93
662.007	42003.01
662.358	42082.55
662.708	42054.98
663.059	41996
663.409	41892.27
663.76	42132.04
664.11	42069.22
664.461	42123
664.811	41993.51
665.161	42027.86
665.511	41970.69
665.862	41838.26
666.212	41947.41
666.562	42032.38
666.912	41792.84
667.262	41818.38
667.612	41739.96
667.962	42012.5
668.312	41851.15
668.662	42045.72
669.011	41848.43
669.361	41813.18
669.711	41895.44
670.06	41723.47
670.41	41732.5
670.76	41632.17
671.109	41956.91
671.459	41720.75
671.808	41722.34
672.157	41856.79
672.507	41577.48
672.856	41613.19
673.205	41594.43
673.554	41825.16
673.904	41537.93
674.253	41824.71
674.602	41682.79
674.951	41183.37
675.3	40984.73
675.649	41405.96
675.998	41505.62
676.346	41487.09
676.695	41677.59
677.044	41385.17
677.393	41496.13
677.741	41426.52
678.09	41510.59
678.438	41279.63
678.787	41280.09
679.135	41456.13
679.484	41190.15
679.832	41283.25
680.181	41014.56
680.529	41146.76
680.877	41036.48
681.225	40817.95
681.573	41086.19
681.922	40987.21
682.27	40791.29
682.618	40841.23
682.966	40665.87
683.314	40652.31
683.661	40687.33
684.009	40564.17
684.357	40396.72
684.705	40276.27
685.053	40347.46
685.4	40331.86
685.748	40156.05
686.095	40309.94
686.443	39955.6
686.79	39864.53
687.138	40132.32
687.485	40037.86
687.832	39843.51
688.18	39960.57
688.527	39727.81
688.874	39686.68
689.221	39631.54
689.568	39600.81
689.915	39485.56
690.262	39627.47
690.609	39378.89
690.956	39239.91
691.303	39249.41
691.65	39114.49
691.997	38966.93
692.344	38769.87
692.69	38724.22
693.037	38865.69
693.383	38413.04
693.73	38652.13
694.077	38415.98
694.423	38519.26
694.769	38359.71
695.116	38177.12
695.462	38156.55
695.808	38225.48
696.155	38130.11
696.501	37885.6
696.847	37820.52
697.193	37567.42
697.539	37723.8
697.885	37338.27
698.231	37318.38
698.577	37426.63
698.923	37226.86
699.269	37144.83
699.614	36881.33
699.96	36903.93
700.306	36767.21
700.651	36675.24
700.997	36632.07
701.342	36602.7
701.688	36561.79
702.033	36383.27
702.379	36452.87
702.724	36365.87
703.069	36485.64
703.415	36011.3
703.76	36065.53
704.105	36046.33
704.45	35986.44
704.795	35856.73
705.14	35695.37
705.485	35717.07
705.83	35531.31
706.175	35539.67
706.52	35457.42
706.865	35356.85
707.209	35277.98
707.554	35188.04
707.899	35226.91
708.243	34923.87
708.588	34933.14
708.932	34717.32
709.277	34831.22
709.621	34816.53
709.966	34580.15
710.31	34609.53
710.654	34334.28
710.998	34411.34
711.342	34325.24
711.687	34245.47
712.031	34181.29
712.375	33868.98
712.719	34087.96
713.063	33976.1
713.407	34025.36
713.75	33913.5
714.094	33829.89
714.438	33576.56
714.782	33661.08
715.125	33570.23
715.469	33625.6
715.812	33376.11
716.156	33238.04
716.499	33410.92
716.843	33238.04
717.186	33014.77
717.53	33361.2
717.873	33191.71
718.216	33167.98
718.559	32994.66
718.902	32737.26
719.246	32890.25
719.589	32801.89
719.932	32694.1
720.275	32607.77
720.617	32598.06
720.96	32627.89
721.303	32400.09
721.646	32643.03
721.989	32292.98
722.331	32393.09
722.674	32422.92
723.016	32336.14
723.359	32301.34
723.701	32409.59
724.044	32204.39
724.386	31967.79
724.729	32225.64
725.071	32146.54
725.413	32035.13
725.755	31922.37
726.097	31820.67
726.439	31627.46
726.782	31660.45
727.124	31764.4
727.465	31558.76
727.807	31585.65
728.149	31501.59
728.491	31402.38
728.833	31441.7
729.175	31435.83
729.516	31284.19
729.858	31233.8
730.199	31267.92
730.541	31243.29
730.882	31095.72
731.224	31233.35
731.565	31008.72
731.906	31006.68
732.248	31022.05
732.589	31010.75
732.93	30675.85
733.271	30798.33
733.612	30851.66
733.953	30825.45
734.294	30737.99
734.635	30553.14
734.976	30595.85
735.317	30526.02
735.658	30569.86
735.999	30501.39
736.339	30461.39
736.68	30469.98
737.021	30338
737.361	30214.84
737.702	30504.78
738.042	30349.3
738.383	30239.02
738.723	30292.35
739.063	30171
739.404	30222.07
739.744	30040.16
740.084	29975.53
740.424	30048.52
740.764	29906.15
741.104	30099.14
741.444	29822.99
741.784	29880.16
742.124	29783.89
742.464	29874.96
742.804	29732.14
743.143	29705.02
743.483	29649.43
743.823	29439.27
744.162	29471.81
744.502	29648.75
744.841	29392.49
745.181	29509.77
745.52	29314.53
745.86	29362.66
746.199	29326.28
746.538	29263.23
746.877	29144.36
747.216	29184.81
747.556	29106.85
747.895	29185.26
748.234	29134.87
748.573	29045.83
748.911	28992.73
749.25	28954.54
749.589	28984.37
749.928	28855.33
750.267	28887.19
750.605	28761.55
750.944	28680.42
751.283	28613.98
751.621	28624.37
751.96	28603.36
752.298	28493.53
752.636	28503.25
752.975	28301.9
753.313	28209.47
753.651	28465.28
753.989	28167.21
754.327	28069.36
754.666	27984.39
755.004	28069.36
755.342	28107.55
755.679	28061.45
756.017	27860.55
756.355	27888.12
756.693	27757.5
757.031	27914.79
