Data from hue_60_FLMS001491_43.txt Node
Date: Mon Feb 06 15:17:26 GMT 2017
User: dcchb
Spectrometer: FLMS00149
Trigger mode: 0
Integration Time (sec): 2.000000E-2
Scans to average: 10
Electric dark correction enabled: true
Nonlinearity correction enabled: false
Boxcar width: 0
XAxis mode: Wavelengths
Number of Pixels in Spectrum: 2048
>>>>>Begin Spectral Data<<<<<
341.393	-20.68
341.776	-20.68
342.16	-20.68
342.543	-48.93
342.927	-61.35
343.31	-74.24
343.693	-60.45
344.077	-42.37
344.46	-55.93
344.843	-46.89
345.226	-39.43
345.61	-44.63
345.993	-44.41
346.376	-12.99
346.759	11.86
347.142	13.67
347.525	41.69
347.908	60
348.291	69.04
348.674	85.08
349.057	140
349.44	148.36
349.823	133.89
350.206	156.95
350.588	166.89
350.971	198.98
351.354	237.85
351.737	227
352.119	267.22
352.502	250.28
352.884	275.81
353.267	278.75
353.65	291.18
354.032	276.04
354.414	308.35
354.797	325.53
355.179	328.01
355.562	328.24
355.944	314
356.326	319.2
356.709	339.54
357.091	342.48
357.473	341.57
357.855	335.92
358.238	323.49
358.62	327.79
359.002	327.56
359.384	340.22
359.766	330.27
360.148	329.82
360.53	365.08
360.912	321.01
361.294	323.95
361.676	345.41
362.057	340.89
362.439	317.39
362.821	345.87
363.203	326.66
363.584	318.07
363.966	351.06
364.348	334.12
364.729	316.04
365.111	319.43
365.493	319.43
365.874	312.87
366.256	338.41
366.637	322.14
367.019	288.02
367.4	312.87
367.781	311.29
368.163	314.68
368.544	318.07
368.925	316.26
369.306	306.09
369.688	301.35
370.069	316.04
370.45	299.09
370.831	304.74
371.212	296.83
371.593	335.02
371.974	326.43
372.355	303.83
372.736	304.29
373.117	322.82
373.498	336.15
373.879	325.53
374.26	305.87
374.641	308.13
375.021	318.97
375.402	319.43
375.783	322.36
376.163	312.65
376.544	317.62
376.925	302.48
377.305	305.87
377.686	323.04
378.066	312.65
378.447	307.9
378.827	304.74
379.208	316.49
379.588	324.62
379.968	329.14
380.349	332.53
380.729	321.46
381.109	334.79
381.489	342.48
381.87	323.72
382.25	336.6
382.63	333.66
383.01	325.75
383.39	317.39
383.77	330.73
384.15	341.35
384.53	330.73
384.91	333.89
385.29	351.52
385.67	334.79
386.049	324.85
386.429	327.79
386.809	347.22
387.189	358.07
387.568	333.21
387.948	347
388.328	332.99
388.707	352.65
389.087	364.17
389.466	355.36
389.846	344.74
390.225	363.27
390.605	355.58
390.984	359.88
391.363	361.23
391.743	365.3
392.122	343.15
392.501	362.59
392.881	343.61
393.26	336.15
393.639	373.44
394.018	367.33
394.397	359.65
394.776	361.23
395.155	382.02
395.534	376.15
395.913	370.95
396.292	373.89
396.671	353.1
397.05	365.98
397.429	381.35
397.808	383.83
398.186	363.95
398.565	383.15
398.944	382.93
399.323	381.12
399.701	364.4
400.08	372.98
400.458	375.02
400.837	389.03
401.215	401.23
401.594	372.08
401.972	378.63
402.351	392.42
402.729	373.21
403.107	377.73
403.486	377.96
403.864	373.44
404.242	379.76
404.62	389.03
404.999	403.49
405.377	389.03
405.755	409.14
406.133	375.47
406.511	400.1
406.889	394
407.267	389.93
407.645	414.34
408.023	413.66
408.401	421.12
408.779	421.34
409.156	394.23
409.534	421.8
409.912	407.33
410.29	419.31
410.667	425.86
411.045	439.88
411.422	438.75
411.8	428.35
412.178	419.09
412.555	434.9
412.933	444.85
413.31	434.9
413.687	451.63
414.065	437.62
414.442	459.99
414.819	444.85
415.197	448.46
415.574	466.77
415.951	459.31
416.328	468.35
416.705	459.99
417.082	475.13
417.46	458.18
417.837	474.22
418.214	455.47
418.591	452.53
418.967	476.26
419.344	459.08
419.721	481.23
420.098	483.26
420.475	465.41
420.852	496.82
421.228	478.29
421.605	484.39
421.982	486.2
422.358	488.46
422.735	498.18
423.111	515.58
423.488	515.13
423.864	508.8
424.241	511.96
424.617	514.22
424.994	515.58
425.37	522.81
425.746	529.36
426.123	523.94
426.499	532.53
426.875	557.39
427.251	530.72
427.627	528.69
428.003	535.69
428.379	551.06
428.756	553.09
429.132	541.57
429.507	570.72
429.883	565.75
430.259	537.05
430.635	575.47
431.011	560.55
431.387	551.74
431.763	579.31
432.138	575.01
432.514	596.48
432.89	576.6
433.265	593.77
433.641	599.19
434.016	627.89
434.392	621.57
434.767	612.53
435.143	625.86
435.518	617.72
435.894	624.28
436.269	617.72
436.644	619.98
437.02	637.16
437.395	629.02
437.77	630.6
438.145	647.55
438.52	637.61
438.895	646.42
439.271	657.27
439.646	663.15
440.021	692.07
440.395	678.74
440.77	662.47
441.145	678.29
441.52	692.07
441.895	684.16
442.27	652.75
442.645	696.14
443.019	692.07
443.394	691.17
443.769	693.43
444.143	687.78
444.518	709.02
444.892	676.48
445.267	727.33
445.641	699.08
446.016	721
446.39	725.29
446.764	712.18
447.139	750.6
447.513	741.34
447.887	741.34
448.262	758.74
448.636	737.72
449.01	760.77
449.384	740.88
449.758	777.04
450.132	767.78
450.506	781.56
450.88	771.84
451.254	751.28
451.628	778.17
452.002	784.95
452.376	792.86
452.75	770.71
453.123	791.96
453.497	808.68
453.871	821.56
454.244	843.48
454.618	826.31
454.992	826.08
455.365	859.3
455.739	855.68
456.112	852.97
456.486	869.92
456.859	897.94
457.232	871.28
457.606	877.38
457.979	889.36
458.352	911.73
458.725	927.32
459.099	928.45
459.472	945.17
459.845	955.12
460.218	981.1
460.591	974.78
460.964	980.43
461.337	1002.12
461.71	1000.99
462.083	1026.53
462.456	1043.93
462.829	1039.41
463.201	1044.38
463.574	1033.98
463.947	1039.41
464.32	1100.65
464.692	1100.65
465.065	1091.16
465.438	1106.52
465.81	1144.94
466.183	1156.47
466.555	1176.58
466.928	1187.43
467.3	1195.11
467.672	1222
468.045	1231.27
468.417	1255.67
468.789	1293.19
469.161	1299.74
469.534	1328.89
469.906	1339.06
470.278	1338.61
470.65	1374.99
471.022	1403.69
471.394	1428.32
471.766	1466.52
472.138	1461.09
472.51	1516.01
472.882	1538.6
473.253	1587.87
473.625	1622.44
473.997	1640.52
474.369	1656.57
474.74	1696.57
475.112	1758.03
475.484	1805.26
475.855	1832.38
476.227	1875.54
476.598	1952.83
476.97	1994.18
477.341	2028.08
477.713	2100.62
478.084	2099.94
478.455	2218.59
478.827	2257
479.198	2340.16
479.569	2401.86
479.94	2453.38
480.311	2518.24
480.682	2623.09
481.053	2701.51
481.424	2767.05
481.795	2823.99
482.166	2914.39
482.537	2959.81
482.908	3086.81
483.279	3146.92
483.65	3296.98
484.021	3374.49
484.391	3447.03
484.762	3506.91
485.133	3649.06
485.503	3725.66
485.874	3877.3
486.244	3991.19
486.615	4098.08
486.985	4218.08
487.356	4365.65
487.726	4431.63
488.097	4558.64
488.467	4708.01
488.837	4807.22
489.207	4965.63
489.578	5118.17
489.948	5275.91
490.318	5398.16
490.688	5502.34
491.058	5686.74
491.428	5769.45
491.798	5928.77
492.168	6153.17
492.538	6245.15
492.908	6396.78
493.278	6549.09
493.648	6580.28
494.017	6793.15
494.387	7008.06
494.757	7064.56
495.126	7262.52
495.496	7356.76
495.866	7533.7
496.235	7723.3
496.605	7861.6
496.974	7928.27
497.344	8126.45
497.713	8238.54
498.082	8415.94
498.452	8583.16
498.821	8718.75
499.19	8793.33
499.559	8926.43
499.928	9071.96
500.298	9288.68
500.667	9411.39
501.036	9529.35
501.405	9714.43
501.774	9805.05
502.143	9947.2
502.512	10046.4
502.88	10298.15
503.249	10375.89
503.618	10483.91
503.987	10618.36
504.356	10784.46
504.724	10854.74
505.093	10957.34
505.462	11097.45
505.83	11270.1
506.199	11417.89
506.567	11579.92
506.936	11582.18
507.304	11865.34
507.672	11857.43
508.041	12106.91
508.409	12291.54
508.777	12413.12
509.145	12481.37
509.514	12599.33
509.882	12807.23
510.25	12798.87
510.618	12977.4
510.986	13101.01
511.354	13243.15
511.722	13402.02
512.09	13583.03
512.458	13639.75
512.826	13775.12
513.193	13930.37
513.561	13981.67
513.929	14148.67
514.297	14225.5
514.664	14449
515.032	14557.47
515.4	14669.78
515.767	14836.56
516.135	14938.25
516.502	14859.61
516.869	15232.71
517.237	15380.05
517.604	15320.61
517.972	15482.42
518.339	15698.68
518.706	15726.25
519.073	15865.23
519.44	16047.37
519.808	16193.13
520.175	16173.25
520.542	16339.12
520.909	16517.19
521.276	16615.72
521.643	16764.87
522.009	16953.34
522.376	17044.86
522.743	17220.68
523.11	17431.52
523.477	17513.55
523.843	17619.99
524.21	17868.57
524.577	17968.68
524.943	18140.2
525.31	18272.63
525.676	18349.24
526.043	18590.36
526.409	18706.29
526.776	18830.35
527.142	18892.05
527.508	18882.78
527.874	19237.8
528.241	19385.37
528.607	19432.37
528.973	19649.99
529.339	19677.56
529.705	19894.51
530.071	20053.15
530.437	20046.59
530.803	20255.85
531.169	20295.4
531.535	20331.1
531.901	20441.61
532.267	20562.96
532.632	20714.82
532.998	20861.71
533.364	20921.82
533.73	20996.85
534.095	21169.5
534.461	21288.59
534.826	21377.18
535.192	21424.63
535.557	21670.05
535.923	21622.6
536.288	21719.32
536.653	21769.71
537.019	21839.31
537.384	21931.74
537.749	22049.25
538.114	22211.73
538.479	22218.29
538.845	22270.71
539.21	22213.54
539.575	22320.43
539.94	22402.01
540.305	22540.31
540.67	22538.5
541.034	22651.27
541.399	22790.7
541.764	22823.69
542.129	22930.36
542.494	22926.52
542.858	22991.6
543.223	23050.81
543.587	23278.82
543.952	23197.02
544.316	23360.18
544.681	23270.91
545.045	23523.56
545.41	23600.62
545.774	23623.9
546.138	23735.76
546.503	23682.88
546.867	23845.59
547.231	24077.45
547.595	24014.62
547.959	24079.03
548.324	24043.1
548.688	24091.68
549.052	24400.83
549.416	24348.63
549.779	24413.26
550.143	24441.96
550.507	24677.88
550.871	24782.29
551.235	24760.14
551.599	24866.35
551.962	25005.56
552.326	25039.45
552.689	25281.71
553.053	25078.78
553.417	25287.36
553.78	25566.22
554.143	25412.78
554.507	25618.2
554.87	25754.01
555.234	25978.86
555.597	25828.36
555.96	25902.71
556.323	26028.13
556.686	26106.09
557.05	26233.77
557.413	26265.86
557.776	26474.9
558.139	26646.87
558.502	26605.52
558.865	26723.93
559.228	26952.4
559.59	27041.89
559.953	27061.32
560.316	27360.98
560.679	27310.36
561.041	27529.11
561.404	27594.87
561.767	27759.38
562.129	27741.08
562.492	27976.55
562.854	28117.34
563.217	28097.91
563.579	28158.69
563.941	28427.16
564.304	28406.37
564.666	28768.17
565.028	28847.72
565.39	28789.64
565.753	29128.61
566.115	29061.72
566.477	29194.37
566.839	29266.01
567.201	29518.66
567.563	29451.54
567.925	29700.12
568.287	29690.86
568.648	29841.81
569.01	29978.31
569.372	30071.64
569.734	30155.7
570.095	30216.95
570.457	30402.93
570.819	30440.67
571.18	30482.93
571.542	30662.58
571.903	30673.66
572.265	30773.54
572.626	30921.33
572.987	31052.4
573.349	31156.13
573.71	31342.11
574.071	31320.87
574.432	31449.68
574.794	31695.78
575.155	31589.56
575.516	31493.3
575.877	31612.84
576.238	31687.64
576.599	31884.47
576.96	31899.84
577.32	32021.42
577.681	32077.46
578.042	32225.48
578.403	32185.26
578.763	32263.22
579.124	32300.73
579.485	32524.46
579.845	32499.6
580.206	32502.08
580.566	32447.62
580.927	32505.25
581.287	32640.61
581.648	32583.44
582.008	32753.38
582.368	32744.11
582.728	32685.81
583.089	32705.69
583.449	32702.53
583.809	32919.47
584.169	32818.46
584.529	32817.78
584.889	32977.1
585.249	32851.68
585.609	32804.45
585.969	33021.17
586.329	32961.05
586.688	33034.05
587.048	33014.84
587.408	32926.7
587.768	33026.82
588.127	32919.47
588.487	32949.98
588.846	33229.97
589.206	33011.67
589.565	32981.39
589.925	33203.99
590.284	33069.75
590.643	33185.68
591.003	33296.86
591.362	33490.53
591.721	33220.71
592.08	33389.97
592.44	33341.38
592.799	33241.27
593.158	33225.45
593.517	33365.56
593.876	33456.41
594.235	33200.37
594.593	33468.84
594.952	33435.39
595.311	33339.12
595.67	33455.73
596.029	33667.25
596.387	33633.58
596.746	33672.45
597.104	33582.73
597.463	33489.4
597.822	33807.13
598.18	33645.33
598.538	33707.93
598.897	33878.54
599.255	33633.8
599.613	34203.06
599.972	33844.42
600.33	34061.82
600.688	33977.52
601.046	34062.27
601.404	34178.65
601.762	34075.83
602.12	34217.52
602.478	34188.14
602.836	34162.38
603.194	34117.41
603.552	34228.59
603.91	34176.16
604.268	34161.02
604.625	34145.66
604.983	34431.52
605.341	34330.74
605.698	34304.52
606.056	34632.87
606.413	34560.11
606.771	34617.28
607.128	34653.67
607.485	34581.8
607.843	34574.57
608.2	34741.57
608.557	34811.18
608.914	34841
609.272	35128.68
609.629	35100.21
609.986	35298.17
610.343	35136.14
610.7	35366.41
611.057	35275.57
611.414	35282.35
611.771	35423.36
612.127	35571.16
612.484	35409.8
612.841	35666.29
613.198	35642.57
613.554	35661.1
613.911	35756.01
614.267	35708.1
614.624	35669.91
614.98	35702.9
615.337	36066.74
615.693	36065.61
616.05	35930.47
616.406	36126.62
616.762	36094.08
617.118	36062.44
617.475	36009.56
617.831	36158.26
618.187	36265.37
618.543	36265.6
618.899	36452.26
619.255	36346.73
619.611	36403.9
619.967	36465.37
620.323	36607.29
620.678	36602.09
621.034	36699.04
621.39	36536.33
621.746	36531.58
622.101	36986.49
622.457	36790.11
622.812	36739.03
623.168	36832.59
623.523	36773.84
623.879	36948.29
624.234	36788.75
624.589	37073.26
624.945	36929.54
625.3	36966.6
625.655	36856.32
626.01	37006.37
626.365	37030.1
626.72	36888.63
627.075	36983.77
627.43	36918.69
627.785	36813.38
628.14	37037.33
628.495	37025.58
628.85	36973.83
629.205	36882.99
629.559	37146.48
629.914	37064.22
630.269	36888.63
630.623	36913.27
630.978	36830.78
631.332	37109.42
631.687	37088.63
632.041	36883.44
632.396	37047.27
632.75	36835.3
633.104	36909.42
633.459	36913.72
633.813	36647.06
634.167	36920.72
634.521	36823.55
634.875	36878.01
635.229	36728.19
635.583	36555.54
635.937	36629.66
636.291	36716.89
636.645	36665.59
636.999	36617
637.352	36639.15
637.706	36396.67
638.06	36607.06
638.413	36466.72
638.767	36387.4
639.121	36399.61
639.474	36252.49
639.828	36293.85
640.181	36392.83
640.534	36397.35
640.888	36216.56
641.241	36224.7
641.594	36165.94
641.947	36386.73
642.301	36225.6
642.654	36279.61
643.007	36260.18
643.36	36237.58
643.713	36165.49
644.066	36172.5
644.419	36004.14
644.771	35886.85
645.124	35430.82
645.477	35390.14
645.83	35346.75
646.182	35107.44
646.535	35106.08
646.888	35174.1
647.24	34939.53
647.593	35137.49
647.945	34994.67
648.298	34904.51
648.65	34813.43
649.002	34729.82
649.355	34941.34
649.707	34822.7
650.059	34842.81
650.411	35266.53
650.763	35309.24
651.115	35707.2
651.467	35571.16
651.819	35580.87
652.171	35506.52
652.523	35448.22
652.875	35445.73
653.227	35393.98
653.578	35557.37
653.93	35466.3
654.282	35322.57
654.633	35179.98
654.985	35324.38
655.337	35267.89
655.688	35446.64
656.039	35339.3
656.391	35065.63
656.742	35168.23
657.094	35075.8
657.445	35319.41
657.796	35235.12
658.147	35133.65
658.498	35107.44
658.849	35254.33
659.2	35164.61
659.551	34952.64
659.902	35156.93
660.253	35066.54
660.604	35213.88
660.955	35002.36
661.306	35112.86
661.656	35012.07
662.007	35051.62
662.358	35019.98
662.708	35109.92
663.059	34971.62
663.409	34838.74
663.76	35066.54
664.11	35008.91
664.461	35037.16
664.811	34936.82
665.161	35044.62
665.511	35025.86
665.862	35070.15
666.212	34952.19
666.562	35141.34
666.912	35030.6
667.262	34899.99
667.612	34924.84
667.962	34946.76
668.312	34865.41
668.662	34947.22
669.011	34861.12
669.361	34852.08
669.711	34669.26
670.06	34671.29
670.41	34635.59
670.76	34657.05
671.109	34810.27
671.459	34756.49
671.808	34626.55
672.157	34782.25
672.507	34623.16
672.856	34516.04
673.205	34711.74
673.554	34629.48
673.904	34603.04
674.253	34790.16
674.602	34739.99
674.951	34076.05
675.3	33910.41
675.649	34459.77
675.998	34477.85
676.346	34567.34
676.695	34603.04
677.044	34315.14
677.393	34330.74
677.741	34519.66
678.09	34401.69
678.438	34276.5
678.787	34314.24
679.135	34383.84
679.484	34122.15
679.832	34260.23
680.181	34118.31
680.529	34122.61
680.877	34046.45
681.225	34126
681.573	34140.23
681.922	33906.57
682.27	33888.04
682.618	33792.9
682.966	33671.09
683.314	33892.33
683.661	33749.51
684.009	33592
684.357	33595.39
684.705	33528.95
685.053	33499.35
685.4	33460.48
685.748	33234.95
686.095	33300.71
686.443	33208.28
686.79	33187.04
687.138	33235.4
687.485	33173.03
687.832	33094.84
688.18	33211.67
688.527	32817.56
688.874	32917.89
689.221	32851
689.568	32672.7
689.915	32701.17
690.262	32684.45
690.609	32599.71
690.956	32570.56
691.303	32401.29
691.65	32338.92
691.997	32355.19
692.344	32204.24
692.69	32035.2
693.037	32168.76
693.383	31881.76
693.73	31946.39
694.077	31833.17
694.423	31854.87
694.769	31719.05
695.116	31642.9
695.462	31610.36
695.808	31422.11
696.155	31649.45
696.501	31341.21
696.847	31423.69
697.193	31056.02
697.539	31187.09
697.885	30890.6
698.231	30857.15
698.577	30997.04
698.923	30882.46
699.269	30679.76
699.614	30481.12
699.96	30569.03
700.306	30463.72
700.651	30310.28
700.997	30279.54
701.342	30246.55
701.688	30181.92
702.033	30084.75
702.379	30140.56
702.724	29953.9
703.069	30018.08
703.415	29699.45
703.76	29640.01
704.105	29628.26
704.45	29608.37
704.795	29409.74
705.14	29406.12
705.485	29335.84
705.83	29169.29
706.175	29209.74
706.52	29148.05
706.865	29059.24
707.209	29011.33
707.554	28985.57
707.899	29085.22
708.243	28784.21
708.588	28741.05
708.932	28528.18
709.277	28673.48
709.621	28565.46
709.966	28453.6
710.31	28541.28
710.654	28197.79
710.998	28246.83
711.342	28195.98
711.687	28230.78
712.031	28142.65
712.375	28049.09
712.719	27984.01
713.063	27985.14
713.407	28089.54
713.75	27945.59
714.094	27912.6
714.438	27779.27
714.782	27758.25
715.125	27565.04
715.469	27634.64
715.812	27605.26
716.156	27437.81
716.499	27450.69
716.843	27390.81
717.186	27266.74
717.53	27382.67
717.873	27390.13
718.216	27243.24
718.559	27153.75
718.902	26925.73
719.246	27049.12
719.589	26960.76
719.932	26981.32
720.275	26866.53
720.617	26850.48
720.96	26853.64
721.303	26840.31
721.646	26780.88
721.989	26582.92
722.331	26740.2
722.674	26613.42
723.016	26722.35
723.359	26476.7
723.701	26555.8
724.044	26429.93
724.386	26216.37
724.729	26347.89
725.071	26249.82
725.413	26353.77
725.755	26158.3
726.097	26040.56
726.439	26014.8
726.782	25985.42
727.124	26051.18
727.465	25892.09
727.807	25908.81
728.149	25877.62
728.491	25872.43
728.833	25898.87
729.175	25761.92
729.516	25722.6
729.858	25742.71
730.199	25707.46
730.541	25660.46
730.882	25634.92
731.224	25610.74
731.565	25521.02
731.906	25432.44
732.248	25552.21
732.589	25312.89
732.93	25311.31
733.271	25240.13
733.612	25301.82
733.953	25330.75
734.294	25147.93
734.635	25048.95
734.976	25292.1
735.317	25057.08
735.658	25035.16
735.999	25042.62
736.339	24943.86
736.68	25041.94
737.021	24949.06
737.361	24816.18
737.702	24902.51
738.042	24828.84
738.383	24705.45
738.723	24779.35
739.063	24747.48
739.404	24807.37
739.744	24742.06
740.084	24574.83
740.424	24622.52
740.764	24526.93
741.104	24686.02
741.444	24510.43
741.784	24427.27
742.124	24352.02
742.464	24470.43
742.804	24283.09
743.143	24236.31
743.483	24337.78
743.823	24188.4
744.162	24092.81
744.502	24210.32
744.841	23921.74
745.181	24103.43
745.52	24063.89
745.86	24051.23
746.199	24084
746.538	23941.4
746.877	24000.84
747.216	24012.14
747.556	23789.54
747.895	23879.49
748.234	23771.01
748.573	23719.94
748.911	23719.49
749.25	23643.33
749.589	23568.08
749.928	23634.75
750.267	23690.56
750.605	23516.56
750.944	23427.75
751.283	23336.9
751.621	23471.59
751.96	23321.31
752.298	23282.89
752.636	23232.5
752.975	23216.9
753.313	23130.35
753.651	23122.44
753.989	23095.32
754.327	23010.13
754.666	22936.69
755.004	22951.6
755.342	22913.41
755.679	22855.11
756.017	22674.55
756.355	22843.13
756.693	22665.28
757.031	22638.39
