Data from hue_320_FLMS001491_7.txt Node
Date: Mon Feb 06 15:46:37 GMT 2017
User: dcchb
Spectrometer: FLMS00149
Trigger mode: 0
Integration Time (sec): 2.000000E-2
Scans to average: 10
Electric dark correction enabled: true
Nonlinearity correction enabled: false
Boxcar width: 0
XAxis mode: Wavelengths
Number of Pixels in Spectrum: 2048
>>>>>Begin Spectral Data<<<<<
341.393	-4.12
341.776	-4.12
342.16	-4.12
342.543	-54.74
342.927	-69.21
343.31	-64.01
343.693	-80.28
344.077	-78.47
344.46	-61.98
344.843	-58.36
345.226	-39.15
345.61	-56.78
345.993	-33.05
346.376	-19.49
346.759	24.35
347.142	34.29
347.525	53.05
347.908	70.68
348.291	67.29
348.674	105.93
349.057	135.99
349.44	126.72
349.823	155.87
350.206	186.15
350.588	175.08
350.971	233.16
351.354	227.96
351.737	223.21
352.119	251.01
352.502	255.53
352.884	269.09
353.267	272.7
353.65	290.56
354.032	278.13
354.414	302.31
354.797	305.7
355.179	313.83
355.562	306.83
355.944	322.42
356.326	342.31
356.709	338.47
357.091	341.18
357.473	346.38
357.855	329.65
358.238	360.39
358.62	338.01
359.002	353.38
359.384	332.59
359.766	332.36
360.148	351.35
360.53	329.2
360.912	338.47
361.294	330.1
361.676	338.92
362.057	343.66
362.439	331.69
362.821	329.2
363.203	346.83
363.584	311.8
363.966	331.69
364.348	313.61
364.729	330.33
365.111	313.61
365.493	309.31
365.874	323.1
366.256	301.63
366.637	336.88
367.019	321.52
367.4	317.9
367.781	335.53
368.163	302.99
368.544	298.01
368.925	294.85
369.306	321.97
369.688	317.68
370.069	295.3
370.45	311.12
370.831	326.94
371.212	330.1
371.593	318.58
371.974	312.7
372.355	315.19
372.736	308.41
373.117	304.12
373.498	301.4
373.879	326.94
374.26	308.64
374.641	312.48
375.021	314.96
375.402	320.16
375.783	297.34
376.163	321.74
376.544	343.44
376.925	345.25
377.305	295.98
377.686	315.42
378.066	338.69
378.447	337.11
378.827	322.65
379.208	318.35
379.588	322.65
379.968	345.47
380.349	337.34
380.729	343.44
381.109	341.86
381.489	335.3
381.87	311.57
382.25	326.26
382.63	334.4
383.01	341.86
383.39	374.4
383.77	333.27
384.15	344.12
384.53	338.92
384.91	365.36
385.29	346.15
385.67	364.23
386.049	369.2
386.429	370.33
386.809	358.35
387.189	342.08
387.568	356.09
387.948	366.49
388.328	359.93
388.707	374.62
389.087	357.9
389.466	347.5
389.846	354.96
390.225	381.18
390.605	382.98
390.984	366.94
391.363	352.48
391.743	379.82
392.122	369.43
392.501	385.92
392.881	370.33
393.26	372.82
393.639	376.66
394.018	377.33
394.397	397.45
394.776	378.46
395.155	396.32
395.534	371.46
395.913	387.5
396.292	384.11
396.671	372.59
397.05	398.13
397.429	381.85
397.808	394.74
398.186	395.64
398.565	394.28
398.944	396.09
399.323	388.86
399.701	401.51
400.08	405.36
400.458	402.87
400.837	422.53
401.215	402.64
401.594	412.36
401.972	413.27
402.351	408.75
402.729	403.32
403.107	422.98
403.486	443.77
403.864	415.98
404.242	421.63
404.62	446.03
404.999	437.67
405.377	435.41
405.755	438.35
406.133	437.9
406.511	469.76
406.889	451.68
407.267	451.46
407.645	456.88
408.023	450.1
408.401	468.86
408.779	457.78
409.156	470.67
409.534	484.45
409.912	481.74
410.29	497.78
410.667	519.03
411.045	502.08
411.422	492.81
411.8	499.59
412.178	531.91
412.555	543.21
412.933	540.49
413.31	549.08
413.687	538.01
414.065	539.59
414.442	566.03
414.819	544.56
415.197	575.07
415.574	588.85
415.951	588.63
416.328	591.34
416.705	574.62
417.082	613.26
417.46	623.43
417.837	614.39
418.214	631.79
418.591	629.08
418.967	619.81
419.344	656.65
419.721	651.23
420.098	656.2
420.475	666.14
420.852	702.07
421.228	656.88
421.605	674.28
421.982	693.03
422.358	677.44
422.735	696.2
423.111	711.11
423.488	709.76
423.864	716.99
424.241	722.41
424.617	741.17
424.994	748.62
425.37	746.82
425.746	755.63
426.123	758.34
426.499	775.06
426.875	776.65
427.251	757.44
427.627	802.18
428.003	796.31
428.379	824.1
428.756	809.41
429.132	830.43
429.507	823.65
429.883	832.46
430.259	855.97
430.635	862.52
431.011	881.95
431.387	904.33
431.763	872.01
432.138	918.34
432.514	918.34
432.89	926.7
433.265	934.61
433.641	954.04
434.016	947.26
434.392	953.36
434.767	980.93
435.143	982.74
435.518	989.3
435.894	974.38
436.269	1032.01
436.644	1041.05
437.02	1048.5
437.395	1060.03
437.77	1050.76
438.145	1044.89
438.52	1080.82
438.895	1066.13
439.271	1078.11
439.646	1092.8
440.021	1100.93
440.395	1097.09
440.77	1114.04
441.145	1097.32
441.52	1139.35
441.895	1121.27
442.27	1147.71
442.645	1122.4
443.019	1145.9
443.394	1154.04
443.769	1163.53
444.143	1150.42
444.518	1195.84
444.892	1215.05
445.267	1145.22
445.641	1172.79
446.016	1199.23
446.39	1200.36
446.764	1202.17
447.139	1208.5
447.513	1198.78
447.887	1188.84
448.262	1210.76
448.636	1205.79
449.01	1203.53
449.384	1250.53
449.758	1250.31
450.132	1237.43
450.506	1263.41
450.88	1248.5
451.254	1268.84
451.628	1298.89
452.002	1290.31
452.376	1306.12
452.75	1321.72
453.123	1306.12
453.497	1340.7
453.871	1314.71
454.244	1361.72
454.618	1334.6
454.992	1358.1
455.365	1357.42
455.739	1361.04
456.112	1384.09
456.486	1397.87
456.859	1402.17
457.232	1435.16
457.606	1389.74
457.979	1406.23
458.352	1427.7
458.725	1444.2
459.099	1484.2
459.472	1493.92
459.845	1496.63
460.218	1511.09
460.591	1511.09
460.964	1482.16
461.337	1532.56
461.71	1553.57
462.083	1605.55
462.456	1563.74
462.829	1578.43
463.201	1607.58
463.574	1591.54
463.947	1640.35
464.32	1651.2
464.692	1660.69
465.065	1648.26
465.438	1655.04
465.81	1677.64
466.183	1694.81
466.555	1741.59
466.928	1742.04
467.3	1738.88
467.672	1751.08
468.045	1796.51
468.417	1789.5
468.789	1804.64
469.161	1789.73
469.534	1832.89
469.906	1865.66
470.278	1886.45
470.65	1871.98
471.022	1903.17
471.394	1915.6
471.766	1954.02
472.138	1940.23
472.51	2011.42
472.882	2020.68
473.253	2015.94
473.625	2011.42
473.997	2065.2
474.369	2060.45
474.74	2102.71
475.112	2134.35
475.484	2146.55
475.855	2187
476.227	2174.12
476.598	2242.6
476.97	2245.99
477.341	2290.5
477.713	2312.2
478.084	2302.26
478.455	2367.79
478.827	2379.32
479.198	2454.12
479.569	2440.33
479.94	2504.96
480.311	2481.69
480.682	2535.02
481.053	2568.24
481.424	2586.77
481.795	2642.13
482.166	2646.43
482.537	2665.86
482.908	2721.68
483.279	2729.36
483.65	2792.41
484.021	2818.63
484.391	2855.46
484.762	2836.71
485.133	2865.18
485.503	2921.67
485.874	2916.48
486.244	2988.11
486.615	3023.14
486.985	3023.82
487.356	3076.02
487.726	3098.85
488.097	3161.44
488.467	3141.56
488.837	3217.71
489.207	3237.37
489.578	3276.47
489.948	3345.39
490.318	3356.69
490.688	3338.16
491.058	3385.62
491.428	3398.05
491.798	3440.76
492.168	3481.21
492.538	3484.6
492.908	3562.34
493.278	3555.1
493.648	3578.83
494.017	3634.42
494.387	3627.42
494.757	3703.12
495.126	3690.47
495.496	3736.12
495.866	3732.05
496.235	3741.54
496.605	3765.27
496.974	3767.98
497.344	3839.84
497.713	3831.93
498.082	3860.41
498.452	3864.25
498.821	3882.55
499.19	3900.41
499.559	3937.69
499.928	3950.57
500.298	3952.16
500.667	4004.58
501.036	4003
501.405	4030.8
501.774	3978.82
502.143	4066.96
502.512	4075.77
502.88	4068.99
503.249	4088.88
503.618	4109.44
503.987	4168.87
504.356	4202.77
504.724	4174.97
505.093	4198.93
505.462	4198.48
505.83	4223.79
506.199	4258.59
506.567	4278.25
506.936	4222.66
507.304	4303.33
507.672	4323.67
508.041	4291.58
508.409	4339.94
508.777	4322.54
509.145	4357.8
509.514	4383.11
509.882	4404.8
510.25	4396.44
510.618	4422.2
510.986	4410.45
511.354	4468.75
511.722	4489.09
512.09	4489.32
512.458	4487.06
512.826	4473.05
513.193	4506.72
513.561	4531.12
513.929	4559.37
514.297	4599.14
514.664	4633.27
515.032	4593.5
515.4	4634.4
515.767	4689.76
516.135	4621.06
516.502	4660.61
516.869	4695.19
517.237	4685.7
517.604	4695.19
517.972	4708.07
518.339	4756.2
518.706	4743.55
519.073	4709.65
519.44	4751.46
519.808	4793.49
520.175	4809.08
520.542	4876.43
520.909	4822.19
521.276	4886.82
521.643	4867.84
522.009	4917.33
522.376	4926.14
522.743	4951.68
523.11	4967.27
523.477	5028.06
523.843	5005.91
524.21	5037.1
524.577	5041.17
524.943	5054.27
525.31	5110.77
525.676	5170.2
526.043	5124.55
526.409	5158.23
526.776	5198
527.142	5246.59
527.508	5201.39
527.874	5246.59
528.241	5287.04
528.607	5346.02
528.973	5353.7
529.339	5340.37
529.705	5410.42
530.071	5452.23
530.437	5430.31
530.803	5470.31
531.169	5528.16
531.535	5478.9
531.901	5568.16
532.267	5564.77
532.632	5599.8
532.998	5589.85
533.364	5628.27
533.73	5619
534.095	5693.58
534.461	5724.54
534.826	5762.73
535.192	5769.28
535.557	5779.9
535.923	5770.41
536.288	5794.82
536.653	5830.3
537.019	5824.42
537.384	5898.09
537.749	5902.39
538.114	5926.57
538.479	5958.66
538.845	5937.19
539.21	5926.12
539.575	6057.41
539.94	6022.61
540.305	6066.22
540.67	6050.18
541.034	6117.3
541.399	6144.64
541.764	6146
542.129	6183.06
542.494	6144.87
542.858	6218.54
543.223	6272.09
543.587	6268.48
543.952	6265.54
544.316	6324.52
544.681	6328.14
545.045	6351.64
545.41	6365.65
545.774	6441.58
546.138	6375.37
546.503	6528.59
546.867	6455.37
547.231	6475.71
547.595	6494.01
547.959	6573.33
548.324	6581.01
548.688	6548.47
549.052	6626.89
549.416	6616.49
549.779	6617.17
550.143	6639.54
550.507	6741.24
550.871	6717.28
551.235	6738.75
551.599	6828.01
551.962	6766.32
552.326	6819.2
552.689	6865.75
553.053	6881.34
553.417	6898.29
553.78	6942.59
554.143	6886.77
554.507	6930.16
554.87	6917.05
555.234	7048.8
555.597	6941.91
555.96	6981
556.323	7061.9
556.686	7069.36
557.05	7059.87
557.413	7059.42
557.776	7148.23
558.139	7211.05
558.502	7144.61
558.865	7184.61
559.228	7220.77
559.59	7244.95
559.953	7282.69
560.316	7278.4
560.679	7256.48
561.041	7344.61
561.404	7291.5
561.767	7452.85
562.129	7489.01
562.492	7463.48
562.854	7430.03
563.217	7484.27
563.579	7497.15
563.941	7485.62
564.304	7558.16
564.666	7629.12
565.028	7564.26
565.39	7623.47
565.753	7681.78
566.115	7662.79
566.477	7680.42
566.839	7691.27
567.201	7778.04
567.563	7697.82
567.925	7831.6
568.287	7863.92
568.648	7869.79
569.01	7905.72
569.372	8013.74
569.734	7947.53
570.095	8005.38
570.457	8026.63
570.819	8059.62
571.18	8082.22
571.542	8145.49
571.903	8191.37
572.265	8202.44
572.626	8274.53
572.987	8342.32
573.349	8354.3
573.71	8406.28
574.071	8477.91
574.432	8522.21
574.794	8635.65
575.155	8672.71
575.516	8677.46
575.877	8716.32
576.238	8825.93
576.599	8900.27
576.96	8937.11
577.32	8983.89
577.681	9105.24
578.042	9167.84
578.403	9206.71
578.763	9389.08
579.124	9469.98
579.485	9570.77
579.845	9653.25
580.206	9762.4
580.566	9844.43
580.927	9972.11
581.287	10124.42
581.648	10265.66
582.008	10394.25
582.368	10540.46
582.728	10784.52
583.089	10889.15
583.449	11015.47
583.809	11221.57
584.169	11367.78
584.529	11453.2
584.889	11818.62
585.249	12029.68
585.609	12108.78
585.969	12396.23
586.329	12575.88
586.688	12859.72
587.048	13052.03
587.408	13287.05
587.768	13517.1
588.127	13778.56
588.487	13953.25
588.846	14364.54
589.206	14561.37
589.565	14779.67
589.925	15154.35
590.284	15329.48
590.643	15644.28
591.003	16006.75
591.362	16404.94
591.721	16547.76
592.08	17014.19
592.44	17166.72
592.799	17564.23
593.158	17819.36
593.517	18161.95
593.876	18476.75
594.235	18780.24
594.593	19088.93
594.952	19410.51
595.311	19704.06
595.67	20012.75
596.029	20509.46
596.387	20826.97
596.746	21184.47
597.104	21413.17
597.463	21661.52
597.822	22086.82
598.18	22406.36
598.538	22648.84
598.897	23100.81
599.255	23200.92
599.613	23840.67
599.972	24079.31
600.33	24319.98
600.688	24593.2
601.046	24933.75
601.404	25401.76
601.762	25607.41
602.12	26077.45
602.478	26362.19
602.836	26611.67
603.194	26754.49
603.552	27099.8
603.91	27307.02
604.268	27697.07
604.625	27851.64
604.983	28260.67
605.341	28430.16
605.698	28835.57
606.056	29167.76
606.413	29437.59
606.771	29711.48
607.128	30016.78
607.485	30115.76
607.843	30423.55
608.2	30772.47
608.557	31148.05
608.914	31146.02
609.272	31565.44
609.629	31986.9
609.986	32110.06
610.343	32153.67
610.7	32844.73
611.057	32865.97
611.414	32970.38
611.771	33203.36
612.127	33512.06
612.484	33689.23
612.841	34029.78
613.198	34093.51
613.554	34315.88
613.911	34630.9
614.267	34736.21
614.624	34879.03
614.98	35013.94
615.337	35343.42
615.693	35525.11
616.05	35612.11
616.406	35909.06
616.762	35966.68
617.118	36097.75
617.475	36276.5
617.831	36551.75
618.187	36650.96
618.543	36797.62
618.899	37257.49
619.255	37190.83
619.611	37309.02
619.967	37537.26
620.323	37678.73
620.678	37638.95
621.034	37741.55
621.39	37917.82
621.746	38009.34
622.101	38422.44
622.457	38189.22
622.812	38550.57
623.168	38661.75
623.523	38674.86
623.879	39015.19
624.234	38705.59
624.589	38976.09
624.945	38998.47
625.3	39151
625.655	39195.52
626.01	39350.32
626.365	39461.96
626.72	39403.43
627.075	39558
627.43	39571.11
627.785	39526.59
628.14	39713.93
628.495	39812.23
628.85	39978.55
629.205	39757.54
629.559	40208.83
629.914	39912.34
630.269	39976.07
630.623	39968.84
630.978	39974.71
631.332	40146.46
631.687	40271.88
632.041	39996.63
632.396	40298.77
632.75	40134.03
633.104	40386
633.459	40137.87
633.813	40045.67
634.167	40205.44
634.521	40109.17
634.875	40382.38
635.229	40226.46
635.583	40197.08
635.937	40261.94
636.291	40203.86
636.645	40270.98
636.999	40140.58
637.352	40193.01
637.706	40132.45
638.06	40369.73
638.413	40277.75
638.767	40225.33
639.121	40342.84
639.474	40172.22
639.828	40187.59
640.181	40281.82
640.534	40299.9
640.888	40112.11
641.241	39983.52
641.594	40156.85
641.947	40217.87
642.301	40000.93
642.654	40200.02
643.007	40046.57
643.36	40053.81
643.713	40102.62
644.066	40091.54
644.419	39925.45
644.771	39884.32
645.124	39419.02
645.477	39266.93
645.83	39163.21
646.182	39021.52
646.535	38979.94
646.888	38966.38
647.24	38791.47
647.593	39108.75
647.945	39000.95
648.298	38746.72
648.65	38705.37
649.002	38778.58
649.355	38927.96
649.707	38856.77
650.059	38928.41
650.411	39477.55
650.763	39464.67
651.115	39849.74
651.467	39722.51
651.819	39749.63
652.171	39703.76
652.523	39638.68
652.875	39722.29
653.227	39411.79
653.578	39715.74
653.93	39721.61
654.282	39445.69
654.633	39390.77
654.985	39559.13
655.337	39510.77
655.688	39597.32
656.039	39728.16
656.391	39255.18
656.742	39362.07
657.094	39407.72
657.445	39518.45
657.796	39461.28
658.147	39493.14
658.498	39439.81
658.849	39529.98
659.2	39414.95
659.551	39266.93
659.902	39410.88
660.253	39271.91
660.604	39456.76
660.955	39179.03
661.306	39325.69
661.656	39263.77
662.007	39327.27
662.358	39231.91
662.708	39222.19
663.059	39266.71
663.409	38977.9
663.76	39339.93
664.11	39274.17
664.461	39310.32
664.811	39268.97
665.161	39173.83
665.511	39161.17
665.862	39177.67
666.212	39292.02
666.562	39295.18
666.912	39318.68
667.262	39155.75
667.612	39151.68
667.962	39222.19
668.312	39057.45
668.662	39321.4
669.011	39108.97
669.361	39178.57
669.711	39106.71
670.06	39064.45
670.41	39052.02
670.76	38964.79
671.109	39181.29
671.459	39071.68
671.808	38984.91
672.157	39004.79
672.507	38894.74
672.856	38948.52
673.205	39000.95
673.554	39053.83
673.904	38922.99
674.253	39058.58
674.602	38944.46
674.951	38470.57
675.3	38297.92
675.649	38879.15
675.998	38839.37
676.346	38770.22
676.695	38829.88
677.044	38441.87
677.393	38775.42
677.741	38738.13
678.09	38634.41
678.438	38529.55
678.787	38675.31
679.135	38734.97
679.484	38319.16
679.832	38517.12
680.181	38225.61
680.529	38348.99
680.877	38373.4
681.225	38207.75
681.573	38597.12
681.922	38195.78
682.27	38069.9
682.618	38141.31
682.966	37994.88
683.314	38152.39
683.661	37963.24
684.009	37908.55
684.357	37738.61
684.705	37700.87
685.053	37791.27
685.4	37785.16
685.748	37553.31
686.095	37582.68
686.443	37424.04
686.79	37269.25
687.138	37453.65
687.485	37480.99
687.832	37237.83
688.18	37326.87
688.527	37111.28
688.874	37146.31
689.221	37103.15
689.568	36836.94
689.915	36844.17
690.262	36947.9
690.609	36652.31
690.956	36761.24
691.303	36645.76
691.65	36453.22
691.997	36378.42
692.344	36271.31
692.69	36312.44
693.037	36203.74
693.383	35978.88
693.73	36067.92
694.077	35974.59
694.423	35982.95
694.769	35720.81
695.116	35710.64
695.462	35675.62
695.808	35500.25
696.155	35586.35
696.501	35298.22
696.847	35373.48
697.193	35094.61
697.539	35237.21
697.885	34937.1
698.231	34787.96
698.577	34892.36
698.923	34779.82
699.269	34733.72
699.614	34437
699.96	34481.97
700.306	34606.27
700.651	34248.31
700.997	34238.14
701.342	34126.5
701.688	34127.41
702.033	33927.19
702.379	33983.68
702.724	33858.49
703.069	33825.95
703.415	33397.48
703.76	33544.82
704.105	33551.15
704.45	33422.12
704.795	33345.51
705.14	33242.91
705.485	33164.95
705.83	32933.99
706.175	33104.61
706.52	33105.06
706.865	32946.42
707.209	32754.11
707.554	32674.34
707.899	32837.05
708.243	32677.28
708.588	32593.21
708.932	32323.84
709.277	32402.48
709.621	32397.28
709.966	32161.36
710.31	32208.81
710.654	31913.68
710.998	31980.57
711.342	32083.17
711.687	31995.94
712.031	31790.52
712.375	31638.43
712.719	31894.7
713.063	31657.42
713.407	31656.29
713.75	31559.79
714.094	31437.99
714.438	31424.43
714.782	31466.46
715.125	31208.61
715.469	31426.91
715.812	31197.77
716.156	31122.52
716.499	31023.08
716.843	31153.93
717.186	30854.5
717.53	31082.74
717.873	30947.6
718.216	30842.07
718.559	30843.88
718.902	30656.31
719.246	30707.84
719.589	30544
719.932	30409.54
720.275	30512.14
720.617	30394.4
720.96	30233.05
721.303	30330.45
721.646	30350.56
721.989	30063.33
722.331	30252.48
722.674	30153.05
723.016	30124.58
723.359	29998.02
723.701	29886.84
724.044	29915.77
724.386	29753.74
724.729	29844.13
725.071	29818.37
725.413	29708.31
725.755	29759.39
726.097	29671.71
726.439	29455.21
726.782	29429.68
727.124	29603.01
727.465	29313.52
727.807	29326.18
728.149	29330.25
728.491	29263.13
728.833	29186.97
729.175	29202.79
729.516	29165.5
729.858	29095.9
730.199	29069.46
730.541	28970.26
730.882	29002.12
731.224	28991.72
731.565	28827.66
731.906	28807.55
732.248	28811.62
732.589	28622.24
732.93	28602.81
733.271	28572.07
733.612	28728
733.953	28682.58
734.294	28595.58
734.635	28447.56
734.976	28519.19
735.317	28366.2
735.658	28343.38
735.999	28440.55
736.339	28310.61
736.68	28365.75
737.021	28276.26
737.361	28139.09
737.702	28282.14
738.042	28127.57
738.383	28017.96
738.723	28150.62
739.063	27913.11
739.404	28055.03
739.744	27967.34
740.084	27866.56
740.424	27834.24
740.764	27835.14
741.104	27875.82
741.444	27781.13
741.784	27727.12
742.124	27752.66
742.464	27621.59
742.804	27690.29
743.143	27563.29
743.483	27667.46
743.823	27441.03
744.162	27410.07
744.502	27448.04
744.841	27245.1
745.181	27449.62
745.52	27247.59
745.86	27237.65
746.199	27232.22
746.538	27172.79
746.877	27253.01
747.216	27164.65
747.556	27049.63
747.895	26918.33
748.234	26865.45
748.573	26925.11
748.911	26947.26
749.25	26811.44
749.589	26726.25
749.928	26739.58
750.267	26739.35
750.605	26705.68
750.944	26633.59
751.283	26539.58
751.621	26568.28
751.96	26296.43
752.298	26336.2
752.636	26428.4
752.975	26249.42
753.313	26105.7
753.651	26260.04
753.989	26173.04
754.327	26194.96
754.666	25967.4
755.004	25973.27
755.342	26102.99
755.679	26039.03
756.017	25737.35
756.355	25751.13
756.693	25566.95
757.031	25762.43
757.368	25652.83
757.706	25553.85
758.044	25500.97
758.381	25511.82
758.719	25390.01
759.056	25349.33
759.394	25328.09
759.731	25095.78
