Data from hue_160_FLMS001491_00086.txt Node
Date: Tue Feb 07 16:51:49 GMT 2017
User: dcchb
Spectrometer: FLMS00149
Trigger mode: 0
Integration Time (sec): 2.000000E-2
Scans to average: 10
Electric dark correction enabled: true
Nonlinearity correction enabled: false
Boxcar width: 0
XAxis mode: Wavelengths
Number of Pixels in Spectrum: 2048
>>>>>Begin Spectral Data<<<<<
341.393	3.12
341.776	3.12
342.16	3.12
342.543	-65.58
342.927	-50.21
343.31	-86.82
343.693	-85.69
344.077	-64
344.46	-38.01
344.843	-56.76
345.226	-43.88
345.61	-21.74
345.993	-37.1
346.376	-9.76
346.759	4.7
347.142	28.43
347.525	57.58
347.908	61.42
348.291	85.15
348.674	96.9
349.057	109.56
349.44	120.41
349.823	138.94
350.206	179.16
350.588	209.67
350.971	220.74
351.354	222.1
351.737	252.61
352.119	248.99
352.502	270.68
352.884	269.56
353.267	280.85
353.65	285.6
354.032	294.87
354.414	298.71
354.797	316.79
355.179	335.32
355.562	331.47
355.944	325.6
356.326	324.02
356.709	336.22
357.091	340.97
357.473	342.55
357.855	351.36
358.238	339.61
358.62	359.04
359.002	343
359.384	359.04
359.766	354.98
360.148	348.2
360.53	343
360.912	339.84
361.294	317.69
361.676	340.29
362.057	343.23
362.439	340.51
362.821	335.32
363.203	315.66
363.584	328.08
363.966	345.71
364.348	323.11
364.729	331.02
365.111	322.21
365.493	304.36
365.874	326.5
366.256	338.93
366.637	307.97
367.019	323.56
367.4	321.31
367.781	304.81
368.163	327.86
368.544	321.31
368.925	320.4
369.306	301.87
369.688	320.85
370.069	303
370.45	308.65
370.831	314.07
371.212	327.86
371.593	329.21
371.974	320.85
372.355	306.16
372.736	313.62
373.117	326.73
373.498	307.97
373.879	330.34
374.26	298.03
374.641	292.61
375.021	317.01
375.402	311.81
375.783	339.61
376.163	344.13
376.544	337.12
376.925	348.65
377.305	336.22
377.686	331.25
378.066	336.9
378.447	323.56
378.827	326.05
379.208	321.53
379.588	323.79
379.968	340.74
380.349	344.58
380.729	333.28
381.109	338.03
381.489	325.15
381.87	341.87
382.25	345.94
382.63	334.41
383.01	326.05
383.39	318.59
383.77	328.08
384.15	342.32
384.53	357.69
384.91	366.73
385.29	349.55
385.67	357.01
386.049	338.71
386.429	349.55
386.809	353.17
387.189	357.91
387.568	345.94
387.948	325.37
388.328	343.9
388.707	359.5
389.087	359.5
389.466	345.03
389.846	352.72
390.225	351.36
390.605	364.24
390.984	388.65
391.363	370.34
391.743	366.05
392.122	367.63
392.501	396.56
392.881	386.84
393.26	371.47
393.639	379.83
394.018	379.61
394.397	379.38
394.776	365.82
395.155	374.64
395.534	378.25
395.913	397.46
396.292	380.96
396.671	397.46
397.05	395.65
397.429	401.3
397.808	403.56
398.186	394.75
398.565	383
398.944	390
399.323	371.47
399.701	400.63
400.08	392.94
400.458	428.87
400.837	407.4
401.215	419.61
401.594	407.63
401.972	416.44
402.351	400.63
402.729	424.81
403.107	431.36
403.486	420.06
403.864	422.55
404.242	422.32
404.62	433.62
404.999	421.64
405.377	446.73
405.755	435.88
406.133	442.88
406.511	434.52
406.889	426.61
407.267	447.63
407.645	423.45
408.023	455.76
408.401	468.19
408.779	467.06
409.156	451.25
409.534	463
409.912	451.7
410.29	467.97
410.667	459.83
411.045	473.39
411.422	468.42
411.8	468.87
412.178	477.46
412.555	487.4
412.933	480.62
413.31	466.16
413.687	474.3
414.065	480.17
414.442	491.47
414.819	489.66
415.197	507.06
415.574	507.97
415.951	524.24
416.328	515.65
416.705	530.11
417.082	535.54
417.46	537.12
417.837	535.99
418.214	540.73
418.591	532.15
418.967	539.83
419.344	541.64
419.721	539.83
420.098	551.58
420.475	562.88
420.852	541.64
421.228	552.03
421.605	575.99
421.982	562.88
422.358	565.14
422.735	589.09
423.111	574.18
423.488	600.17
423.864	581.64
424.241	590.22
424.617	594.07
424.994	632.03
425.37	599.04
425.746	602.43
426.123	634.29
426.499	627.29
426.875	601.75
427.251	638.13
427.627	610.34
428.003	633.84
428.379	627.51
428.756	646.49
429.132	667.74
429.507	681.3
429.883	673.16
430.259	667.74
430.635	671.8
431.011	675.87
431.387	689.43
431.763	695.98
432.138	695.08
432.514	724.91
432.89	711.35
433.265	713.61
433.641	727.17
434.016	716.77
434.392	740.96
434.767	744.8
435.143	763.33
435.518	770.11
435.894	775.98
436.269	773.95
436.644	790.9
437.02	792.93
437.395	778.92
437.77	796.09
438.145	787.51
438.52	840.84
438.895	828.64
439.271	812.82
439.646	820.05
440.021	855.08
440.395	837.45
440.77	889.43
441.145	872.93
441.52	868.86
441.895	882.87
442.27	876.09
442.645	907.5
443.019	885.13
443.394	904.57
443.769	900.27
444.143	914.51
444.518	883.55
444.892	919.48
445.267	905.7
445.641	953.83
446.016	962.64
446.39	932.59
446.764	936.66
447.139	965.13
447.513	957.9
447.887	981.4
448.262	963.1
448.636	985.24
449.01	1001.97
449.384	990.67
449.758	1003.32
450.132	1010.1
450.506	1035.64
450.88	1043.55
451.254	1019.37
451.628	1047.39
452.002	1079.48
452.376	1075.86
452.75	1085.58
453.123	1081.96
453.497	1076.09
453.871	1132.58
454.244	1116.76
454.618	1126.71
454.992	1130.55
455.365	1166.03
455.739	1158.57
456.112	1173.03
456.486	1208.97
456.859	1213.03
457.232	1221.17
457.606	1256.65
457.979	1227.27
458.352	1276.08
458.725	1271.79
459.099	1273.82
459.472	1325.57
459.845	1332.58
460.218	1322.86
460.591	1342.07
460.964	1349.98
461.337	1387.49
461.71	1419.13
462.083	1426.13
462.456	1472.69
462.829	1479.47
463.201	1459.35
463.574	1498.45
463.947	1515.4
464.32	1537.32
464.692	1534.61
465.065	1561.95
465.438	1586.81
465.81	1619.8
466.183	1642.85
466.555	1667.71
466.928	1717.88
467.3	1690.53
467.672	1730.99
468.045	1769.4
468.417	1795.62
468.789	1807.37
469.161	1832.23
469.534	1907.48
469.906	1906.8
470.278	1966.01
470.65	1984.54
471.022	2005.33
471.394	2063.63
471.766	2065.21
472.138	2123.74
472.51	2154.93
472.882	2218.88
473.253	2259.56
473.625	2307.24
473.997	2362.38
474.369	2393.79
474.74	2445.77
475.112	2521.25
475.484	2554.47
475.855	2650.51
476.227	2649.61
476.598	2754.69
476.97	2784.74
477.341	2875.59
477.713	2933.67
478.084	2989.94
478.455	3078.52
478.827	3138.41
479.198	3248.01
479.569	3292.3
479.94	3364.84
480.311	3448.23
480.682	3566.19
481.053	3695.45
481.424	3751.72
481.795	3859.07
482.166	3934.32
482.537	3996.01
482.908	4126.4
483.279	4174.31
483.65	4373.63
484.021	4482.78
484.391	4561.87
484.762	4607.07
485.133	4746.73
485.503	4823.56
485.874	5005.25
486.244	5057.68
486.615	5214.51
486.985	5312.13
487.356	5442.3
487.726	5563.88
488.097	5685.91
488.467	5768.17
488.837	6002.74
489.207	6077.09
489.578	6215.39
489.948	6326.8
490.318	6482.05
490.688	6575.6
491.058	6689.5
491.428	6776.5
491.798	6972.43
492.168	7124.29
492.538	7225.98
492.908	7325.87
493.278	7527.67
493.648	7560.66
494.017	7695.35
494.387	7930.82
494.757	7982.8
495.126	8129.69
495.496	8156.35
495.866	8311.83
496.235	8435.67
496.605	8582.1
496.974	8660.75
497.344	8735.1
497.713	8844.47
498.082	8955.88
498.452	9088.76
498.821	9139.83
499.19	9205.59
499.559	9327.62
499.928	9453.49
500.298	9483.32
500.667	9694.62
501.036	9718.8
501.405	9802.19
501.774	9868.17
502.143	9926.48
502.512	10002.63
502.88	10152.69
503.249	10147.71
503.618	10259.35
503.987	10330.76
504.356	10402.17
504.724	10421.6
505.093	10512
505.462	10551.09
505.83	10603.07
506.199	10699.56
506.567	10879.22
506.936	10915.38
507.304	11020.23
507.672	10984.53
508.041	11112.66
508.409	11196.05
508.777	11256.84
509.145	11353.56
509.514	11327.12
509.882	11371.64
510.25	11406.66
510.618	11511.52
510.986	11507.9
511.354	11649.37
511.722	11742.7
512.09	11732.3
512.458	11690.27
512.826	11821.34
513.193	11811.4
513.561	11948.57
513.929	11959.87
514.297	12123.25
514.664	12132.75
515.032	12124.61
515.4	12116.7
515.767	12189.24
516.135	12279.41
516.502	12089.36
516.869	12382.46
517.237	12397.6
517.604	12376.36
517.972	12433.75
518.339	12405.06
518.706	12464.49
519.073	12466.97
519.44	12541.32
519.808	12584.03
520.175	12535.67
520.542	12654.54
520.909	12732.5
521.276	12663.81
521.643	12707.87
522.009	12772.5
522.376	12774.99
522.743	12843.46
523.11	12935.66
523.477	12988.54
523.843	13017.69
524.21	13057.69
524.577	13115.54
524.943	13097.47
525.31	13147.63
525.676	13132.04
526.043	13193.74
526.409	13151.25
526.776	13283
527.142	13251.59
527.508	13246.61
527.874	13337.46
528.241	13314.18
528.607	13264.24
528.973	13398.48
529.339	13318.03
529.705	13351.24
530.071	13458.13
530.437	13367.52
530.803	13433.5
531.169	13457.46
531.535	13388.98
531.901	13404.35
532.267	13400.06
532.632	13428.53
532.998	13365.03
533.364	13452.49
533.73	13380.85
534.095	13348.53
534.461	13433.5
534.826	13392.83
535.192	13364.35
535.557	13410
535.923	13278.7
536.288	13357.35
536.653	13309.66
537.019	13246.84
537.384	13216.33
537.749	13174.3
538.114	13181.76
538.479	13161.65
538.845	13183.11
539.21	13148.09
539.575	13104.25
539.94	13064.47
540.305	13112.61
540.67	13006.62
541.034	12987.86
541.399	12991.93
541.764	12984.47
542.129	12891.37
542.494	12925.04
542.858	12929.34
543.223	12923.69
543.587	12840.52
543.952	12838.04
544.316	12764.82
544.681	12694.54
545.045	12705.61
545.41	12730.7
545.774	12689.34
546.138	12683.69
546.503	12633.52
546.867	12525.73
547.231	12621.55
547.595	12608.67
547.959	12537.03
548.324	12457.03
548.688	12478.95
549.052	12321.44
549.416	12328
549.779	12375.45
550.143	12298.39
550.507	12286.41
550.871	12277.37
551.235	12272.63
551.599	12278.28
551.962	12252.06
552.326	12276.7
552.689	12243.93
553.053	12193.76
553.417	12161.9
553.78	12215.68
554.143	12049.36
554.507	12066.31
554.87	11980.89
555.234	12117.61
555.597	12056.36
555.96	12054.56
556.323	11988.57
556.686	11930.72
557.05	12033.77
557.413	12037.16
557.776	12008.46
558.139	12022.92
558.502	11959.64
558.865	11987.67
559.228	12002.58
559.59	11993.54
559.953	11973.2
560.316	12077.15
560.679	11922.13
561.041	11963.71
561.404	12034.22
561.767	12075.12
562.129	11944.95
562.492	12047.1
562.854	11981.56
563.217	11982.69
563.579	11956.48
563.941	11975.01
564.304	11989.25
564.666	12105.63
565.028	12073.54
565.39	12059.3
565.753	12055.46
566.115	12172.52
566.477	12098.17
566.839	12163.48
567.201	12168.9
567.563	12128.23
567.925	12187.43
568.287	12179.75
568.648	12177.94
569.01	12199.18
569.372	12266.08
569.734	12227.43
570.095	12288.45
570.457	12281.22
570.819	12315.79
571.18	12245.96
571.542	12258.62
571.903	12282.12
572.265	12307.88
572.626	12295.45
572.987	12349.69
573.349	12322.57
573.71	12405.28
574.071	12318.5
574.432	12344.27
574.794	12455.45
575.155	12393.08
575.516	12414.09
575.877	12401.67
576.238	12404.83
576.599	12400.31
576.96	12422.46
577.32	12444.15
577.681	12532.51
578.042	12475.56
578.403	12469.69
578.763	12536.58
579.124	12538.16
579.485	12478.05
579.845	12475.56
580.206	12436.92
580.566	12424.04
580.927	12497.71
581.287	12536.58
581.648	12359.18
582.008	12546.75
582.368	12522.34
582.728	12470.36
583.089	12426.98
583.449	12436.69
583.809	12460.87
584.169	12374.55
584.529	12431.27
584.889	12511.49
585.249	12347.43
585.609	12343.14
585.969	12399.63
586.329	12288.45
586.688	12367.77
587.048	12367.54
587.408	12370.71
587.768	12368.67
588.127	12338.39
588.487	12310.14
588.846	12363.25
589.206	12240.09
589.565	12245.96
589.925	12336.81
590.284	12265.85
590.643	12226.75
591.003	12237.15
591.362	12263.14
591.721	12264.27
592.08	12254.78
592.44	12256.13
592.799	12291.84
593.158	12253.42
593.517	12264.72
593.876	12329.12
594.235	12187.66
594.593	12212.97
594.952	12253.87
595.311	12145.85
595.67	12215.91
596.029	12208
596.387	12215.91
596.746	12134.55
597.104	12108.11
597.463	12205.51
597.822	12241.9
598.18	12102.46
598.538	12180.43
598.897	12235.12
599.255	12132.75
599.613	12251.16
599.972	12136.81
600.33	12184.04
600.688	12135.91
601.046	12196.93
601.404	12232.18
601.762	12132.07
602.12	12295.23
602.478	12273.53
602.836	12206.19
603.194	12113.99
603.552	12270.82
603.91	12084.61
604.268	12172.52
604.625	12198.28
604.983	12228.56
605.341	12191.5
605.698	12142.01
606.056	12256.81
606.413	12172.29
606.771	12252.97
607.128	12184.72
607.485	12211.16
607.843	12170.49
608.2	12195.34
608.557	12200.09
608.914	12166.64
609.272	12269.47
609.629	12277.15
609.986	12450.25
610.343	12288
610.7	12332.51
611.057	12188.34
611.414	12269.69
611.771	12359.18
612.127	12299.75
612.484	12293.42
612.841	12408.22
613.198	12352.4
613.554	12331.84
613.911	12441.21
614.267	12419.97
614.624	12410.03
614.98	12373.87
615.337	12412.96
615.693	12398.28
616.05	12399.18
616.406	12532.06
616.762	12498.16
617.118	12494.32
617.475	12454.77
617.831	12565.95
618.187	12495.67
618.543	12410.48
618.899	12608.89
619.255	12486.86
619.611	12541.77
619.967	12567.76
620.323	12627.87
620.678	12530.7
621.034	12471.04
621.39	12487.99
621.746	12491.15
622.101	12590.36
622.457	12537.71
622.812	12494.77
623.168	12609.34
623.523	12544.94
623.879	12587.88
624.234	12512.62
624.589	12564.37
624.945	12491.83
625.3	12514.66
625.655	12513.75
626.01	12528.67
626.365	12574.77
626.72	12562.11
627.075	12580.42
627.43	12526.18
627.785	12418.84
628.14	12526.41
628.495	12492.74
628.85	12480.76
629.205	12429.01
629.559	12539.29
629.914	12418.84
630.269	12479.4
630.623	12459.07
630.978	12476.24
631.332	12470.36
631.687	12497.48
632.041	12456.35
632.396	12369.58
632.75	12366.19
633.104	12334.1
633.459	12328.9
633.813	12342.23
634.167	12379.07
634.521	12322.12
634.875	12359.41
635.229	12315.57
635.583	12173.87
635.937	12239.18
636.291	12262.01
636.645	12201.44
636.999	12184.95
637.352	12248
637.706	12173.87
638.06	12252.74
638.413	12158.28
638.767	12078.96
639.121	12130.03
639.474	12128.68
639.828	12133.2
640.181	12052.75
640.534	12109.47
640.888	12062.92
641.241	11965.07
641.594	12052.75
641.947	12007.78
642.301	12058.17
642.654	11965.07
643.007	11984.73
643.36	12003.03
643.713	11998.06
644.066	12092.75
644.419	11930.27
644.771	11834
645.124	11705.64
645.477	11745.86
645.83	11662.7
646.182	11668.8
646.535	11586.77
646.888	11611.4
647.24	11563.04
647.593	11562.82
647.945	11661.35
648.298	11525.08
648.65	11511.97
649.002	11518.52
649.355	11584.74
649.707	11579.09
650.059	11614.34
650.411	11847.1
650.763	11769.82
651.115	11933.88
651.467	11803.26
651.819	11777.05
652.171	11815.92
652.523	11771.63
652.875	11782.7
653.227	11791.51
653.578	11841.68
653.93	11870.38
654.282	11765.3
654.633	11785.41
654.985	11770.72
655.337	11768.91
655.688	11793.09
656.039	11808.69
656.391	11695.02
656.742	11787.9
657.094	11740.44
657.445	11779.99
657.796	11763.04
658.147	11791.74
658.498	11755.81
658.849	11763.49
659.2	11735.47
659.551	11786.09
659.902	11768.46
660.253	11730.5
660.604	11783.15
660.955	11745.86
661.306	11816.82
661.656	11832.64
662.007	11839.87
662.358	11810.27
662.708	11809.36
663.059	11793.32
663.409	11819.08
663.76	11806.88
664.11	11857.27
664.461	11871.28
664.811	11904.05
665.161	11831.74
665.511	11891.85
665.862	11848.69
666.212	11890.72
666.562	11800.55
666.912	11901.11
667.262	11872.41
667.612	11860.21
667.962	11923.03
668.312	11807.1
668.662	11885.52
669.011	11819.53
669.361	11858.18
669.711	11852.53
670.06	11753.77
670.41	11843.71
670.76	11826.31
671.109	11890.27
671.459	11787.22
671.808	11724.4
672.157	11819.31
672.507	11748.12
672.856	11709.03
673.205	11757.39
673.554	11801.23
673.904	11749.25
674.253	11721.91
674.602	11757.16
674.951	11631.74
675.3	11507.68
675.649	11696.37
675.998	11690.95
676.346	11597.62
676.695	11711.97
677.044	11622.48
677.393	11740.89
677.741	11672.42
678.09	11592.2
678.438	11626.54
678.787	11594.91
679.135	11584.51
679.484	11532.76
679.832	11614.34
680.181	11450.05
680.529	11438.53
680.877	11387.91
681.225	11413.44
681.573	11466.1
681.922	11404.4
682.27	11413.44
682.618	11402.82
682.966	11348.13
683.314	11393.1
683.661	11365.31
684.009	11291.64
684.357	11308.13
684.705	11229.94
685.053	11245.99
685.4	11164.41
685.748	11181.36
686.095	11236.95
686.443	11162.6
686.79	11111.3
687.138	11180.68
687.485	11211.64
687.832	11101.59
688.18	11021.14
688.527	11023.17
688.874	10949.5
689.221	10930.07
689.568	10900.46
689.915	10875.83
690.262	10878.09
690.609	10833.12
690.956	10775.95
691.303	10825.21
691.65	10769.17
691.997	10682.39
692.344	10683.52
692.69	10667.02
693.037	10567.59
693.383	10506.8
693.73	10589.28
694.077	10473.58
694.423	10430.64
694.769	10446.24
695.116	10429.51
695.462	10332.34
695.808	10355.17
696.155	10395.39
696.501	10268.61
696.847	10256.86
697.193	10131.67
697.539	10173.48
697.885	10116.98
698.231	10106.13
698.577	10063.65
698.923	10036.53
699.269	9965.35
699.614	9933.03
699.96	9893.48
700.306	9854.39
700.651	9771.68
700.997	9765.8
701.342	9766.25
701.688	9730.1
702.033	9707.72
702.379	9690.1
702.724	9652.13
703.069	9701.4
703.415	9576.65
703.76	9540.5
704.105	9539.82
704.45	9545.02
704.795	9401.29
705.14	9446.94
705.485	9425.25
705.83	9383.21
706.175	9390.67
706.52	9383.44
706.865	9333.5
707.209	9304.35
707.554	9274.74
707.899	9266.61
708.243	9211.69
708.588	9198.36
708.932	9103.67
709.277	9102.77
709.621	9084.46
709.966	8984.58
710.31	9056.89
710.654	8986.16
710.998	8982.55
711.342	8959.5
711.687	8943.45
712.031	8872.72
712.375	8877.24
712.719	8950.68
713.063	8869.55
713.407	8863.23
713.75	8816.9
714.094	8824.13
714.438	8799.05
714.782	8839.73
715.125	8728.77
715.469	8724.02
715.812	8708.2
716.156	8720.41
716.499	8712.95
716.843	8681.09
717.186	8679.73
717.53	8673.63
717.873	8672.27
718.216	8693.97
718.559	8589.11
718.902	8585.95
719.246	8563.8
719.589	8553.18
719.932	8540.07
720.275	8491.26
720.617	8558.15
720.96	8584.82
721.303	8493.07
721.646	8490.58
721.989	8435.67
722.331	8540.3
722.674	8477.7
723.016	8536.46
723.359	8473.63
723.701	8473.86
724.044	8415.56
724.386	8325.39
724.729	8400.87
725.071	8460.98
725.413	8380.75
725.755	8398.38
726.097	8331.72
726.439	8336.69
726.782	8351.15
727.124	8357.25
727.465	8366.29
727.807	8310.7
728.149	8355.67
728.491	8341.21
728.833	8363.35
729.175	8279.51
729.516	8317.25
729.858	8305.73
730.199	8307.08
730.541	8277.93
730.882	8359.51
731.224	8345.95
731.565	8274.09
731.906	8269.8
732.248	8305.28
732.589	8223.02
732.93	8255.11
733.271	8304.37
733.612	8251.27
733.953	8318.38
734.294	8281.77
734.635	8252.85
734.976	8260.53
735.317	8291.27
735.658	8293.52
735.999	8291.27
736.339	8266.86
736.68	8314.77
737.021	8320.42
737.361	8336.91
737.702	8385.05
738.042	8285.62
738.383	8321.77
738.723	8378.27
739.063	8311.15
739.404	8272.28
739.744	8387.31
740.084	8346.18
740.424	8338.72
740.764	8357.93
741.104	8402.9
741.444	8407.19
741.784	8367.42
742.124	8392.96
742.464	8447.87
742.804	8477.7
743.143	8496.23
743.483	8466.85
743.823	8461.43
744.162	8564.93
744.502	8559.28
744.841	8543.24
745.181	8632.95
745.52	8679.28
745.86	8633.4
746.199	8624.59
746.538	8639.73
746.877	8737.81
747.216	8798.14
747.556	8837.24
747.895	8911.59
748.234	8884.02
748.573	8942.55
748.911	8983.68
749.25	9048.99
749.589	9029.1
749.928	9107.29
750.267	9238.81
750.605	9315.42
750.944	9307.96
751.283	9402.42
751.621	9514.96
751.96	9544.57
752.298	9686.26
752.636	9794.05
752.975	9731.23
753.313	9894.84
753.651	9987.94
753.989	10049.86
754.327	10181.16
754.666	10272.91
755.004	10400.36
755.342	10551.54
755.679	10584.31
756.017	10734.82
756.355	10887.81
756.693	10976.62
757.031	11138.65
757.368	11152.66
757.706	11377.96
758.044	11394.01
758.381	11639.2
758.719	11757.61
759.056	11921.9
759.394	12020.88
759.731	12116.02
