Data from hue_26_FLMS001491_00053.txt Node
Date: Tue Feb 07 17:14:12 GMT 2017
User: dcchb
Spectrometer: FLMS00149
Trigger mode: 0
Integration Time (sec): 2.000000E-2
Scans to average: 10
Electric dark correction enabled: true
Nonlinearity correction enabled: false
Boxcar width: 0
XAxis mode: Wavelengths
Number of Pixels in Spectrum: 2048
>>>>>Begin Spectral Data<<<<<
341.393	-27.03
341.776	-27.03
342.16	-27.03
342.543	-54.6
342.927	-52.8
343.31	-85.56
343.693	-50.08
344.077	-59.35
344.46	-57.54
344.843	-57.77
345.226	-54.15
345.61	-29.29
345.993	-11.44
346.376	-12.8
346.759	-18.45
347.142	27.2
347.525	48.22
347.908	69.46
348.291	88.22
348.674	86.41
349.057	116.92
349.44	127.54
349.823	154.2
350.206	164.6
350.588	192.4
350.971	212.73
351.354	220.87
351.737	231.94
352.119	251.15
352.502	257.71
352.884	282.79
353.267	283.24
353.65	305.16
354.032	283.47
354.414	301.55
354.797	297.03
355.179	318.95
355.562	309.68
355.944	346.97
356.326	350.81
356.709	354.2
357.091	345.84
357.473	362.34
357.855	322.56
358.238	348.32
358.62	355.33
359.002	336.35
359.384	347.65
359.766	326.4
360.148	347.19
360.53	346.97
360.912	344.48
361.294	320.53
361.676	338.83
362.057	328.89
362.439	329.12
362.821	334.99
363.203	329.34
363.584	324.14
363.966	314.88
364.348	328.21
364.729	333.64
365.111	311.49
365.493	312.39
365.874	323.24
366.256	292.73
366.637	308.78
367.019	302
367.4	320.53
367.781	321.88
368.163	309.91
368.544	303.58
368.925	307.42
369.306	320.3
369.688	316.69
370.069	323.47
370.45	308.78
370.831	314.43
371.212	306.97
371.593	287.76
371.974	314.88
372.355	322.79
372.736	314.65
373.117	324.82
373.498	330.92
373.879	322.56
374.26	306.29
374.641	323.69
375.021	327.99
375.402	310.81
375.783	321.43
376.163	344.71
376.544	333.64
376.925	329.57
377.305	310.81
377.686	323.47
378.066	302.68
378.447	334.99
378.827	339.06
379.208	331.6
379.588	329.57
379.968	311.94
380.349	339.28
380.729	316.23
381.109	340.41
381.489	332.96
381.87	333.41
382.25	346.74
382.63	340.19
383.01	365.95
383.39	360.53
383.77	346.52
384.15	348.78
384.53	338.38
384.91	374.76
385.29	371.37
385.67	341.09
386.049	353.52
386.429	356.23
386.809	346.74
387.189	341.77
387.568	359.62
387.948	370.92
388.328	356.01
388.707	353.75
389.087	349.45
389.466	346.06
389.846	370.92
390.225	366.4
390.605	365.95
390.984	394.42
391.363	362.79
391.743	365.72
392.122	375.89
392.501	374.54
392.881	385.39
393.26	372.05
393.639	374.99
394.018	381.77
394.397	403.01
394.776	376.57
395.155	386.97
395.534	381.32
395.913	392.84
396.292	386.97
396.671	388.32
397.05	367.31
397.429	388.78
397.808	376.8
398.186	401.2
398.565	411.37
398.944	390.36
399.323	398.94
399.701	412.05
400.08	408.66
400.458	409.34
400.837	413.41
401.215	424.48
401.594	409.11
401.972	410.24
402.351	410.7
402.729	390.58
403.107	419.06
403.486	407.31
403.864	412.5
404.242	422.9
404.62	433.75
404.999	420.86
405.377	424.93
405.755	436.46
406.133	424.03
406.511	425.61
406.889	422.9
407.267	436.91
407.645	468.1
408.023	457.93
408.401	443.91
408.779	447.3
409.156	467.64
409.534	443.69
409.912	458.83
410.29	462.22
410.667	429
411.045	462.67
411.422	448.43
411.8	463.35
412.178	472.84
412.555	466.06
412.933	492.73
413.31	499.51
413.687	492.73
414.065	483.46
414.442	489.34
414.819	468.77
415.197	488.43
415.574	504.03
415.951	506.96
416.328	515.78
416.705	483.24
417.082	511.48
417.46	506.29
417.837	508.09
418.214	516.23
418.591	515.1
418.967	539.28
419.344	515.33
419.721	526.62
420.098	527.3
420.475	511.71
420.852	538.6
421.228	532.27
421.605	540.86
421.982	546.29
422.358	561.43
422.735	535.66
423.111	549.45
423.488	547.19
423.864	551.48
424.241	578.15
424.617	554.19
424.994	587.87
425.37	568.43
425.746	571.6
426.123	582.89
426.499	581.31
426.875	583.57
427.251	613.63
427.627	596.45
428.003	589.45
428.379	625.15
428.756	581.99
429.132	614.31
429.507	613.18
429.883	619.28
430.259	648.43
430.635	636.45
431.011	659.95
431.387	648.43
431.763	645.04
432.138	637.13
432.514	639.62
432.89	652.27
433.265	677.13
433.641	701.08
434.016	668.54
434.392	690.91
434.767	690.24
435.143	690.69
435.518	695.89
435.894	681.2
436.269	705.83
436.644	714.64
437.02	735.66
437.395	726.62
437.77	738.14
438.145	721.87
438.52	757.13
438.895	727.3
439.271	746.96
439.646	772.72
440.021	763.68
440.395	773.85
440.77	771.59
441.145	778.6
441.52	772.49
441.895	784.02
442.27	751.48
442.645	808.65
443.019	812.49
443.394	788.09
443.769	801.65
444.143	813.85
444.518	825.83
444.892	806.84
445.267	853.4
445.641	807.52
446.016	821.53
446.39	847.52
446.764	831.7
447.139	841.42
447.513	858.82
447.887	836.67
448.262	854.75
448.636	863.79
449.01	876.9
449.384	864.47
449.758	870.34
450.132	888.65
450.506	866.73
450.88	897.91
451.254	887.52
451.628	902.89
452.002	914.41
452.376	896.11
452.75	900.4
453.123	949.66
453.497	943.79
453.871	945.6
454.244	959.16
454.618	967.52
454.992	962.77
455.365	980.62
455.739	988.31
456.112	1020.85
456.486	1007.06
456.859	1024.46
457.232	1032.15
457.606	1044.58
457.979	1055.88
458.352	1051.58
458.725	1080.51
459.099	1077.34
459.472	1061.3
459.845	1117.12
460.218	1097.46
460.591	1117.57
460.964	1130.45
461.337	1163.67
461.71	1165.25
462.083	1172.26
462.456	1164.57
462.829	1178.81
463.201	1209.32
463.574	1188.3
463.947	1212.48
464.32	1239.83
464.692	1246.15
465.065	1238.24
465.438	1264.46
465.81	1294.74
466.183	1280.5
466.555	1295.19
466.928	1362.76
467.3	1376.32
467.672	1339.26
468.045	1386.04
468.417	1391.69
468.789	1421.06
469.161	1454.51
469.534	1445.92
469.906	1483.89
470.278	1476.66
470.65	1523.89
471.022	1539.25
471.394	1532.47
471.766	1566.15
472.138	1578.35
472.51	1618.12
472.882	1637.33
473.253	1664.9
473.625	1676.88
473.997	1727.04
474.369	1716.2
474.74	1749.42
475.112	1795.74
475.484	1836.19
475.855	1870.77
476.227	1839.13
476.598	1927.94
476.97	1906.25
477.341	2018.11
477.713	2037.77
478.084	2012.46
478.455	2118.22
478.827	2071.89
479.198	2187.6
479.569	2221.95
479.94	2230.08
480.311	2305.56
480.682	2311.44
481.053	2392.34
481.424	2425.33
481.795	2436.86
482.166	2528.38
482.537	2555.05
482.908	2579
483.279	2641.15
483.65	2686.57
484.021	2705.55
484.391	2772.22
484.762	2833.23
485.133	2845.21
485.503	2909.16
485.874	2984.64
486.244	3010.4
486.615	3046.33
486.985	3109.16
487.356	3199.1
487.726	3232.54
488.097	3276.61
488.467	3325.42
488.837	3406.77
489.207	3439.77
489.578	3501.24
489.948	3535.81
490.318	3588.92
490.688	3637.28
491.058	3688.12
491.428	3756.82
491.798	3757.5
492.168	3901.68
492.538	3875.92
492.908	3949.36
493.278	4007.89
493.648	4036.81
494.017	4097.83
494.387	4155.91
494.757	4163.59
495.126	4201.1
495.496	4185.74
495.866	4323.81
496.235	4307.77
496.605	4395.9
496.974	4381.89
497.344	4420.53
497.713	4487.88
498.082	4493.07
498.452	4582.79
498.821	4601.77
499.19	4607.2
499.559	4617.82
499.928	4686.29
500.298	4731.26
500.667	4804.03
501.036	4763.8
501.405	4836.79
501.774	4845.38
502.143	4884.02
502.512	4929.22
502.88	4968.99
503.249	4982.55
503.618	5034.3
503.987	5035.88
504.356	5054.64
504.724	5113.4
505.093	5109.1
505.462	5148.88
505.83	5175.99
506.199	5224.13
506.567	5247.63
506.936	5263.9
507.304	5373.05
507.672	5318.36
508.041	5341.64
508.409	5401.98
508.777	5449.66
509.145	5456.66
509.514	5508.64
509.882	5477.45
510.25	5522.43
510.618	5529.88
510.986	5593.61
511.354	5559.94
511.722	5660.5
512.09	5681.97
512.458	5743.21
512.826	5748.41
513.193	5757.45
513.561	5812.36
513.929	5806.94
514.297	5889.65
514.664	5879.25
515.032	5906.82
515.4	5981.4
515.767	5967.39
516.135	6057.1
516.502	5982.07
516.869	6043.32
517.237	6090.77
517.604	6037.67
517.972	6093.94
518.339	6145.91
518.706	6185.01
519.073	6169.64
519.44	6204.89
519.808	6279.47
520.175	6245.34
520.542	6275.63
520.909	6344.78
521.276	6339.13
521.643	6401.95
522.009	6422.51
522.376	6455.96
522.743	6497.32
523.11	6554.26
523.477	6560.59
523.843	6624.77
524.21	6603.75
524.577	6675.62
524.943	6696.18
525.31	6716.74
525.676	6798.32
526.043	6821.83
526.409	6930.75
526.776	6881.03
527.142	6961.71
527.508	6927.36
527.874	6999.9
528.241	7045.32
528.607	7033.12
528.973	7152.44
529.339	7100.91
529.705	7229.73
530.071	7274.24
530.437	7265.43
530.803	7288.71
531.169	7388.37
531.535	7326.45
531.901	7415.71
532.267	7404.64
532.632	7479.66
532.998	7516.05
533.364	7548.59
533.73	7560.11
534.095	7590.17
534.461	7637.4
534.826	7659.32
535.192	7738.64
535.557	7741.35
535.923	7770.05
536.288	7852.76
536.653	7866.32
537.019	7829.03
537.384	7844.62
537.749	7854.57
538.114	7957.84
538.479	7990.61
538.845	7998.97
539.21	7983.15
539.575	8050.72
539.94	8102.24
540.305	8202.58
540.67	8169.14
541.034	8132.98
541.399	8208.68
541.764	8246.42
542.129	8279.87
542.494	8290.04
542.858	8379.07
543.223	8345.63
543.587	8417.26
543.952	8447.09
544.316	8459.07
544.681	8449.13
545.045	8554.89
545.41	8580.88
545.774	8624.72
546.138	8570.48
546.503	8669.01
546.867	8619.52
547.231	8777.03
547.595	8814.99
547.959	8823.81
548.324	8803.47
548.688	8812.73
549.052	8801.89
549.416	8917.36
549.779	8865.61
550.143	8950.58
550.507	9020.64
550.871	9029.45
551.235	9056.12
551.599	9129.79
551.962	9082.78
552.326	9141.77
552.689	9207.98
553.053	9128.88
553.417	9174.53
553.78	9295.21
554.143	9315.09
554.507	9319.84
554.87	9402.32
555.234	9418.37
555.597	9373.62
555.96	9424.24
556.323	9508.54
556.686	9535.88
557.05	9573.17
557.413	9650.68
557.776	9607.29
558.139	9660.62
558.502	9655.88
558.865	9693.39
559.228	9737.23
559.59	9786.49
559.953	9785.82
560.316	9831.69
560.679	9885.25
561.041	9933.16
561.404	9965.92
561.767	9971.12
562.129	9935.87
562.492	10104.68
562.854	10045.7
563.217	10054.96
563.579	10095.86
563.941	10151.23
564.304	10253.37
564.666	10298.8
565.028	10251.11
565.39	10325.69
565.753	10396.87
566.115	10402.07
566.477	10552.58
566.839	10516.87
567.201	10534.95
567.563	10560.94
567.925	10614.49
568.287	10687.04
568.648	10672.8
569.01	10756.64
569.372	10778.78
569.734	10724.1
570.095	10860.14
570.457	10854.71
570.819	10969.06
571.18	10883.41
571.542	11053.81
571.903	11065.1
572.265	11137.19
572.626	11171.99
572.987	11237.53
573.349	11260.13
573.71	11234.82
574.071	11360.92
574.432	11430.52
574.794	11552.78
575.155	11651.98
575.516	11539.67
575.877	11593.23
576.238	11712.77
576.599	11833.45
576.96	11924.29
577.32	11950.28
577.681	12051.29
578.042	12192.98
578.403	12252.19
578.763	12267.11
579.124	12423.26
579.485	12550.72
579.845	12741.9
580.206	12811.5
580.566	12881.55
580.927	13020.76
581.287	13132.62
581.648	13274.09
582.008	13508.2
582.368	13623.91
582.728	13736.67
583.089	13893.73
583.449	13944.58
583.809	14232.93
584.169	14390.21
584.529	14495.75
584.889	14800.6
585.249	14931.67
585.609	15092.8
585.969	15353.35
586.329	15542.95
586.688	15774.59
587.048	15938.2
587.408	16089.61
587.768	16389.71
588.127	16621.34
588.487	16899.3
588.846	17161.89
589.206	17330.7
589.565	17572.5
589.925	17882.1
590.284	18126.39
590.643	18394.63
591.003	18686.83
591.362	18970.89
591.721	19200.26
592.08	19516.41
592.44	19880.69
592.799	20163.4
593.158	20306.67
593.517	20590.05
593.876	21004.96
594.235	21267.77
594.593	21504.15
594.952	21908.44
595.311	22087.64
595.67	22404.24
596.029	22926.04
596.387	23064.34
596.746	23516.3
597.104	23652.34
597.463	23980.92
597.822	24353.34
598.18	24631.75
598.538	24849.37
598.897	25226.54
599.255	25437.16
599.613	25999.4
599.972	26086.63
600.33	26505.83
600.688	26593.51
601.046	27098.13
601.404	27316.88
601.762	27541.28
602.12	27972.23
602.478	28334.71
602.836	28437.08
603.194	28705.54
603.552	28977.85
603.91	29152.76
604.268	29506.88
604.625	29741.68
604.983	30017.15
605.341	30173.53
605.698	30493.52
606.056	30929.22
606.413	31079.95
606.771	31414.63
607.128	31654.62
607.485	31683.77
607.843	32031.56
608.2	32286.69
608.557	32686.68
608.914	32718.55
609.272	33172.09
609.629	33302.03
609.986	33656.83
610.343	33882.36
610.7	34087.55
611.057	34238.73
611.414	34339.29
611.771	34685.73
612.127	34946.28
612.484	34929.56
612.841	35378.14
613.198	35386.05
613.554	35751.91
613.911	36073.49
614.267	35995.97
614.624	36135.41
614.98	36332.91
615.337	36623.98
615.693	36768.61
616.05	36952.33
616.406	37303.28
616.762	37273.91
617.118	37461.47
617.475	37598.64
617.831	37755.25
618.187	37924.96
618.543	38052.64
618.899	38419.87
619.255	38414.67
619.611	38405.4
619.967	38627.77
620.323	38800.65
620.678	38794.32
621.034	38776.24
621.39	38937.82
621.746	39040.41
622.101	39604.92
622.457	39295.77
622.812	39594.75
623.168	39560.63
623.523	39761.07
623.879	39858.47
624.234	39757.91
624.589	40039.48
624.945	40041.97
625.3	40246.71
625.655	40288.97
626.01	40347.95
626.365	40448.29
626.72	40434.28
627.075	40540.04
627.43	40436.99
627.785	40572.35
628.14	40668.17
628.495	40897.54
628.85	40790.88
629.205	40743.87
629.559	40982.06
629.914	40841.5
630.269	40994.04
630.623	40864.1
630.978	40988.61
631.332	41055.28
631.687	41260.47
632.041	40966.24
632.396	41170.3
632.75	40975.96
633.104	41215.27
633.459	41121.94
633.813	41158.1
634.167	41045.56
634.521	41039.91
634.875	41428.83
635.229	41248.04
635.583	41020.48
635.937	41131.66
636.291	41140.47
636.645	41260.47
636.999	41170.98
637.352	41306.8
637.706	40990.87
638.06	41221.6
638.413	41037.88
638.767	41017.31
639.121	41113.13
639.474	40913.59
639.828	40975.73
640.181	41085.11
640.534	41100.02
640.888	41016.18
641.241	40927.6
641.594	41067.71
641.947	41089.63
642.301	40923.75
642.654	41052.79
643.007	40892.79
643.36	41063.19
643.713	40987.48
644.066	41054.6
644.419	40907.26
644.771	40614.38
645.124	40293.94
645.477	40326.71
645.83	39944.57
646.182	39921.52
646.535	39726.95
646.888	39766.95
647.24	39672.94
647.593	39983.89
647.945	39674.75
648.298	39706.61
648.65	39484.24
649.002	39541.19
649.355	39709.32
649.707	39619.38
650.059	39795.2
650.411	40380.72
650.763	40406.25
651.115	40742.52
651.467	40504.78
651.819	40701.61
652.171	40510.43
652.523	40524.22
652.875	40538.91
653.227	40569.41
653.578	40517.66
653.93	40562.86
654.282	40345.92
654.633	40210.33
654.985	40384.79
655.337	40389.53
655.688	40393.82
656.039	40543.2
656.391	40256.65
656.742	40355.18
657.094	40265.01
657.445	40455.29
657.796	40267.27
658.147	40242.19
658.498	40347.27
658.849	40391.57
659.2	40273.83
659.551	40176.2
659.902	40198.8
660.253	40201.74
660.604	40281.29
660.955	40072.25
661.306	40317.22
661.656	40215.75
662.007	40352.02
662.358	40251.91
662.708	40194.96
663.059	40244.45
663.409	40014.63
663.76	40282.87
664.11	40314.28
664.461	40223.66
664.811	40123.32
665.161	40036.55
665.511	40148.63
665.862	40129.2
666.212	40166.03
666.562	40210.78
666.912	40062.08
667.262	40122.87
667.612	40155.41
667.962	40148.63
668.312	40160.84
668.662	40303.43
669.011	40097.11
669.361	40002.42
669.711	40015.53
670.06	40029.31
670.41	39825.7
670.76	39807.17
671.109	39873.61
671.459	40009.88
671.808	39899.6
672.157	39999.94
672.507	39638.14
672.856	39813.28
673.205	39899.37
673.554	39950.9
673.904	39710.23
674.253	40036.55
674.602	39857.57
674.951	39218.94
675.3	39202.22
675.649	39743.22
675.998	39563.11
676.346	39782.99
676.695	39809.89
677.044	39535.32
677.393	39727.18
677.741	39686.5
678.09	39660.74
678.438	39513.85
678.787	39653.28
679.135	39658.7
679.484	39375.77
679.832	39415.55
680.181	39220.75
680.529	39434.75
680.877	39299.39
681.225	39272.05
681.573	39402.21
681.922	39185.5
682.27	38989.79
682.618	39091.71
682.966	38993.18
683.314	39009.91
683.661	38916.12
684.009	38618.96
684.357	38732.17
684.705	38648.56
685.053	38621.44
685.4	38631.16
685.748	38433.42
686.095	38460.77
686.443	38281.56
686.79	38365.18
687.138	38347.55
687.485	38242.02
687.832	38129.93
688.18	38183.04
688.527	38032.31
688.874	38033.43
689.221	38017.84
689.568	37875.02
689.915	37734.23
690.262	37777.4
690.609	37810.62
690.956	37596.84
691.303	37566.1
691.65	37321.82
691.997	37335.6
692.344	37067.81
692.69	37081.6
693.037	37124.98
693.383	36886.12
693.73	36936.51
694.077	36662.17
694.423	36889.74
694.769	36674.37
695.116	36443.42
695.462	36379.69
695.808	36409.75
696.155	36571.55
696.501	36120.72
696.847	36079.59
697.193	35948.74
697.539	36083.43
697.885	35777
698.231	35700.84
698.577	35675.76
698.923	35675.53
699.269	35474.41
699.614	35317.35
699.96	35347.4
700.306	35237.58
700.651	35016.79
700.997	35045.72
701.342	34983.35
701.688	34852.28
702.033	34955.32
702.379	34832.84
702.724	34564.37
703.069	34644.15
703.415	34321.44
703.76	34403.7
704.105	34361.89
704.45	34271.27
704.795	34134.1
705.14	33915.58
705.485	33987.89
705.83	33826.09
706.175	33920.32
706.52	33775.02
706.865	33540.22
707.209	33670.39
707.554	33490.05
707.899	33554.23
708.243	33411.41
708.588	33373.22
708.932	33215.48
709.277	33112.21
709.621	33133.45
709.966	32940.91
710.31	33072.44
710.654	32644.65
710.998	32732.78
711.342	32827.24
711.687	32612.11
712.031	32586.57
712.375	32395.62
712.719	32429.97
713.063	32486.69
713.407	32533.01
713.75	32413.24
714.094	32347.48
714.438	32084.21
714.782	32146.81
715.125	32024.1
715.469	32068.17
715.812	32012.12
716.156	31833.37
716.499	31774.62
716.843	31868.85
717.186	31808.06
717.53	31721.74
717.873	31805.58
718.216	31581.63
718.559	31598.8
718.902	31296.44
719.246	31352.25
719.589	31372.82
719.932	31199.94
720.275	31169.21
720.617	31200.39
720.96	31075.65
721.303	31074.3
721.646	31042.66
721.989	30892.61
722.331	30946.16
722.674	30896.45
723.016	30916.33
723.359	30837.92
723.701	30771.03
724.044	30538.94
724.386	30496.23
724.729	30521.99
725.071	30405.84
725.413	30557.7
725.755	30521.54
726.097	30258.05
726.439	30180.99
726.782	30156.13
727.124	30398.61
727.465	30106.41
727.807	30160.42
728.149	30027.77
728.491	30004.95
728.833	30041.1
729.175	29964.27
729.516	29821.45
729.858	29738.96
730.199	29838.85
730.541	29804.05
730.882	29860.54
731.224	29769.7
731.565	29665.07
731.906	29708
732.248	29677.72
732.589	29517.95
732.93	29472.98
733.271	29404.28
733.612	29362.25
733.953	29494
734.294	29387.33
734.635	29297.62
734.976	29397.05
735.317	29187.11
735.658	29098.08
735.999	29136.04
736.339	29076.61
736.68	29165.42
737.021	29106.44
737.361	28854.47
737.702	29191.63
738.042	28940.79
738.383	28813.56
738.723	29007.91
739.063	28785.77
739.404	28912.32
739.744	28765.43
740.084	28755.94
740.424	28646.34
740.764	28575.38
741.104	28688.6
741.444	28477.08
741.784	28414.25
742.124	28590.75
742.464	28491.54
742.804	28467.36
743.143	28387.59
743.483	28343.75
743.823	28229.4
744.162	28217.42
744.502	28299.45
744.841	28247.03
745.181	28234.6
745.52	27975.39
745.86	28198.21
746.199	28011.55
746.538	27891.1
746.877	28096.97
747.216	28056.3
747.556	27924.55
747.895	27899.46
748.234	27829.41
748.573	27883.42
748.911	27731.78
749.25	27816.3
749.589	27613.82
749.928	27634.39
750.267	27739.47
750.605	27563.2
750.944	27518.23
751.283	27491.34
751.621	27554.61
751.96	27367.73
752.298	27333.38
752.636	27248.86
752.975	27352.36
753.313	27186.49
753.651	27269.88
753.989	27159.6
754.327	27056.77
754.666	26931.13
755.004	27081.63
755.342	27085.7
755.679	26907.63
756.017	26760.29
756.355	26928.42
756.693	26724.13
757.031	26832.83
757.368	26762.77
757.706	26612.04
758.044	26594.87
758.381	26518.03
758.719	26378.83
759.056	26421.31
759.394	26424.93
