Data from hue_40_FLMS001491_4.txt Node
Date: Mon Feb 06 15:07:21 GMT 2017
User: dcchb
Spectrometer: FLMS00149
Trigger mode: 0
Integration Time (sec): 2.000000E-2
Scans to average: 10
Electric dark correction enabled: true
Nonlinearity correction enabled: false
Boxcar width: 0
XAxis mode: Wavelengths
Number of Pixels in Spectrum: 2048
>>>>>Begin Spectral Data<<<<<
341.393	-9.55
341.776	-9.55
342.16	-9.55
342.543	-61.75
342.927	-75.76
343.31	-68.53
343.693	-68.3
344.077	-62.88
344.46	-69.66
344.843	-36.44
345.226	-49.55
345.61	-26.5
345.993	-7.29
346.376	-21.07
346.759	7.4
347.142	27.74
347.525	37.46
347.908	54.63
348.291	82.2
348.674	87.4
349.057	113.39
349.44	136.44
349.823	153.61
350.206	163.78
350.588	208.98
350.971	191.35
351.354	205.81
351.737	260.95
352.119	243.33
352.502	263.21
352.884	277.68
353.267	275.42
353.65	277.22
354.032	307.96
354.414	299.82
354.797	305.92
355.179	320.84
355.562	317.9
355.944	340.05
356.326	319.26
356.709	333.72
357.091	321.97
357.473	360.16
357.855	354.74
358.238	354.06
358.62	344.57
359.002	342.31
359.384	337.34
359.766	360.61
360.148	312.25
360.53	341.63
360.912	353.38
361.294	335.75
361.676	362.87
362.057	323.55
362.439	319.03
362.821	333.04
363.203	332.82
363.584	329.65
363.966	327.62
364.348	342.76
364.729	319.26
365.111	347.5
365.493	320.39
365.874	309.31
366.256	319.71
366.637	353.83
367.019	307.96
367.4	307.51
367.781	312.7
368.163	325.58
368.544	324.23
368.925	326.94
369.306	327.17
369.688	312.7
370.069	321.74
370.45	318.58
370.831	324.91
371.212	344.79
371.593	316.55
371.974	335.98
372.355	327.62
372.736	335.3
373.117	326.71
373.498	345.25
373.879	308.41
374.26	338.92
374.641	312.03
375.021	290.56
375.402	333.49
375.783	334.85
376.163	352.93
376.544	310.44
376.925	323.55
377.305	329.65
377.686	343.21
378.066	340.05
378.447	322.42
378.827	318.13
379.208	340.73
379.588	330.33
379.968	329.65
380.349	337.34
380.729	332.14
381.109	326.94
381.489	344.12
381.87	348.41
382.25	342.31
382.63	349.76
383.01	342.76
383.39	342.31
383.77	361.06
384.15	331.01
384.53	348.41
384.91	360.61
385.29	343.89
385.67	350.89
386.049	341.4
386.429	350.44
386.809	358.8
387.189	350.89
387.568	370.78
387.948	349.99
388.328	350.44
388.707	357.22
389.087	380.5
389.466	357
389.846	382.31
390.225	365.13
390.605	371.91
390.984	369.43
391.363	364.45
391.743	380.95
392.122	371.46
392.501	378.69
392.881	371.69
393.26	375.53
393.639	379.37
394.018	379.37
394.397	376.66
394.776	372.14
395.155	379.37
395.534	397.67
395.913	388.63
396.292	394.28
396.671	391.35
397.05	386.83
397.429	425.02
397.808	389.76
398.186	388.86
398.565	382.76
398.944	389.09
399.323	400.61
399.701	417.33
400.08	413.94
400.458	391.57
400.837	396.09
401.215	427.73
401.594	413.04
401.972	408.29
402.351	423.89
402.729	408.29
403.107	394.96
403.486	427.95
403.864	421.4
404.242	429.54
404.62	440.16
404.999	409.88
405.377	413.49
405.755	432.02
406.133	436.32
406.511	428.63
406.889	404.23
407.267	446.71
407.645	451.46
408.023	456.2
408.401	432.93
408.779	453.26
409.156	441.06
409.534	450.33
409.912	457.11
410.29	464.56
410.667	456.65
411.045	496.43
411.422	452.59
411.8	493.94
412.178	469.99
412.555	475.64
412.933	466.37
413.31	484.68
413.687	471.57
414.065	483.55
414.442	487.39
414.819	488.74
415.197	490.1
415.574	507.5
415.951	496.88
416.328	487.16
416.705	494.17
417.082	509.31
417.46	507.27
417.837	518.12
418.214	523.09
418.591	514.73
418.967	538.69
419.344	503.89
419.721	518.57
420.098	512.25
420.475	535.75
420.852	532.36
421.228	532.81
421.605	516.31
421.982	554.05
422.358	545.92
422.735	559.93
423.111	555.86
423.488	548.86
423.864	559.7
424.241	555.41
424.617	550.21
424.994	572.36
425.37	580.95
425.746	582.75
426.123	577.1
426.499	582.75
426.875	590.89
427.251	594.05
427.627	598.12
428.003	589.53
428.379	605.35
428.756	592.24
429.132	604
429.507	603.09
429.883	615.52
430.259	626.82
430.635	638.12
431.011	635.18
431.387	620.04
431.763	630.66
432.138	656.88
432.514	656.65
432.89	665.69
433.265	665.24
433.641	699.81
434.016	699.13
434.392	690.32
434.767	696.87
435.143	692.35
435.518	693.94
435.894	688.74
436.269	736.65
436.644	713.6
437.02	726.25
437.395	730.77
437.77	733.94
438.145	744.56
438.52	742.75
438.895	739.13
439.271	750.88
439.646	764.67
440.021	759.92
440.395	780.94
440.77	757.89
441.145	759.92
441.52	776.19
441.895	803.31
442.27	790.43
442.645	778.45
443.019	802.86
443.394	812.58
443.769	810.32
444.143	782.3
444.518	832.92
444.892	806.02
445.267	809.87
445.641	841.05
446.016	820.71
446.39	829.53
446.764	833.14
447.139	849.86
447.513	836.98
447.887	853.93
448.262	869.98
448.636	820.03
449.01	884.44
449.384	883.08
449.758	893.25
450.132	879.24
450.506	886.47
450.88	912.91
451.254	892.12
451.628	908.85
452.002	931.22
452.376	911.33
452.75	922.41
453.123	938
453.497	937.77
453.871	949.52
454.244	961.5
454.618	956.98
454.992	981.39
455.365	995.4
455.739	997.21
456.112	1014.61
456.486	1046.02
456.859	1032.01
457.232	1036.53
457.606	1024.55
457.979	1048.5
458.352	1073.59
458.725	1091.67
459.099	1111.1
459.472	1130.08
459.845	1116.98
460.218	1122.85
460.591	1130.54
460.964	1159.69
461.337	1170.99
461.71	1170.31
462.083	1197.2
462.456	1224.32
462.829	1225
463.201	1266.12
463.574	1236.52
463.947	1260.02
464.32	1286.92
464.692	1277.2
465.065	1313.36
465.438	1321.26
465.81	1347.48
466.183	1347.93
466.555	1368.04
466.928	1392.68
467.3	1387.25
467.672	1420.47
468.045	1469.74
468.417	1455.72
468.789	1453.01
469.161	1530.52
469.534	1535.95
469.906	1545.67
470.278	1583.18
470.65	1627.92
471.022	1597.64
471.394	1648.49
471.766	1670.86
472.138	1711.31
472.51	1750.86
472.882	1761.71
473.253	1800.57
473.625	1791.99
473.997	1888.48
474.369	1919.67
474.74	1906.11
475.112	1951.98
475.484	2019.78
475.855	2056.84
476.227	2097.74
476.598	2150.62
476.97	2157.17
477.341	2245.08
477.713	2286.21
478.084	2330.28
478.455	2393.78
478.827	2428.58
479.198	2490.27
479.569	2535.24
479.94	2627.22
480.311	2617.5
480.682	2737.72
481.053	2831.96
481.424	2863.37
481.795	3002.8
482.166	3010.71
482.537	3075.34
482.908	3190.59
483.279	3214.1
483.65	3332.96
484.021	3380.42
484.391	3458.16
484.762	3566.18
485.133	3624.25
485.503	3718.72
485.874	3799.17
486.244	3879.62
486.615	4007.52
486.985	4057.24
487.356	4161.19
487.726	4274.63
488.097	4383.33
488.467	4461.52
488.837	4535.42
489.207	4662.42
489.578	4768.18
489.948	4852.47
490.318	4946.48
490.688	5028.96
491.058	5171.11
491.428	5251.78
491.798	5306.02
492.168	5489.06
492.538	5549.63
492.908	5630.53
493.278	5770.87
493.648	5848.6
494.017	5978.32
494.387	6017.86
494.757	6158.88
495.126	6293.56
495.496	6352.77
495.866	6428.25
496.235	6573.56
496.605	6685.64
496.974	6755.02
497.344	6829.37
497.713	6926.99
498.082	7024.17
498.452	7150.72
498.821	7221
499.19	7242.69
499.559	7387.09
499.928	7463.7
500.298	7609.01
500.667	7637.26
501.036	7689.68
501.405	7823.24
501.774	7845.84
502.143	7999.96
502.512	8058.71
502.88	8161.31
503.249	8241.76
503.618	8315.21
503.987	8365.37
504.356	8468.2
504.724	8582.09
505.093	8652.37
505.462	8653.28
505.83	8836.32
506.199	8813.95
506.567	9010.78
506.936	9008.29
507.304	9187.72
507.672	9235.86
508.041	9212.81
508.409	9338.23
508.777	9453.48
509.145	9568.51
509.514	9528.28
509.882	9713.81
510.25	9748.61
510.618	9847.37
510.986	9863.19
511.354	9940.02
511.722	10061.83
512.09	10077.64
512.458	10136.63
512.826	10273.8
513.193	10307.47
513.561	10370.97
513.929	10480.35
514.297	10530.06
514.664	10648.25
515.032	10639.44
515.4	10767.12
515.767	10793.33
516.135	10924.63
516.502	10843.5
516.869	11095.02
517.237	11124.62
517.604	11053.89
517.972	11284.62
518.339	11280.32
518.706	11368.23
519.073	11377.05
519.44	11362.58
519.808	11620.2
520.175	11572.29
520.542	11775.45
520.909	11798.96
521.276	11802.8
521.643	11973.19
522.009	12022.23
522.376	12033.75
522.743	12154.88
523.11	12231.49
523.477	12431.48
523.843	12475.1
524.21	12503.57
524.577	12661.76
524.943	12663.79
525.31	12799.38
525.676	12920.96
526.043	12992.37
526.409	13094.97
526.776	13211.12
527.142	13146.49
527.508	13277.33
527.874	13433.49
528.241	13522.75
528.607	13580.83
528.973	13676.19
529.339	13608.17
529.705	13771.56
530.071	13848.17
530.437	13901.95
530.803	14006.81
531.169	14112.11
531.535	14148.27
531.901	14143.07
532.267	14145.56
532.632	14284.09
532.998	14330.64
533.364	14423.29
533.73	14443.18
534.095	14571.76
534.461	14593.91
534.826	14792.32
535.192	14825.77
535.557	14929.49
535.923	14964.97
536.288	14970.62
536.653	15045.2
537.019	15013.33
537.384	15157.96
537.749	15213.1
538.114	15260.33
538.479	15249.71
538.845	15422.59
539.21	15390.73
539.575	15427.79
539.94	15536.94
540.305	15614.45
540.67	15656.26
541.034	15661.9
541.399	15757.04
541.764	15781.68
542.129	15896.25
542.494	15884.5
542.858	15962.69
543.223	16014.89
543.587	16216.24
543.952	16100.31
544.316	16197.26
544.681	16185.28
545.045	16325.39
545.41	16510.02
545.774	16472.05
546.138	16543.92
546.503	16597.47
546.867	16645.16
547.231	16691.26
547.595	16790.91
547.959	16819.39
548.324	16931.02
548.688	16872.49
549.052	16947.97
549.416	17039.72
549.779	17115.65
550.143	17141.41
550.507	17201.75
550.871	17302.31
551.235	17277.91
551.599	17404.23
551.962	17470.44
552.326	17486.26
552.689	17601.97
553.053	17558.35
553.417	17626.6
553.78	17781.85
554.143	17767.39
554.507	17811.23
554.87	17902.3
555.234	18135.06
555.597	18015.74
555.96	18059.36
556.323	18187.26
556.686	18164.21
557.05	18296.19
557.413	18371.66
557.776	18476.75
558.139	18443.3
558.502	18503.19
558.865	18629.96
559.228	18793.57
559.59	18708.6
559.953	18881.25
560.316	19044.87
560.679	18971.42
561.041	19129.61
561.404	19179.78
561.767	19212.55
562.129	19077.18
562.492	19475.36
562.854	19470.84
563.217	19488.92
563.579	19527.79
563.941	19735.24
564.304	19775.47
564.666	19790.38
565.028	19854.34
565.39	20029.25
565.753	20057.95
566.115	20080.09
566.477	20228.56
566.839	20233.08
567.201	20344.27
567.563	20247.77
567.925	20466.75
568.287	20491.61
568.648	20502.23
569.01	20686.63
569.372	20792.39
569.734	20804.14
570.095	20917.81
570.457	21009.11
570.819	21028.32
571.18	21119.84
571.542	21251.81
571.903	21402.32
572.265	21344.02
572.626	21472.37
572.987	21553.05
573.349	21642.09
573.71	21772.03
574.071	21779.94
574.432	21883.66
574.794	22092.24
575.155	22001.4
575.516	22056.54
575.877	22263.31
576.238	22351.45
576.599	22565.68
576.96	22502.63
577.32	22688.84
577.681	22617.65
578.042	22927.02
578.403	22916.18
578.763	22972.45
579.124	23227.81
579.485	23482.26
579.845	23588.25
580.206	23735.82
580.566	23829.83
580.927	23878.41
581.287	24132.87
581.648	24207.67
582.008	24458.96
582.368	24500.77
582.728	24640.88
583.089	24744.6
583.449	24976.69
583.809	25015.56
584.169	25214.87
584.529	25376.68
584.889	25750
585.249	25699.83
585.609	25795.42
585.969	26108.64
586.329	26240.16
586.688	26521.73
587.048	26599.24
587.408	26738
587.768	26978.44
588.127	27060.93
588.487	27273.8
588.846	27703.62
589.206	27576.39
589.565	27860.91
589.925	28147.68
590.284	28241.91
590.643	28405.3
591.003	28625.63
591.362	28908.11
591.721	29127.31
592.08	29191.72
592.44	29405.72
592.799	29638.94
593.158	29696.79
593.517	29990.79
593.876	30103.33
594.235	30209.54
594.593	30508.97
594.952	30700.38
595.311	30845.91
595.67	30934.05
596.029	31249.07
596.387	31518.89
596.746	31784.64
597.104	31687.92
597.463	31855.83
597.822	32233.9
598.18	32288.13
598.538	32288.59
598.897	32698.07
599.255	32672.53
599.613	33222.35
599.972	33056.02
600.33	33409.23
600.688	33395.68
601.046	33674.76
601.404	33831.14
601.762	34114.07
602.12	34224.35
602.478	34464.8
602.836	34386.84
603.194	34441.98
603.552	34660.5
603.91	34712.25
604.268	35082.86
604.625	34954.96
604.983	35197.66
605.341	35220.94
605.698	35533.47
606.056	35630.19
606.413	35706.35
606.771	35985.89
607.128	36091.88
607.485	36012.56
607.843	36195.15
608.2	36351.08
608.557	36548.36
608.914	36536.84
609.272	36909.93
609.629	37008.01
609.986	37161.9
610.343	37063.38
610.7	37471.73
611.057	37474.89
611.414	37529.8
611.771	37662.68
612.127	37986.29
612.484	37926.86
612.841	38059.96
613.198	37955.33
613.554	38074.42
613.911	38350.57
614.267	38497.91
614.624	38475.77
614.98	38565.03
615.337	38754.4
615.693	38791.24
616.05	38816.78
616.406	39077.11
616.762	39027.17
617.118	38999.82
617.475	39216.54
617.831	39303.32
618.187	39438.23
618.543	39587.15
618.899	39817.88
619.255	39703.31
619.611	39789.41
619.967	39891.1
620.323	40068.72
620.678	39862.85
621.034	39918.22
621.39	39909.18
621.746	39977.65
622.101	40417.19
622.457	40154.37
622.812	40153.69
623.168	40348.49
623.523	40459.44
623.879	40576.5
624.234	40277.75
624.589	40485.21
624.945	40502.83
625.3	40564.07
625.655	40614.92
626.01	40751.41
626.365	40669.61
626.72	40841.13
627.075	40806.78
627.43	40716.39
627.785	40679.1
628.14	40849.72
628.495	40863.28
628.85	40882.03
629.205	40818.76
629.559	41044.29
629.914	40805.65
630.269	40987.11
630.623	40749.38
630.978	40766.33
631.332	40960.67
631.687	41074.34
632.041	40818.08
632.396	41035.7
632.75	40969.71
633.104	40971.3
633.459	40744.63
633.813	40899.21
634.167	40912.09
634.521	40909.38
634.875	40948.25
635.229	40810.4
635.583	40649.04
635.937	40761.81
636.291	40703.05
636.645	40722.04
636.999	40622.83
637.352	40900.79
637.706	40621.7
638.06	40803.62
638.413	40625.09
638.767	40421.03
639.121	40553.23
639.474	40370.86
639.828	40442.04
640.181	40468.94
640.534	40478.2
640.888	40348.26
641.241	40265.55
641.594	40289.05
641.947	40327.02
642.301	40386
642.654	40331.31
643.007	40410.18
643.36	40418.77
643.713	40317.3
644.066	40458.77
644.419	40214.25
644.771	39986.01
645.124	39678.67
645.477	39534.72
645.83	39348.97
646.182	39224.67
646.535	39315.07
646.888	39236.43
647.24	38923.89
647.593	39308.51
647.945	39125.92
648.298	38915.3
648.65	38854.29
649.002	38773.61
649.355	38911.24
649.707	38784.46
650.059	39054.96
650.411	39394.39
650.763	39593.48
651.115	39814.26
651.467	39734.94
651.819	39840.03
652.171	39670.99
652.523	39533.37
652.875	39676.19
653.227	39510.54
653.578	39649.3
653.93	39584.67
654.282	39476.87
654.633	39469.64
654.985	39508.74
655.337	39310.77
655.688	39542.63
656.039	39632.8
656.391	39245.01
656.742	39262.41
657.094	39298.8
657.445	39471.22
657.796	39352.81
658.147	39228.29
658.498	39285.69
658.849	39409.98
659.2	39241.17
659.551	39134.51
659.902	39316.88
660.253	39215.18
660.604	39398
660.955	39034.85
661.306	39180.16
661.656	39040.05
662.007	39117.79
662.358	39164.34
662.708	39139.71
663.059	39224.9
663.409	38920.73
663.76	39189.2
664.11	39234.39
664.461	39198.01
664.811	39167.28
665.161	39093.38
665.511	39129.31
665.862	39129.31
666.212	39204.56
666.562	39115.07
666.912	39176.09
667.262	39026.04
667.612	39107.62
667.962	39082.08
668.312	38993.27
668.662	39042.08
669.011	39088.86
669.361	39019.93
669.711	38926.6
670.06	38942.2
670.41	38849.32
670.76	38925.02
671.109	39075.07
671.459	38973.61
671.808	38901.97
672.157	38900.39
672.507	38741.3
672.856	38631.24
673.205	38752.37
673.554	38817.45
673.904	38582.88
674.253	38857.9
674.602	38584.92
674.951	38308.99
675.3	37984.71
675.649	38533.17
675.998	38564.58
676.346	38628.53
676.695	38751.92
677.044	38495.65
677.393	38637.35
677.741	38710.11
678.09	38508.54
678.438	38411.36
678.787	38515.54
679.135	38486.62
679.484	38171.6
679.832	38384.7
680.181	38118.72
680.529	38399.84
680.877	38131.6
681.225	38119.85
681.573	38258.82
681.922	38052.05
682.27	38004.59
682.618	37954.2
682.966	37857.48
683.314	37964.82
683.661	37840.53
684.009	37646.19
684.357	37580.88
684.705	37582.91
685.053	37621.33
685.4	37617.71
685.748	37435.12
686.095	37421.78
686.443	37277.38
686.79	37273.77
687.138	37269.25
687.485	37257.49
687.832	37092.3
688.18	37191.73
688.527	36993.77
688.874	36965.98
689.221	36921.46
689.568	36780.45
689.915	36792.65
690.262	36601.92
690.609	36624.74
690.956	36455.48
691.303	36348.59
691.65	36391.08
691.997	36286.67
692.344	36042.84
692.69	36027.47
693.037	36061.14
693.383	35839.91
693.73	35883.97
694.077	35672.68
694.423	35691.66
694.769	35605.11
695.116	35484.66
695.462	35470.42
695.808	35405.34
696.155	35330.31
696.501	35178
696.847	35175.52
697.193	34921.96
697.539	35115.18
697.885	34688.75
698.231	34628.41
698.577	34649.88
698.923	34561.97
699.269	34305.93
699.614	34077.47
699.96	34214.86
700.306	34267.74
700.651	34079.5
700.997	33937.58
701.342	33888.09
701.688	33937.81
702.033	33783.01
702.379	33709.34
702.724	33589.57
703.069	33743.92
703.415	33273.64
703.76	33321.33
704.105	33335.11
704.45	33364.72
704.795	33058.28
705.14	32938.74
705.485	32918.85
705.83	32860.32
706.175	32835.92
706.52	32759.08
706.865	32526.77
707.209	32557.96
707.554	32562.7
707.899	32541.23
708.243	32419.66
708.588	32319.77
708.932	32117.52
709.277	32191.41
709.621	32059.21
709.966	32065.32
710.31	32111.87
710.654	31719.11
710.998	31777.64
711.342	31797.3
711.687	31832.1
712.031	31694.25
712.375	31581.03
712.719	31515.5
713.063	31480.92
713.407	31619.9
713.75	31325.45
714.094	31393.24
714.438	31223.53
714.782	31285
715.125	31196.64
715.469	31198.67
715.812	30988.51
716.156	30843.65
716.499	30903.31
716.843	30872.35
717.186	30677.78
717.53	30878.45
717.873	30777.89
718.216	30645.69
718.559	30401.63
718.902	30368.86
719.246	30472.81
719.589	30316.66
719.932	30054.07
720.275	30179.71
720.617	30275.76
720.96	30052.49
721.303	30208.64
721.646	30075.99
721.989	29815.66
722.331	29993.96
722.674	29894.75
723.016	29932.72
723.359	29837.8
723.701	29849.55
724.044	29649.11
724.386	29579.73
724.729	29591.48
725.071	29512.39
725.413	29630.8
725.755	29413.41
726.097	29415.22
726.439	29325.73
726.782	29295.67
727.124	29391.26
727.465	29194.88
727.807	29182.23
728.149	29114.88
728.491	29159.18
728.833	29069.46
729.175	28922.57
729.516	28890.48
729.858	28863.37
730.199	28911.73
730.541	28734.1
730.882	28736.14
731.224	28880.99
731.565	28494.79
731.906	28604.84
732.248	28659.53
732.589	28512.41
732.93	28537.95
733.271	28458.86
733.612	28601.68
733.953	28454.79
734.294	28276.49
734.635	28273.1
734.976	28326.2
735.317	28135.7
735.658	28121.46
735.999	28158.3
736.339	27992.65
736.68	28227.68
737.021	28011.64
737.361	27870.4
737.702	28033.56
738.042	27949.04
738.383	27919.89
738.723	27895.26
739.063	27847.12
739.404	27729.16
739.744	27682.83
740.084	27639.44
740.424	27719.44
740.764	27615.04
741.104	27767.12
741.444	27462.72
741.784	27356.29
742.124	27425.21
742.464	27498.2
742.804	27343.18
743.143	27208.49
743.483	27324.65
743.823	27232.9
744.162	27142.73
744.502	27234.26
744.841	27126.24
745.181	27224.76
745.52	27088.27
745.86	27037.2
746.199	26871.1
746.538	26851.89
746.877	26954.26
747.216	26898.67
747.556	26850.08
747.895	26865.9
748.234	26606.25
748.573	26742.07
748.911	26634.27
749.25	26596.08
749.589	26535.97
749.928	26577.55
750.267	26603.09
750.605	26455.07
750.944	26516.76
751.283	26269.54
751.621	26400.38
751.96	26173.72
752.298	26166.94
752.636	26241.74
752.975	26027.28
753.313	25889.43
753.651	26162.65
753.989	25837.91
754.327	25782.99
754.666	25765.14
755.004	25709.1
755.342	25751.81
755.679	25635.88
756.017	25551.81
756.355	25603.11
756.693	25444.47
757.031	25506.17
