Data from hue_26_FLMS001491_00024.txt Node
Date: Tue Feb 07 17:13:46 GMT 2017
User: dcchb
Spectrometer: FLMS00149
Trigger mode: 0
Integration Time (sec): 2.000000E-2
Scans to average: 10
Electric dark correction enabled: true
Nonlinearity correction enabled: false
Boxcar width: 0
XAxis mode: Wavelengths
Number of Pixels in Spectrum: 2048
>>>>>Begin Spectral Data<<<<<
341.393	-13.35
341.776	-13.35
342.16	-13.35
342.543	-58.54
342.927	-55.15
343.31	-71.88
343.693	-54.93
344.077	-77.75
344.46	-69.16
344.843	-37.08
345.226	-40.47
345.61	-31.2
345.993	-6.12
346.376	2.7
346.759	-0.47
347.142	18.52
347.525	48.8
347.908	48.8
348.291	80.21
348.674	77.05
349.057	112.98
349.44	143.48
349.823	146.42
350.206	181.22
350.588	187.33
350.971	189.59
351.354	223.71
351.737	255.35
352.119	244.73
352.502	268.68
352.884	289.47
353.267	269.36
353.65	297.83
354.032	294.89
354.414	304.61
354.797	311.84
355.179	323.82
355.562	321.79
355.944	338.28
356.326	322.46
356.709	314.55
357.091	319.07
357.473	327.43
357.855	325.63
358.238	348
358.62	336.02
359.002	345.97
359.384	350.71
359.766	328.79
360.148	322.69
360.53	324.72
360.912	342.12
361.294	326.3
361.676	336.25
362.057	322.24
362.439	335.12
362.821	321.56
363.203	355
363.584	318.85
363.966	341.45
364.348	328.56
364.729	316.14
365.111	331.95
365.493	322.69
365.874	303.93
366.256	315.91
366.637	319.75
367.019	319.75
367.4	315.68
367.781	331.95
368.163	306.64
368.544	323.14
368.925	314.55
369.306	324.95
369.688	312.52
370.069	323.14
370.45	321.11
370.831	298.28
371.212	289.7
371.593	315.91
371.974	326.98
372.355	308.45
372.736	299.64
373.117	313.42
373.498	328.34
373.879	320.66
374.26	301.67
374.641	325.4
375.021	333.54
375.402	317.94
375.783	327.66
376.163	324.27
376.544	322.46
376.925	341.22
377.305	316.81
377.686	330.82
378.066	330.37
378.447	339.64
378.827	333.54
379.208	349.81
379.588	321.11
379.968	323.14
380.349	322.69
380.729	339.86
381.109	326.08
381.489	349.58
381.87	342.35
382.25	328.11
382.63	341.9
383.01	330.37
383.39	327.21
383.77	355.46
384.15	349.58
384.53	351.62
384.91	358.62
385.29	346.42
385.67	361.56
386.049	358.85
386.429	351.84
386.809	359.3
387.189	350.49
387.568	362.69
387.948	374.44
388.328	364.5
388.707	348.23
389.087	339.86
389.466	384.16
389.846	359.3
390.225	366.98
390.605	387.77
390.984	364.04
391.363	371.05
391.743	364.5
392.122	358.17
392.501	372.86
392.881	383.93
393.26	377.15
393.639	358.62
394.018	351.39
394.397	393.65
394.776	357.72
395.155	378.51
395.534	366.98
395.913	390.26
396.292	380.99
396.671	393.87
397.05	389.35
397.429	383.7
397.808	382.8
398.186	397.26
398.565	383.03
398.944	406.98
399.323	403.59
399.701	398.85
400.08	386.42
400.458	402.46
400.837	424.16
401.215	374.89
401.594	391.61
401.972	390.94
402.351	395.23
402.729	399.98
403.107	418.73
403.486	395.23
403.864	415.12
404.242	416.47
404.62	417.15
404.999	398.62
405.377	392.97
405.755	419.18
406.133	432.97
406.511	406.75
406.889	421.67
407.267	414.44
407.645	406.53
408.023	437.71
408.401	430.26
408.779	443.82
409.156	440.88
409.534	432.52
409.912	435.91
410.29	435.23
410.667	442.23
411.045	428
411.422	456.47
411.8	442.69
412.178	456.92
412.555	449.47
412.933	468.67
413.31	453.31
413.687	462.57
414.065	468.22
414.442	473.87
414.819	463.7
415.197	478.17
415.574	491.05
415.951	494.89
416.328	482.23
416.705	482.01
417.082	496.24
417.46	492.85
417.837	496.92
418.214	498.5
418.591	508.45
418.967	502.12
419.344	495.34
419.721	500.99
420.098	494.66
420.475	496.02
420.852	503.48
421.228	520.65
421.605	530.82
421.982	524.94
422.358	530.82
422.735	530.14
423.111	544.6
423.488	549.8
423.864	535.34
424.241	534.44
424.617	558.39
424.994	552.51
425.37	558.39
425.746	536.02
426.123	560.2
426.499	577.82
426.875	577.6
427.251	568.11
427.627	575.56
428.003	588.9
428.379	562.23
428.756	592.06
429.132	592.06
429.507	577.6
429.883	587.77
430.259	624.15
430.635	591.61
431.011	594.32
431.387	592.06
431.763	606.75
432.138	621.44
432.514	652.17
432.89	642
433.265	631.16
433.641	654.66
434.016	658.5
434.392	628.9
434.767	674.09
435.143	657.37
435.518	648.1
435.894	670.93
436.269	693.98
436.644	688.1
437.02	699.63
437.395	695.33
437.77	705.73
438.145	698.27
438.52	692.62
438.895	705.28
439.271	715.45
439.646	745.95
440.021	736.69
440.395	753.19
440.77	751.38
441.145	722.9
441.52	749.8
441.895	742.11
442.27	725.39
442.645	753.64
443.019	736.92
443.394	752.06
443.769	744.83
444.143	747.76
444.518	778.95
444.892	780.08
445.267	772.85
445.641	775.33
446.016	774.88
446.39	775.33
446.764	790.25
447.139	773.52
447.513	803.35
447.887	790.7
448.262	806.29
448.636	804.94
449.01	812.85
449.384	826.63
449.758	807.65
450.132	801.32
450.506	823.02
450.88	837.03
451.254	828.44
451.628	861.66
452.002	817.14
452.376	848.1
452.75	893.52
453.123	860.3
453.497	872.28
453.871	909.11
454.244	911.6
454.618	917.93
454.992	916.35
455.365	935.78
455.739	957.47
456.112	934.88
456.486	952.28
456.859	956.34
457.232	1002.22
457.606	983.69
457.979	989.56
458.352	1003.8
458.725	1026.63
459.099	1039.28
459.472	1032.95
459.845	1045.83
460.218	1040.18
460.591	1043.12
460.964	1057.13
461.337	1081.99
461.71	1082.9
462.083	1099.17
462.456	1110.01
462.829	1084.03
463.201	1097.58
463.574	1131.26
463.947	1146.17
464.32	1168.09
464.692	1181.42
465.065	1193.63
465.438	1198.82
465.81	1223.91
466.183	1229.33
466.555	1245.6
466.928	1263.91
467.3	1264.36
467.672	1285.38
468.045	1300.74
468.417	1302.32
468.789	1303.45
469.161	1346.17
469.534	1361.31
469.906	1375.54
470.278	1395.43
470.65	1413.06
471.022	1415.09
471.394	1463.45
471.766	1461.42
472.138	1467.07
472.51	1521.53
472.882	1572.15
473.253	1569.89
473.625	1601.53
473.997	1626.84
474.369	1647.63
474.74	1651.47
475.112	1686.72
475.484	1712.94
475.855	1738.47
476.227	1779.37
476.598	1792.26
476.97	1791.35
477.341	1870.67
477.713	1919.94
478.084	1901.4
478.455	1982.08
478.827	2013.04
479.198	2019.82
479.569	2053.72
479.94	2114.51
480.311	2149.76
480.682	2208.74
481.053	2226.14
481.424	2300.49
481.795	2322.86
482.166	2358.57
482.537	2423.2
482.908	2500.26
483.279	2460.03
483.65	2521.5
484.021	2603.76
484.391	2618
484.762	2675.62
485.133	2674.49
485.503	2725.11
485.874	2761.04
486.244	2837.88
486.615	2879.91
486.985	2899.12
487.356	2985.9
487.726	3055.72
488.097	3070.19
488.467	3139.34
488.837	3220.92
489.207	3255.72
489.578	3304.31
489.948	3350.86
490.318	3367.35
490.688	3396.96
491.058	3444.87
491.428	3561.02
491.798	3554.69
492.168	3637.63
492.538	3640.57
492.908	3719.89
493.278	3791.52
493.648	3798.98
494.017	3839.21
494.387	3904.06
494.757	3934.35
495.126	3998.52
495.496	4012.99
495.866	4040.33
496.235	4068.13
496.605	4104.74
496.974	4195.58
497.344	4244.39
497.713	4227.9
498.082	4315.35
498.452	4259.53
498.821	4326.43
499.19	4381.57
499.559	4418.4
499.928	4457.95
500.298	4498.4
500.667	4533.43
501.036	4531.39
501.405	4577.04
501.774	4597.83
502.143	4631.95
502.512	4634.67
502.88	4703.14
503.249	4681.44
503.618	4741.33
503.987	4763.25
504.356	4779.75
504.724	4845.73
505.093	4851.38
505.462	4882.8
505.83	4873.98
506.199	4920.76
506.567	4963.47
506.936	4965.96
507.304	5037.14
507.672	5035.33
508.041	5051.83
508.409	5122.56
508.777	5140.19
509.145	5149.68
509.514	5171.6
509.882	5187.19
510.25	5198.04
510.618	5220.19
510.986	5244.82
511.354	5357.13
511.722	5304.93
512.09	5382.67
512.458	5388.77
512.826	5406.62
513.193	5402.1
513.561	5488.88
513.929	5487.75
514.297	5536.11
514.664	5551.48
515.032	5543.34
515.4	5585.83
515.767	5592.38
516.135	5660.18
516.502	5582.44
516.869	5727.07
517.237	5705.15
517.604	5683.45
517.972	5739.72
518.339	5742.89
518.706	5771.59
519.073	5766.16
519.44	5863.11
519.808	5871.47
520.175	5846.84
520.542	5933.62
520.909	5957.57
521.276	5922.32
521.643	5976.33
522.009	5967.74
522.376	6001.18
522.743	6064.46
523.11	6068.3
523.477	6198.01
523.843	6217.68
524.21	6217.22
524.577	6231.23
524.943	6272.59
525.31	6315.3
525.676	6390.78
526.043	6424.9
526.409	6454.05
526.776	6463.32
527.142	6432.81
527.508	6530.21
527.874	6561.85
528.241	6606.82
528.607	6598
528.973	6689.98
529.339	6694.73
529.705	6769.07
530.071	6716.65
530.437	6813.37
530.803	6826.7
531.169	6883.42
531.535	6835.51
531.901	6873.25
532.267	6895.62
532.632	7041.16
532.998	6980.14
533.364	7109.63
533.73	7093.36
534.095	7105.56
534.461	7185.56
534.826	7210.19
535.192	7183.53
535.557	7246.35
535.923	7268.27
536.288	7284.54
536.653	7314.82
537.019	7346.23
537.384	7376.97
537.749	7417.64
538.114	7434.59
538.479	7346.69
538.845	7480.02
539.21	7469.39
539.575	7501.03
539.94	7536.74
540.305	7595.49
540.67	7556.62
541.034	7633.68
541.399	7705.55
541.764	7639.11
542.129	7747.58
542.494	7709.84
542.858	7801.36
543.223	7827.58
543.587	7858.76
543.952	7875.03
544.316	7874.13
544.681	7898.54
545.045	7992.54
545.41	8040
545.774	8016.95
546.138	8016.5
546.503	8077.29
546.867	8113.9
547.231	8138.75
547.595	8182.82
547.959	8201.35
548.324	8221.01
548.688	8206.55
549.052	8289.03
549.416	8311.63
549.779	8316.15
550.143	8333.55
550.507	8400.22
550.871	8393.21
551.235	8403.61
551.599	8483.83
551.962	8481.8
552.326	8599.31
552.689	8602.47
553.053	8532.42
553.417	8527.45
553.78	8680.66
554.143	8625.97
554.507	8705.29
554.87	8738.29
555.234	8839.53
555.597	8738.74
555.96	8794.78
556.323	8811.73
556.686	8834.1
557.05	8924.27
557.413	8919.53
557.776	8930.37
558.139	8971.05
558.502	9006.53
558.865	8961.11
559.228	9109.58
559.59	9072.52
559.953	9090.59
560.316	9228.9
560.679	9201.1
561.041	9227.99
561.404	9285.84
561.767	9324.71
562.129	9322
562.492	9374.65
562.854	9406.74
563.217	9347.54
563.579	9459.4
563.941	9449.45
564.304	9497.59
564.666	9503.24
565.028	9570.81
565.39	9667.08
565.753	9630.69
566.115	9735.32
566.477	9675.21
566.839	9809.67
567.201	9754.76
567.563	9735.1
567.925	9849.22
568.287	9869.78
568.648	9889.44
569.01	9919.95
569.372	10011.7
569.734	10000.17
570.095	10091.25
570.457	10067.52
570.819	10166.05
571.18	10219.38
571.542	10260.06
571.903	10270.45
572.265	10354.74
572.626	10392.71
572.987	10391.58
573.349	10498.47
573.71	10576.2
574.071	10651.23
574.432	10618.69
574.794	10725.35
575.155	10773.71
575.516	10834.05
575.877	10922.64
576.238	10967.38
576.599	11067.72
576.96	11123.31
577.32	11194.49
577.681	11263.64
578.042	11389.29
578.403	11493.47
578.763	11522.17
579.124	11643.97
579.485	11700.7
579.845	11887.81
580.206	11911.54
580.566	12081.48
580.927	12159.44
581.287	12345.65
581.648	12324.86
582.008	12562.82
582.368	12698.64
582.728	12871.29
583.089	13033.54
583.449	13199.64
583.809	13401.22
584.169	13531.83
584.529	13624.71
584.889	13868.77
585.249	14000.07
585.609	14252.72
585.969	14433.05
586.329	14727.73
586.688	14849.99
587.048	15139.47
587.408	15250.66
587.768	15451.56
588.127	15724.54
588.487	15892.45
588.846	16266.9
589.206	16435.26
589.565	16646.33
589.925	17021.91
590.284	17228.23
590.643	17450.15
591.003	17776.24
591.362	18123.35
591.721	18318.15
592.08	18534.19
592.44	18952.71
592.799	19219.82
593.158	19384.56
593.517	19718.79
593.876	20070.42
594.235	20256.4
594.593	20526
594.952	20882.83
595.311	21150.39
595.67	21443.72
596.029	21898.62
596.387	22167.31
596.746	22510.35
597.104	22603.23
597.463	22933.85
597.822	23478.24
598.18	23604.34
598.538	23920.26
598.897	24292.45
599.255	24316.63
599.613	25021.25
599.972	25191.41
600.33	25445.42
600.688	25690.84
601.046	25983.48
601.404	26450.14
601.762	26641.32
602.12	27037.69
602.478	27251.92
602.836	27615.98
603.194	27656.43
603.552	27904.79
603.91	28147.95
604.268	28596.52
604.625	28742.96
604.983	29133.91
605.341	29178.2
605.698	29532.77
606.056	29884.62
606.413	30107.22
606.771	30512.63
607.128	30645.73
607.485	30734.32
607.843	31052.05
608.2	31379.95
608.557	31651.58
608.914	31724.8
609.272	32211.79
609.629	32387.61
609.986	32634.16
610.343	32826.02
610.7	33275.5
611.057	33288.83
611.414	33249.73
611.771	33701.92
612.127	34069.82
612.484	33982.37
612.841	34376.03
613.198	34537.16
613.554	34698.28
613.911	34960.2
614.267	35070.7
614.624	35285.16
614.98	35534.64
615.337	35745.94
615.693	35897.35
616.05	36086.27
616.406	36235.42
616.762	36283.33
617.118	36416.2
617.475	36589.76
617.831	36755.86
618.187	36910.43
618.543	37184.09
618.899	37480.13
619.255	37420.92
619.611	37470.64
619.967	37722.16
620.323	38017.29
620.678	37806.9
621.034	37922.83
621.39	38210.73
621.746	38013
622.101	38798.06
622.457	38497.96
622.812	38589.93
623.168	38672.19
623.523	38784.95
623.879	38950.37
624.234	38721.91
624.589	39036.93
624.945	39050.03
625.3	39232.63
625.655	39383.36
626.01	39506.29
626.365	39510.13
626.72	39485.5
627.075	39559.17
627.43	39632.16
627.785	39596.23
628.14	39851.59
628.495	39861.31
628.85	39945.38
629.205	39838.26
629.559	40123.45
629.914	39970.91
630.269	40058.59
630.623	39978.6
630.978	39932.95
631.332	40308.76
631.687	40365.48
632.041	40183.11
632.396	40384.46
632.75	40259.72
633.104	40378.81
633.459	40200.06
633.813	40231.24
634.167	40250
634.521	40283.9
634.875	40382.43
635.229	40366.16
635.583	40221.98
635.937	40465.14
636.291	40281.19
636.645	40351.02
636.999	40370.9
637.352	40316.89
637.706	40140.85
638.06	40322.54
638.413	40233.5
638.767	40135.2
639.121	40183.34
639.474	40127.07
639.828	40313.5
640.181	40251.13
640.534	40288.87
640.888	40030.8
641.241	39971.59
641.594	40103.56
641.947	40247.74
642.301	40157.57
642.654	40199.15
643.007	40290.68
643.36	40201.64
643.713	40009.56
644.066	40406.83
644.419	39970.46
644.771	39863.34
645.124	39458.61
645.477	39404.83
645.83	39202.8
646.182	39123.48
646.535	38988.34
646.888	39202.8
647.24	38979.3
647.593	39281.21
647.945	39159.41
648.298	38936.14
648.65	38899.3
649.002	38776.37
649.355	38982.69
649.707	38866.53
650.059	39182.23
650.411	39535.67
650.763	39608.21
651.115	39987.18
651.467	39796.45
651.819	39859.05
652.171	39683.91
652.523	39694.31
652.875	39737.92
653.227	39520.3
653.578	39910.8
653.93	39636.46
654.282	39640.98
654.633	39568.44
654.985	39646.18
655.337	39661.09
655.688	39675.55
656.039	39658.15
656.391	39271.04
656.742	39537.93
657.094	39540.42
657.445	39627.42
657.796	39465.39
658.147	39454.32
658.498	39486.63
658.849	39468.1
659.2	39396.69
659.551	39417.48
659.902	39473.52
660.253	39505.16
660.604	39558.04
660.955	39407.54
661.306	39385.84
661.656	39377.03
662.007	39377.71
662.358	39297.94
662.708	39438.95
663.059	39427.65
663.409	39187.43
663.76	39462.9
664.11	39447.31
664.461	39430.81
664.811	39397.37
665.161	39435.33
665.511	39269.01
665.862	39351.27
666.212	39432.62
666.562	39445.95
666.912	39426.29
667.262	39371.38
667.612	39262.46
667.962	39470.36
668.312	39319.4
668.662	39552.17
669.011	39381.32
669.361	39266.75
669.711	39226.3
670.06	39278.05
670.41	39229.91
670.76	39186.75
671.109	39206.64
671.459	39102.01
671.808	39262.23
672.157	39316.92
672.507	38910.83
672.856	38964.39
673.205	39055.91
673.554	39169.8
673.904	39075.34
674.253	39240.54
674.602	39034.67
674.951	38548.58
675.3	38479.65
675.649	39123.02
675.998	38980.88
676.346	39022.46
676.695	39227.2
677.044	38734.33
677.393	38774.33
677.741	39006.42
678.09	38862.24
678.438	38746.54
678.787	38821.79
679.135	38730.94
679.484	38538.41
679.832	38714.22
680.181	38532.08
680.529	38596.26
680.877	38569.82
681.225	38550.16
681.573	38669.25
681.922	38270.62
682.27	38227.91
682.618	38348.81
682.966	38280.11
683.314	38295.93
683.661	38191.07
684.009	38010.96
684.357	38058.19
684.705	37923.96
685.053	38067.46
685.4	37818.2
685.748	37734.81
686.095	37681.25
686.443	37668.15
686.79	37622.5
687.138	37739.11
687.485	37614.14
687.832	37541.82
688.18	37457.76
688.527	37232.91
688.874	37167.14
689.221	37238.78
689.568	37130.08
689.915	37060.03
690.262	36984.1
690.609	36866.14
690.956	36860.03
691.303	36944.33
691.65	36603.32
691.997	36537.56
692.344	36411.91
692.69	36387.05
693.037	36382.08
693.383	36089.88
693.73	36282.87
694.077	35889.44
694.423	35967.85
694.769	35903.45
695.116	35867.52
695.462	35806.95
695.808	35734.64
696.155	35686.28
696.501	35426.62
696.847	35467.08
697.193	35183.24
697.539	35377.81
697.885	35042.23
698.231	35087.2
698.577	35028.67
698.923	34942.57
699.269	34884.94
699.614	34688.79
699.96	34539.87
700.306	34641.79
700.651	34389.82
700.997	34407.67
701.342	34319.54
701.688	34292.64
702.033	34061.69
702.379	34074.12
702.724	34145.98
703.069	34129.48
703.415	33742.83
703.76	33809.04
704.105	33729.72
704.45	33677.97
704.795	33455.15
705.14	33297.87
705.485	33384.19
705.83	33211.77
706.175	33330.18
706.52	33092
706.865	33148.49
707.209	32934.49
707.554	33007.25
707.899	32980.14
708.243	32755.73
708.588	32767.49
708.932	32463.09
709.277	32597.32
709.621	32562.29
709.966	32275.07
710.31	32356.2
710.654	32120.05
710.998	32107.84
711.342	32082.31
711.687	32049.31
712.031	31945.81
712.375	31896.32
712.719	31953.04
713.063	31825.36
713.407	31994.17
713.75	31779.94
714.094	31784.01
714.438	31588.08
714.782	31648.87
715.125	31425.6
715.469	31633.05
715.812	31376.34
716.156	31142.67
716.499	31146.51
716.843	31232.61
717.186	31141.99
717.53	31297.92
717.873	31099.73
718.216	31001.2
718.559	30992.39
718.902	30793.98
719.246	30886.86
719.589	30701.55
719.932	30588.11
720.275	30596.47
720.617	30556.47
720.96	30538.84
721.303	30543.14
721.646	30372.97
721.989	30288.91
722.331	30454.55
722.674	30378.62
723.016	30254.56
723.359	30254.78
723.701	30215.91
724.044	30043.49
724.386	29968.69
724.729	30101.34
725.071	30051.85
725.413	29827.22
725.755	29859.09
726.097	29787.45
726.439	29670.17
726.782	29673.1
727.124	29808.92
727.465	29564.86
727.807	29607.79
728.149	29525.76
728.491	29480.57
728.833	29545.2
729.175	29438.08
729.516	29292.55
729.858	29317.41
730.199	29353.79
730.541	29212.55
730.882	29201.25
731.224	29307.01
731.565	29075.61
731.906	29089.16
732.248	29183.85
732.589	28866.57
732.93	28796.29
733.271	28863.18
733.612	28893.01
733.953	28903.18
734.294	28758.1
734.635	28625.22
734.976	28649.4
735.317	28594.94
735.658	28565.11
735.999	28617.54
736.339	28425.91
736.68	28527.37
737.021	28500.71
737.361	28259.81
737.702	28546.13
738.042	28468.16
738.383	28414.38
738.723	28412.8
739.063	28273.37
739.404	28289.64
739.744	28254.61
740.084	28149.75
740.424	28188.4
740.764	28149.75
741.104	28150.21
741.444	28050.77
741.784	27946.82
742.124	27978.46
742.464	27944.11
742.804	27948.4
743.143	27852.13
743.483	27817.11
743.823	27678.58
744.162	27685.59
744.502	27708.18
744.841	27728.97
745.181	27670.67
745.52	27600.39
745.86	27538.02
746.199	27525.82
746.538	27367.63
746.877	27417.8
747.216	27478.81
747.556	27357.91
747.895	27307.52
748.234	27320.62
748.573	27226.61
748.911	27155.88
749.25	27286.27
749.589	27180.06
749.928	27095.09
750.267	27364.24
750.605	27038.82
750.944	26907.53
751.283	26874.53
751.621	26928.09
751.96	26794.08
752.298	26838.15
752.636	26808.09
752.975	26774.42
753.313	26610.81
753.651	26773.52
753.989	26475.45
754.327	26501.21
754.666	26450.59
755.004	26533.07
755.342	26407.2
755.679	26400.42
756.017	26228.9
756.355	26241.56
756.693	26138.28
757.031	26153.2
757.368	26112.29
757.706	26047.66
758.044	25934.67
758.381	25946.65
758.719	25920.66
759.056	25859.42
759.394	25714.79
759.731	25660.33
760.068	25678.41
760.405	25511.63
