Data from hue_26_FLMS001491_00016.txt Node
Date: Tue Feb 07 17:13:37 GMT 2017
User: dcchb
Spectrometer: FLMS00149
Trigger mode: 0
Integration Time (sec): 2.000000E-2
Scans to average: 10
Electric dark correction enabled: true
Nonlinearity correction enabled: false
Boxcar width: 0
XAxis mode: Wavelengths
Number of Pixels in Spectrum: 2048
>>>>>Begin Spectral Data<<<<<
341.393	-9.05
341.776	-9.05
342.16	-9.05
342.543	-48.6
342.927	-66.45
343.31	-61.26
343.693	-94.47
344.077	-69.16
344.46	-51.99
344.843	-56.06
345.226	-37.3
345.61	-44.31
345.993	-33.01
346.376	-7.02
346.759	-0.92
347.142	18.74
347.525	47.89
347.908	64.84
348.291	86.76
348.674	114.33
349.057	122.92
349.44	147.33
349.823	143.03
350.206	191.39
350.588	197.95
350.971	211.05
351.354	200.21
351.737	244.5
352.119	283.82
352.502	268.68
352.884	290.15
353.267	270.49
353.65	288.34
354.032	311.62
354.414	301.22
354.797	304.84
355.179	356.81
355.562	359.75
355.944	324.95
356.326	321.79
356.709	365.17
357.091	341.9
357.473	339.86
357.855	345.51
358.238	365.17
358.62	365.17
359.002	332.41
359.384	361.56
359.766	351.62
360.148	345.97
360.53	338.28
360.912	332.63
361.294	337.83
361.676	348.45
362.057	355.68
362.439	326.76
362.821	339.64
363.203	342.58
363.584	320.66
363.966	341.22
364.348	334.89
364.729	333.54
365.111	342.35
365.493	328.56
365.874	325.18
366.256	335.8
366.637	362.01
367.019	326.98
367.4	321.56
367.781	330.15
368.163	325.18
368.544	333.76
368.925	321.79
369.306	348.68
369.688	331.95
370.069	318.62
370.45	311.16
370.831	304.61
371.212	299.64
371.593	312.52
371.974	330.82
372.355	319.53
372.736	324.27
373.117	326.3
373.498	331.28
373.879	335.12
374.26	304.61
374.641	309.58
375.021	332.86
375.402	318.4
375.783	345.29
376.163	330.37
376.544	325.63
376.925	345.06
377.305	335.8
377.686	365.85
378.066	329.24
378.447	340.09
378.827	326.53
379.208	335.34
379.588	346.42
379.968	328.79
380.349	342.8
380.729	333.31
381.109	354.55
381.489	340.54
381.87	356.81
382.25	364.04
382.63	353.2
383.01	377.6
383.39	355
383.77	361.56
384.15	373.08
384.53	345.74
384.91	346.87
385.29	347.55
385.67	378.96
386.049	355.91
386.429	372.18
386.809	361.11
387.189	345.06
387.568	356.59
387.948	374.89
388.328	355.91
388.707	346.64
389.087	359.52
389.466	389.81
389.846	373.99
390.225	371.73
390.605	364.95
390.984	376.25
391.363	389.35
391.743	371.28
392.122	405.85
392.501	373.08
392.881	406.3
393.26	365.17
393.639	408.11
394.018	375.57
394.397	392.07
394.776	397.72
395.155	390.94
395.534	380.77
395.913	392.74
396.292	406.3
396.671	395.68
397.05	399.75
397.429	416.92
397.808	396.59
398.186	434.32
398.565	410.6
398.944	403.82
399.323	405.62
399.701	408.34
400.08	410.6
400.458	406.3
400.837	421.44
401.215	416.25
401.594	428.68
401.972	422.57
402.351	414.66
402.729	419.86
403.107	437.71
403.486	422.8
403.864	404.27
404.242	425.51
404.62	416.02
404.999	435
405.377	440.65
405.755	432.06
406.133	439.97
406.511	437.04
406.889	450.37
407.267	463.02
407.645	450.14
408.023	421.44
408.401	453.53
408.779	446.98
409.156	460.76
409.534	447.43
409.912	452.86
410.29	454.66
410.667	471.39
411.045	479.52
411.422	476.81
411.8	473.42
412.178	469.58
412.555	486.98
412.933	486.07
413.31	486.07
413.687	502.57
414.065	508
414.442	492.4
414.819	499.63
415.197	522.91
415.574	494.21
415.951	494.66
416.328	515.45
416.705	507.77
417.082	499.18
417.46	534.44
417.837	522.91
418.214	508.22
418.591	525.17
418.967	537.6
419.344	554.32
419.721	544.83
420.098	560.42
420.475	540.76
420.852	544.6
421.228	548.9
421.605	550.48
421.982	564.49
422.358	564.49
422.735	553.87
423.111	569.91
423.488	570.14
423.864	584.6
424.241	581.89
424.617	582.12
424.994	580.99
425.37	589.57
425.746	594.55
426.123	573.53
426.499	594.55
426.875	595.22
427.251	605.17
427.627	599.07
428.003	619.63
428.379	630.93
428.756	622.57
429.132	648.56
429.507	641.32
429.883	650.82
430.259	645.62
430.635	654.88
431.011	646.75
431.387	665.96
431.763	669.35
432.138	660.08
432.514	693.3
432.89	695.11
433.265	696.24
433.641	707.54
434.016	714.54
434.392	679.29
434.767	707.99
435.143	686.52
435.518	710.7
435.894	736.46
436.269	731.94
436.644	737.37
437.02	759.51
437.395	729.68
437.77	749.57
438.145	751.6
438.52	747.08
438.895	762.23
439.271	767.65
439.646	767.2
440.021	765.39
440.395	787.31
440.77	786.41
441.145	787.99
441.52	797.93
441.895	828.44
442.27	829.12
442.645	805.39
443.019	784.37
443.394	835.44
443.769	834.31
444.143	858.49
444.518	846.07
444.892	837.7
445.267	834.09
445.641	838.16
446.016	853.52
446.39	853.3
446.764	853.75
447.139	867.08
447.513	880.41
447.887	859.17
448.262	900.53
448.636	875.44
449.01	899.4
449.384	886.52
449.758	891.71
450.132	914.54
450.506	905.05
450.88	907.98
451.254	916.12
451.628	939.4
452.002	932.16
452.376	929
452.75	945.95
453.123	971.71
453.497	952.96
453.871	969.9
454.244	994.08
454.618	993.41
454.992	1004.71
455.365	1018.94
455.739	1033.86
456.112	1034.76
456.486	1020.75
456.859	1019.39
457.232	1065.95
457.606	1049.68
457.979	1079.51
458.352	1075.66
458.725	1126.51
459.099	1109.34
459.472	1129.45
459.845	1153.18
460.218	1141.2
460.591	1160.63
460.964	1160.63
461.337	1170.12
461.71	1206.51
462.083	1228.65
462.456	1179.62
462.829	1223.46
463.201	1221.42
463.574	1231.37
463.947	1271.82
464.32	1281.76
464.692	1306.39
465.065	1286.51
465.438	1308.65
465.81	1332.61
466.183	1347.52
466.555	1364.92
466.928	1379.16
467.3	1386.39
467.672	1380.51
468.045	1408.54
468.417	1415.09
468.789	1436.56
469.161	1464.81
469.534	1494.86
469.906	1502.77
470.278	1537.12
470.65	1553.62
471.022	1572.83
471.394	1605.14
471.766	1624.35
472.138	1652.6
472.51	1669.55
472.882	1690.56
473.253	1698.02
473.625	1741.86
473.997	1772.37
474.369	1819.83
474.74	1784.8
475.112	1836.1
475.484	1874.51
475.855	1893.27
476.227	1907.51
476.598	1992.25
476.97	2013.27
477.341	2017.11
477.713	2033.83
478.084	2090.78
478.455	2141.62
478.827	2189.08
479.198	2224.33
479.569	2245.8
479.94	2310.43
480.311	2336.65
480.682	2391.34
481.053	2416.19
481.424	2487.6
481.795	2510.88
482.166	2566.92
482.537	2588.84
482.908	2674.49
483.279	2666.81
483.65	2764.43
484.021	2800.14
484.391	2864.77
484.762	2858.22
485.133	2910.19
485.503	2954.48
485.874	3034.26
486.244	3079.68
486.615	3131.2
486.985	3209.84
487.356	3291.65
487.726	3283.52
488.097	3333.23
488.467	3393.79
488.837	3449.61
489.207	3564.41
489.578	3588.82
489.948	3614.81
490.318	3671.3
490.688	3691.87
491.058	3772.77
491.428	3842.37
491.798	3888.25
492.168	3925.53
492.538	3966.21
492.908	4063.61
493.278	4071.29
493.648	4102.02
494.017	4144.96
494.387	4217.05
494.757	4272.64
495.126	4285.52
495.496	4362.58
495.866	4377.05
496.235	4424.95
496.605	4457.95
496.974	4510.6
497.344	4535.46
497.713	4570.71
498.082	4621.33
498.452	4717.15
498.821	4676.7
499.19	4690.94
499.559	4769.13
499.928	4841.89
500.298	4863.36
500.667	4886.41
501.036	4895.45
501.405	4958.05
501.774	4917.37
502.143	5008.44
502.512	5061.1
502.88	5080.08
503.249	5106.97
503.618	5128.66
503.987	5132.28
504.356	5193.07
504.724	5184.71
505.093	5237.81
505.462	5250.92
505.83	5259.51
506.199	5351.94
506.567	5407.53
506.936	5393.29
507.304	5471.25
507.672	5520.07
508.041	5495.89
508.409	5507.64
508.777	5579.05
509.145	5647.3
509.514	5621.98
509.882	5683.9
510.25	5676.45
510.618	5724.81
510.986	5747.41
511.354	5774.98
511.722	5791.47
512.09	5848.42
512.458	5766.61
512.826	5890.68
513.193	5928.42
513.561	5883.9
513.929	5959.6
514.297	6014.74
514.664	6053.61
515.032	6070.56
515.4	6113.5
515.767	6129.32
516.135	6129.77
516.502	6106.49
516.869	6203.66
517.237	6214.29
517.604	6254.51
517.972	6298.8
518.339	6315.3
518.706	6328.41
519.073	6356.88
519.44	6345.36
519.808	6428.29
520.175	6412.92
520.542	6530.44
520.909	6501.06
521.276	6513.94
521.643	6575.18
522.009	6594.16
522.376	6644.56
522.743	6670.54
523.11	6736.53
523.477	6728.85
523.843	6784.44
524.21	6898.56
524.577	6878
524.943	6895.17
525.31	6957.32
525.676	7008.16
526.043	7083.64
526.409	7085.9
526.776	7088.16
527.142	7202.06
527.508	7163.19
527.874	7249.74
528.241	7228.04
528.607	7285.67
528.973	7326.57
529.339	7346.23
529.705	7415.16
530.071	7483.86
530.437	7501.03
530.803	7587.81
531.169	7578.32
531.535	7589.84
531.901	7614.47
532.267	7701.93
532.632	7677.75
532.998	7770.85
533.364	7818.31
533.73	7764.53
534.095	7858.08
534.461	7909.38
534.826	7869.84
535.192	7967.91
535.557	8040.68
535.923	8033.22
536.288	8106.44
536.653	8055.59
537.019	8089.04
537.384	8187.79
537.749	8152.09
538.114	8184.4
538.479	8237.06
538.845	8302.37
539.21	8223.72
539.575	8266.89
539.94	8291.07
540.305	8401.57
540.67	8380.78
541.034	8423.49
541.399	8506.88
541.764	8490.38
542.129	8497.62
542.494	8581.91
542.858	8631.85
543.223	8625.52
543.587	8696.71
543.952	8670.49
544.316	8684.5
544.681	8742.13
545.045	8793.88
545.41	8809.47
545.774	8878.4
546.138	8889.02
546.503	8933.76
546.867	8902.8
547.231	9007.43
547.595	9032.74
547.959	9019.18
548.324	9098.05
548.688	9138.5
549.052	9132.63
549.416	9122.68
549.779	9110.25
550.143	9215.79
550.507	9246.07
550.871	9267.76
551.235	9275.9
551.599	9363.13
551.962	9472.28
552.326	9416.69
552.689	9403.58
553.053	9430.92
553.417	9473.64
553.78	9613.74
554.143	9540.07
554.507	9613.52
554.87	9655.55
555.234	9745.49
555.597	9625.27
555.96	9740.75
556.323	9669.79
556.686	9812.38
557.05	9784.36
557.413	9892.61
557.776	9907.97
558.139	9898.71
558.502	9944.36
558.865	9963.57
559.228	10059.61
559.59	10061.87
559.953	10056.22
560.316	10228.87
560.679	10151.58
561.041	10222.54
561.404	10204.24
561.767	10341.63
562.129	10290.79
562.492	10349.54
562.854	10412.37
563.217	10429.54
563.579	10377.79
563.941	10457.11
564.304	10604
564.666	10570.78
565.028	10600.39
565.39	10653.04
565.753	10661.4
566.115	10741.62
566.477	10771.23
566.839	10794.5
567.201	10900.26
567.563	10852.36
567.925	10986.59
568.287	11026.14
568.648	11010.32
569.01	11061.16
569.372	11116.53
569.734	11043.31
570.095	11110.88
570.457	11249.41
570.819	11256.19
571.18	11290.31
571.542	11361.95
571.903	11348.16
572.265	11503.19
572.626	11487.37
572.987	11532.56
573.349	11641.71
573.71	11596.97
574.071	11699.57
574.432	11736.63
574.794	11923.29
575.155	11918.99
575.516	11969.84
575.877	12000.35
576.238	12186.33
576.599	12238.76
576.96	12268.36
577.32	12376.38
577.681	12402.15
578.042	12540
578.403	12530.5
578.763	12718.52
579.124	12783.6
579.485	12926.88
579.845	12994.9
580.206	13132.97
580.566	13257.49
580.927	13302.46
581.287	13562.57
581.648	13580.19
582.008	13813.41
582.368	13882.33
582.728	14046.85
583.089	14137.02
583.449	14323.45
583.809	14525.71
584.169	14687.96
584.529	14866.26
584.889	15137.89
585.249	15334.27
585.609	15282.3
585.969	15666.69
586.329	15744.43
586.688	16020.13
587.048	16269.61
587.408	16477.52
587.768	16598.42
588.127	16856.27
588.487	17124.51
588.846	17450.83
589.206	17494.67
589.565	17860.08
589.925	18207.42
590.284	18364.7
590.643	18619.16
591.003	18872.48
591.362	19234.51
591.721	19498.23
592.08	19735.29
592.44	20123.07
592.799	20330.3
593.158	20624.3
593.517	20837.86
593.876	21160.79
594.235	21431.29
594.593	21810.03
594.952	22088.67
595.311	22337.7
595.67	22672.84
596.029	23116.44
596.387	23360.73
596.746	23659.7
597.104	23973.14
597.463	24211.78
597.822	24650.86
598.18	24790.52
598.538	25140.12
598.897	25474.12
599.255	25658.97
599.613	26187.09
599.972	26289.69
600.33	26731.71
600.688	26892.61
601.046	27291.7
601.404	27599.26
601.762	27842.42
602.12	28147.49
602.478	28539.12
602.836	28733.47
603.194	29020.69
603.552	29312.89
603.91	29361.25
604.268	29793.1
604.625	30030.38
604.983	30397.38
605.341	30418.4
605.698	30944.93
606.056	31230.35
606.413	31366.17
606.771	31749.66
607.128	32002.31
607.485	32081.4
607.843	32320.04
608.2	32614.27
608.557	33012.68
608.914	33117.08
609.272	33561.14
609.629	33709.83
609.986	33992.31
610.343	34069.6
610.7	34633.2
611.057	34603.14
611.414	34803.82
611.771	35037.03
612.127	35335.33
612.484	35538.94
612.841	35823.68
613.198	35749.55
613.554	36113.39
613.911	36432.25
614.267	36542.53
614.624	36833.82
614.98	36995.4
615.337	37136.18
615.693	37229.06
616.05	37422.96
616.406	37763.51
616.762	37674.48
617.118	37910.63
617.475	37964.19
617.831	38232.2
618.187	38387.45
618.543	38456.6
618.899	38809.81
619.255	38892.97
619.611	38912.86
619.967	39226.75
620.323	39433.07
620.678	39317.37
621.034	39402.34
621.39	39574.31
621.746	39630.58
622.101	40125.94
622.457	39896.56
622.812	40085.94
623.168	40267.4
623.523	40298.59
623.879	40600.27
624.234	40395.53
624.589	40813.83
624.945	40680.27
625.3	40816.31
625.655	40661.74
626.01	40922.98
626.365	40977.89
626.72	40896.31
627.075	40971.11
627.43	40995.97
627.785	41176.3
628.14	41398.45
628.495	41335.62
628.85	41454.26
629.205	41270.77
629.559	41525
629.914	41378.11
630.269	41513.7
630.623	41541.49
630.978	41492.45
631.332	41630.53
631.687	41773.12
632.041	41662.62
632.396	41807.93
632.75	41610.87
633.104	41802.05
633.459	41701.49
633.813	41749.62
634.167	41774.25
634.521	41733.8
634.875	41729.51
635.229	41714.37
635.583	41600.25
635.937	41680.25
636.291	41604.32
636.645	41774.48
636.999	41508.05
637.352	41870.3
637.706	41580.81
638.06	41786.46
638.413	41745.78
638.767	41690.87
639.121	41724.54
639.474	41428.95
639.828	41658.1
640.181	41722.73
640.534	41714.82
640.888	41566.8
641.241	41559.12
641.594	41599.12
641.947	41815.38
642.301	41543.3
642.654	41662.62
643.007	41576.75
643.36	41516.63
643.713	41513.7
644.066	41569.06
644.419	41394.15
644.771	41157.1
645.124	40831.45
645.477	40836.43
645.83	40567.28
646.182	40512.37
646.535	40257.46
646.888	40480.05
647.24	40345.82
647.593	40465.36
647.945	40362.99
648.298	40321.64
648.65	40137.91
649.002	39988.31
649.355	40365.7
649.707	40195.31
650.059	40454.74
650.411	40961.17
650.763	40986.25
651.115	41313.02
651.467	41231.44
651.819	41149.86
652.171	41105.12
652.523	41143.99
652.875	41047.27
653.227	40950.55
653.578	41237.09
653.93	41035.97
654.282	41091.56
654.633	40953.26
654.985	40974.73
655.337	41025.57
655.688	40975.86
656.039	41098.57
656.391	40891.11
656.742	40843.88
657.094	40979.25
657.445	41051.34
657.796	40893.15
658.147	40824.22
658.498	40892.7
658.849	40990.32
659.2	40820.38
659.551	40640.5
659.902	40735.41
660.253	40676.88
660.604	40844.34
660.955	40606.15
661.306	40762.08
661.656	40715.98
662.007	40768.86
662.358	40758.01
662.708	40803.43
663.059	40663.55
663.409	40565.92
663.76	40751.23
664.11	40774.96
664.461	40711.01
664.811	40696.54
665.161	40822.87
665.511	40687.96
665.862	40519.37
666.212	40720.95
666.562	40716.88
666.912	40655.64
667.262	40666.71
667.612	40628.75
667.962	40692.25
668.312	40725.02
668.662	40766.6
669.011	40657
669.361	40475.98
669.711	40575.87
670.06	40498.13
670.41	40492.03
670.76	40374.29
671.109	40501.29
671.459	40493.84
671.808	40478.47
672.157	40455.19
672.507	40207.97
672.856	40273.05
673.205	40346.27
673.554	40501.75
673.904	40477.11
674.253	40678.46
674.602	40318.02
674.951	39829.22
675.3	39709
675.649	40222.88
675.998	40389.21
676.346	40233.73
676.695	40351.69
677.044	40115.77
677.393	40301.53
677.741	40256.1
678.09	40034.19
678.438	39996
678.787	40199.38
679.135	40112.15
679.484	39787.87
679.832	40048.88
680.181	39649.11
680.529	39967.3
680.877	39646.63
681.225	39765.49
681.573	39871.48
681.922	39685.5
682.27	39480.08
682.618	39619.74
682.966	39507.42
683.314	39577.25
683.661	39449.57
684.009	39243.47
684.357	39223.59
684.705	39152.18
685.053	39156.24
685.4	39114.89
685.748	38967.55
686.095	38900.43
686.443	38855.46
686.79	38738.4
687.138	38968.45
687.485	38740.44
687.832	38812.98
688.18	38642.36
688.527	38567.79
688.874	38486.21
689.221	38424.96
689.568	38222.48
689.915	38375.93
690.262	38278.08
690.609	38187.23
690.956	38118.98
691.303	38054.13
691.65	37918.76
691.997	37773.46
692.344	37517.42
692.69	37606.45
693.037	37557.87
693.383	37227.48
693.73	37416.63
694.077	37183.87
694.423	37217.31
694.769	37001.95
695.116	37044.44
695.462	36994.95
695.808	36834.72
696.155	36945.23
696.501	36629.76
696.847	36627.05
697.193	36254.17
697.539	36575.97
697.885	36296.21
698.231	36254.63
698.577	36297.79
698.923	36190.22
699.269	35989.77
699.614	35863.9
699.96	35663.68
700.306	35717.24
700.651	35596.11
700.997	35464.82
701.342	35568.54
701.688	35416.46
702.033	35243.8
702.379	35216.69
702.724	35061.66
703.069	35189.34
703.415	34852.63
703.76	34997.48
704.105	34732.86
704.45	34779.64
704.795	34504.16
705.14	34398.4
705.485	34318.41
705.83	34367.67
706.175	34321.8
706.52	34280.21
706.865	34174.68
707.209	34102.82
707.554	33940.56
707.899	34110.05
708.243	33790.74
708.588	33845.2
708.932	33589.84
709.277	33627.58
709.621	33618.31
709.966	33472.1
710.31	33466.45
710.654	33296.29
710.998	33210.41
711.342	33387.36
711.687	33146.01
712.031	33111.43
712.375	32894.04
712.719	32976.07
713.063	32979.91
713.407	32963.86
713.75	32837.54
714.094	32763.87
714.438	32743.31
714.782	32621.95
715.125	32398.23
715.469	32554.38
715.812	32299.25
716.156	32196.43
716.499	32268.74
716.843	32353.71
717.186	31941.52
717.53	32197.56
717.873	32143.32
718.216	32156.43
718.559	31907.17
718.902	31895.42
719.246	31767.74
719.589	31739.94
719.932	31538.14
720.275	31410.46
720.617	31545.6
720.96	31421.08
721.303	31506.95
721.646	31406.39
721.989	31262.67
722.331	31392.83
722.674	31238.26
723.016	31338.6
723.359	31212.95
723.701	31227.64
724.044	31186.28
724.386	31033.29
724.729	31069.23
725.071	30918.95
725.413	30916.24
725.755	30883.69
726.097	30832.62
726.439	30612.51
726.782	30658.39
727.124	30767.31
727.465	30674.43
727.807	30669.91
728.149	30432.86
728.491	30398.06
728.833	30448.9
729.175	30313.99
729.516	30276.7
729.858	30204.39
730.199	30245.74
730.541	30228.57
730.882	30158.06
731.224	30283.94
731.565	29930.27
731.906	30081.91
732.248	30062.92
732.589	29947.67
732.93	29647.34
733.271	29800.33
733.612	29839.43
733.953	29781.12
734.294	29596.04
734.635	29572.99
734.976	29703.84
735.317	29584.29
735.658	29523.96
735.999	29592.43
736.339	29465.65
736.68	29693.89
737.021	29431.53
737.361	29420.46
737.702	29521.24
738.042	29376.84
738.383	29329.38
738.723	29387.69
739.063	29183.17
739.404	29203.74
739.744	29159.67
740.084	29004.42
740.424	29015.72
740.764	28973.46
741.104	29159.45
741.444	28929.17
741.784	28805.33
742.124	28851.2
742.464	28716.29
742.804	28772.79
743.143	28648.72
743.483	28820.47
743.823	28611.21
744.162	28629.97
744.502	28612.34
744.841	28577.54
745.181	28631.32
745.52	28489.41
745.86	28429.07
746.199	28513.59
746.538	28340.94
746.877	28416.64
747.216	28366.25
747.556	28323.31
747.895	28248.96
748.234	28111.56
748.573	28108.4
748.911	28023.66
749.25	28062.3
749.589	27984.11
749.928	28003.09
750.267	27971
750.605	27900.95
750.944	27946.37
751.283	27785.02
751.621	27814.4
751.96	27673.83
752.298	27701.86
752.636	27633.38
752.975	27595.87
753.313	27527.85
753.651	27576.66
753.989	27361.53
754.327	27337.57
754.666	27232.04
755.004	27138.93
755.342	27303.9
755.679	27188.42
756.017	27023
756.355	27039.73
756.693	27048.54
757.031	27055.77
757.368	26913.63
757.706	26853.74
758.044	26719.06
758.381	26902.78
758.719	26611.26
759.056	26562
759.394	26632.28
759.731	26482.23
