Data from hue_100_FLMS001491_00036.txt Node
Date: Tue Feb 07 17:03:04 GMT 2017
User: dcchb
Spectrometer: FLMS00149
Trigger mode: 0
Integration Time (sec): 2.000000E-2
Scans to average: 10
Electric dark correction enabled: true
Nonlinearity correction enabled: false
Boxcar width: 0
XAxis mode: Wavelengths
Number of Pixels in Spectrum: 2048
>>>>>Begin Spectral Data<<<<<
341.393	-14.15
341.776	-14.15
342.16	-14.15
342.543	-73.13
342.927	-51.89
343.31	-48.28
343.693	-66.13
344.077	-61.16
344.46	-66.58
344.843	-78.11
345.226	-36.52
345.61	-43.08
345.993	-17.99
346.376	3.02
346.759	22.91
347.142	30.59
347.525	31.04
347.908	54.32
348.291	82.12
348.674	69.69
349.057	124.15
349.44	134.09
349.823	147.2
350.206	190.36
350.588	200.31
350.971	238.04
351.354	229.01
351.737	254.32
352.119	280.98
352.502	277.37
352.884	273.75
353.267	299.96
353.65	304.48
354.032	311.94
354.414	326.86
354.797	319.4
355.179	331.38
355.562	340.64
355.944	331.38
356.326	333.86
356.709	345.39
357.091	334.31
357.473	364.59
357.855	346.74
358.238	366.85
358.62	363.69
359.002	354.2
359.384	341.77
359.766	347.87
360.148	319.4
360.53	374.31
360.912	358.04
361.294	365.27
361.676	358.49
362.057	330.92
362.439	333.41
362.821	317.14
363.203	330.02
363.584	331.38
363.966	330.25
364.348	339.74
364.729	333.86
365.111	319.4
365.493	341.09
365.874	342.22
366.256	317.36
366.637	311.04
367.019	332.73
367.4	341.54
367.781	339.74
368.163	310.59
368.544	342.67
368.925	318.72
369.306	327.99
369.688	331.6
370.069	331.38
370.45	324.14
370.831	337.93
371.212	320.75
371.593	317.36
371.974	331.15
372.355	312.39
372.736	329.79
373.117	347.42
373.498	313.3
373.879	348.55
374.26	344.71
374.641	324.82
375.021	337.93
375.402	324.6
375.783	344.26
376.163	348.32
376.544	336.8
376.925	345.16
377.305	329.34
377.686	347.87
378.066	360.08
378.447	356.23
378.827	358.72
379.208	348.1
379.588	328.89
379.968	345.39
380.349	338.15
380.729	364.14
381.109	357.36
381.489	348.55
381.87	351.26
382.25	370.92
382.63	353.07
383.01	360.08
383.39	368.21
383.77	356.01
384.15	374.31
384.53	372.05
384.91	370.24
385.29	362.56
385.67	386.97
386.049	374.09
386.429	395.55
386.809	394.88
387.189	379.28
387.568	379.06
387.948	393.07
388.328	416.57
388.707	377.93
389.087	382.9
389.466	389.91
389.846	411.83
390.225	397.59
390.605	396.46
390.984	378.83
391.363	403.01
391.743	394.2
392.122	414.76
392.501	438.27
392.881	375.44
393.26	408.89
393.639	415.44
394.018	408.66
394.397	394.88
394.776	387.87
395.155	432.84
395.534	430.13
395.913	405.72
396.292	430.36
396.671	424.25
397.05	427.87
397.429	418.38
397.808	438.94
398.186	429
398.565	459.06
398.944	434.65
399.323	438.04
399.701	415.89
400.08	439.85
400.458	447.76
400.837	432.16
401.215	459.51
401.594	423.58
401.972	442.33
402.351	449.11
402.729	449.34
403.107	459.28
403.486	480.75
403.864	461.54
404.242	465.38
404.62	472.61
404.999	472.39
405.377	488.21
405.755	483.91
406.133	459.96
406.511	492.5
406.889	497.7
407.267	505.16
407.645	481.88
408.023	510.13
408.401	525.95
408.779	505.16
409.156	508.55
409.534	522.78
409.912	520.52
410.29	546.29
410.667	541.99
411.045	544.7
411.422	543.57
411.8	520.3
412.178	547.87
412.555	524.59
412.933	565.04
413.31	557.36
413.687	557.13
414.065	575.89
414.442	570.69
414.819	586.96
415.197	586.96
415.574	581.76
415.951	574.76
416.328	620.41
416.705	614.76
417.082	591.48
417.46	586.06
417.837	620.18
418.214	592.16
418.591	619.05
418.967	614.53
419.344	641.65
419.721	640.52
420.098	612.05
420.475	640.52
420.852	641.42
421.228	629.22
421.605	642.33
421.982	660.41
422.358	654.08
422.735	658.82
423.111	664.47
423.488	679.61
423.864	685.49
424.241	685.72
424.617	700.63
424.994	700.18
425.37	705.6
425.746	725.04
426.123	673.51
426.499	713.06
426.875	735.88
427.251	724.36
427.627	728.43
428.003	747.41
428.379	737.47
428.756	765.04
429.132	770.23
429.507	773.85
429.883	787.86
430.259	786.96
430.635	780.63
431.011	798.93
431.387	791.02
431.763	802.1
432.138	813.17
432.514	843
432.89	836.45
433.265	848.2
433.641	867.86
434.016	886.39
434.392	881.87
434.767	895.2
435.143	893.62
435.518	895.65
435.894	897.69
436.269	927.29
436.644	934.3
437.02	931.13
437.395	921.87
437.77	955.77
438.145	963
438.52	950.57
438.895	951.02
439.271	980.17
439.646	970.45
440.021	990.57
440.395	1004.13
440.77	1000.74
441.145	988.53
441.52	1032.15
441.895	1026.05
442.27	1051.58
442.645	1039.38
443.019	1053.39
443.394	1056.33
443.769	1064.69
444.143	1071.47
444.518	1085.48
444.892	1078.7
445.267	1104.69
445.641	1104.24
446.016	1082.32
446.39	1102.2
446.764	1122.54
447.139	1122.09
447.513	1140.85
447.887	1135.87
448.262	1161.41
448.636	1164.8
449.01	1198.25
449.384	1155.08
449.758	1161.18
450.132	1178.81
450.506	1196.66
450.88	1217.68
451.254	1215.19
451.628	1207.96
452.002	1225.82
452.376	1262.42
452.75	1275.31
453.123	1277.79
453.497	1272.59
453.871	1304.68
454.244	1308.52
454.618	1322.31
454.992	1363.89
455.365	1349.65
455.739	1373.83
456.112	1391.01
456.486	1408.86
456.859	1400.27
457.232	1448.18
457.606	1466.26
457.979	1495.19
458.352	1483.89
458.725	1499.25
459.099	1518.69
459.472	1551.91
459.845	1549.42
460.218	1569.76
460.591	1624.67
460.964	1598.69
461.337	1646.14
461.71	1708.29
462.083	1696.31
462.456	1730.66
462.829	1730.21
463.201	1727.5
463.574	1757.78
463.947	1788.51
464.32	1827.38
464.692	1832.8
465.065	1861.96
465.438	1902.63
465.81	1902.41
466.183	1933.59
466.555	1988.73
466.928	2002.29
467.3	1999.13
467.672	2050.88
468.045	2108.96
468.417	2113.48
468.789	2136.07
469.161	2154.6
469.534	2246.81
469.906	2257.65
470.278	2299.69
470.65	2302.4
471.022	2364.99
471.394	2432.11
471.766	2428.04
472.138	2507.59
472.51	2539.68
472.882	2613.35
473.253	2628.04
473.625	2728.83
473.997	2764.76
474.369	2804.76
474.74	2858.54
475.112	2887.69
475.484	2981.7
475.855	3085.43
476.227	3127.23
476.598	3194.13
476.97	3265.31
477.341	3316.61
477.713	3451.29
478.084	3458.52
478.455	3593.21
478.827	3674.11
479.198	3858.74
479.569	3793.43
479.94	3968.79
480.311	4045.85
480.682	4162.69
481.053	4314.1
481.424	4382.57
481.795	4476.58
482.166	4559.06
482.537	4705.5
482.908	4875.89
483.279	4935.1
483.65	5057.8
484.021	5221.64
484.391	5341.87
484.762	5454.86
485.133	5605.36
485.503	5696.66
485.874	5887.39
486.244	6004.22
486.615	6223.65
486.985	6348.84
487.356	6512.23
487.726	6634.49
488.097	6791.32
488.467	6973.01
488.837	7113.57
489.207	7256.39
489.578	7424.07
489.948	7554.91
490.318	7766.21
490.688	7863.61
491.058	8077.84
491.428	8237.16
491.798	8421.33
492.168	8646.64
492.538	8743.81
492.908	8910.36
493.278	9134.31
493.648	9230.58
494.017	9391.48
494.387	9486.16
494.757	9762.09
495.126	9966.38
495.496	9917.11
495.866	10118.69
496.235	10315.29
496.605	10446.14
496.974	10629.41
497.344	10751.44
497.713	10891.55
498.082	10966.35
498.452	11196.17
498.821	11256.96
499.19	11414.47
499.559	11571.76
499.928	11692.88
500.298	11831.41
500.667	12000.22
501.036	12094.23
501.405	12180.56
501.774	12312.08
502.143	12410.38
502.512	12580.77
502.88	12704.38
503.249	12803.36
503.618	12948.67
503.987	13036.13
504.356	13091.27
504.724	13212.17
505.093	13351.6
505.462	13451.48
505.83	13557.02
506.199	13717.46
506.567	13852.83
506.936	13837.24
507.304	14013.5
507.672	14096.44
508.041	14189.77
508.409	14332.14
508.777	14411.91
509.145	14555.63
509.514	14517.9
509.882	14681.73
510.25	14689.64
510.618	14848.73
510.986	14857.1
511.354	14990.65
511.722	15129.63
512.09	15224.09
512.458	15204.66
512.826	15286.91
513.193	15403.52
513.561	15404.43
513.929	15562.16
514.297	15650.52
514.664	15699.56
515.032	15816.17
515.4	15967.57
515.767	15881.7
516.135	15968.48
516.502	15900.68
516.869	16142.94
517.237	16267
517.604	16100.9
517.972	16283.95
518.339	16434.68
518.706	16340.45
519.073	16420.9
519.44	16446.21
519.808	16640.78
520.175	16617.95
520.542	16744.28
520.909	16856.14
521.276	16738.63
521.643	16899.98
522.009	16978.62
522.376	17013.2
522.743	17034.67
523.11	17209.12
523.477	17303.36
523.843	17294.55
524.21	17501.55
524.577	17420.19
524.943	17502
525.31	17540.64
525.676	17705.38
526.043	17692.27
526.409	17752.39
526.776	17823.8
527.142	17768.21
527.508	17966.84
527.874	17983.57
528.241	17981.08
528.607	17998.48
528.973	18167.97
529.339	18126.16
529.705	18201.41
530.071	18190.34
530.437	18298.59
530.803	18306.04
531.169	18252.26
531.535	18186.73
531.901	18267.63
532.267	18232.83
532.632	18325.25
532.998	18357.12
533.364	18452.71
533.73	18330
534.095	18395.08
534.461	18464.46
534.826	18489.09
535.192	18512.59
535.557	18449.09
535.923	18432.82
536.288	18450.22
536.653	18407.28
537.019	18330
537.384	18398.25
537.749	18368.42
538.114	18324.35
538.479	18333.84
538.845	18417.45
539.21	18332.71
539.575	18387.62
539.94	18276.21
540.305	18373.84
540.67	18276.44
541.034	18274.41
541.399	18197.35
541.764	18186.95
542.129	18263.11
542.494	18102.21
542.858	18220.17
543.223	18119.83
543.587	18282.54
543.952	18185.14
544.316	18113.51
544.681	18120.06
545.045	18116.9
545.41	18090
545.774	18146.05
546.138	18088.87
546.503	17938.37
546.867	17958.26
547.231	18035.99
547.595	17974.75
547.959	17926.62
548.324	17868.54
548.688	17837.36
549.052	17850.46
549.416	17847.07
549.779	17796.68
550.143	17913.74
550.507	17852.5
550.871	17881.42
551.235	17719.84
551.599	17815.66
551.962	17770.24
552.326	17688.66
552.689	17758.49
553.053	17624.93
553.417	17642.56
553.78	17814.53
554.143	17717.13
554.507	17676.68
554.87	17669.9
555.234	17776.34
555.597	17613.86
555.96	17622.67
556.323	17628.77
556.686	17709.45
557.05	17752.16
557.413	17718.71
557.776	17634.88
558.139	17796.68
558.502	17717.58
558.865	17673.52
559.228	17764.59
559.59	17721.88
559.953	17774.53
560.316	17824.25
560.679	17806.4
561.041	17836.23
561.404	17882.55
561.767	17936.79
562.129	17851.82
562.492	17986.73
562.854	17801.65
563.217	17878.48
563.579	17852.72
563.941	18040.06
564.304	17954.64
564.666	18045.94
565.028	18039.61
565.39	18080.51
565.753	18105.37
566.115	18154.41
566.477	18249.77
566.839	18137.69
567.201	18288.42
567.563	18326.61
567.925	18377.23
568.287	18330.45
568.648	18379.71
569.01	18374.52
569.372	18507.17
569.734	18406.61
570.095	18546.26
570.457	18514.17
570.819	18518.02
571.18	18453.38
571.542	18625.81
571.903	18679.59
572.265	18679.59
572.626	18727.05
572.987	18626.49
573.349	18701.74
573.71	18766.37
574.071	18754.39
574.432	18790.78
574.794	18895.63
575.155	18883.43
575.516	18756.65
575.877	18793.26
576.238	18778.8
576.599	18916.42
576.96	18928.4
577.32	18908.06
577.681	18846.37
578.042	18929.76
578.403	18961.17
578.763	18952.58
579.124	18907.38
579.485	19002.52
579.845	18998.68
580.206	18922.75
580.566	18967.27
580.927	18910.55
581.287	19099.24
581.648	18893.15
582.008	19090.66
582.368	18998
582.728	18993.94
583.089	19044.33
583.449	18845.01
583.809	18949.87
584.169	18989.19
584.529	18917.78
584.889	19012.01
585.249	18890.89
585.609	18889.53
585.969	18990.32
586.329	18845.92
586.688	18941.96
587.048	18833.26
587.408	18749.2
587.768	18880.49
588.127	18810.89
588.487	18691.12
588.846	18945.58
589.206	18727.05
589.565	18774.73
589.925	18858.57
590.284	18808.18
590.643	18787.39
591.003	18864.45
591.362	18826.03
591.721	18827.39
592.08	18728.63
592.44	18843.88
592.799	18724.79
593.158	18820.15
593.517	18702.64
593.876	18758.01
594.235	18776.31
594.593	18785.58
594.952	18766.82
595.311	18644.11
595.67	18850.21
596.029	18783.09
596.387	18787.16
596.746	18828.52
597.104	18627.17
597.463	18588.97
597.822	18732.47
598.18	18693.6
598.538	18653.15
598.897	18724.56
599.255	18620.39
599.613	18855.86
599.972	18703.1
600.33	18729.31
600.688	18748.52
601.046	18805.24
601.404	18804.79
601.762	18610.89
602.12	18822.64
602.478	18757.33
602.836	18765.92
603.194	18663.32
603.552	18777.44
603.91	18636.88
604.268	18728.41
604.625	18640.95
604.983	18728.18
605.341	18619.48
605.698	18672.36
606.056	18814.96
606.413	18751.23
606.771	18788.52
607.128	18812.25
607.485	18748.29
607.843	18790.78
608.2	18862.87
608.557	18889.31
608.914	18835.3
609.272	18946.93
609.629	18939.47
609.986	18923.2
610.343	18871.9
610.7	18968.63
611.057	18962.52
611.414	18974.28
611.771	19005.91
612.127	19026.48
612.484	18986.25
612.841	19154.84
613.198	18996.65
613.554	18935.86
613.911	19066.25
614.267	19198.9
614.624	19032.8
614.98	19057.66
615.337	19241.84
615.693	19073.48
616.05	19147.6
616.406	19275.96
616.762	19195.29
617.118	19104.22
617.475	19154.84
617.831	19239.13
618.187	19310.31
618.543	19352.12
618.899	19350.54
619.255	19268.05
619.611	19221.05
619.967	19407.26
620.323	19355.73
620.678	19257.21
621.034	19323.87
621.39	19285.68
621.746	19167.94
622.101	19513.92
622.457	19279.8
622.812	19393.02
623.168	19356.41
623.523	19323.87
623.879	19434.6
624.234	19346.69
624.589	19398.22
624.945	19306.24
625.3	19361.38
625.655	19368.62
626.01	19351.89
626.365	19407.71
626.72	19348.95
627.075	19384.21
627.43	19380.37
627.785	19285.68
628.14	19312.12
628.495	19379.01
628.85	19321.38
629.205	19210.88
629.559	19252.69
629.914	19202.52
630.269	19222.63
630.623	19246.13
630.978	19196.19
631.332	19230.99
631.687	19230.31
632.041	19113.48
632.396	19119.36
632.75	19106.48
633.104	19059.7
633.459	18895.18
633.813	18957.33
634.167	18975.63
634.521	18987.38
634.875	18993.71
635.229	18936.31
635.583	18880.94
635.937	18983.77
636.291	18924.33
636.645	18806.37
636.999	18773.38
637.352	18769.99
637.706	18766.6
638.06	18812.25
638.413	18748.74
638.767	18761.63
639.121	18787.16
639.474	18542.87
639.828	18575.87
640.181	18612.02
640.534	18702.42
640.888	18654.96
641.241	18537
641.594	18578.58
641.947	18568.64
642.301	18528.41
642.654	18588.3
643.007	18579.94
643.36	18541.74
643.713	18481.41
644.066	18562.53
644.419	18328.19
644.771	18457.23
645.124	18198.25
645.477	18151.02
645.83	18089.55
646.182	18002.78
646.535	17897.02
646.888	17964.58
647.24	17869.22
647.593	17948.09
647.945	17829.9
648.298	17768.66
648.65	17837.81
649.002	17762.33
649.355	17847.3
649.707	17878.03
650.059	17938.14
650.411	18123.22
650.763	18135.65
651.115	18236.22
651.467	18200.96
651.819	18171.58
652.171	18234.41
652.523	18161.19
652.875	18177.23
653.227	18163.22
653.578	18180.17
653.93	18103.79
654.282	18067.41
654.633	18102.43
654.985	18094.3
655.337	18165.93
655.688	18113.05
656.039	18307.17
656.391	18076.45
656.742	18141.75
657.094	18185.82
657.445	18110.79
657.796	18199.83
658.147	18238.48
658.498	18269.89
658.849	18200.51
659.2	18205.71
659.551	18124.13
659.902	18152.83
660.253	18185.37
660.604	18243.9
660.955	18174.3
661.306	18228.31
661.656	18208.65
662.007	18203.9
662.358	18274.41
662.708	18218.36
663.059	18187.63
663.409	18051.36
663.76	18211.58
664.11	18186.27
664.461	18308.98
664.811	18218.14
665.161	18141.53
665.511	18191.02
665.862	18173.39
666.212	18226.5
666.562	18339.26
666.912	18150.34
667.262	18145.82
667.612	18248.42
667.962	18226.95
668.312	18127.52
668.662	18336.55
669.011	18242.77
669.361	18271.24
669.711	18246.61
670.06	18145.6
670.41	18117.8
670.76	18100.85
671.109	18231.24
671.459	18180.4
671.808	18149.66
672.157	18121.19
672.507	18007.07
672.856	18039.84
673.205	18069.67
673.554	18043.9
673.904	17980.18
674.253	18018.59
674.602	17979.72
674.951	17829.45
675.3	17689.56
675.649	17948.77
675.998	17996.22
676.346	17933.17
676.695	17924.13
677.044	17869.45
677.393	17871.71
677.741	17855.43
678.09	17822.67
678.438	17755.78
678.787	17818.6
679.135	17719.62
679.484	17681.88
679.832	17862.44
680.181	17655.89
680.529	17631.26
680.877	17509.68
681.225	17592.16
681.573	17746.06
681.922	17519.62
682.27	17533.18
682.618	17461.09
682.966	17399.4
683.314	17457.93
683.661	17412.96
684.009	17273.3
684.357	17301.55
684.705	17222
685.053	17305.39
685.4	17250.25
685.748	17081.9
686.095	17125.28
686.443	17019.07
686.79	17121.44
687.138	17084.16
687.485	17070.37
687.832	16975.91
688.18	17013.42
688.527	16856.36
688.874	16764.84
689.221	16792.86
689.568	16758.51
689.915	16695.92
690.262	16636.26
690.609	16649.14
690.956	16628.12
691.303	16575.24
691.65	16399.65
691.997	16450.73
692.344	16412.08
692.69	16287.57
693.037	16390.39
693.383	16230.17
693.73	16185.65
694.077	16136.84
694.423	16064.52
694.769	15989.72
695.116	15962.83
695.462	15968.48
695.808	15870.18
696.155	15896.39
696.501	15755.15
696.847	15733.46
697.193	15665.89
697.539	15756.28
697.885	15650.07
698.231	15430.19
698.577	15453.69
698.923	15446.46
699.269	15414.37
699.614	15226.58
699.96	15247.14
700.306	15203.75
700.651	15138.9
700.997	15102.74
701.342	15048.5
701.688	15034.72
702.033	14999.24
702.379	14932.35
702.724	14838.56
703.069	14948.17
703.415	14684.22
703.76	14700.72
704.105	14705.69
704.45	14604.67
704.795	14527.61
705.14	14492.13
705.485	14457.78
705.83	14466.82
706.175	14493.49
706.52	14380.05
706.865	14282.65
707.209	14342.98
707.554	14262.76
707.899	14200.39
708.243	14168.3
708.588	14082.65
708.932	13959.72
709.277	14019.83
709.621	13977.12
709.966	13912.49
710.31	13931.47
710.654	13832.04
710.998	13884.01
711.342	13844.24
711.687	13812.38
712.031	13709.1
712.375	13753.85
712.719	13718.37
713.063	13684.7
713.407	13666.39
713.75	13541.42
714.094	13611.03
714.438	13539.39
714.782	13582.55
715.125	13470.24
715.469	13456.91
715.812	13387.98
716.156	13272.28
716.499	13380.3
716.843	13279.96
717.186	13270.02
717.53	13381.2
717.873	13311.15
718.216	13202.45
718.559	13208.33
718.902	13170.81
719.246	13126.75
719.589	13105.28
719.932	13073.19
720.275	13064.15
720.617	13081.32
720.96	13075.22
721.303	13036.35
721.646	13011.72
721.989	12994.55
722.331	13048.33
722.674	12958.16
723.016	13025.96
723.359	12971.27
723.701	12934.89
724.044	12865.96
724.386	12842.68
724.729	12973.3
725.071	12891.05
725.413	12857.6
725.755	12872.74
726.097	12833.87
726.439	12705.97
726.782	12797.26
727.124	12855.34
727.465	12743.25
727.807	12834.78
728.149	12681.79
728.491	12659.41
728.833	12712.29
729.175	12755.46
729.516	12731.73
729.858	12691.5
730.199	12672.52
730.541	12636.81
730.882	12681.56
731.224	12699.19
731.565	12567.89
731.906	12697.83
732.248	12695.8
732.589	12546.87
732.93	12551.17
733.271	12622.8
733.612	12644.05
733.953	12566.31
734.294	12590.04
734.635	12546.42
734.976	12618.74
735.317	12528.57
735.658	12596.82
735.999	12577.61
736.339	12543.94
736.68	12655.12
737.021	12657.38
737.361	12517.27
737.702	12614.22
738.042	12552.98
738.383	12615.35
738.723	12575.57
739.063	12547.78
739.404	12661.45
739.744	12621
740.084	12638.17
740.424	12634.55
740.764	12596.14
741.104	12662.35
741.444	12576.25
741.784	12581.22
742.124	12755
742.464	12654.67
742.804	12680.88
743.143	12691.5
743.483	12750.48
743.823	12691.28
744.162	12708.45
744.502	12795.91
744.841	12777.6
745.181	12903.93
745.52	12916.36
745.86	12970.59
746.199	12973.08
746.538	13017.37
746.877	13133.75
747.216	13133.07
747.556	13276.12
747.895	13211.71
748.234	13231.38
748.573	13243.8
748.911	13294.2
749.25	13400.86
749.589	13487.64
749.928	13505.94
750.267	13640.63
750.605	13733.28
750.944	13766.95
751.283	13805.37
751.621	14006.27
751.96	13976.89
752.298	14091.47
752.636	14253.5
752.975	14253.5
753.313	14384.79
753.651	14600.83
753.989	14598.34
754.327	14693.94
754.666	14786.14
755.004	15023.19
755.342	15099.12
