Data from hue_32_FLMS001491_00072.txt Node
Date: Tue Feb 07 17:23:52 GMT 2017
User: dcchb
Spectrometer: FLMS00149
Trigger mode: 0
Integration Time (sec): 2.000000E-2
Scans to average: 10
Electric dark correction enabled: true
Nonlinearity correction enabled: false
Boxcar width: 0
XAxis mode: Wavelengths
Number of Pixels in Spectrum: 2048
>>>>>Begin Spectral Data<<<<<
341.393	-8.09
341.776	-8.09
342.16	-8.09
342.543	-79.05
342.927	-61.65
343.31	-81.99
343.693	-66.17
344.077	-55.78
344.46	-60.3
344.843	-58.49
345.226	-32.5
345.61	-21.2
345.993	-28.21
346.376	-21.88
346.759	29.19
347.142	8.86
347.525	56.76
347.908	75.29
348.291	73.71
348.674	78.23
349.057	104.45
349.44	111.68
349.823	149.19
350.206	158.23
350.588	205.46
350.971	207.04
351.354	219.92
351.737	242.07
352.119	258.34
352.502	281.62
352.884	287.94
353.267	278
353.65	292.24
354.032	301.73
354.414	310.99
354.797	318.45
355.179	316.64
355.562	328.17
355.944	340.82
356.326	322.29
356.709	353.71
357.091	321.62
357.473	357.32
357.855	368.85
358.238	339.92
358.62	333.14
359.002	357.77
359.384	341.73
359.766	352.35
360.148	347.15
360.53	345.12
360.912	355.06
361.294	339.24
361.676	350.09
362.057	324.33
362.439	347.38
362.821	325.46
363.203	323.2
363.584	344.44
363.966	333.14
364.348	337.89
364.729	330.66
365.111	343.76
365.493	341.5
365.874	311.22
366.256	313.93
366.637	348.73
367.019	308.06
367.4	333.37
367.781	323.65
368.163	332.46
368.544	315.74
368.925	320.26
369.306	328.62
369.688	329.75
370.069	319.58
370.45	313.25
370.831	321.39
371.212	313.48
371.593	332.91
371.974	362.29
372.355	313.25
372.736	317.55
373.117	332.01
373.498	332.01
373.879	330.43
374.26	316.87
374.641	307.38
375.021	318.23
375.402	350.77
375.783	317.77
376.163	336.53
376.544	360.26
376.925	335.85
377.305	326.59
377.686	318
378.066	367.04
378.447	321.62
378.827	336.3
379.208	332.01
379.588	320.71
379.968	322.07
380.349	348.28
380.729	353.25
381.109	341.28
381.489	346.7
381.87	334.72
382.25	340.15
382.63	339.24
383.01	341.05
383.39	367.04
383.77	351.67
384.15	375.63
384.53	353.25
384.91	347.15
385.29	360.26
385.67	351.67
386.049	355.97
386.429	366.13
386.809	371.56
387.189	348.73
387.568	330.2
387.948	363.87
388.328	367.26
388.707	359.81
389.087	371.11
389.466	365.46
389.846	375.4
390.225	367.04
390.605	379.02
390.984	350.54
391.363	380.15
391.743	373.14
392.122	378.11
392.501	380.37
392.881	350.99
393.26	386.02
393.639	370.65
394.018	376.76
394.397	370.88
394.776	384.67
395.155	384.21
395.534	385.57
395.913	375.4
396.292	390.09
396.671	391.9
397.05	402.97
397.429	374.72
397.808	395.06
398.186	388.05
398.565	414.49
398.944	379.69
399.323	405.46
399.701	385.12
400.08	400.94
400.458	409.98
400.837	413.82
401.215	402.74
401.594	404.33
401.972	411.56
402.351	410.88
402.729	405.23
403.107	404.55
403.486	426.92
403.864	427.38
404.242	433.25
404.62	421.73
404.999	408.17
405.377	427.15
405.755	424.44
406.133	431.67
406.511	431.22
406.889	439.8
407.267	436.64
407.645	434.61
408.023	432.12
408.401	425.34
408.779	437.54
409.156	456.3
409.534	429.41
409.912	452.69
410.29	473.25
410.667	466.92
411.045	455.62
411.422	448.62
411.8	458.11
412.178	470.09
412.555	463.53
412.933	480.26
413.31	478.45
413.687	492.46
414.065	475.96
414.442	476.87
414.819	493.14
415.197	485.91
415.574	515.28
415.951	523.19
416.328	503.98
416.705	479.13
417.082	493.81
417.46	486.58
417.837	517.99
418.214	541.72
418.591	511.44
418.967	504.44
419.344	514.15
419.721	519.58
420.098	513.7
420.475	543.76
420.852	518.45
421.228	515.74
421.605	534.49
421.982	555.51
422.358	556.64
422.735	535.4
423.111	549.86
423.488	556.86
423.864	563.64
424.241	552.57
424.617	543.76
424.994	560.03
425.37	586.69
425.746	573.81
426.123	571.33
426.499	566.36
426.875	577.2
427.251	587.6
427.627	584.89
428.003	592.57
428.379	591.89
428.756	589.18
429.132	604.55
429.507	620.37
429.883	611.78
430.259	612.46
430.635	621.72
431.011	630.08
431.387	633.02
431.763	637.99
432.138	644.77
432.514	640.93
432.89	669.86
433.265	662.62
433.641	662.4
434.016	662.85
434.392	665.79
434.767	664.43
435.143	678.22
435.518	692
435.894	666.24
436.269	698.33
436.644	701.72
437.02	716.18
437.395	696.3
437.77	706.01
438.145	757.54
438.52	739.23
438.895	735.39
439.271	720.25
439.646	732
440.021	743.98
440.395	756.86
440.77	754.15
441.145	753.24
441.52	761.83
441.895	779
442.27	779.91
442.645	794.6
443.019	780.36
443.394	809.06
443.769	822.62
444.143	799.12
444.518	803.86
444.892	760.02
445.267	777.2
445.641	819.68
446.016	797.08
446.39	802.06
446.764	811.32
447.139	825.33
447.513	844.54
447.887	833.47
448.262	846.12
448.636	848.38
449.01	837.08
449.384	871.66
449.758	871.88
450.132	866.01
450.506	866.91
450.88	874.37
451.254	867.36
451.628	907.36
452.002	870.98
452.376	891.09
452.75	916.4
453.123	944.88
453.497	923.18
453.871	924.76
454.244	945.55
454.618	945.1
454.992	962.05
455.365	967.02
455.739	942.39
456.112	988.94
456.486	979.9
456.859	996.85
457.232	1004.76
457.606	1023.07
457.979	1025.55
458.352	1050.86
458.725	1050.18
459.099	1044.76
459.472	1073.46
459.845	1100.35
460.218	1097.64
460.591	1110.75
460.964	1114.59
461.337	1123.85
461.71	1163.4
462.083	1163.63
462.456	1148.26
462.829	1172.67
463.201	1165.89
463.574	1207.92
463.947	1194.59
464.32	1202.95
464.692	1241.82
465.065	1240.01
465.438	1258.77
465.81	1271.2
466.183	1301.48
466.555	1296.73
466.928	1315.71
467.3	1327.69
467.672	1345.54
468.045	1379.89
468.417	1385.77
468.789	1415.82
469.161	1416.28
469.534	1430.97
469.906	1447.46
470.278	1495.37
470.65	1485.2
471.022	1541.02
471.394	1541.24
471.766	1573.33
472.138	1587.57
472.51	1602.71
472.882	1650.62
473.253	1706.89
473.625	1706.44
473.997	1755.48
474.369	1786.21
474.74	1803.38
475.112	1814.91
475.484	1880.22
475.855	1937.62
476.227	1936.26
476.598	1971.29
476.97	2042.25
477.341	2088.35
477.713	2129.7
478.084	2146.43
478.455	2188.91
478.827	2246.31
479.198	2339.42
479.569	2352.3
479.94	2422.58
480.311	2460.54
480.682	2517.49
481.053	2591.16
481.424	2665.28
481.795	2685.4
482.166	2738.05
482.537	2793.87
482.908	2875.67
483.279	2938.95
483.65	2971.72
484.021	3121.77
484.391	3143.69
484.762	3197.47
485.133	3254.42
485.503	3316.79
485.874	3401.31
486.244	3496.22
486.615	3605.15
486.985	3638.36
487.356	3763.11
487.726	3794.52
488.097	3908.19
488.467	3908.64
488.837	4029.99
489.207	4151.8
489.578	4181.63
489.948	4247.39
490.318	4397.21
490.688	4428.63
491.058	4530.54
491.428	4624.33
491.798	4700.26
492.168	4789.29
492.538	4823.42
492.908	4955.62
493.278	4968.73
493.648	5066.12
494.017	5147.48
494.387	5214.82
494.757	5288.94
495.126	5413.91
495.496	5437.41
495.866	5476.96
496.235	5586.79
496.605	5675.37
496.974	5688.48
497.344	5754.47
497.713	5895.93
498.082	5923.5
498.452	6002.14
498.821	6093.22
499.19	6126.21
499.559	6173.21
499.928	6257.96
500.298	6308.35
500.667	6368.01
501.036	6428.35
501.405	6556.71
501.774	6527.78
502.143	6606.65
502.512	6655.01
502.88	6695.01
503.249	6766.19
503.618	6830.37
503.987	6888.45
504.356	6949.69
504.724	7007.09
505.093	7031.72
505.462	7060.2
505.83	7187.65
506.199	7240.98
506.567	7340.87
506.936	7303.58
507.304	7363.24
507.672	7415.21
508.041	7519.62
508.409	7531.14
508.777	7637.36
509.145	7661.31
509.514	7716.22
509.882	7774.53
510.25	7807.52
510.618	7849.1
510.986	7879.61
511.354	7955.54
511.722	8031.47
512.09	8121.41
512.458	8128.64
512.826	8122.31
513.193	8215.42
513.561	8275.31
513.929	8293.38
514.297	8335.64
514.664	8413.83
515.032	8409.54
515.4	8518.91
515.767	8499.03
516.135	8595.07
516.502	8520.72
516.869	8775.63
517.237	8707.38
517.604	8720.49
517.972	8807.72
518.339	8807.27
518.706	8874.39
519.073	8888.62
519.44	8930.2
519.808	9016.53
520.175	9023.08
520.542	9169.07
520.909	9144.66
521.276	9106.24
521.643	9260.14
522.009	9336.52
522.376	9342.17
522.743	9411.09
523.11	9477.31
523.477	9589.17
523.843	9581.94
524.21	9680.47
524.577	9696.06
524.943	9733.12
525.31	9828.26
525.676	9904.87
526.043	9936.5
526.409	10007.01
526.776	10040.23
527.142	10056.28
527.508	10137.18
527.874	10180.79
528.241	10301.92
528.607	10304.63
528.973	10375.14
529.339	10391.18
529.705	10491.74
530.071	10585.3
530.437	10578.75
530.803	10687.22
531.169	10735.81
531.535	10681.12
531.901	10797.5
532.267	10828.46
532.632	10883.6
532.998	10949.13
533.364	10971.05
533.73	11018.06
534.095	11079.07
534.461	11173.31
534.826	11222.12
535.192	11189.8
535.557	11345.28
535.923	11320.42
536.288	11392.96
536.653	11395.22
537.019	11384.6
537.384	11469.35
537.749	11534.2
538.114	11535.11
538.479	11634.54
538.845	11685.84
539.21	11643.13
539.575	11794.76
539.94	11890.35
540.305	11952.27
540.67	11860.97
541.034	11881.09
541.399	11963.8
541.764	11968.32
542.129	12132.38
542.494	12198.37
542.858	12169.89
543.223	12159.27
543.587	12254.86
543.952	12217.35
544.316	12325.37
544.681	12352.03
545.045	12308.87
545.41	12558.36
545.774	12538.7
546.138	12592.71
546.503	12606.49
546.867	12657.56
547.231	12794.73
547.595	12771.01
547.959	12856.88
548.324	12822.76
548.688	12896.65
549.052	12942.75
549.416	12966.71
549.779	12978.46
550.143	12979.59
550.507	13168.51
550.871	13180.71
551.235	13273.59
551.599	13207.83
551.962	13298.68
552.326	13359.47
552.689	13390.88
553.053	13324.21
553.417	13363.98
553.78	13544.54
554.143	13559.46
554.507	13521.27
554.87	13564.88
555.234	13692.79
555.597	13634.49
555.96	13703.64
556.323	13821.15
556.686	13800.81
557.05	13912.9
557.413	13950.18
557.776	13902.5
558.139	14089.39
558.502	14083.51
558.865	14161.25
559.228	14150.86
559.59	14263.62
559.953	14316.95
560.316	14457.06
560.679	14422.26
561.041	14495.71
561.404	14541.13
561.767	14602.6
562.129	14571.18
562.492	14713.33
562.854	14707.45
563.217	14647.79
563.579	14778.18
563.941	14802.82
564.304	14944.28
564.666	14955.58
565.028	14973.66
565.39	15020.44
565.753	15106.99
566.115	15147.44
566.477	15257.04
566.839	15326.87
567.201	15355.57
567.563	15404.16
567.925	15507.21
568.287	15526.19
568.648	15601.89
569.01	15546.07
569.372	15783.58
569.734	15702.23
570.095	15805.73
570.457	15876.24
570.819	15945.84
571.18	15964.14
571.542	16094.31
571.903	16082.33
572.265	16231.03
572.626	16222.21
572.987	16278.03
573.349	16368.65
573.71	16545.6
574.071	16586.5
574.432	16670.11
574.794	16835.08
575.155	16748.3
575.516	16833.72
575.877	17072.14
576.238	17090.44
576.599	17254.5
576.96	17321.17
577.32	17339.02
577.681	17610.88
578.042	17618.34
578.403	17743.76
578.763	17906.46
579.124	18074.82
579.485	18234.82
579.845	18393.23
580.206	18566.56
580.566	18522.49
580.927	18770.17
581.287	18957.96
581.648	19107.11
582.008	19352.08
582.368	19510.94
582.728	19702.35
583.089	19782.57
583.449	20018.5
583.809	20099.63
584.169	20429.79
584.529	20591.14
584.889	20877.23
585.249	21067.06
585.609	21160.39
585.969	21541.85
586.329	21698.68
586.688	21938
587.048	22238.1
587.408	22389.74
587.768	22645.77
588.127	22770.07
588.487	23017.06
588.846	23376.15
589.206	23499.54
589.565	23864.95
589.925	24066.53
590.284	24373.41
590.643	24599.62
591.003	24935.66
591.362	25203.45
591.721	25331.35
592.08	25650.44
592.44	26073.48
592.799	26137.89
593.158	26401.61
593.517	26728.15
593.876	27087.01
594.235	27369.04
594.593	27536.72
594.952	27879.31
595.311	28007.44
595.67	28369.01
596.029	28762.22
596.387	29056.45
596.746	29201.08
597.104	29385.48
597.463	29725.36
597.822	30046.94
598.18	30013.04
598.538	30399.47
598.897	30792.91
599.255	30893.02
599.613	31460.46
599.972	31484.19
600.33	31756.04
600.688	31917.17
601.046	32282.13
601.404	32643.48
601.762	32692.97
602.12	33152.84
602.478	33325.72
602.836	33420.63
603.194	33454.76
603.552	33821.75
603.91	33884.12
604.268	34380.16
604.625	34315.52
604.983	34729.98
605.341	34609.3
605.698	35062.85
606.056	35413.57
606.413	35419.45
606.771	35691.99
607.128	35948.48
607.485	35890.4
607.843	36187.79
608.2	36411.97
608.557	36645.18
608.914	36661
609.272	36968.79
609.629	37064.15
609.986	37333.07
610.343	37367.87
610.7	37808.31
611.057	37941.19
611.414	37974.41
611.771	38168.3
612.127	38362.65
612.484	38486.04
612.841	38803.77
613.198	38652.59
613.554	38893.26
613.911	39242.63
614.267	39341.15
614.624	39379.35
614.98	39513.35
615.337	39819.11
615.693	39862.5
616.05	39933.68
616.406	40256.16
616.762	40227.23
617.118	40264.75
617.475	40245.31
617.831	40547.68
618.187	40647.11
618.543	40779.31
618.899	41023.82
619.255	40961.23
619.611	41158.51
619.967	41370.03
620.323	41620.19
620.678	41405.06
621.034	41463.58
621.39	41436.24
621.746	41498.16
622.101	41994.64
622.457	41748.32
622.812	41907.64
623.168	42035.32
623.523	41892.73
623.879	42198.71
624.234	41933.86
624.589	42198.71
624.945	42274.41
625.3	42314.41
625.655	42331.13
626.01	42464.01
626.365	42610.22
626.72	42622.42
627.075	42547.62
627.43	42503.78
627.785	42621.75
628.14	42667.4
628.495	42877.33
628.85	42717.56
629.205	42755.08
629.559	42948.07
629.914	42866.26
630.269	42913.04
630.623	42592.37
630.978	42820.61
631.332	42878.69
631.687	42980.61
632.041	42803.21
632.396	42943.55
632.75	42733.61
633.104	42894.28
633.459	42724.34
633.813	42824.45
634.167	42761.18
634.521	42724.57
634.875	42896.54
635.229	42815.87
635.583	42684.34
635.937	42664.68
636.291	42697.45
636.645	42809.31
636.999	42773.15
637.352	42895.86
637.706	42608.64
638.06	42895.86
638.413	42801.63
638.767	42778.13
639.121	42765.92
639.474	42669.2
639.828	42715.98
640.181	42607.06
640.534	42737.22
640.888	42542.88
641.241	42443.67
641.594	42476.67
641.947	42617.9
642.301	42655.87
642.654	42539.26
643.007	42610.45
643.36	42569.77
643.713	42441.86
644.066	42505.14
644.419	42406.84
644.771	42087.52
645.124	41779.73
645.477	41766.18
645.83	41329.8
646.182	41377.26
646.535	41250.94
646.888	41378.16
647.24	41111.28
647.593	41367.77
647.945	41282.35
648.298	41013.88
648.65	41040.32
649.002	41003.94
649.355	41099.75
649.707	41054.78
650.059	41234.44
650.411	41797.14
650.763	41746.06
651.115	42073.29
651.467	41950.35
651.819	42000.29
652.171	41840.52
652.523	41847.53
652.875	41949.22
653.227	41601.43
653.578	41850.47
653.93	41795.33
654.282	41596.69
654.633	41583.58
654.985	41673.3
655.337	41834.65
655.688	41647.31
656.039	41781.77
656.391	41472.62
656.742	41558.72
657.094	41573.64
657.445	41719.17
657.796	41606.63
658.147	41586.29
658.498	41683.69
658.849	41586.75
659.2	41493.64
659.551	41450.93
659.902	41701.54
660.253	41483.92
660.604	41504.49
660.955	41288
661.306	41546.75
661.656	41444.15
662.007	41453.64
662.358	41440.99
662.708	41377.03
663.059	41402.12
663.409	41346.75
663.76	41491.83
664.11	41547.42
664.461	41629.23
664.811	41544.94
665.161	41496.58
665.511	41352.63
665.862	41448.44
666.212	41592.85
666.562	41475.11
666.912	41354.44
667.262	41327.32
667.612	41311.5
667.962	41429.24
668.312	41413.42
668.662	41456.13
669.011	41382.46
669.361	41288.67
669.711	41344.72
670.06	41227.88
670.41	41187.43
670.76	41197.15
671.109	41301.78
671.459	41232.86
671.808	41023.37
672.157	41247.77
672.507	40898.63
672.856	41028.79
673.205	41198.51
673.554	41149.02
673.904	40963.03
674.253	41203.48
674.602	40996.48
674.951	40428.13
675.3	40388.58
675.649	40975.91
675.998	41017.04
676.346	40982.47
676.695	41164.84
677.044	40685.98
677.393	40938.4
677.741	40849.14
678.09	40969.36
678.438	40765.75
678.787	40827.67
679.135	40813.66
679.484	40609.82
679.832	40585.42
680.181	40521.24
680.529	40527.34
680.877	40485.31
681.225	40376.83
681.573	40701.12
681.922	40345.65
682.27	40286.67
682.618	40305.65
682.966	40152.66
683.314	40276.27
683.661	40141.36
684.009	39970.06
684.357	39866.11
684.705	39963.51
685.053	39954.92
685.4	39752.9
685.748	39737.75
686.095	39685.78
686.443	39608.27
686.79	39485.78
687.138	39556.97
687.485	39544.77
687.832	39542.51
688.18	39455.95
688.527	39375.96
688.874	39163.08
689.221	39059.13
689.568	38992.46
689.915	38998.56
690.262	38808.51
690.609	38689.65
690.956	38694.62
691.303	38569.65
691.65	38491.23
691.997	38459.37
692.344	38243.33
692.69	38181.41
693.037	38194.52
693.383	37863.68
693.73	38060.28
694.077	37870.23
694.423	37793.17
694.769	37733.74
695.116	37786.85
695.462	37612.39
695.808	37550.92
696.155	37616.91
696.501	37394.99
696.847	37156.13
697.193	37142.34
697.539	37242.9
697.885	36910.94
698.231	36730.38
698.577	36952.52
698.923	36719.75
699.269	36621.9
699.614	36466.65
699.96	36399.54
700.306	36445.86
700.651	36239.09
700.997	36049.72
701.342	35887.01
701.688	36031.86
702.033	35872.55
702.379	35946.44
702.724	35783.28
703.069	35801.13
703.415	35283.86
703.76	35426
704.105	35418.77
704.45	35320.02
704.795	35028.73
705.14	35030.31
705.485	35087.26
705.83	34921.38
706.175	34964.32
706.52	34883.64
706.865	34685.68
707.209	34619.7
707.554	34673.25
707.899	34647.94
708.243	34416.54
708.588	34408.18
708.932	34051.35
709.277	34191.46
709.621	34175.87
709.966	33911.69
710.31	34012.26
710.654	33624.02
710.998	33860.85
711.342	33797.8
711.687	33713.05
712.031	33523.68
712.375	33417.92
712.719	33636.9
713.063	33443.68
713.407	33587.18
713.75	33345.61
714.094	33325.95
714.438	33260.86
714.782	33142.9
715.125	32956.69
715.469	33213.86
715.812	32834.66
716.156	32652.97
716.499	32780.65
716.843	32761.21
717.186	32620.65
717.53	32805.96
717.873	32744.27
718.216	32554.67
718.559	32536.36
718.902	32217.27
719.246	32364.39
719.589	32323.71
719.932	32142.7
720.275	32161.23
720.617	32137.5
720.96	31941.12
721.303	31972.76
721.646	31917.62
721.989	31915.14
722.331	31915.81
722.674	31913.78
723.016	31866.78
723.359	31675.14
723.701	31622.71
724.044	31413.23
724.386	31435.83
724.729	31582.26
725.071	31442.83
725.413	31368.94
725.755	31407.13
726.097	31208.49
726.439	31138.66
726.782	31214.59
727.124	31240.12
727.465	30928.95
727.807	31041.71
728.149	30937.53
728.491	30787.03
728.833	30904.54
729.175	30644.89
729.516	30794.03
729.858	30779.8
730.199	30637.65
730.541	30736.41
730.882	30651.67
731.224	30755.84
731.565	30455.96
731.906	30532.8
732.248	30488.05
732.589	30517.43
732.93	30366.7
733.271	30310.43
733.612	30408.51
733.953	30333.93
734.294	30135.3
734.635	30147.5
734.976	30229.3
735.317	30017.11
735.658	30046.48
735.999	29972.14
736.339	29837.68
736.68	30068.18
737.021	29867.96
737.361	29758.81
737.702	29940.5
738.042	29797
738.383	29816.43
738.723	29773.5
739.063	29648.75
739.404	29635.87
739.744	29639.26
740.084	29433.39
740.424	29467.06
740.764	29437.46
741.104	29492.15
741.444	29269.1
741.784	29260.97
742.124	29251.93
742.464	29123.12
742.804	29124.02
743.143	29089.67
743.483	29313.62
743.823	29041.54
744.162	29108.43
744.502	28972.61
744.841	28807.65
745.181	29029.56
745.52	28915.44
745.86	28970.81
746.199	28819.85
746.538	28799.74
746.877	28815.78
747.216	28731.49
747.556	28651.27
747.895	28763.81
748.234	28654.43
748.573	28527.65
748.911	28537.15
749.25	28591.61
749.589	28343.48
749.928	28462.57
750.267	28484.27
750.605	28390.71
750.944	28220.54
751.283	28176.25
751.621	28165.86
751.96	28019.87
752.298	28126.99
752.636	28036.59
752.975	28009.02
753.313	27842.02
753.651	28007.89
753.989	27779.2
754.327	27704.17
754.666	27596.38
755.004	27640.67
755.342	27636.38
755.679	27641.58
756.017	27481.13
756.355	27542.6
756.693	27462.82
757.031	27406.55
757.368	27285.65
