Data from hue_50_FLMS001491_67.txt Node
Date: Mon Feb 06 15:10:46 GMT 2017
User: dcchb
Spectrometer: FLMS00149
Trigger mode: 0
Integration Time (sec): 2.000000E-2
Scans to average: 10
Electric dark correction enabled: true
Nonlinearity correction enabled: false
Boxcar width: 0
XAxis mode: Wavelengths
Number of Pixels in Spectrum: 2048
>>>>>Begin Spectral Data<<<<<
341.393	7.01
341.776	7.01
342.16	7.01
342.543	-49.49
342.927	-56.5
343.31	-46.1
343.693	-70.28
344.077	-72.54
344.46	-65.76
344.843	-60.79
345.226	-41.35
345.61	-34.8
345.993	-25.99
346.376	-0.45
346.759	11.3
347.142	19.66
347.525	26.67
347.908	57.17
348.291	85.2
348.674	105.08
349.057	112.99
349.44	137.85
349.823	131.07
350.206	169.26
350.588	187.57
350.971	225.08
351.354	231.63
351.737	239.77
352.119	260.33
352.502	265.53
352.884	275.92
353.267	288.35
353.65	294.23
354.032	310.27
354.414	308.24
354.797	314.34
355.179	331.29
355.562	315.02
355.944	322.25
356.326	331.97
356.709	327.67
357.091	341.91
357.473	354.11
357.855	347.79
358.238	344.17
358.62	345.98
359.002	369.26
359.384	347.11
359.766	350.27
360.148	353.21
360.53	318.64
360.912	344.4
361.294	341.69
361.676	336.26
362.057	330.16
362.439	325.87
362.821	348.92
363.203	320.67
363.584	320.67
363.966	347.56
364.348	323.38
364.729	315.25
365.111	308.69
365.493	319.31
365.874	335.81
366.256	294.46
366.637	322.7
367.019	310.95
367.4	302.59
367.781	314.34
368.163	322.48
368.544	299.43
368.925	319.09
369.306	333.55
369.688	304.85
370.069	314.12
370.45	321.12
370.831	318.64
371.212	330.39
371.593	296.94
371.974	331.97
372.355	313.66
372.736	310.05
373.117	335.36
373.498	320.9
373.879	315.47
374.26	317.96
374.641	310.73
375.021	339.65
375.402	336.26
375.783	332.65
376.163	324.74
376.544	349.6
376.925	334.45
377.305	334.23
377.686	313.89
378.066	322.25
378.447	325.42
378.827	336.49
379.208	310.73
379.588	318.18
379.968	318.86
380.349	336.94
380.729	333.55
381.109	338.52
381.489	334.23
381.87	348.01
382.25	345.75
382.63	308.92
383.01	350.95
383.39	343.72
383.77	349.6
384.15	322.48
384.53	332.19
384.91	362.7
385.29	345.75
385.67	342.14
386.049	343.95
386.429	353.44
386.809	358.18
387.189	352.99
387.568	352.31
387.948	337.62
388.328	353.44
388.707	343.04
389.087	345.3
389.466	331.52
389.846	366.09
390.225	357.96
390.605	357.5
390.984	363.38
391.363	368.58
391.743	351.4
392.122	365.19
392.501	366.54
392.881	370.84
393.26	357.05
393.639	377.17
394.018	365.64
394.397	355.47
394.776	361.57
395.155	371.74
395.534	367
395.913	369.48
396.292	358.18
396.671	390.5
397.05	359.54
397.429	393.21
397.808	388.46
398.186	395.02
398.565	376.04
398.944	381.23
399.323	371.52
399.701	372.65
400.08	399.76
400.458	363.38
400.837	378.07
401.215	398.18
401.594	396.83
401.972	387.11
402.351	394.34
402.729	405.64
403.107	395.24
403.486	407.45
403.864	405.19
404.242	391.63
404.62	410.38
404.999	392.76
405.377	427.11
405.755	406.99
406.133	401.12
406.511	403.38
406.889	426.66
407.267	414
407.645	406.77
408.023	417.84
408.401	413.1
408.779	412.64
409.156	405.87
409.534	426.88
409.912	431.18
410.29	432.08
410.667	429.14
411.045	437.73
411.422	426.66
411.8	428.01
412.178	435.24
412.555	450.61
412.933	452.64
413.31	449.48
413.687	455.81
414.065	442.7
414.442	473.89
414.819	463.49
415.197	457.16
415.574	447.22
415.951	466.2
416.328	476.6
416.705	465.98
417.082	470.5
417.46	469.82
417.837	447.67
418.214	496.71
418.591	489.48
418.967	498.07
419.344	467.11
419.721	503.04
420.098	480.67
420.475	506.88
420.852	497.61
421.228	494.68
421.605	504.62
421.982	486.99
422.358	505.3
422.735	488.12
423.111	520.66
423.488	512.98
423.864	512.53
424.241	519.76
424.617	535.58
424.994	508.24
425.37	519.08
425.746	533.77
426.123	527.22
426.499	520.66
426.875	519.99
427.251	536.26
427.627	540.78
428.003	530.16
428.379	543.94
428.756	553.66
429.132	547.33
429.507	567.22
429.883	558.18
430.259	586.43
430.635	600.89
431.011	592.75
431.387	574.67
431.763	598.4
432.138	567.67
432.514	574.45
432.89	592.07
433.265	618.51
433.641	619.42
434.016	612.87
434.392	608.35
434.767	606.31
435.143	642.47
435.518	623.26
435.894	624.84
436.269	631.62
436.644	642.69
437.02	631.17
437.395	642.24
437.77	669.59
438.145	648.57
438.52	655.58
438.895	675.91
439.271	675.01
439.646	677.5
440.021	675.91
440.395	693.09
440.77	686.31
441.145	694.67
441.52	688.12
441.895	718.85
442.27	702.35
442.645	722.92
443.019	713.2
443.394	703.48
443.769	721.79
444.143	727.21
444.518	711.39
444.892	737.16
445.267	715.91
445.641	707.55
446.016	737.38
446.39	723.37
446.764	726.08
447.139	753.88
447.513	749.58
447.887	755.91
448.262	756.14
448.636	750.26
449.01	774.89
449.384	769.02
449.758	768.34
450.132	785.06
450.506	771.05
450.88	802.69
451.254	785.29
451.628	806.08
452.002	826.42
452.376	799.08
452.75	806.98
453.123	811.73
453.497	829.81
453.871	840.88
454.244	825.52
454.618	839.53
454.992	842.92
455.365	861.22
455.739	866.42
456.112	870.49
456.486	895.8
456.859	911.39
457.232	910.71
457.606	913.2
457.979	927.43
458.352	919.07
458.725	933.53
459.099	955.91
459.472	962.91
459.845	949.81
460.218	1003.14
460.591	993.65
460.964	988.9
461.337	1005.85
461.71	1006.53
462.083	1055.34
462.456	1016.24
462.829	1037.03
463.201	1060.99
463.574	1063.47
463.947	1067.32
464.32	1129.91
464.692	1142.79
465.065	1135.11
465.438	1138.95
465.81	1154.09
466.183	1188.44
466.555	1171.27
466.928	1190.93
467.3	1237.03
467.672	1232.96
468.045	1253.75
468.417	1304.15
468.789	1302.11
469.161	1312.28
469.534	1336.46
469.906	1361.55
470.278	1391.6
470.65	1432.73
471.022	1456.91
471.394	1451.49
471.766	1467.76
472.138	1542.56
472.51	1554.54
472.882	1566.74
473.253	1600.41
473.625	1639.28
473.997	1676.34
474.369	1736.45
474.74	1730.35
475.112	1782.33
475.484	1857.8
475.855	1891.7
476.227	1935.32
476.598	2009.21
476.97	2026.61
477.341	2085.59
477.713	2144.35
478.084	2171.47
478.455	2218.92
478.827	2286.95
479.198	2391.8
479.569	2448.98
479.94	2508.63
480.311	2542.08
480.682	2684.68
481.053	2778.68
481.424	2845.57
481.795	2900.94
482.166	2975.06
482.537	3122.63
482.908	3230.42
483.279	3300.48
483.65	3441.04
484.021	3500.02
484.391	3577.08
484.762	3686.23
485.133	3728.04
485.503	3903.85
485.874	3988.6
486.244	4130.74
486.615	4253.45
486.985	4350.39
487.356	4489.15
487.726	4623.16
488.097	4757.16
488.467	4876.03
488.837	4998.51
489.207	5143.59
489.578	5245.29
489.948	5393.08
490.318	5575.67
490.688	5654.99
491.058	5809.56
491.428	6005.27
491.798	6078.26
492.168	6255.43
492.538	6355.09
492.908	6529.32
493.278	6708.75
493.648	6773.16
494.017	7020.83
494.387	7137.89
494.757	7246.59
495.126	7380.37
495.496	7490.88
495.866	7633.25
496.235	7800.92
496.605	7958.66
496.974	8048.38
497.344	8245.21
497.713	8358.65
498.082	8518.65
498.452	8631.19
498.821	8844.29
499.19	8922.03
499.559	9027.33
499.928	9203.15
500.298	9309.81
500.667	9512.52
501.036	9622.35
501.405	9754.77
501.774	9845.16
502.143	9961.09
502.512	10136.46
502.88	10217.36
503.249	10299.16
503.618	10460.74
503.987	10528.31
504.356	10669.32
504.724	10828.19
505.093	10910.22
505.462	10988.19
505.83	11174.85
506.199	11293.94
506.567	11476.76
506.936	11490.55
507.304	11763.98
507.672	11782.06
508.041	11936.86
508.409	12041.72
508.777	12238.1
509.145	12400.8
509.514	12337.08
509.882	12574.58
510.25	12667.92
510.618	12736.61
510.986	12798.08
511.354	12934.8
511.722	13147.9
512.09	13271.52
512.458	13213.66
512.826	13429.7
513.193	13591.06
513.561	13668.57
513.929	13775.01
514.297	13924.61
514.664	14051.16
515.032	14145.39
515.4	14244.6
515.767	14289.12
516.135	14426.51
516.502	14343.35
516.869	14711.93
517.237	14796.22
517.604	14791.25
517.972	14957.12
518.339	15092.48
518.706	15087.06
519.073	15220.62
519.44	15356.66
519.808	15513.26
520.175	15525.24
520.542	15751
520.909	15803.2
521.276	15926.81
521.643	16045.91
522.009	16141.95
522.376	16303.75
522.743	16386.69
523.11	16553.46
523.477	16738.54
523.843	16803.4
524.21	16990.74
524.577	17097.63
524.943	17200.68
525.31	17234.8
525.676	17433.21
526.043	17559.99
526.409	17586.66
526.776	17864.16
527.142	17924.05
527.508	17888.12
527.874	18192.97
528.241	18298.73
528.607	18333.76
528.973	18473.41
529.339	18584.6
529.705	18759.51
530.071	18867.53
530.437	18963.57
530.803	19123.56
531.169	19140.97
531.535	19269.1
531.901	19300.74
532.267	19375.08
532.632	19558.58
532.998	19639.26
533.364	19774.4
533.73	19804.9
534.095	19938.91
534.461	19953.6
534.826	20035.86
535.192	20229.75
535.557	20355.17
535.923	20263.2
536.288	20438.33
536.653	20549.97
537.019	20496.41
537.384	20629.74
537.749	20761.49
538.114	20760.58
538.479	20849.4
538.845	20968.71
539.21	20959.45
539.575	21127.58
539.94	21083.29
540.305	21216.17
540.67	21241.7
541.034	21384.75
541.399	21492.99
541.764	21619.32
542.129	21624.29
542.494	21734.8
542.858	21787.9
543.223	21861.35
543.587	21877.16
543.952	22045.52
544.316	21975.69
544.681	22097.5
545.045	22177.04
545.41	22382.46
545.774	22350.6
546.138	22360.77
546.503	22440.09
546.867	22526.64
547.231	22696.35
547.595	22710.59
547.959	22733.64
548.324	22899.28
548.688	22972.28
549.052	22994.2
549.416	23045.04
549.779	23127.3
550.143	23084.14
550.507	23375.2
550.871	23452.94
551.235	23463.56
551.599	23719.6
551.962	23616.55
552.326	23726.38
552.689	23963.89
553.053	23786.04
553.417	23915.3
553.78	24179.7
554.143	23986.94
554.507	24238.68
554.87	24346.7
555.234	24522.52
555.597	24363.88
555.96	24519.13
556.323	24612.23
556.686	24681.84
557.05	24831.21
557.413	24745.34
557.776	25003.64
558.139	25104.88
558.502	25161.15
558.865	25224.87
559.228	25503.74
559.59	25507.13
559.953	25533.34
560.316	25849.04
560.679	25771.75
561.041	26005.19
561.404	26011.52
561.767	26277.05
562.129	26136.49
562.492	26370.61
562.854	26462.36
563.217	26391.17
563.579	26482.02
563.941	26675.23
564.304	26851.5
564.666	26998.84
565.028	27127.2
565.39	27163.81
565.753	27315.89
566.115	27362.22
566.477	27443.8
566.839	27538.48
567.201	27722.43
567.563	27790.68
567.925	27931.69
568.287	28000.62
568.648	28131.46
569.01	28151.12
569.372	28428.41
569.734	28346.83
570.095	28401.74
570.457	28610.55
570.819	28784.78
571.18	28695.97
571.542	28940.48
571.903	28998.56
572.265	29117.2
572.626	29180.48
572.987	29317.65
573.349	29420.7
573.71	29582.72
574.071	29709.5
574.432	29718.31
574.794	29926.67
575.155	29900.68
575.516	29943.39
575.877	30123.05
576.238	30228.13
576.599	30356.26
576.96	30300.45
577.32	30462.7
577.681	30706.31
578.042	30735.24
578.403	30710.6
578.763	30949.24
579.124	30927.1
579.485	31234.88
579.845	31256.13
580.206	31386.75
580.566	31264.71
580.927	31536.8
581.287	31775.66
581.648	31719.84
582.008	31972.04
582.368	31878.71
582.728	32115.77
583.089	32151.02
583.449	32339.49
583.809	32433.27
584.169	32574.28
584.529	32529.54
584.889	32934.5
585.249	32889.08
585.609	32963.88
585.969	33306.24
586.329	33124.33
586.688	33354.83
587.048	33537.88
587.408	33491.55
587.768	33636.63
588.127	33662.39
588.487	33720.24
588.846	34127.01
589.206	33955.94
589.565	34083.62
589.925	34466.44
590.284	34561.35
590.643	34603.38
591.003	34722.25
591.362	35101.22
591.721	35026.2
592.08	35130.15
592.44	35291.95
592.799	35350.48
593.158	35442.01
593.517	35484.72
593.876	35691.04
594.235	35697.82
594.593	35893.29
594.952	35954.99
595.311	36006.96
595.67	36120.86
596.029	36412.38
596.387	36570.79
596.746	36662.54
597.104	36599.49
597.463	36600.62
597.822	37001.96
598.18	36894.17
598.538	36885.81
598.897	37263.2
599.255	36989.99
599.613	37775.96
599.972	37420.26
600.33	37670.87
600.688	37433.82
601.046	37799.23
601.404	37993.8
601.762	37913.81
602.12	38320.8
602.478	38188.37
602.836	38277.41
603.194	38282.38
603.552	38394.7
603.91	38337.98
604.268	38730.51
604.625	38577.29
604.983	38806.66
605.341	38726.21
605.698	38882.14
606.056	39005.98
606.413	39114
606.771	39289.81
607.128	39306.99
607.485	39221.34
607.843	39446.87
608.2	39621.78
608.557	39740.42
608.914	39554.44
609.272	39838.73
609.629	39987.2
609.986	40121.43
610.343	40067.42
610.7	40258.15
611.057	40210.92
611.414	40322.33
611.771	40334.31
612.127	40547.41
612.484	40618.14
612.841	40704.47
613.198	40580.4
613.554	40723.22
613.911	40896.55
614.267	41018.58
614.624	40961.63
614.98	41158.24
615.337	41309.87
615.693	41339.25
616.05	41415.63
616.406	41571.56
616.762	41337.67
617.118	41414.05
617.475	41551.9
617.831	41736.53
618.187	41806.36
618.543	41870.76
618.899	41982.62
619.255	41880.48
619.611	41917.77
619.967	42037.54
620.323	42183.07
620.678	42146.24
621.034	42022.4
621.39	42099.01
621.746	42158.89
622.101	42610.18
622.457	42320.47
622.812	42374.93
623.168	42562.27
623.523	42496.74
623.879	42515.27
624.234	42329.28
624.589	42521.59
624.945	42629.16
625.3	42645.43
625.655	42777.86
626.01	42751.87
626.365	42711.87
626.72	42698.31
627.075	42780.8
627.43	42814.69
627.785	42660.8
628.14	42831.64
628.495	42773.79
628.85	42805.88
629.205	42627.58
629.559	43041.13
629.914	42751.19
630.269	42743.73
630.623	42654.7
630.978	42555.72
631.332	42956.61
631.687	42888.14
632.041	42761.59
632.396	42894.69
632.75	42788.48
633.104	42838.87
633.459	42823.73
633.813	42646.34
634.167	42785.32
634.521	42583.29
634.875	42696.28
635.229	42680.23
635.583	42388.94
635.937	42546
636.291	42394.14
636.645	42551.2
636.999	42361.15
637.352	42566.79
637.706	42370.41
638.06	42533.12
638.413	42478.43
638.767	42461.93
639.121	42367.7
639.474	42115.73
639.828	42190.3
640.181	42205.9
640.534	42258.55
640.888	42071.66
641.241	41915.28
641.594	42129.74
641.947	42165.9
642.301	42083.41
642.654	42052
643.007	42108.5
643.36	41963.19
643.713	41927.26
644.066	42062.17
644.419	41814.49
644.771	41598
645.124	41168.64
645.477	41103.55
645.83	40855.65
646.182	40712.38
646.535	40630.12
646.888	40673.73
647.24	40551.02
647.593	40878.02
647.945	40679.16
648.298	40581.53
648.65	40366.62
649.002	40391.71
649.355	40567.52
649.707	40431.71
650.059	40645.26
650.411	41079.6
650.763	41124.34
651.115	41507.16
651.467	41438.91
651.819	41385.8
652.171	41350.33
652.523	41252.02
652.875	41183.1
653.227	41131.57
653.578	41385.35
653.93	41141.74
654.282	41017.45
654.633	41021.52
654.985	41242.31
655.337	40946.49
655.688	40994.63
656.039	41213.15
656.391	40815.88
656.742	40934.06
657.094	40854.97
657.445	41014.97
657.796	40950.34
658.147	40798.02
658.498	40829.43
658.849	40985.14
659.2	40811.13
659.551	40774.75
659.902	40926.83
660.253	40824.46
660.604	40970.9
660.955	40628.99
661.306	40792.6
661.656	40637.8
662.007	40934.74
662.358	40704.92
662.708	40716.9
663.059	40575.2
663.409	40465.15
663.76	40828.53
664.11	40770.45
664.461	40807.06
664.811	40694.75
665.161	40610.68
665.511	40604.13
665.862	40729.78
666.212	40711.47
666.562	40782.2
666.912	40679.61
667.262	40623.11
667.612	40740.17
667.962	40625.6
668.312	40585.15
668.662	40804.8
669.011	40565.49
669.361	40522.32
669.711	40471.03
670.06	40436.9
670.41	40408.88
670.76	40348.09
671.109	40559.61
671.459	40415.66
671.808	40357.36
672.157	40382.89
672.507	40246.63
672.856	40153.75
673.205	40346.51
673.554	40463.79
673.904	40261.09
674.253	40440.97
674.602	40250.24
674.951	39670.14
675.3	39553.31
675.649	40203.01
675.998	40054.99
676.346	40114.65
676.695	40254.31
677.044	40112.39
677.393	40159.17
677.741	40177.7
678.09	39963.24
678.438	39935.22
678.787	40121.66
679.135	39978.61
679.484	39691.39
679.832	39890.93
680.181	39772.97
680.529	39721.22
680.877	39657.04
681.225	39597.38
681.573	39805.73
681.922	39443.48
682.27	39457.27
682.618	39470.83
682.966	39278.06
683.314	39464.95
683.661	39323.94
684.009	39259.98
684.357	39162.59
684.705	39095.47
685.053	39137.73
685.4	39047.79
685.748	38846.44
686.095	38858.41
686.443	38719.89
686.79	38661.58
687.138	38772.99
687.485	38683.05
687.832	38598.31
688.18	38713.56
688.527	38451.19
688.874	38462.94
689.221	38530.51
689.568	38290.29
689.915	38138.66
690.262	38176.62
690.609	38027.47
690.956	37961.94
691.303	37874.26
691.65	37678.56
691.997	37790.64
692.344	37413.48
692.69	37556.75
693.037	37401.05
693.383	37239.7
693.73	37290.77
694.077	37091.23
694.423	37058.01
694.769	36938.69
695.116	36764.01
695.462	36679.71
695.808	36645.14
696.155	36783.21
696.501	36572.37
696.847	36362.89
697.193	36203.34
697.539	36271.36
697.885	36046.06
698.231	36041.31
698.577	36131.48
698.923	35985.49
699.269	35772.17
699.614	35587.76
699.96	35559.07
700.306	35642.68
700.651	35552.96
700.997	35393.19
701.342	35232.75
701.688	35238.62
702.033	35167.44
702.379	35148
702.724	34971.28
703.069	34981.68
703.415	34705.75
703.76	34739.2
704.105	34734.68
704.45	34562.93
704.795	34441.58
705.14	34401.81
705.485	34322.71
705.83	34162.04
706.175	34134.92
706.52	33899.67
706.865	33959.11
707.209	33725.67
707.554	33738.1
707.899	33921.59
708.243	33677.31
708.588	33652.9
708.932	33506.92
709.277	33383.75
709.621	33474.6
709.966	33248.17
710.31	33344.43
710.654	33008.85
710.998	33150.54
711.342	33126.59
711.687	32858.57
712.031	32797.78
712.375	32819.25
712.719	32794.39
713.063	32595.08
713.407	32747.39
713.75	32622.19
714.094	32562.76
714.438	32448.86
714.782	32439.6
715.125	32222.66
715.469	32329.09
715.812	32155.99
716.156	32045.49
716.499	32068.08
716.843	32078.93
717.186	32014.75
717.53	32180.62
717.873	31922.32
718.216	32039.16
718.559	31748.77
718.902	31632.16
719.246	31746.28
719.589	31515.33
719.932	31533.18
720.275	31468.55
720.617	31353.07
720.96	31367.31
721.303	31257.94
721.646	31312.85
721.989	31046.19
722.331	31145.85
722.674	31130.25
723.016	31187.88
723.359	31044.83
723.701	31031.95
724.044	30803.03
724.386	30665.63
724.729	30866.98
725.071	30731.4
725.413	30660.66
725.755	30777.04
726.097	30469.03
726.439	30247.34
726.782	30385.19
727.124	30459.54
727.465	30243.27
727.807	30321.69
728.149	30178.64
728.491	30192.65
728.833	30273.1
729.175	30068.81
729.516	29990.85
729.858	30037.63
730.199	29955.82
730.541	29878.31
730.882	29887.35
731.224	29970.96
731.565	29747.69
731.906	29726.68
732.248	29813
732.589	29703.4
732.93	29537.75
733.271	29527.81
733.612	29534.36
733.953	29609.84
734.294	29384.09
734.635	29355.16
734.976	29398.1
735.317	29198.55
735.658	29227.93
735.999	29315.84
736.339	29133.02
736.68	29194.26
737.021	29111.78
737.361	29091.66
737.702	29216.86
738.042	28998.56
738.383	28901.16
738.723	28956.3
739.063	28895.51
739.404	28865
739.744	28852.8
740.084	28685.35
740.424	28702.52
740.764	28615.29
741.104	28721.96
741.444	28596.54
741.784	28487.39
742.124	28571.23
742.464	28495.75
742.804	28417.56
743.143	28277.45
743.483	28511.34
743.823	28251.46
744.162	28286.49
744.502	28245.81
744.841	28117.45
745.181	28232.93
745.52	28022.54
745.86	28184.34
746.199	28068.64
746.538	27971.69
746.877	27972.15
747.216	27869.55
747.556	27906.61
747.895	27930.34
748.234	27807.86
748.573	27869.55
748.911	27702.55
749.25	27610.12
749.589	27604.92
749.928	27555.43
750.267	27687.18
750.605	27503.01
750.944	27411.48
751.283	27317.93
751.621	27428.43
751.96	27211.26
752.298	27404.25
752.636	27350.47
752.975	27155.9
753.313	27011.72
753.651	27140.76
753.989	26948.22
754.327	26941.44
754.666	26880.42
755.004	26907.32
755.342	26845.62
755.679	26779.18
756.017	26604.05
756.355	26771.73
756.693	26578.06
757.031	26600.66
