Data from hue_320_FLMS001491_61.txt Node
Date: Mon Feb 06 15:47:31 GMT 2017
User: dcchb
Spectrometer: FLMS00149
Trigger mode: 0
Integration Time (sec): 2.000000E-2
Scans to average: 10
Electric dark correction enabled: true
Nonlinearity correction enabled: false
Boxcar width: 0
XAxis mode: Wavelengths
Number of Pixels in Spectrum: 2048
>>>>>Begin Spectral Data<<<<<
341.393	-29.21
341.776	-29.21
342.16	-29.21
342.543	-70.34
342.927	-45.71
343.31	-70.56
343.693	-78.47
344.077	-60.62
344.46	-67.63
344.843	-53.16
345.226	-31.92
345.61	-27.17
345.993	-15.42
346.376	-5.03
346.759	7.63
347.142	22.32
347.525	47.63
347.908	57.12
348.291	78.36
348.674	77
349.057	119.94
349.44	131.47
349.823	148.64
350.206	166.04
350.588	187.51
350.971	227.73
351.354	228.86
351.737	240.62
352.119	261.63
352.502	252.59
352.884	274.06
353.267	283.78
353.65	295.75
354.032	274.06
354.414	287.17
354.797	312.03
355.179	323.55
355.562	319.26
355.944	325.58
356.326	338.24
356.709	338.47
357.091	325.36
357.473	333.49
357.855	340.05
358.238	336.88
358.62	338.47
359.002	355.19
359.384	345.7
359.766	336.21
360.148	327.39
360.53	329.43
360.912	327.39
361.294	339.82
361.676	326.26
362.057	338.24
362.439	324
362.821	333.27
363.203	324.45
363.584	316.09
363.966	323.1
364.348	312.7
364.729	336.88
365.111	330.56
365.493	317.45
365.874	331.91
366.256	305.7
366.637	306.6
367.019	317.68
367.4	304.34
367.781	312.48
368.163	313.61
368.544	302.99
368.925	295.53
369.306	300.73
369.688	311.12
370.069	330.33
370.45	309.09
370.831	308.18
371.212	314.74
371.593	310.67
371.974	306.6
372.355	297.11
372.736	315.42
373.117	305.47
373.498	308.41
373.879	312.48
374.26	308.18
374.641	303.21
375.021	309.99
375.402	307.96
375.783	319.94
376.163	321.29
376.544	307.28
376.925	326.26
377.305	319.71
377.686	331.91
378.066	307.73
378.447	321.74
378.827	324.68
379.208	330.1
379.588	308.86
379.968	327.39
380.349	303.89
380.729	316.77
381.109	341.4
381.489	343.21
381.87	334.85
382.25	336.88
382.63	319.94
383.01	322.87
383.39	332.82
383.77	336.88
384.15	342.53
384.53	313.61
384.91	357.22
385.29	347.05
385.67	314.74
386.049	333.72
386.429	351.12
386.809	332.82
387.189	327.62
387.568	324.23
387.948	333.27
388.328	326.71
388.707	358.35
389.087	343.21
389.466	349.31
389.846	369.65
390.225	382.76
390.605	371.01
390.984	344.57
391.363	333.72
391.743	364.68
392.122	364
392.501	366.71
392.881	357.67
393.26	354.28
393.639	348.86
394.018	363.55
394.397	361.52
394.776	361.97
395.155	359.26
395.534	352.7
395.913	371.23
396.292	382.31
396.671	380.5
397.05	381.18
397.429	371.46
397.808	375.53
398.186	381.85
398.565	378.46
398.944	386.83
399.323	374.85
399.701	402.87
400.08	401.29
400.458	400.84
400.837	375.53
401.215	407.39
401.594	383.44
401.972	391.12
402.351	399.03
402.729	404.9
403.107	394.51
403.486	397.9
403.864	399.71
404.242	401.06
404.62	406.26
404.999	402.42
405.377	413.04
405.755	407.62
406.133	419.37
406.511	429.54
406.889	420.95
407.267	424.79
407.645	437.22
408.023	453.72
408.401	440.16
408.779	456.2
409.156	441.74
409.534	442.19
409.912	433.15
410.29	458.91
410.667	460.27
411.045	469.31
411.422	464.34
411.8	482.87
412.178	492.36
412.555	484.68
412.933	492.36
413.31	490.78
413.687	511.79
414.065	514.73
414.442	498.24
414.819	506.37
415.197	521.74
415.574	528.29
415.951	531.45
416.328	542.98
416.705	565.8
417.082	552.7
417.46	556.54
417.837	585.01
418.214	578.01
418.591	575.75
418.967	569.42
419.344	597.89
419.721	597.89
420.098	596.09
420.475	605.58
420.852	621.85
421.228	619.14
421.605	622.07
421.982	631.79
422.358	629.31
422.735	650.1
423.111	642.19
423.488	653.26
423.864	656.88
424.241	661.85
424.617	677.44
424.994	677.44
425.37	660.72
425.746	694.16
426.123	692.58
426.499	686.93
426.875	726.03
427.251	732.35
427.627	733.94
428.003	736.2
428.379	744.33
428.756	750.21
429.132	738.91
429.507	778.23
429.883	752.24
430.259	775.52
430.635	785.69
431.011	774.61
431.387	804.44
431.763	804.89
432.138	800.37
432.514	806.93
432.89	829.07
433.265	846.7
433.641	832.24
434.016	852.8
434.392	865.68
434.767	885.8
435.143	877.89
435.518	883.54
435.894	898
436.269	912.24
436.644	920.82
437.02	916.08
437.395	933.25
437.77	930.54
438.145	940.26
438.52	970.77
438.895	948.85
439.271	943.87
439.646	960.82
440.021	970.09
440.395	1020.48
440.77	974.61
441.145	966.92
441.52	998.56
441.895	992.01
442.27	1011.67
442.645	978.45
443.019	1030.2
443.394	1046.02
443.769	1039.69
444.143	1042.63
444.518	1031.33
444.892	1019.35
445.267	1029.07
445.641	1042.4
446.016	1077.66
446.39	1079.92
446.764	1100.48
447.139	1066.81
447.513	1063.87
447.887	1092.34
448.262	1082.85
448.636	1075.4
449.01	1111.1
449.384	1106.81
449.758	1097.54
450.132	1106.58
450.506	1151.1
450.88	1075.85
451.254	1144.55
451.628	1153.36
452.002	1128.28
452.376	1139.12
452.75	1147.26
453.123	1131.21
453.497	1175.05
453.871	1165.79
454.244	1178.67
454.618	1192.45
454.992	1187.03
455.365	1189.06
455.739	1178.44
456.112	1207.14
456.486	1225
456.859	1228.16
457.232	1236.3
457.606	1234.26
457.979	1268.61
458.352	1257.76
458.725	1292.11
459.099	1290.31
459.472	1282.17
459.845	1304.32
460.218	1308.84
460.591	1327.37
460.964	1311.32
461.337	1340.7
461.71	1363.3
462.083	1366.69
462.456	1329.63
462.829	1372.34
463.201	1387.48
463.574	1368.04
463.947	1387.03
464.32	1396.74
464.692	1420.25
465.065	1444.43
465.438	1437.87
465.81	1462.73
466.183	1461.83
466.555	1507.93
466.928	1494.59
467.3	1478.32
467.672	1502.73
468.045	1525.33
468.417	1534.82
468.789	1528.49
469.161	1563.97
469.534	1591.99
469.906	1580.69
470.278	1605.55
470.65	1621.82
471.022	1621.6
471.394	1636.51
471.766	1661.82
472.138	1702.27
472.51	1721.25
472.882	1682.84
473.253	1688.03
473.625	1765.32
473.997	1767.13
474.369	1790.86
474.74	1816.84
475.112	1848.71
475.484	1837.86
475.855	1854.58
476.227	1887.35
476.598	1923.51
476.97	1913.57
477.341	1951.76
477.713	1968.48
478.084	1979.78
478.455	2004.86
478.827	2028.36
479.198	2084.18
479.569	2100
479.94	2107.68
480.311	2095.48
480.682	2124.86
481.053	2174.58
481.424	2231.07
481.795	2224.74
482.166	2218.87
482.537	2304.29
482.908	2309.94
483.279	2306.55
483.65	2377.28
484.021	2363.5
484.391	2374.34
484.762	2432.2
485.133	2423.61
485.503	2470.61
485.874	2547.9
486.244	2485.53
486.615	2525.3
486.985	2560.1
487.356	2564.85
487.726	2631.96
488.097	2651.4
488.467	2678.74
488.837	2718.97
489.207	2680.55
489.578	2717.61
489.948	2773.66
490.318	2799.87
490.688	2798.06
491.058	2863.37
491.428	2882.58
491.798	2902.69
492.168	2937.04
492.538	2949.02
492.908	2971.84
493.278	3012.75
493.648	3000.09
494.017	3005.97
494.387	3068.79
494.757	3054.33
495.126	3079.64
495.496	3115.12
495.866	3127.54
496.235	3146.53
496.605	3173.65
496.974	3178.39
497.344	3209.12
497.713	3231.5
498.082	3226.53
498.452	3222.46
498.821	3309.69
499.19	3256.13
499.559	3280.76
499.928	3298.61
500.298	3356.69
500.667	3315.56
501.036	3342.68
501.405	3384.04
501.774	3382
502.143	3357.37
502.512	3414.99
502.88	3415.9
503.249	3432.62
503.618	3475.33
503.987	3466.07
504.356	3467.42
504.724	3449.12
505.093	3495.22
505.462	3498.38
505.83	3544.71
506.199	3524.6
506.567	3580.19
506.936	3573.18
507.304	3537.7
507.672	3593.07
508.041	3597.82
508.409	3638.04
508.777	3587.19
509.145	3642.11
509.514	3641.66
509.882	3631.49
510.25	3660.19
510.618	3682.33
510.986	3657.7
511.354	3660.19
511.722	3714.42
512.09	3749.45
512.458	3712.39
512.826	3759.39
513.193	3765.04
513.561	3744.7
513.929	3782.22
514.297	3795.1
514.664	3800.52
515.032	3788.77
515.4	3789.67
515.767	3836
516.135	3828.77
516.502	3830.35
516.869	3851.59
517.237	3871.93
517.604	3871.93
517.972	3849.33
518.339	3880.07
518.706	3894.08
519.073	3940.63
519.44	3937.92
519.808	3897.69
520.175	3956
520.542	3971.59
520.909	3958.48
521.276	3956.22
521.643	3948.09
522.009	4014.08
522.376	4027.18
522.743	4005.94
523.11	4033.96
523.477	4064.02
523.843	4104.02
524.21	4132.04
524.577	4123.68
524.943	4146.05
525.31	4148.31
525.676	4173.39
526.043	4197.8
526.409	4212.26
526.776	4228.98
527.142	4247.52
527.508	4294.52
527.874	4320.73
528.241	4299.04
528.607	4319.6
528.973	4355.31
529.339	4335.87
529.705	4423.33
530.071	4415.19
530.437	4429.66
530.803	4470.79
531.169	4504.68
531.535	4460.62
531.901	4464.46
532.267	4527.28
532.632	4514.63
532.998	4582.87
533.364	4595.53
533.73	4583.78
534.095	4617.9
534.461	4588.52
534.826	4683.21
535.192	4655.64
535.557	4699.03
535.923	4722.53
536.288	4683.66
536.653	4706.03
537.019	4689.31
537.384	4758.46
537.749	4786.48
538.114	4773.38
538.479	4781.06
538.845	4822.42
539.21	4803.43
539.575	4889.08
539.94	4888.85
540.305	4949.42
540.67	4903.54
541.034	4914.16
541.399	4967.95
541.764	4960.72
542.129	4950.1
542.494	4996.2
542.858	5036.65
543.223	5054.95
543.587	5043.2
543.952	5055.63
544.316	5077.32
544.681	5111
545.045	5120.49
545.41	5175.17
545.774	5148.73
546.138	5200.71
546.503	5213.82
546.867	5232.12
547.231	5271.44
547.595	5276.19
547.959	5322.74
548.324	5332.23
548.688	5339.46
549.052	5368.84
549.416	5372.01
549.779	5431.89
550.143	5407.03
550.507	5426.02
550.871	5432.12
551.235	5478.22
551.599	5445.22
551.962	5480.48
552.326	5541.72
552.689	5531.55
553.053	5544.43
553.417	5521.38
553.78	5614.49
554.143	5582.85
554.507	5614.03
554.87	5606.8
555.234	5642.06
555.597	5640.93
555.96	5647.48
556.323	5677.76
556.686	5706.91
557.05	5701.04
557.413	5715.5
557.776	5719.34
558.139	5772.67
558.502	5737.87
558.865	5807.02
559.228	5848.6
559.59	5841.37
559.953	5880.92
560.316	5924.08
560.679	5897.19
561.041	5924.99
561.404	5964.08
561.767	5945.32
562.129	5948.71
562.492	6013.8
562.854	5980.8
563.217	6016.06
563.579	6031.2
563.941	5998.88
564.304	6030.52
564.666	6089.73
565.028	6091.31
565.39	6139.67
565.753	6147.35
566.115	6169.95
566.477	6188.03
566.839	6181.02
567.201	6214.02
567.563	6263.28
567.925	6266.67
568.287	6278.65
568.648	6267.12
569.01	6308.7
569.372	6345.77
569.734	6320.91
570.095	6433.9
570.457	6441.81
570.819	6484.52
571.18	6505.08
571.542	6502.6
571.903	6582.37
572.265	6579.21
572.626	6651.29
572.987	6630.96
573.349	6702.82
573.71	6743.04
574.071	6767.22
574.432	6814.23
574.794	6882.7
575.155	6952.3
575.516	6912.53
575.877	7012.41
576.238	7041.11
576.599	7153.88
576.96	7172.64
577.32	7223.48
577.681	7318.62
578.042	7469.58
578.403	7507.32
578.763	7515.68
579.124	7622.12
579.485	7735.56
579.845	7843.58
580.206	7926.97
580.566	8017.36
580.927	8097.13
581.287	8204.7
581.648	8358.14
582.008	8525.6
582.368	8579.38
582.728	8782.54
583.089	8857.34
583.449	9089.65
583.809	9220.49
584.169	9308.85
584.529	9526.92
584.889	9747.71
585.249	9866.58
585.609	10061.37
585.969	10262.27
586.329	10410.97
586.688	10669.49
587.048	10859.09
587.408	11031.52
587.768	11297.05
588.127	11495.01
588.487	11760.31
588.846	11894.32
589.206	12157.14
589.565	12398.71
589.925	12706.5
590.284	12902.66
590.643	13158.47
591.003	13422.42
591.362	13744.67
591.721	13950.31
592.08	14173.58
592.44	14583.29
592.799	14755.49
593.158	14974.47
593.517	15366.09
593.876	15560.89
594.235	15848.79
594.593	16155.22
594.952	16404.71
595.311	16611.03
595.67	17093.05
596.029	17326.95
596.387	17625.02
596.746	17918.79
597.104	18169.41
597.463	18423.64
597.822	18718.55
598.18	18967.35
598.538	19298.87
598.897	19694.79
599.255	19758.97
599.613	20356.47
599.972	20479.41
600.33	20849.79
600.688	20965.95
601.046	21239.61
601.404	21682.09
601.762	21828.52
602.12	22162.3
602.478	22522.29
602.836	22759.12
603.194	22872.34
603.552	23104.42
603.91	23346
604.268	23699.43
604.625	23959.99
604.983	24237.05
605.341	24417.83
605.698	24717.26
606.056	25037.7
606.413	25205.83
606.771	25477.24
607.128	25753.62
607.485	25791.36
607.843	26243.77
608.2	26371
608.557	26701.39
608.914	26823.64
609.272	27116.29
609.629	27476.06
609.986	27627.47
610.343	27693.68
610.7	28139.32
611.057	28262.25
611.414	28357.16
611.771	28424.73
612.127	28817.72
612.484	29027.43
612.841	29248.67
613.198	29344.03
613.554	29414.09
613.911	29788.76
614.267	29836.67
614.624	30084.35
614.98	30227.85
615.337	30491.57
615.693	30517.56
616.05	30669.87
616.406	30967.94
616.762	30989.86
617.118	31115.06
617.475	31391.21
617.831	31535.16
618.187	31614.71
618.543	31806.34
618.899	32164.75
619.255	32068.25
619.611	32228.93
619.967	32371.07
620.323	32624.62
620.678	32653.1
621.034	32761.34
621.39	32705.3
621.746	32842.47
622.101	33266.87
622.457	33059.87
622.812	33235.45
623.168	33387.99
623.523	33333.98
623.879	33707.98
624.234	33340.99
624.589	33655.56
624.945	33765.38
625.3	33851.48
625.655	33846.96
626.01	34019.61
626.365	34044.47
626.72	34255.31
627.075	34234.75
627.43	34245.82
627.785	34161.08
628.14	34410.79
628.495	34480.62
628.85	34457.12
629.205	34432.26
629.559	34752.02
629.914	34621.18
630.269	34758.58
630.623	34687.17
630.978	34646.72
631.332	34661.86
631.687	34881.06
632.041	34747.5
632.396	34903.66
632.75	34851
633.104	34853.94
633.459	34811.01
633.813	34744.11
634.167	34916.09
634.521	34835.41
634.875	34946.82
635.229	34919.48
635.583	34857.56
635.937	34860.72
636.291	34789.31
636.645	34907.95
636.999	34898.69
637.352	35011.23
637.706	34769.2
638.06	34946.37
638.413	34837.67
638.767	34909.08
639.121	34866.37
639.474	34969.87
639.828	34820.72
640.181	34973.49
640.534	34998.57
640.888	34737.79
641.241	34737.11
641.594	34915.41
641.947	35014.39
642.301	34758.35
642.654	35024.33
643.007	34977.33
643.36	34889.87
643.713	34865.24
644.066	34973.04
644.419	34858.91
644.771	34546.83
645.124	34176.67
645.477	34120.18
645.83	33965.38
646.182	33895.55
646.535	33900.3
646.888	33959.28
647.24	33711.83
647.593	33819.85
647.945	33943.91
648.298	33627.31
648.65	33732.62
649.002	33652.39
649.355	33812.84
649.707	33722.9
650.059	33768.55
650.411	34178.93
650.763	34229.55
651.115	34564.01
651.467	34495.31
651.819	34584.57
652.171	34412.82
652.523	34422.32
652.875	34444.69
653.227	34333.73
653.578	34508.64
653.93	34375.99
654.282	34270.91
654.633	34184.58
654.985	34413.73
655.337	34503.9
655.688	34405.37
656.039	34551.35
656.391	34219.61
656.742	34133.74
657.094	34178.25
657.445	34380.73
657.796	34350.23
658.147	34171.7
658.498	34326.27
658.849	34295.09
659.2	34231.81
659.551	34161.53
659.902	34251.92
660.253	34209.44
660.604	34275.43
660.955	34114.3
661.306	34213.28
661.656	34152.72
662.007	34078.14
662.358	34136.9
662.708	34130.8
663.059	34075.66
663.409	34055.32
663.76	34255.09
664.11	34133.74
664.461	34221.87
664.811	34080.18
665.161	34122.21
665.511	34106.17
665.862	34262.32
666.212	34163.34
666.562	34238.59
666.912	34037.92
667.262	34054.42
667.612	34015.55
667.962	34103.68
668.312	34002.67
668.662	34044.92
669.011	33977.13
669.361	34045.38
669.711	34008.99
670.06	33857.58
670.41	33901.2
670.76	33783.69
671.109	34060.74
671.459	33999.05
671.808	33956.79
672.157	34054.87
672.507	33763.12
672.856	33764.25
673.205	33736.46
673.554	33971.93
673.904	33854.87
674.253	34000.41
674.602	33861.43
674.951	33383.02
675.3	33136.93
675.649	33736.23
675.998	33712.73
676.346	33780.3
676.695	33959.73
677.044	33610.59
677.393	33676.57
677.741	33712.28
678.09	33633.86
678.438	33562.68
678.787	33597.93
679.135	33634.09
679.484	33401.55
679.832	33519.06
680.181	33381.21
680.529	33388.44
680.877	33366.98
681.225	33306.19
681.573	33489.91
681.922	33332.4
682.27	33054.67
682.618	33244.27
682.966	33158.62
683.314	33184.61
683.661	33112.07
684.009	32923.15
684.357	32800.21
684.705	32835.24
685.053	32873.88
685.4	32785.3
685.748	32629.37
686.095	32684.28
686.443	32500.33
686.79	32569.71
687.138	32537.17
687.485	32568.35
687.832	32384.85
688.18	32476.38
688.527	32223.05
688.874	32219.66
689.221	32115.03
689.568	32150.28
689.915	31975.83
690.262	32006.56
690.609	31943.28
690.956	31739.45
691.303	31785.55
691.65	31694.03
691.997	31611.09
692.344	31405.45
692.69	31444.99
693.037	31419.68
693.383	31235.96
693.73	31292.45
694.077	31111.67
694.423	31242.51
694.769	31071.44
695.116	31100.37
695.462	30967.26
695.808	30834.16
696.155	30981.73
696.501	30597.33
696.847	30696.76
697.193	30474.17
697.539	30720.72
697.885	30296.1
698.231	30255.87
698.577	30271.24
698.923	30212.03
699.269	30087.06
699.614	29857.69
699.96	29921.87
700.306	29940.4
700.651	29799.61
700.997	29699.05
701.342	29659.95
701.688	29630.12
702.033	29503.12
702.379	29358.27
702.724	29553.06
703.069	29368.21
703.415	29047.77
703.76	29192.17
704.105	29107.2
704.45	29149.91
704.795	28855.68
705.14	28852.07
705.485	28773.65
705.83	28758.51
706.175	28756.48
706.52	28541.11
706.865	28595.12
707.209	28525.75
707.554	28493.66
707.899	28517.84
708.243	28285.53
708.588	28263.16
708.932	28088.92
709.277	28007.34
709.621	28097.51
709.966	27917.18
710.31	28054.12
710.654	27722.38
710.998	27904.75
711.342	27834.47
711.687	27801.47
712.031	27656.17
712.375	27635.6
712.719	27637.41
713.063	27429.5
713.407	27565.77
713.75	27508.6
714.094	27511.76
714.438	27261.83
714.782	27273.12
715.125	27141.83
715.469	27176.18
715.812	27175.5
716.156	26971.89
716.499	27043.3
716.843	27015.05
717.186	26888.5
717.53	26988.61
717.873	26907.94
718.216	26794.72
718.559	26655.29
718.902	26523.54
719.246	26626.14
719.589	26482.41
719.932	26418.68
720.275	26446.25
720.617	26389.53
720.96	26304.11
721.303	26361.74
721.646	26292.13
721.989	26107.05
722.331	26194.96
722.674	26116.09
723.016	26181.18
723.359	26076.55
723.701	26102.76
724.044	25898.02
724.386	25892.6
724.729	25957.45
725.071	25826.61
725.413	25805.82
725.755	25863.9
726.097	25766.27
726.439	25554.75
726.782	25672.04
727.124	25729.21
727.465	25605.6
727.807	25540.97
728.149	25470.23
728.491	25368.99
728.833	25396.79
729.175	25306.62
729.516	25336.23
729.858	25308.66
730.199	25303.46
730.541	25244.48
730.882	25113.41
731.224	25254.65
731.565	25101.43
731.906	25060.98
732.248	25052.62
732.589	24939.4
732.93	24870.7
733.271	24928.1
733.612	24878.61
733.953	24933.3
734.294	24803.13
734.635	24665.51
734.976	24712.29
735.317	24534.89
735.658	24650.14
735.999	24647.66
736.339	24586.87
736.68	24649.69
737.021	24517.04
737.361	24405.63
737.702	24485.63
738.042	24421
738.383	24351.39
738.723	24413.31
739.063	24348.91
739.404	24375.8
739.744	24279.08
740.084	24301.9
740.424	24209.93
740.764	24147.33
741.104	24187.56
741.444	24031.18
741.784	24081.34
742.124	24147.78
742.464	23982.14
742.804	23994.11
743.143	23857.85
743.483	23846.1
743.823	23721.81
744.162	23812.2
744.502	23879.99
744.841	23710.96
745.181	23771.52
745.52	23659.21
745.86	23662.15
746.199	23627.34
746.538	23656.5
746.877	23633.22
747.216	23649.49
747.556	23476.39
747.895	23457.41
748.234	23403.85
748.573	23331.31
748.911	23360.46
749.25	23296.05
749.589	23097.64
749.928	23184.19
750.267	23302.83
750.605	23196.4
750.944	23064.2
751.283	23099.22
751.621	23128.37
751.96	23058.77
752.298	22939.91
752.636	23039.79
752.975	22855.16
753.313	22734.71
753.651	22885.67
753.989	22727.48
754.327	22677.77
754.666	22523.19
755.004	22635.05
755.342	22572.46
755.679	22554.6
756.017	22373.59
756.355	22487.71
756.693	22357.1
757.031	22254.27
757.368	22322.52
757.706	22242.07
758.044	22174.5
758.381	22137.44
758.719	22161.39
759.056	22061.06
759.394	21922.08
759.731	21841.86
760.068	21836.66
760.405	21678.7
