Data from hue_60_FLMS001491_51.txt Node
Date: Mon Feb 06 15:17:35 GMT 2017
User: dcchb
Spectrometer: FLMS00149
Trigger mode: 0
Integration Time (sec): 2.000000E-2
Scans to average: 10
Electric dark correction enabled: true
Nonlinearity correction enabled: false
Boxcar width: 0
XAxis mode: Wavelengths
Number of Pixels in Spectrum: 2048
>>>>>Begin Spectral Data<<<<<
341.393	-12.27
341.776	-12.27
342.16	-12.27
342.543	-79.39
342.927	-48.2
343.31	-81.65
343.693	-63.8
344.077	-73.29
344.46	-76.9
344.843	-43.91
345.226	-39.84
345.61	-19.51
345.993	-23.57
346.376	-15.21
346.759	15.97
347.142	27.5
347.525	54.84
347.908	61.17
348.291	73.83
348.674	104.11
349.057	100.27
349.44	121.73
349.823	144.11
350.206	164.67
350.588	190.66
350.971	213.94
351.354	209.42
351.737	233.82
352.119	245.57
352.502	279.47
352.884	285.8
353.267	272.92
353.65	292.8
354.032	311.79
354.414	322.63
354.797	305.68
355.179	327.83
355.562	334.84
355.944	340.71
356.326	338
356.709	325.12
357.091	343.42
357.473	328.28
357.855	323.08
358.238	311.11
358.62	321.5
359.002	340.03
359.384	352.24
359.766	343.88
360.148	361.28
360.53	315.85
360.912	354.72
361.294	325.34
361.676	341.84
362.057	329.19
362.439	326.47
362.821	338
363.203	310.2
363.584	304.78
363.966	311.33
364.348	335.97
364.729	335.06
365.111	303.88
365.493	320.82
365.874	331.45
366.256	340.49
366.637	312.01
367.019	300.03
367.4	322.41
367.781	324.89
368.163	328.28
368.544	316.31
368.925	313.82
369.306	313.59
369.688	317.89
370.069	326.47
370.45	326.47
370.831	326.93
371.212	311.11
371.593	298.23
371.974	314.05
372.355	331.22
372.736	311.33
373.117	322.18
373.498	298.45
373.879	314.27
374.26	306.36
374.641	306.36
375.021	314.72
375.402	346.36
375.783	312.24
376.163	347.26
376.544	318.34
376.925	335.06
377.305	332.8
377.686	333.71
378.066	330.09
378.447	344.33
378.827	321.95
379.208	325.8
379.588	328.06
379.968	342.75
380.349	330.99
380.729	332.35
381.109	328.51
381.489	344.78
381.87	323.31
382.25	322.86
382.63	317.66
383.01	347.72
383.39	352.46
383.77	346.36
384.15	360.6
384.53	339.36
384.91	323.54
385.29	341.39
385.67	344.33
386.049	358.34
386.429	339.36
386.809	333.25
387.189	341.16
387.568	328.73
387.948	359.69
388.328	347.04
388.707	363.99
389.087	340.49
389.466	362.63
389.846	373.03
390.225	352.01
390.605	357.21
390.984	366.93
391.363	339.81
391.743	369.86
392.122	368.51
392.501	371.67
392.881	351.11
393.26	364.44
393.639	364.89
394.018	367.83
394.397	351.11
394.776	356.3
395.155	392.91
395.534	370.99
395.913	368.06
396.292	376.19
396.671	366.93
397.05	385.46
397.429	367.6
397.808	378.45
398.186	376.42
398.565	383.87
398.944	380.03
399.323	369.86
399.701	403.08
400.08	370.99
400.458	382.97
400.837	401.05
401.215	390.2
401.594	385
401.972	390.43
402.351	394.95
402.729	385.23
403.107	400.82
403.486	384.33
403.864	394.5
404.242	364.67
404.62	401.27
404.999	404.44
405.377	390.2
405.755	394.04
406.133	416.42
406.511	412.57
406.889	421.16
407.267	433.59
407.645	416.42
408.023	405.12
408.401	431.56
408.779	412.12
409.156	416.42
409.534	436.3
409.912	458
410.29	436.3
410.667	445.34
411.045	441.73
411.422	431.1
411.8	429.52
412.178	445.79
412.555	440.14
412.933	463.87
413.31	455.51
413.687	457.09
414.065	464.55
414.442	472.01
414.819	448.05
415.197	456.87
415.574	489.86
415.951	466.13
416.328	474.72
416.705	494.61
417.082	446.7
417.46	502.52
417.837	480.14
418.214	472.46
418.591	495.74
418.967	482.18
419.344	489.41
419.721	491.89
420.098	474.95
420.475	499.8
420.852	488.05
421.228	520.59
421.605	514.94
421.982	517.2
422.358	505
422.735	521.27
423.111	507.03
423.488	530.99
423.864	528.05
424.241	521.05
424.617	532.57
424.994	524.44
425.37	521.05
425.746	538.9
426.123	513.36
426.499	551.33
426.875	560.82
427.251	556.98
427.627	547.49
428.003	558.33
428.379	589.29
428.756	551.33
429.132	568.73
429.507	577.99
429.883	574.15
430.259	580.48
430.635	598.11
431.011	580.71
431.387	577.77
431.763	603.98
432.138	610.99
432.514	612.34
432.89	605.34
433.265	597.88
433.641	616.86
434.016	611.89
434.392	624.32
434.767	623.64
435.143	648.27
435.518	641.49
435.894	622.06
436.269	680.36
436.644	632.46
437.02	659.57
437.395	658.9
437.77	679.69
438.145	661.38
438.52	685.11
438.895	677.65
439.271	680.82
439.646	702.28
440.021	707.71
440.395	696.86
440.77	696.18
441.145	718.1
441.52	723.07
441.895	708.16
442.27	699.35
442.645	710.65
443.019	716.75
443.394	737.76
443.769	709.52
444.143	743.19
444.518	708.61
444.892	747.48
445.267	759.23
445.641	752.23
446.016	735.5
446.39	760.59
446.764	765.56
447.139	766.24
447.513	763.75
447.887	769.63
448.262	762.17
448.636	770.3
449.01	790.19
449.384	810.3
449.758	771.89
450.132	792.9
450.506	806.46
450.88	835.84
451.254	801.72
451.628	823.86
452.002	800.59
452.376	829.06
452.75	847.14
453.123	817.08
453.497	852.56
453.871	866.12
454.244	864.77
454.618	854.6
454.992	882.84
455.365	889.4
455.739	916.52
456.112	911.54
456.486	931.43
456.859	919
457.232	946.12
457.606	914.48
457.979	930.75
458.352	957.19
458.725	951.09
459.099	969.17
459.472	997.19
459.845	1013.01
460.218	996.97
460.591	1005.33
460.964	1005.33
461.337	1025.67
461.71	1029.05
462.083	1067.47
462.456	1076.74
462.829	1070.41
463.201	1127.58
463.574	1105.21
463.947	1130.75
464.32	1146.34
464.692	1164.19
465.065	1144.53
465.438	1172.1
465.81	1191.99
466.183	1217.52
466.555	1241.7
466.928	1242.83
467.3	1256.85
467.672	1290.97
468.045	1270.86
468.417	1314.02
468.789	1323.28
469.161	1363.96
469.534	1365.54
469.906	1409.38
470.278	1429.72
470.65	1417.75
471.022	1484.86
471.394	1506.78
471.766	1551.53
472.138	1539.1
472.51	1597.4
472.882	1643.05
473.253	1655.71
473.625	1698.42
473.997	1729.38
474.369	1765.98
474.74	1783.84
475.112	1820.67
475.484	1866.55
475.855	1936.6
476.227	1970.05
476.598	2027.67
476.97	2043.94
477.341	2135.92
477.713	2197.84
478.084	2241
478.455	2341.34
478.827	2356.25
479.198	2424.27
479.569	2491.39
479.94	2567.55
480.311	2622.69
480.682	2726.41
481.053	2814.09
481.424	2867.2
481.795	2977.7
482.166	3042.56
482.537	3122.56
482.908	3250.47
483.279	3321.42
483.65	3416.11
484.021	3534.75
484.391	3572.04
484.762	3715.76
485.133	3781.75
485.503	3909.43
485.874	4057
486.244	4087.05
486.615	4263.09
486.985	4368.4
487.356	4535.18
487.726	4641.16
488.097	4830.31
488.467	4862.17
488.837	5002.74
489.207	5167.48
489.578	5291.54
489.948	5393.69
490.318	5538.54
490.688	5684.3
491.058	5830.06
491.428	5969.94
491.798	6131.97
492.168	6286.77
492.538	6428.91
492.908	6609.02
493.278	6802.69
493.648	6850.14
494.017	7049.24
494.387	7152.96
494.757	7278.16
495.126	7480.41
495.496	7671.37
495.866	7781.65
496.235	7982.09
496.605	8043.33
496.974	8241.07
497.344	8402.87
497.713	8498.24
498.082	8632.92
498.452	8829.53
498.821	8943.42
499.19	9120.82
499.559	9295.28
499.928	9384.77
500.298	9562.39
500.667	9761.71
501.036	9812.33
501.405	9982.27
501.774	10073.34
502.143	10196.27
502.512	10372.99
502.88	10559.65
503.249	10583.61
503.618	10756.26
503.987	10883.26
504.356	11005.29
504.724	11164.38
505.093	11305.17
505.462	11409.8
505.83	11632.39
506.199	11691.37
506.567	11921.88
506.936	11980.63
507.304	12228.53
507.672	12236.22
508.041	12385.82
508.409	12574.51
508.777	12626.04
509.145	12818.58
509.514	12864.68
509.882	13179.47
510.25	13187.15
510.618	13353.02
510.986	13437.77
511.354	13693.13
511.722	13712.11
512.09	13890.64
512.458	14006.34
512.826	14109.84
513.193	14261.93
513.561	14319.1
513.929	14530.39
514.297	14667.34
514.664	14772.87
515.032	14858.07
515.4	15108.91
515.767	15138.29
516.135	15378.28
516.502	15289.7
516.869	15585.28
517.237	15671.61
517.604	15656.92
517.972	15826.18
518.339	15971.71
518.706	16057.13
519.073	16161.99
519.44	16393.4
519.808	16519.95
520.175	16517.91
520.542	16865.93
520.909	16975.75
521.276	16985.02
521.643	17167.39
522.009	17320.38
522.376	17387.95
522.743	17546.13
523.11	17726.92
523.477	17980.02
523.843	18036.29
524.21	18315.83
524.577	18464.08
524.943	18523.28
525.31	18661.59
525.676	18851.64
526.043	18961.24
526.409	19005.98
526.776	19190.16
527.142	19301.57
527.508	19526.65
527.874	19679.41
528.241	19844.61
528.607	19865.85
528.973	20124.37
529.339	20143.81
529.705	20362.33
530.071	20423.57
530.437	20467.41
530.803	20710.35
531.169	20902.66
531.535	20714.86
531.901	20886.84
532.267	20981.07
532.632	21086.38
532.998	21235.76
533.364	21307.84
533.73	21446.82
534.095	21602.53
534.461	21652.69
534.826	21796.42
535.192	21831.67
535.557	22124.55
535.923	22054.26
536.288	22120.25
536.653	22269.4
537.019	22241.38
537.384	22382.62
537.749	22484.54
538.114	22489.28
538.479	22553.01
538.845	22795.71
539.21	22726.56
539.575	22823.06
539.94	22929.27
540.305	23015.14
540.67	22972.43
541.034	23086.78
541.399	23236.83
541.764	23336.49
542.129	23402.03
542.494	23445.19
542.858	23555.24
543.223	23609.25
543.587	23715.01
543.952	23715.24
544.316	23734.67
544.681	23827.78
545.045	23895.35
545.41	24018.51
545.774	24101.44
546.138	24164.49
546.503	24233.87
546.867	24209.69
547.231	24618.04
547.595	24521.54
547.959	24554.54
548.324	24634.99
548.688	24642.67
549.052	24783.68
549.416	24880.41
549.779	24896.68
550.143	24878.15
550.507	25129.21
550.871	25174.41
551.235	25194.52
551.599	25402.65
551.962	25463.21
552.326	25437.23
552.689	25738.24
553.053	25687.62
553.417	25750.66
553.78	26089.41
554.143	25949.76
554.507	26143.65
554.87	26100.26
555.234	26421.61
555.597	26348.84
555.96	26416.86
556.323	26615.5
556.686	26576.86
557.05	26873.8
557.413	26894.59
557.776	27007.13
558.139	27089.84
558.502	27263.17
558.865	27257.29
559.228	27518.75
559.59	27588.81
559.953	27541.8
560.316	27853.66
560.679	27910.38
561.041	28026.54
561.404	28147.21
561.767	28372.97
562.129	28375.68
562.492	28629.01
562.854	28520.76
563.217	28587.2
563.579	28727.31
563.941	28917.81
564.304	29106.06
564.666	29302.89
565.028	29290.91
565.39	29458.82
565.753	29501.53
566.115	29642.99
566.477	29731.35
566.839	29920.72
567.201	30085.92
567.563	30054.96
567.925	30326.14
568.287	30284.78
568.648	30326.59
569.01	30591.44
569.372	30753.7
569.734	30705.34
570.095	30855.39
570.457	31047.25
570.819	31093.35
571.18	31236.62
571.542	31323.17
571.903	31381.48
572.265	31506.45
572.626	31500.34
572.987	31675.25
573.349	31826.21
573.71	31811.3
574.071	31916.83
574.432	32142.36
574.794	32232.53
575.155	32193.43
575.516	32199.76
575.877	32129.71
576.238	32474.1
576.599	32553.2
576.96	32563.59
577.32	32580.09
577.681	32657.6
578.042	32734.89
578.403	32800.65
578.763	32866.64
579.124	32920.42
579.485	33003.13
579.845	33166.29
580.206	33150.24
580.566	32931.04
580.927	33025.05
581.287	33368.32
581.648	33147.53
582.008	33280.64
582.368	33206.06
582.728	33411.03
583.089	33386.62
583.449	33402.44
583.809	33418.03
584.169	33436.34
584.529	33317.02
584.889	33713.85
585.249	33448.77
585.609	33416.9
585.969	33572.38
586.329	33495.55
586.688	33652.6
587.048	33466.39
587.408	33387.07
587.768	33602.66
588.127	33567.18
588.487	33612.38
588.846	33728.99
589.206	33699.61
589.565	33828.64
589.925	33888.53
590.284	33633.4
590.643	33667.29
591.003	33707.74
591.362	33917
591.721	33871.36
592.08	33871.13
592.44	33938.47
592.799	33975.31
593.158	34000.62
593.517	33849.43
593.876	34001.75
594.235	33945.03
594.593	33966.72
594.952	34142.99
595.311	34041.52
595.67	34042.2
596.029	34233.61
596.387	34230.22
596.746	34406.93
597.104	34164.91
597.463	34241.97
597.822	34438.35
598.18	34216.2
598.538	34340.27
598.897	34399.02
599.255	34103.21
599.613	34851.67
599.972	34479.25
600.33	34610.32
600.688	34412.13
601.046	34668.17
601.404	34718.56
601.762	34729.64
602.12	34961.27
602.478	34932.12
602.836	34925.79
603.194	34635.63
603.552	34946.36
603.91	34636.08
604.268	34845.34
604.625	34826.13
604.983	35088.72
605.341	34906.58
605.698	35087.14
606.056	35190.64
606.413	35157.2
606.771	35340.47
607.128	35276.74
607.485	35170.3
607.843	35245.33
608.2	35640.57
608.557	35552.21
608.914	35550.63
609.272	35625.89
609.629	35748.37
609.986	35772.77
610.343	35882.15
610.7	35894.13
611.057	35888.03
611.414	36048.47
611.771	36104.74
612.127	36130.96
612.484	36145.87
612.841	36378.41
613.198	36218.86
613.554	36192.65
613.911	36441.68
614.267	36490.95
614.624	36388.35
614.98	36486.43
615.337	36676.48
615.693	36573.21
616.05	36650.27
616.406	36801.67
616.762	36744.95
617.118	36740.43
617.475	36740.21
617.831	36935.23
618.187	36929.58
618.543	37116.02
618.899	37132.96
619.255	37082.34
619.611	37115.34
619.967	37169.8
620.323	37304.94
620.678	37101.55
621.034	37205.96
621.39	37169.8
621.746	37190.36
622.101	37679.84
622.457	37161.89
622.812	37384.71
623.168	37524.59
623.523	37563.69
623.879	37484.37
624.234	37432.62
624.589	37661.31
624.945	37416.57
625.3	37470.13
625.655	37505.84
626.01	37689.56
626.365	37704.02
626.72	37643.46
627.075	37667.19
627.43	37676.45
627.785	37651.59
628.14	37580.64
628.495	37741.99
628.85	37747.19
629.205	37579.05
629.559	37898.37
629.914	37693.18
630.269	37766.85
630.623	37667.64
630.978	37593.29
631.332	37771.59
631.687	37836.45
632.041	37515.55
632.396	37613.4
632.75	37466.06
633.104	37748.54
633.459	37529.79
633.813	37519.85
634.167	37448.66
634.521	37499.73
634.875	37576.57
635.229	37437.59
635.583	37206.63
635.937	37327.08
636.291	37317.82
636.645	37290.02
636.999	37244.37
637.352	37261.77
637.706	37160.76
638.06	37401.21
638.413	37141.78
638.767	37148.78
639.121	37150.36
639.474	37015.23
639.828	37014.1
640.181	37056.58
640.534	37074.43
640.888	36963.7
641.241	36793.99
641.594	36885.74
641.947	37047.32
642.301	36777.49
642.654	36812.75
643.007	36911.28
643.36	36887.32
643.713	36873.08
644.066	36939.52
644.419	36783.82
644.771	36524.17
645.124	36089.83
645.477	36092.99
645.83	35802.83
646.182	35643.06
646.535	35708.14
646.888	35869.27
647.24	35513.57
647.593	35758.99
647.945	35736.16
648.298	35475.15
648.65	35318.1
649.002	35382.95
649.355	35455.95
649.707	35416.4
650.059	35619.56
650.411	35879.89
650.763	36009.38
651.115	36483.04
651.467	36204.4
651.819	36330.05
652.171	36144.52
652.523	36162.59
652.875	36129.15
653.227	36021.36
653.578	36328.92
653.93	36108.58
654.282	35971.19
654.633	35990.85
654.985	36008.25
655.337	36099.09
655.688	36050.73
656.039	35992.2
656.391	35770.51
656.742	35779.55
657.094	35977.06
657.445	36015.03
657.796	35818.87
658.147	35782.04
658.498	35863.85
658.849	35883.05
659.2	35861.13
659.551	35704.53
659.902	35949.72
660.253	35739.78
660.604	35796.28
660.955	35643.06
661.306	35885.09
661.656	35744.75
662.007	35668.14
662.358	35668.6
662.708	35571.42
663.059	35602.61
663.409	35487.13
663.76	35760.57
664.11	35774.36
664.461	35727.8
664.811	35718.09
665.161	35595.38
665.511	35564.64
665.862	35714.02
666.212	35679.67
666.562	35686.22
666.912	35678.09
667.262	35600.12
667.612	35677.41
667.962	35533.68
668.312	35581.82
668.662	35661.59
669.011	35586.11
669.361	35490.07
669.711	35450.07
670.06	35468.83
670.41	35290.53
670.76	35372.11
671.109	35543.18
671.459	35391.77
671.808	35382.05
672.157	35498.88
672.507	35315.61
672.856	35355.38
673.205	35157.42
673.554	35494.14
673.904	35273.8
674.253	35669.95
674.602	35319.9
674.951	34800.37
675.3	34562.41
675.649	35257.53
675.998	35220.02
676.346	35172.79
676.695	35361.26
677.044	34967.6
677.393	35075.17
677.741	35247.59
678.09	35056.86
678.438	34829.52
678.787	35149.51
679.135	35138.89
679.484	34747.49
679.832	34889.41
680.181	34647.83
680.529	34816.19
680.877	34699.81
681.225	34657.1
681.573	35013.47
681.922	34633.14
682.27	34654.16
682.618	34534.84
682.966	34442.19
683.314	34454.62
683.661	34418.69
684.009	34213.95
684.357	34214.85
684.705	34239.71
685.053	34224.11
685.4	34196.77
685.748	33995.19
686.095	33969.43
686.443	33842.2
686.79	33800.4
687.138	33940.05
687.485	33884.01
687.832	33795.88
688.18	33820.51
688.527	33648.08
688.874	33596.11
689.221	33473.17
689.568	33382.78
689.915	33318.15
690.262	33292.61
690.609	33155.89
690.956	33145.05
691.303	33093.3
691.65	32961.32
691.997	32909.12
692.344	32766.98
692.69	32703.93
693.037	32705.96
693.383	32595.68
693.73	32645.62
694.077	32410.15
694.423	32389.59
694.769	32356.14
695.116	32233.88
695.462	32256.71
695.808	32114.57
696.155	32151.4
696.501	31881.13
696.847	31880.9
697.193	31601.36
697.539	31741.02
697.885	31625.99
698.231	31465.32
698.577	31601.36
698.923	31455.37
699.269	31238.2
699.614	31235.72
699.96	31019.68
700.306	31124.31
700.651	31014.93
700.997	30881.83
701.342	30834.82
701.688	30820.59
702.033	30707.37
702.379	30581.95
702.724	30550.09
703.069	30658.56
703.415	30298.12
703.76	30374.05
704.105	30311.9
704.45	30278.91
704.795	30005.92
705.14	30065.58
705.485	29936.77
705.83	29894.74
706.175	29836.43
706.52	29727.74
706.865	29834.85
707.209	29650.22
707.554	29525.03
707.899	29637.12
708.243	29398.7
708.588	29450
708.932	29165.04
709.277	29169.78
709.621	29161.65
709.966	29002.78
710.31	29101.76
710.654	28816.8
710.998	28904.93
711.342	28803.01
711.687	28773.86
712.031	28609.12
712.375	28615.45
712.719	28560.08
713.063	28510.82
713.407	28632.4
713.75	28520.31
714.094	28486.19
714.438	28323.93
714.782	28363.03
715.125	28180.66
715.469	28247.1
715.812	28100.66
716.156	27936.37
716.499	27942.02
716.843	28067.21
717.186	27765.53
717.53	27939.08
717.873	28047.33
718.216	27847.78
718.559	27700.22
718.902	27543.16
719.246	27528.7
719.589	27495.93
719.932	27397.18
720.275	27469.04
720.617	27399.21
720.96	27327.8
721.303	27386.78
721.646	27302.94
721.989	27192.21
722.331	27292.32
722.674	27116.96
723.016	27148.59
723.359	26955.38
723.701	26936.4
724.044	26907.24
724.386	26692.11
724.729	27016.17
725.071	26806.68
725.413	26824.53
725.755	26787.02
726.097	26606.91
726.439	26454.15
726.782	26552.45
727.124	26664.99
727.465	26559.23
727.807	26628.38
728.149	26466.13
728.491	26374.15
728.833	26431.78
729.175	26202.18
729.516	26197.66
729.858	26139.36
730.199	26262.06
730.541	26107.04
730.882	26182.07
731.224	26150.43
731.565	26028.62
731.906	26052.35
732.248	26090.32
732.589	25824.11
732.93	25865.01
733.271	25840.61
733.612	25914.28
733.953	25851.68
734.294	25740.72
734.635	25735.98
734.976	25764.9
735.317	25582.53
735.658	25533.27
735.999	25614.85
736.339	25471.8
736.68	25575.3
737.021	25490.11
737.361	25311.35
737.702	25519.94
738.042	25387.06
738.383	25313.39
738.723	25382.76
739.063	25192.71
739.404	25279.72
739.744	25160.85
740.084	25063.9
740.424	25145.71
740.764	25011.93
741.104	25012.38
741.444	24878.15
741.784	24872.95
742.124	24950.46
742.464	24873.4
742.804	24811.48
743.143	24796.34
743.483	24745.49
743.823	24688.09
744.162	24707.53
744.502	24754.53
744.841	24544.37
745.181	24646.74
745.52	24527.19
745.86	24516.12
746.199	24576.68
746.538	24504.6
746.877	24488.55
747.216	24452.17
747.556	24392.06
747.895	24357.93
748.234	24313.19
748.573	24193.19
748.911	24184.6
749.25	24288.33
749.589	24081.1
749.928	24114.78
750.267	24153.42
750.605	23925.18
750.944	23982.58
751.283	23822.58
751.621	23949.36
751.96	23739.87
752.298	23841.11
752.636	23736.93
752.975	23755.24
753.313	23526.32
753.651	23671.17
753.989	23518.41
754.327	23446.54
754.666	23379.43
755.004	23361.58
755.342	23467.33
755.679	23337.85
756.017	23329.49
756.355	23303.05
756.693	23159.09
