Data from hue_170_FLMS001491_00074.txt Node
Date: Tue Feb 07 16:49:10 GMT 2017
User: dcchb
Spectrometer: FLMS00149
Trigger mode: 0
Integration Time (sec): 2.000000E-2
Scans to average: 10
Electric dark correction enabled: true
Nonlinearity correction enabled: false
Boxcar width: 0
XAxis mode: Wavelengths
Number of Pixels in Spectrum: 2048
>>>>>Begin Spectral Data<<<<<
341.393	-0.13
341.776	-0.13
342.16	-0.13
342.543	-73.57
342.927	-75.15
343.31	-89.62
343.693	-55.72
344.077	-57.75
344.46	-64.98
344.843	-41.48
345.226	-43.74
345.61	-34.93
345.993	11.4
346.376	-2.61
346.759	-2.61
347.142	17.05
347.525	30.15
347.908	50.94
348.291	82.81
348.674	101.79
349.057	99.31
349.44	121
349.823	153.09
350.206	153.77
350.588	191.51
350.971	190.38
351.354	205.07
351.737	245.74
352.119	254.1
352.502	253.2
352.884	271.28
353.267	269.02
353.65	283.71
354.032	284.39
354.414	289.58
354.797	299.98
355.179	316.47
355.562	315.57
355.944	293.42
356.326	322.35
356.709	325.06
357.091	313.76
357.473	343.37
357.855	331.39
358.238	314.21
358.62	329.13
359.002	316.7
359.384	338.62
359.766	321.45
360.148	337.94
360.53	324.38
360.912	342.24
361.294	328.23
361.676	317.15
362.057	328.68
362.439	305.85
362.821	316.47
363.203	309.47
363.584	324.84
363.966	337.27
364.348	309.24
364.729	322.12
365.111	332.97
365.493	344.72
365.874	310.6
366.256	294.55
366.637	300.88
367.019	305.63
367.4	296.14
367.781	304.5
368.163	312.18
368.544	295.91
368.925	311.96
369.306	313.08
369.688	302.92
370.069	318.06
370.45	308.57
370.831	314.21
371.212	294.78
371.593	309.24
371.974	297.27
372.355	303.59
372.736	296.14
373.117	301.33
373.498	318.73
373.879	331.39
374.26	297.94
374.641	295.01
375.021	313.08
375.402	307.66
375.783	288
376.163	302.69
376.544	332.29
376.925	331.84
377.305	310.15
377.686	310.83
378.066	320.99
378.447	306.53
378.827	316.25
379.208	342.46
379.588	312.86
379.968	325.51
380.349	325.06
380.729	332.29
381.109	332.97
381.489	338.4
381.87	311.96
382.25	303.59
382.63	303.37
383.01	315.57
383.39	342.69
383.77	329.58
384.15	314.67
384.53	333.88
384.91	348.11
385.29	336.59
385.67	349.92
386.049	342.24
386.429	351.05
386.809	339.75
387.189	348.79
387.568	341.78
387.948	344.72
388.328	355.8
388.707	356.7
389.087	353.31
389.466	346.76
389.846	348.56
390.225	347.43
390.605	368.68
390.984	353.08
391.363	355.57
391.743	360.32
392.122	338.4
392.501	363.25
392.881	363.48
393.26	375
393.639	371.16
394.018	356.25
394.397	371.39
394.776	356.47
395.155	327.77
395.534	386.53
395.913	357.6
396.292	379.98
396.671	384.27
397.05	361.9
397.429	364.16
397.808	363.71
398.186	358.28
398.565	370.03
398.944	391.95
399.323	389.47
399.701	384.95
400.08	392.4
400.458	357.15
400.837	371.39
401.215	385.85
401.594	375
401.972	380.65
402.351	383.14
402.729	392.63
403.107	401.44
403.486	404.38
403.864	401.9
404.242	404.16
404.62	406.87
404.999	421.1
405.377	400.99
405.755	403.93
406.133	414.55
406.511	410.26
406.889	431.05
407.267	428.56
407.645	426.98
408.023	437.38
408.401	430.6
408.779	448.9
409.156	445.96
409.534	431.27
409.912	437.15
410.29	471.5
410.667	452.29
411.045	431.05
411.422	468.56
411.8	469.01
412.178	467.88
412.555	486.19
412.933	485.96
413.31	501.78
413.687	497.94
414.065	488.67
414.442	499.07
414.819	501.33
415.197	500.2
415.574	518.28
415.951	530.03
416.328	526.41
416.705	514.89
417.082	540.2
417.46	539.97
417.837	538.39
418.214	546.3
418.591	512.63
418.967	526.64
419.344	565.96
419.721	546.98
420.098	584.72
420.475	571.84
420.852	576.13
421.228	579.52
421.605	580.65
421.982	582
422.358	595.11
422.735	607.77
423.111	617.03
423.488	626.52
423.864	627.43
424.241	622
424.617	641.21
424.994	628.33
425.37	640.53
425.746	633.53
426.123	642.57
426.499	646.41
426.875	696.58
427.251	686.86
427.627	689.35
428.003	696.8
428.379	692.06
428.756	726.63
429.132	702.45
429.507	725.96
429.883	706.97
430.259	736.58
430.635	740.42
431.011	737.03
431.387	754.43
431.763	752.62
432.138	779.74
432.514	763.69
432.89	786.52
433.265	812.51
433.641	803.02
434.016	810.25
434.392	815.9
434.767	855.9
435.143	864.71
435.518	827.42
435.894	848.66
436.269	864.26
436.644	912.17
437.02	867.87
437.395	897.7
437.77	919.62
438.145	908.55
438.52	946.06
438.895	961.66
439.271	965.05
439.646	981.77
440.021	980.19
440.395	999.85
440.77	981.32
441.145	990.13
441.52	1003.01
441.895	1021.77
442.27	1028.77
442.645	1009.79
443.019	1036.68
443.394	1051.37
443.769	1062.22
444.143	1085.95
444.518	1084.14
444.892	1089.34
445.267	1100.63
445.641	1122.1
446.016	1104.7
446.39	1132.05
446.764	1130.69
447.139	1139.28
447.513	1152.38
447.887	1166.85
448.262	1166.85
448.636	1164.59
449.01	1154.64
449.384	1180.41
449.758	1184.02
450.132	1215.89
450.506	1218.15
450.88	1211.59
451.254	1214.3
451.628	1242.33
452.002	1250.46
452.376	1253.17
452.75	1267.41
453.123	1276.22
453.497	1328.88
453.871	1321.42
454.244	1328.2
454.618	1357.8
454.992	1374.75
455.365	1387.63
455.739	1403.23
456.112	1448.87
456.486	1426.73
456.859	1432.15
457.232	1480.51
457.606	1478.7
457.979	1492.71
458.352	1534.97
458.725	1556.67
459.099	1568.19
459.472	1575.2
459.845	1598.7
460.218	1595.31
460.591	1627.4
460.964	1675.99
461.337	1667.17
461.71	1727.06
462.083	1714.4
462.456	1737.23
462.829	1705.14
463.201	1718.25
463.574	1782.65
463.947	1800.28
464.32	1842.08
464.692	1878.02
465.065	1874.17
465.438	1900.84
465.81	1956.43
466.183	1986.71
466.555	2024.45
466.928	2059.25
467.3	2083.89
467.672	2097.9
468.045	2153.49
468.417	2150.78
468.789	2161.85
469.161	2218.57
469.534	2257.89
469.906	2323.2
470.278	2318
470.65	2350.55
471.022	2448.85
471.394	2505.34
471.766	2519.35
472.138	2547.38
472.51	2637.09
472.882	2670.09
473.253	2688.84
473.625	2749.18
473.997	2797.77
474.369	2839.12
474.74	2880.93
475.112	2939.68
475.484	3037.08
475.855	3114.14
476.227	3126.8
476.598	3231.88
476.97	3282.72
477.341	3376.96
477.713	3475.94
478.084	3511.64
478.455	3564.52
478.827	3647.69
479.198	3767.91
479.569	3790.28
479.94	3910.96
480.311	4021.46
480.682	4130.16
481.053	4229.59
481.424	4337.39
481.795	4385.29
482.166	4501.22
482.537	4524.27
482.908	4731.27
483.279	4764.49
483.65	4946.18
484.021	5019.4
484.391	5150.47
484.762	5246.74
485.133	5307.76
485.503	5404.7
485.874	5559.95
486.244	5660.06
486.615	5753.39
486.985	5945.03
487.356	6060.28
487.726	6057.79
488.097	6331.23
488.467	6355.86
488.837	6573.26
489.207	6635.63
489.578	6777.1
489.948	6890.77
490.318	7030.65
490.688	7085.56
491.058	7269.96
491.428	7355.39
491.798	7509.96
492.168	7653.23
492.538	7739.33
492.908	7849.61
493.278	7982.04
493.648	8024.29
494.017	8203.5
494.387	8251.18
494.757	8387.22
495.126	8542.47
495.496	8556.71
495.866	8634.45
496.235	8798.51
496.605	8839.41
496.974	8970.26
497.344	8996.92
497.713	9121.89
498.082	9207.54
498.452	9313.53
498.821	9389.23
499.19	9491.6
499.559	9497.7
499.928	9648.43
500.298	9714.42
500.667	9758.94
501.036	9747.19
501.405	9937.46
501.774	9986.73
502.143	10099.04
502.512	10172.03
502.88	10188.08
503.249	10211.58
503.618	10293.39
503.987	10358.47
504.356	10422.88
504.724	10432.82
505.093	10462.87
505.462	10524.79
505.83	10583.55
506.199	10617.9
506.567	10818.8
506.936	10818.35
507.304	10911
507.672	10946.25
508.041	10938.12
508.409	11024.67
508.777	11139.47
509.145	11136.08
509.514	11135.17
509.882	11166.58
510.25	11212.91
510.618	11273.7
510.986	11254.04
511.354	11332.91
511.722	11401.38
512.09	11560.7
512.458	11488.16
512.826	11551.89
513.193	11602.73
513.561	11552.79
513.929	11584.88
514.297	11693.12
514.664	11682.5
515.032	11766.12
515.4	11799.56
515.767	11741.03
516.135	11806.12
516.502	11730.41
516.869	11896.74
517.237	11883.85
517.604	11848.83
517.972	11934.47
518.339	11923.63
518.706	11982.61
519.073	11952.33
519.44	12008.37
519.808	12080.23
520.175	12083.4
520.542	12129.05
520.909	12210.63
521.276	12153.68
521.643	12227.35
522.009	12127.46
522.376	12193.9
522.743	12312.77
523.11	12235.48
523.477	12389.38
523.843	12399.32
524.21	12447.68
524.577	12402.26
524.943	12460.79
525.31	12441.58
525.676	12442.94
526.043	12518.64
526.409	12550.05
526.776	12591.18
527.142	12534.46
527.508	12525.42
527.874	12625.53
528.241	12533.33
528.607	12544.63
528.973	12581.01
529.339	12489.26
529.705	12623.04
530.071	12625.08
530.437	12507.57
530.803	12600.67
531.169	12621.01
531.535	12574.68
531.901	12582.37
532.267	12514.12
532.632	12543.05
532.998	12521.13
533.364	12517.74
533.73	12506.21
534.095	12551.41
534.461	12518.41
534.826	12469.15
535.192	12400.9
535.557	12425.08
535.923	12411.75
536.288	12286.33
536.653	12296.72
537.019	12305.76
537.384	12259.21
537.749	12224.41
538.114	12201.81
538.479	12130.85
538.845	12032.32
539.21	11998.65
539.575	12030.52
539.94	12018.31
540.305	12024.19
540.67	11971.54
541.034	11910.29
541.399	11869.84
541.764	11839.34
542.129	11827.36
542.494	11776.51
542.858	11709.85
543.223	11765.89
543.587	11648.15
543.952	11616.74
544.316	11626.01
544.681	11534.03
545.045	11554.15
545.41	11486.12
545.774	11455.39
546.138	11443.64
546.503	11498.33
546.867	11313.93
547.231	11393.25
547.595	11338.33
547.959	11287.71
548.324	11172.23
548.688	11216.98
549.052	11083.42
549.416	11042.52
549.779	11048.4
550.143	11070.09
550.507	10973.82
550.871	10971.11
551.235	10939.25
551.599	10913.03
551.962	10883.65
552.326	10801.17
552.689	10804.33
553.053	10793.94
553.417	10749.65
553.78	10804.56
554.143	10684.11
554.507	10701.96
554.87	10687.05
555.234	10722.08
555.597	10605.7
555.96	10594.85
556.323	10645.92
556.686	10586.04
557.05	10564.57
557.413	10485.02
557.776	10547.84
558.139	10636.2
558.502	10490.9
558.865	10424.01
559.228	10471.69
559.59	10493.38
559.953	10389.88
560.316	10469.88
560.679	10465.81
561.041	10482.08
561.404	10518.01
561.767	10504.23
562.129	10386.04
562.492	10464.46
562.854	10373.39
563.217	10367.06
563.579	10359.83
563.941	10364.8
564.304	10393.95
564.666	10451.8
565.028	10430.33
565.39	10401.86
565.753	10467.62
566.115	10429.66
566.477	10499.48
566.839	10402.31
567.201	10504.91
567.563	10433.27
567.925	10449.54
568.287	10486.83
568.648	10464.68
569.01	10507.17
569.372	10470.33
569.734	10421.75
570.095	10501.97
570.457	10520.5
570.819	10484.34
571.18	10394.63
571.542	10528.64
571.903	10541.06
572.265	10494.74
572.626	10477.11
572.987	10589.88
573.349	10492.48
573.71	10587.17
574.071	10577
574.432	10582.19
574.794	10602.31
575.155	10565.7
575.516	10445.02
575.877	10567.05
576.238	10538.35
576.599	10639.37
576.96	10529.99
577.32	10548.97
577.681	10554.17
578.042	10581.52
578.403	10551.46
578.763	10562.08
579.124	10596.43
579.485	10670.78
579.845	10641.18
580.206	10539.03
580.566	10565.02
580.927	10617.9
581.287	10559.6
581.648	10480.73
582.008	10576.54
582.368	10543.55
582.728	10536.77
583.089	10596.2
583.449	10553.95
583.809	10551.01
584.169	10492.48
584.529	10503.55
584.889	10581.74
585.249	10456.32
585.609	10482.54
585.969	10434.4
586.329	10393.5
586.688	10471.69
587.048	10456.55
587.408	10497.22
587.768	10434.4
588.127	10401.41
588.487	10379.71
588.846	10377.23
589.206	10356.89
589.565	10361.41
589.925	10352.37
590.284	10349.66
590.643	10403.22
591.003	10342.88
591.362	10451.12
591.721	10341.07
592.08	10345.59
592.44	10377.68
592.799	10299.26
593.158	10330.9
593.517	10339.26
593.876	10301.07
594.235	10361.18
594.593	10289.77
594.952	10284.35
595.311	10267.85
595.67	10339.71
596.029	10343.1
596.387	10318.7
596.746	10252.94
597.104	10213.62
597.463	10195.54
597.822	10252.26
598.18	10215.65
598.538	10305.82
598.897	10277.12
599.255	10220.4
599.613	10266.95
599.972	10264.91
600.33	10244.8
600.688	10141.75
601.046	10193.28
601.404	10263.56
601.762	10232.82
602.12	10246.38
602.478	10275.08
602.836	10268.08
603.194	10251.58
603.552	10215.42
603.91	10222.43
604.268	10203.22
604.625	10219.72
604.983	10186.05
605.341	10156.22
605.698	10238.47
606.056	10214.07
606.413	10211.13
606.771	10282.09
607.128	10221.75
607.485	10191.7
607.843	10220.17
608.2	10311.01
608.557	10257.68
608.914	10199.15
609.272	10215.42
609.629	10258.36
609.986	10342.88
610.343	10169.77
610.7	10323.67
611.057	10233.5
611.414	10302.43
611.771	10301.07
612.127	10353.05
612.484	10299.04
612.841	10307.17
613.198	10381.07
613.554	10314.4
613.911	10335.87
614.267	10357.34
614.624	10364.12
614.98	10280.28
615.337	10385.14
615.693	10315.08
616.05	10351.01
616.406	10439.37
616.762	10419.26
617.118	10471.24
617.475	10327.96
617.831	10400.96
618.187	10431.24
618.543	10443.67
618.899	10424.01
619.255	10454.06
619.611	10459.71
619.967	10490.22
620.323	10506.04
620.678	10439.6
621.034	10428.53
621.39	10403.22
621.746	10440.95
622.101	10595.07
622.457	10373.39
622.812	10485.02
623.168	10437.79
623.523	10484.34
623.879	10479.37
624.234	10436.21
624.589	10501.97
624.945	10405.93
625.3	10482.54
625.655	10512.36
626.01	10508.3
626.365	10487.73
626.72	10466.94
627.075	10419.71
627.43	10435.08
627.785	10451.8
628.14	10388.3
628.495	10438.69
628.85	10399.37
629.205	10322.99
629.559	10466.49
629.914	10402.99
630.269	10334.52
630.623	10334.29
630.978	10393.27
631.332	10338.36
631.687	10376.32
632.041	10339.26
632.396	10330.9
632.75	10342.88
633.104	10314.4
633.459	10336.32
633.813	10329.32
634.167	10311.24
634.521	10297.23
634.875	10289.77
635.229	10304.46
635.583	10230.79
635.937	10285.03
636.291	10279.83
636.645	10180.85
636.999	10204.58
637.352	10226.27
637.706	10141.98
638.06	10260.62
638.413	10129.55
638.767	10140.85
639.121	10120.51
639.474	10083.22
639.828	10092.04
640.181	10097.01
640.534	10114.86
640.888	10073.73
641.241	10013.17
641.594	10122.09
641.947	10019.95
642.301	9990.8
642.654	10020.63
643.007	10014.52
643.36	10055.2
643.713	9955.09
644.066	10042.77
644.419	9947.41
644.771	9943.11
645.124	9872.38
645.477	9787.19
645.83	9777.69
646.182	9738.37
646.535	9672.16
646.888	9785.83
647.24	9726.4
647.593	9741.09
647.945	9696.79
648.298	9701.31
648.65	9659.51
649.002	9678.94
649.355	9663.8
649.707	9753.29
650.059	9706.51
650.411	9871.93
650.763	9783.57
651.115	9979.05
651.467	10011.36
651.819	9860.63
652.171	9861.53
652.523	9913.96
652.875	9836.9
653.227	9860.18
653.578	9938.14
653.93	9910.8
654.282	9848.88
654.633	9887.52
654.985	9890.01
655.337	9870.12
655.688	9864.02
656.039	9942.44
656.391	9876.45
656.742	9946.05
657.094	9926.84
657.445	9955.09
657.796	9964.36
658.147	9935.66
658.498	9882.1
658.849	9943.11
659.2	9873.29
659.551	9880.52
659.902	9964.81
660.253	9904.02
660.604	10005.26
660.955	9919.61
661.306	9910.35
661.656	9910.35
662.007	9931.82
662.358	9955.32
662.708	10002.77
663.059	9970.68
663.409	9885.26
663.76	10033.51
664.11	10023.56
664.461	10030.12
664.811	9997.12
665.161	10027.18
665.511	10033.73
665.862	9991.25
666.212	10015.2
666.562	10067.86
666.912	10031.7
667.262	10027.86
667.612	9991.93
667.962	10063.34
668.312	10014.52
668.662	10037.12
669.011	10024.92
669.361	10014.52
669.711	9981.98
670.06	9965.03
670.41	10007.07
670.76	9952.61
671.109	9959.84
671.459	9969.33
671.808	9941.31
672.157	10034.19
672.507	9867.86
672.856	9859.95
673.205	9927.3
673.554	9919.16
673.904	9877.35
674.253	9894.98
674.602	9848.88
674.951	9785.38
675.3	9727.98
675.649	9814.76
675.998	9827.64
676.346	9770.46
676.695	9840.52
677.044	9745.15
677.393	9822.89
677.741	9744.02
678.09	9782.44
678.438	9825.15
678.787	9758.49
679.135	9727.75
679.484	9671.93
679.832	9734.98
680.181	9663.12
680.529	9656.57
680.877	9706.06
681.225	9612.95
681.573	9718.26
681.922	9695.21
682.27	9562.33
682.618	9603.01
682.966	9565.5
683.314	9595.78
683.661	9566.4
684.009	9531.37
684.357	9472.17
684.705	9531.15
685.053	9503.35
685.4	9449.79
685.748	9446.63
686.095	9386.74
686.443	9348.78
686.79	9361.89
687.138	9333.86
687.485	9400.3
687.832	9346.07
688.18	9291.38
688.527	9304.94
688.874	9264.71
689.221	9189.91
689.568	9233.98
689.915	9218.61
690.262	9226.3
690.609	9083.48
690.956	9171.61
691.303	9050.48
691.65	9085.96
691.997	9038.96
692.344	8893.65
692.69	8977.72
693.037	8994.66
693.383	8848.91
693.73	8915.8
694.077	8844.61
694.423	8788.57
694.769	8788.34
695.116	8747.21
695.462	8752.64
695.808	8736.82
696.155	8717.38
696.501	8697.95
696.847	8609.59
697.193	8589.48
697.539	8566.88
697.885	8514.23
698.231	8487.79
698.577	8455.7
698.923	8453.89
699.269	8403.04
699.614	8332.54
699.96	8303.38
700.306	8290.95
700.651	8280.79
700.997	8264.06
701.342	8245.08
701.688	8197.62
702.033	8175.7
702.379	8244.18
702.724	8140.9
703.069	8126.44
703.415	8073.78
703.76	8055.25
704.105	8007.35
704.45	7952.88
704.795	7902.04
705.14	7909.27
705.485	7925.54
705.83	7905.65
706.175	7910.63
706.52	7858.42
706.865	7845.32
707.209	7753.57
707.554	7766
707.899	7803.96
708.243	7752.21
708.588	7693.68
708.932	7650.52
709.277	7589.73
709.621	7590.41
709.966	7563.52
710.31	7584.08
710.654	7549.05
710.998	7483.52
711.342	7549.73
711.687	7525.78
712.031	7457.08
712.375	7471.77
712.719	7499.79
713.063	7460.69
713.407	7463.18
713.75	7362.39
714.094	7365.33
714.438	7381.15
714.782	7299.79
715.125	7323.3
715.469	7354.03
715.812	7307.7
716.156	7229.51
716.499	7290.75
716.843	7238.33
717.186	7277.65
717.53	7279.46
717.873	7295.27
718.216	7247.82
718.559	7186.12
718.902	7162.17
719.246	7184.99
719.589	7164.2
719.932	7109.06
720.275	7154.71
720.617	7133.7
720.96	7132.34
721.303	7099.8
721.646	7154.04
721.989	7069.74
722.331	7136.63
722.674	7108.39
723.016	7116.52
723.359	7114.04
723.701	7067.48
724.044	7013.02
724.386	7028.16
724.729	7086.47
725.071	7060.03
725.413	7017.09
725.755	7063.19
726.097	7007.82
726.439	6954.49
726.782	7015.28
727.124	7041.72
727.465	7033.59
727.807	6963.76
728.149	6971.22
728.491	6977.54
728.833	6976.64
729.175	7024.77
729.516	6920.59
729.858	6906.13
730.199	7004.89
730.541	6977.54
730.882	6981.38
731.224	6958.11
731.565	6972.8
731.906	6957.43
732.248	6966.47
732.589	6909.97
732.93	6912.91
733.271	7026.81
733.612	6934.15
733.953	6987.94
734.294	6975.51
734.635	6955.17
734.976	6993.14
735.317	6981.38
735.658	7004.43
735.999	6961.95
736.339	6954.04
736.68	6960.82
737.021	7037.43
737.361	7000.82
737.702	7030.2
738.042	7021.16
738.383	7010.08
738.723	6982.06
739.063	7057.09
739.404	7098.9
739.744	7111.78
740.084	7080.36
740.424	7110.87
740.764	7061.16
741.104	7140.25
741.444	7124.66
741.784	7125.34
742.124	7103.19
742.464	7147.03
742.804	7170.31
743.143	7192.45
743.483	7200.59
743.823	7239.68
744.162	7282.17
744.502	7290.08
744.841	7259.57
745.181	7387.48
745.52	7338.89
745.86	7381.15
746.199	7424.99
746.538	7469.28
746.877	7490.07
747.216	7582.5
747.556	7621.14
747.895	7689.84
748.234	7669.73
748.573	7781.59
748.911	7795.15
749.25	7845.09
749.589	7969.83
749.928	7977.29
750.267	8025.2
750.605	8083.5
750.944	8133.22
751.283	8180.22
751.621	8338.41
751.96	8402.36
752.298	8476.03
752.636	8572.75
752.975	8691.17
753.313	8731.39
753.651	8903.59
753.989	8884.39
754.327	9072.63
754.666	9142.01
755.004	9353.3
755.342	9447.76
755.679	9632.61
756.017	9652.95
756.355	9778.6
756.693	9916.9
757.031	10129.1
757.368	10231.02
757.706	10355.98
758.044	10446.83
758.381	10633.72
758.719	10844.79
759.056	10943.77
759.394	11087.26
759.731	11231.89
760.068	11386.92
760.405	11556.63
760.743	11637.98
761.08	11856.28
761.417	12042.27
761.754	12254.47
