Data from hue_330_FLMS001491_59.txt Node
Date: Mon Feb 06 15:45:36 GMT 2017
User: dcchb
Spectrometer: FLMS00149
Trigger mode: 0
Integration Time (sec): 2.000000E-2
Scans to average: 10
Electric dark correction enabled: true
Nonlinearity correction enabled: false
Boxcar width: 0
XAxis mode: Wavelengths
Number of Pixels in Spectrum: 2048
>>>>>Begin Spectral Data<<<<<
341.393	-17.01
341.776	-17.01
342.16	-17.01
342.543	-63.78
342.927	-75.76
343.31	-55.65
343.693	-74.63
344.077	-81.18
344.46	-61.75
344.843	-58.81
345.226	-40.06
345.61	-35.31
345.993	-8.87
346.376	-14.07
346.759	15.31
347.142	16.67
347.525	42.2
347.908	65.7
348.291	54.18
348.674	123.33
349.057	112.93
349.44	120.62
349.823	148.41
350.206	169.88
350.588	195.19
350.971	221.18
351.354	224.12
351.737	229.09
352.119	258.02
352.502	262.54
352.884	257.34
353.267	281.07
353.65	292.37
354.032	320.16
354.414	289.88
354.797	307.51
355.179	323.1
355.562	312.93
355.944	312.48
356.326	330.56
356.709	347.05
357.091	342.31
357.473	319.26
357.855	328.07
358.238	350.44
358.62	332.59
359.002	344.79
359.384	329.43
359.766	321.29
360.148	332.59
360.53	333.27
360.912	344.79
361.294	337.34
361.676	348.86
362.057	329.43
362.439	343.44
362.821	326.49
363.203	325.58
363.584	338.24
363.966	343.44
364.348	317.68
364.729	321.97
365.111	334.17
365.493	329.43
365.874	280.61
366.256	311.8
366.637	326.26
367.019	307.05
367.4	322.65
367.781	312.48
368.163	326.26
368.544	299.6
368.925	313.83
369.306	323.1
369.688	298.01
370.069	291.69
370.45	292.82
370.831	319.26
371.212	298.47
371.593	325.58
371.974	315.19
372.355	295.75
372.736	324.23
373.117	321.29
373.498	314.29
373.879	312.7
374.26	313.83
374.641	319.71
375.021	303.21
375.402	316.55
375.783	290.11
376.163	326.49
376.544	325.58
376.925	322.19
377.305	299.14
377.686	309.99
378.066	320.61
378.447	315.42
378.827	328.52
379.208	312.25
379.588	327.17
379.968	313.38
380.349	338.47
380.729	357.9
381.109	354.74
381.489	340.5
381.87	339.37
382.25	347.28
382.63	332.36
383.01	342.08
383.39	330.33
383.77	329.88
384.15	336.88
384.53	335.98
384.91	339.82
385.29	347.5
385.67	350.44
386.049	370.33
386.429	364
386.809	358.35
387.189	345.7
387.568	360.39
387.948	349.31
388.328	363.1
388.707	358.35
389.087	368.75
389.466	381.18
389.846	347.28
390.225	364.23
390.605	365.81
390.984	345.7
391.363	366.04
391.743	371.23
392.122	385.24
392.501	380.27
392.881	396.09
393.26	366.04
393.639	375.75
394.018	379.14
394.397	368.97
394.776	365.36
395.155	379.37
395.534	375.3
395.913	387.28
396.292	361.52
396.671	396.09
397.05	400.16
397.429	393.61
397.808	399.03
398.186	382.98
398.565	404
398.944	373.27
399.323	380.27
399.701	392.7
400.08	404.9
400.458	394.74
400.837	405.58
401.215	415.75
401.594	394.74
401.972	395.87
402.351	423.21
402.729	405.13
403.107	412.14
403.486	414.62
403.864	421.63
404.242	403.32
404.62	398.8
404.999	424.34
405.377	411.91
405.755	431.12
406.133	429.08
406.511	447.39
406.889	442.87
407.267	457.33
407.645	435.19
408.023	455.52
408.401	436.99
408.779	462.3
409.156	472.47
409.534	456.43
409.912	474.51
410.29	474.28
410.667	500.04
411.045	485.81
411.422	485.81
411.8	504.34
412.178	491
412.555	508.18
412.933	503.43
413.31	518.35
413.687	531.91
414.065	535.3
414.442	522.19
414.819	540.72
415.197	547.73
415.574	539.36
415.951	566.26
416.328	581.62
416.705	553.15
417.082	561.28
417.46	576.88
417.837	558.12
418.214	606.03
418.591	603.32
418.967	600.83
419.344	570.78
419.721	596.31
420.098	608.52
420.475	627.95
420.852	635.18
421.228	637.67
421.605	644.22
421.982	650.1
422.358	655.52
422.735	660.04
423.111	633.83
423.488	674.95
423.864	659.36
424.241	672.69
424.617	699.13
424.994	697.55
425.37	706.37
425.746	721.51
426.123	691.9
426.499	712.24
426.875	708.85
427.251	742.3
427.627	749.75
428.003	712.47
428.379	753.37
428.756	728.74
429.132	779.13
429.507	776.19
429.883	780.94
430.259	799.47
430.635	816.42
431.011	792.24
431.387	809.87
431.763	821.16
432.138	837.66
432.514	840.6
432.89	837.66
433.265	859.81
433.641	865.68
434.016	887.38
434.392	880.6
434.767	911.56
435.143	903.42
435.518	917.21
435.894	915.17
436.269	919.24
436.644	955.17
437.02	960.6
437.395	956.53
437.77	946.13
438.145	955.17
438.52	984.32
438.895	970.31
439.271	974.83
439.646	1008.73
440.021	1003.98
440.395	1001.27
440.77	1010.54
441.145	992.69
441.52	1035.4
441.895	1032.91
442.27	1034.94
442.645	1046.7
443.019	1060.93
443.394	1039.24
443.769	1069.29
444.143	1054.83
444.518	1072.46
444.892	1086.02
445.267	1086.69
445.641	1072.68
446.016	1078.79
446.39	1093.25
446.764	1095.28
447.139	1100.25
447.513	1120.14
447.887	1095.51
448.262	1124.21
448.636	1136.41
449.01	1141.16
449.384	1133.47
449.758	1161.27
450.132	1148.16
450.506	1136.86
450.88	1177.31
451.254	1117.65
451.628	1178.9
452.002	1165.56
452.376	1158.11
452.75	1209.18
453.123	1181.38
453.497	1184.77
453.871	1212.79
454.244	1237.43
454.618	1221.38
454.992	1289.85
455.365	1244.43
455.739	1276.52
456.112	1298.21
456.486	1289.85
456.859	1312.45
457.232	1312
457.606	1320.81
457.979	1308.84
458.352	1359.68
458.725	1350.64
459.099	1348.38
459.472	1375.05
459.845	1365.78
460.218	1395.16
460.591	1408.04
460.964	1423.63
461.337	1440.36
461.71	1435.39
462.083	1461.6
462.456	1470.64
462.829	1461.6
463.201	1500.24
463.574	1512.45
463.947	1519.45
464.32	1521.49
464.692	1550.41
465.065	1593.8
465.438	1582.5
465.81	1599.68
466.183	1612.1
466.555	1608.26
466.928	1645.55
467.3	1636.28
467.672	1624.76
468.045	1677.87
468.417	1670.63
468.789	1688.49
469.161	1710.63
469.534	1719.22
469.906	1751.08
470.278	1810.97
470.65	1777.52
471.022	1852.55
471.394	1831.99
471.766	1833.79
472.138	1858.43
472.51	1894.13
472.882	1923.96
473.253	1935.49
473.625	1950.63
473.997	1982.72
474.369	2007.35
474.74	2007.57
475.112	2037.18
475.484	2040.34
475.855	2096.39
476.227	2096.84
476.598	2161.69
476.97	2154.92
477.341	2241.01
477.713	2246.44
478.084	2273.56
478.455	2319.88
478.827	2317.62
479.198	2389.71
479.569	2393.33
479.94	2424.51
480.311	2440.56
480.682	2509.48
481.053	2554.68
481.424	2617.05
481.795	2587.45
482.166	2627.67
482.537	2667.44
482.908	2716.26
483.279	2706.99
483.65	2773.66
484.021	2811.85
484.391	2802.58
484.762	2841.68
485.133	2865.63
485.503	2907.44
485.874	2969.58
486.244	2955.57
486.615	3043.25
486.985	3050.48
487.356	3091.39
487.726	3186.07
488.097	3178.39
488.467	3177.94
488.837	3234.66
489.207	3285.73
489.578	3298.61
489.948	3335.22
490.318	3356.92
490.688	3401.21
491.058	3425.84
491.428	3490.7
491.798	3504.03
492.168	3582.45
492.538	3618.61
492.908	3623.58
493.278	3666.74
493.648	3644.59
494.017	3701.99
494.387	3712.84
494.757	3714.87
495.126	3758.94
495.496	3773.18
495.866	3806.85
496.235	3817.24
496.605	3852.72
496.974	3934.08
497.344	3859.5
497.713	3934.3
498.082	3885.27
498.452	3996.9
498.821	4035.54
499.19	3985.6
499.559	4049.55
499.928	4071.02
500.298	4084.58
500.667	4148.53
501.036	4118.03
501.405	4163.68
501.774	4155.54
502.143	4193.96
502.512	4215.88
502.88	4228.76
503.249	4251.13
503.618	4242.77
503.987	4286.16
504.356	4302.66
504.724	4292.71
505.093	4312.37
505.462	4292.94
505.83	4342.65
506.199	4373.61
506.567	4412.03
506.936	4412.48
507.304	4428.3
507.672	4439.37
508.041	4484.12
508.409	4461.75
508.777	4527.73
509.145	4515.53
509.514	4526.83
509.882	4593.95
510.25	4597.79
510.618	4569.09
510.986	4604.57
511.354	4631.01
511.722	4682.98
512.09	4705.81
512.458	4657.45
512.826	4706.03
513.193	4707.16
513.561	4704.23
513.929	4744.45
514.297	4775.64
514.664	4812.7
515.032	4792.36
515.4	4833.26
515.767	4825.81
516.135	4855.18
516.502	4803.88
516.869	4891.34
517.237	4925.24
517.604	4873.94
517.972	4952.36
518.339	4958.46
518.706	4948.29
519.073	4965.46
519.44	4963.65
519.808	5063.31
520.175	5016.76
520.542	5074.39
520.909	5072.35
521.276	5084.1
521.643	5111.45
522.009	5149.19
522.376	5204.1
522.743	5121.16
523.11	5240.03
523.477	5233.48
523.843	5249.97
524.21	5310.09
524.577	5301.95
524.943	5314.61
525.31	5331.78
525.676	5394.15
526.043	5485.45
526.409	5437.77
526.776	5514.15
527.142	5464.21
527.508	5533.58
527.874	5529.52
528.241	5595.95
528.607	5577.65
528.973	5614.26
529.339	5649.96
529.705	5732.67
530.071	5717.76
530.437	5726.57
530.803	5790.3
531.169	5779.68
531.535	5784.65
531.901	5832.11
532.267	5867.36
532.632	5934.02
532.998	5925.21
533.364	5933.35
533.73	5948.26
534.095	5998.43
534.461	5981.48
534.826	6066.9
535.192	6062.16
535.557	6120.46
535.923	6094.25
536.288	6126.56
536.653	6142.83
537.019	6193.45
537.384	6211.98
537.749	6234.36
538.114	6186.45
538.479	6250.85
538.845	6296.5
539.21	6283.17
539.575	6407.23
539.94	6353.9
540.305	6344.64
540.67	6411.75
541.034	6408.81
541.399	6469.38
541.764	6470.96
542.129	6541.69
542.494	6498.53
542.858	6599.77
543.223	6631.63
543.587	6663.95
543.952	6635.93
544.316	6654.91
544.681	6637.28
545.045	6764.74
545.41	6766.32
545.774	6754.79
546.138	6752.53
546.503	6825.53
546.867	6776.04
547.231	6861.23
547.595	6835.47
547.959	6917.73
548.324	6911.4
548.688	6923.15
549.052	6935.58
549.416	6961.57
549.779	6977.84
550.143	7037.5
550.507	7153.88
550.871	7102.13
551.235	7051.51
551.599	7184.39
551.962	7149.13
552.326	7200.43
552.689	7247.21
553.053	7211.51
553.417	7274.1
553.78	7377.38
554.143	7314.1
554.507	7322.69
554.87	7371.95
555.234	7400.2
555.597	7364.27
555.96	7387.09
556.323	7400.43
556.686	7418.51
557.05	7543.02
557.413	7458.28
557.776	7424.38
558.139	7521.78
558.502	7558.39
558.865	7538.28
559.228	7599.74
559.59	7622.57
559.953	7668.44
560.316	7724.26
560.679	7754.32
561.041	7766.97
561.404	7744.82
561.767	7837.03
562.129	7842
562.492	7895.1
562.854	7935.55
563.217	7850.81
563.579	7931.03
563.941	8030.69
564.304	8026.63
564.666	8012.39
565.028	8047.64
565.39	8062.1
565.753	8096.45
566.115	8094.19
566.477	8169.9
566.839	8199.5
567.201	8272.95
567.563	8180.52
567.925	8274.53
568.287	8294.64
568.648	8327.18
569.01	8350.46
569.372	8396.33
569.734	8382.55
570.095	8495.54
570.457	8511.58
570.819	8539.83
571.18	8581.64
571.542	8663.9
571.903	8638.13
572.265	8666.38
572.626	8749.54
572.987	8735.76
573.349	8803.1
573.71	8887.85
574.071	8919.03
574.432	8990.67
574.794	9025.24
575.155	9054.39
575.516	9093.72
575.877	9169.42
576.238	9294.61
576.599	9408.28
576.96	9418.9
577.32	9487.6
577.681	9521.28
578.042	9663.42
578.403	9693.7
578.763	9740.7
579.124	9847.14
579.485	10026.35
579.845	10112.45
580.206	10157.19
580.566	10302.72
580.927	10431.31
581.287	10503.85
581.648	10634.69
582.008	10829.26
582.368	10953.33
582.728	11089.82
583.089	11257.73
583.449	11378.18
583.809	11565.29
584.169	11743.14
584.529	11835.56
584.889	12191.26
585.249	12247.31
585.609	12391.03
585.969	12654.53
586.329	12786.5
586.688	13035.76
587.048	13281.18
587.408	13377.22
587.768	13711.45
588.127	13927.26
588.487	14093.36
588.846	14418.32
589.206	14641.82
589.565	14940.34
589.925	15202.03
590.284	15425.3
590.643	15675.92
591.003	15968.34
591.362	16263.92
591.721	16541.43
592.08	16822.55
592.44	17110.91
592.799	17441.29
593.158	17666.15
593.517	17889.19
593.876	18257.09
594.235	18494.37
594.593	18820.92
594.952	19159.44
595.311	19364.41
595.67	19634.23
596.029	20110.38
596.387	20354.44
596.746	20711.72
597.104	20900.64
597.463	21179.95
597.822	21509.89
598.18	21798.47
598.538	22069.19
598.897	22423.08
599.255	22544.66
599.613	23117.53
599.972	23269.84
600.33	23567.69
600.688	23823.95
601.046	24166.31
601.404	24543.48
601.762	24771.72
602.12	25180.52
602.478	25338.71
602.836	25637.46
603.194	25745.71
603.552	26077.68
603.91	26303.88
604.268	26682.86
604.625	26849.86
604.983	27169.17
605.341	27316.06
605.698	27781.81
606.056	27992.65
606.413	28142.25
606.771	28545.41
607.128	28845.74
607.485	28803.48
607.843	29064.72
608.2	29458.38
608.557	29784.92
608.914	29781.99
609.272	30163.22
609.629	30460.16
609.986	30615.64
610.343	30738.34
610.7	31123.87
611.057	31325.9
611.414	31509.62
611.771	31743.52
612.127	31991.64
612.484	32071.19
612.841	32445.42
613.198	32483.61
613.554	32632.31
613.911	33061.67
614.267	33194.1
614.624	33309.58
614.98	33515.22
615.337	33864.82
615.693	33816.46
616.05	33929.67
616.406	34141.64
616.762	34150.01
617.118	34331.02
617.475	34545.02
617.831	34800.61
618.187	35030.66
618.543	35065.01
618.899	35418.9
619.255	35535.51
619.611	35513.13
619.967	35702.96
620.323	35827.48
620.678	35819.11
621.034	35988.38
621.39	35979.79
621.746	36123.51
622.101	36590.17
622.457	36281.7
622.812	36547.46
623.168	36756.49
623.523	36848.92
623.879	37003.72
624.234	36770.28
624.589	36997.39
624.945	37263.14
625.3	37402.12
625.655	37404.84
626.01	37437.6
626.365	37527.77
626.72	37395.12
627.075	37575.9
627.43	37702.68
627.785	37691.38
628.14	37735
628.495	37939.28
628.85	37907.42
629.205	37874.2
629.559	38191.26
629.914	37945.84
630.269	38090.24
630.623	38168.88
630.978	38080.75
631.332	38419.72
631.687	38391.48
632.041	38242.78
632.396	38296.56
632.75	38205.04
633.104	38389.44
633.459	38270.35
633.813	38367.3
634.167	38376.79
634.521	38300.18
634.875	38348.77
635.229	38457.69
635.583	38220.63
635.937	38236.68
636.291	38307.41
636.645	38421.98
636.999	38323.91
637.352	38508.54
637.706	38237.58
638.06	38468.99
638.413	38389.22
638.767	38245.94
639.121	38545.37
639.474	38122.1
639.828	38262.67
640.181	38281.65
640.534	38195.78
640.888	38239.62
641.241	38141.77
641.594	38240.75
641.947	38332.04
642.301	38170.69
642.654	38133.18
643.007	38136.79
643.36	38282.33
643.713	38349.67
644.066	38448.88
644.419	38164.59
644.771	37913.52
645.124	37528
645.477	37613.42
645.83	37323.71
646.182	37210.26
646.535	37237.61
646.888	37289.36
647.24	37052.98
647.593	37366.19
647.945	37146.76
648.298	37044.85
648.65	37025.86
649.002	36928.46
649.355	37003.49
649.707	37031.51
650.059	37112.64
650.411	37677.14
650.763	37673.98
651.115	37901.77
651.467	37959.17
651.819	38028.1
652.171	37765.5
652.523	37688.44
652.875	37664.26
653.227	37730.25
653.578	37823.13
653.93	37734.09
654.282	37605.51
654.633	37668.11
654.985	37600.31
655.337	37770.48
655.688	37658.84
656.039	37727.77
656.391	37509.01
656.742	37546.07
657.094	37496.58
657.445	37717.14
657.796	37633.98
658.147	37581.55
658.498	37544.49
658.849	37601.21
659.2	37563.7
659.551	37445.96
659.902	37582.46
660.253	37471.95
660.604	37471.95
660.955	37352.18
661.306	37513.08
661.656	37407.1
662.007	37441.67
662.358	37459.3
662.708	37493.19
663.059	37466.98
663.409	37350.15
663.76	37520.76
664.11	37602.34
664.461	37493.87
664.811	37531.84
665.161	37520.54
665.511	37290.04
665.862	37433.99
666.212	37634.66
666.562	37605.96
666.912	37359.19
667.262	37369.36
667.612	37421.56
667.962	37509.01
668.312	37330.71
668.662	37608.22
669.011	37373.88
669.361	37345.63
669.711	37258.62
670.06	37307.89
670.41	37113.32
670.76	37224.28
671.109	37441.44
671.459	37261.79
671.808	37226.31
672.157	37314.22
672.507	36996.26
672.856	37145.63
673.205	37168.68
673.554	37239.42
673.904	37250.72
674.253	37369.36
674.602	37209.13
674.951	36521.02
675.3	36402.15
675.649	37041
675.998	37098.86
676.346	37127.55
676.695	37011.85
677.044	36845.08
677.393	37083.49
677.741	37010.5
678.09	36838.3
678.438	36794
678.787	36979.54
679.135	36909.03
679.484	36694.35
679.832	36894.11
680.181	36680.79
680.529	36781.12
680.877	36586.55
681.225	36501.13
681.573	36770.73
681.922	36507.46
682.27	36418.42
682.618	36429.95
682.966	36341.13
683.314	36380
683.661	36269.95
684.009	36215.94
684.357	36055.72
684.705	35963.52
685.053	36069.28
685.4	35916.74
685.748	35870.64
686.095	35975.27
686.443	35947.7
686.79	35617.31
687.138	35819.34
687.485	35734.15
687.832	35633.81
688.18	35679.01
688.527	35440.59
688.874	35450.54
689.221	35443.08
689.568	35332.35
689.915	35225.23
690.262	35101.85
690.609	35161.05
690.956	35011.45
691.303	34959.02
691.65	34823.89
691.997	34829.54
692.344	34711.8
692.69	34606.27
693.037	34603.55
693.383	34403.33
693.73	34546.83
694.077	34393.39
694.423	34280.4
694.769	34197.91
695.116	34118.14
695.462	34145.26
695.808	33908.43
696.155	33926.06
696.501	33742.11
696.847	33762.67
697.193	33446.52
697.539	33606.97
697.885	33500.08
698.231	33308.9
698.577	33285.85
698.923	33102.35
699.269	33118.17
699.614	32882.02
699.96	32871.4
700.306	32835.46
700.651	32782.36
700.997	32791.17
701.342	32564.29
701.688	32528.81
702.033	32495.36
702.379	32336.72
702.724	32406.78
703.069	32382.37
703.415	32063.06
703.76	32144.64
704.105	32025.32
704.45	32077.07
704.795	31905.55
705.14	31737.41
705.485	31696.74
705.83	31552.33
706.175	31668.49
706.52	31465.78
706.865	31406.12
707.209	31382.4
707.554	31219.91
707.899	31382.4
708.243	31082.74
708.588	31117.09
708.932	31025.57
709.277	30879.58
709.621	30964.33
709.966	30661.06
710.31	30883.2
710.654	30643.21
710.998	30652.02
711.342	30614.28
711.687	30576.31
712.031	30400.05
712.375	30329.54
712.719	30218.36
713.063	30218.58
713.407	30138.59
713.75	30123.22
714.094	30147.85
714.438	30033.28
714.782	30097.68
715.125	29929.55
715.469	29986.73
715.812	29717.58
716.156	29615.21
716.499	29621.54
716.843	29566.4
717.186	29473.52
717.53	29673.06
717.873	29587.87
718.216	29400.53
718.559	29498.38
718.902	29280.53
719.246	29325.73
719.589	29189.01
719.932	29156.69
720.275	29032.4
720.617	28949.46
720.96	28932.74
721.303	28973.87
721.646	28908.34
721.989	28839.86
722.331	28888
722.674	28863.37
723.016	28726.87
723.359	28776.59
723.701	28668.34
724.044	28542.02
724.386	28323.04
724.729	28631.28
725.071	28536.14
725.413	28357.84
725.755	28492.53
726.097	28210.5
726.439	28189.48
726.782	28061.35
727.124	28256.6
727.465	28015.03
727.807	28082.82
728.149	28042.6
728.491	28022.03
728.833	28090.73
729.175	27875.82
729.516	27923.96
729.858	27859.1
730.199	27725.54
730.541	27704.98
730.882	27787.91
731.224	27840.34
731.565	27587.47
731.906	27621.59
732.248	27609.61
732.589	27511.99
732.93	27344.76
733.271	27347.47
733.612	27512.21
733.953	27469.73
734.294	27251.2
734.635	27187.03
734.976	27258.89
735.317	27121.72
735.658	27122.17
735.999	27127.14
736.339	27041.72
736.68	26987.71
737.021	26915.39
737.361	26849.63
737.702	27008.72
738.042	26922.4
738.383	26784.1
738.723	26919.01
739.063	26728.73
739.404	26862.51
739.744	26735.74
740.084	26567.83
740.424	26615.06
740.764	26602.18
741.104	26579.81
741.444	26420.27
741.784	26474.28
742.124	26432.92
742.464	26354.73
742.804	26367.39
743.143	26381.85
743.483	26413.49
743.823	26140.73
744.162	26182.08
744.502	26238.12
744.841	26104.12
745.181	26158.13
745.52	26037.45
745.86	26046.26
746.199	26003.55
746.538	25875.65
746.877	26069.09
747.216	25888.75
747.556	25921.07
747.895	25914.06
748.234	25762.66
748.573	25690.34
748.911	25889.43
749.25	25759.72
749.589	25554.53
749.928	25510.69
750.267	25622.55
750.605	25512.04
750.944	25416.22
751.283	25287.64
751.621	25537.8
751.96	25310.92
752.298	25281.09
752.636	25206.51
752.975	24993.64
753.313	25044.71
753.651	25047.42
753.989	24976.01
754.327	25025.05
754.666	24862.11
755.004	24853.75
755.342	24926.29
755.679	24870.7
756.017	24616.02
756.355	24739.86
756.693	24592.07
757.031	24626.41
757.368	24472.97
757.706	24445.63
758.044	24347.78
758.381	24312.98
758.719	24166.99
759.056	24288.57
759.394	24193.21
759.731	24103.04
