Data from hue_150_FLMS001491_00044.txt Node
Date: Tue Feb 07 16:54:05 GMT 2017
User: dcchb
Spectrometer: FLMS00149
Trigger mode: 0
Integration Time (sec): 2.000000E-2
Scans to average: 10
Electric dark correction enabled: true
Nonlinearity correction enabled: false
Boxcar width: 0
XAxis mode: Wavelengths
Number of Pixels in Spectrum: 2048
>>>>>Begin Spectral Data<<<<<
341.393	1.47
341.776	1.47
342.16	1.47
342.543	-74.91
342.927	-66.33
343.31	-62.94
343.693	-67.91
344.077	-59.32
344.46	-61.13
344.843	-71.07
345.226	-38.53
345.61	-32.88
345.993	-21.36
346.376	6.67
346.759	3.28
347.142	39.89
347.525	42.15
347.908	49.6
348.291	64.29
348.674	101.13
349.057	108.13
349.44	123.73
349.823	148.81
350.206	146.1
350.588	177.74
350.971	215.93
351.354	222.71
351.737	251.41
352.119	227.9
352.502	254.12
352.884	275.59
353.267	267.45
353.65	294.12
354.032	316.49
354.414	312.65
354.797	316.71
355.179	301.35
355.562	311.07
355.944	325.53
356.326	319.65
356.709	319.43
357.091	353.55
357.473	360.78
357.855	329.6
358.238	327.34
358.62	337.96
359.002	354
359.384	303.83
359.766	315.13
360.148	339.31
360.53	339.99
360.912	314.68
361.294	332.31
361.676	331.4
362.057	332.31
362.439	345.41
362.821	321.23
363.203	332.53
363.584	321.91
363.966	313.78
364.348	302.93
364.729	319.65
365.111	307.45
365.493	316.26
365.874	299.09
366.256	306.55
366.637	296.38
367.019	339.99
367.4	321.23
367.781	323.95
368.163	327.34
368.544	309.26
368.925	296.83
369.306	325.3
369.688	302.03
370.069	310.39
370.45	304.96
370.831	324.4
371.212	303.83
371.593	304.29
371.974	313.1
372.355	309.71
372.736	326.43
373.117	323.04
373.498	301.8
373.879	320.56
374.26	320.56
374.641	299.99
375.021	296.38
375.402	304.29
375.783	312.42
376.163	318.52
376.544	319.88
376.925	306.55
377.305	302.25
377.686	314.68
378.066	323.04
378.447	332.08
378.827	343.38
379.208	327.79
379.588	333.66
379.968	330.5
380.349	320.33
380.729	317.62
381.109	318.07
381.489	335.25
381.87	338.64
382.25	340.67
382.63	329.14
383.01	352.87
383.39	345.87
383.77	352.87
384.15	356.71
384.53	348.8
384.91	338.18
385.29	328.92
385.67	356.94
386.049	360.33
386.429	366.21
386.809	355.13
387.189	355.36
387.568	348.58
387.948	335.02
388.328	352.65
388.707	341.35
389.087	368.46
389.466	353.55
389.846	360.1
390.225	360.78
390.605	347.45
390.984	367.11
391.363	358.97
391.743	361.23
392.122	384.28
392.501	372.98
392.881	383.83
393.26	372.53
393.639	351.29
394.018	370.5
394.397	363.27
394.776	373.89
395.155	373.66
395.534	387.22
395.913	366.88
396.292	383.38
396.671	382.25
397.05	383.61
397.429	390.39
397.808	390.84
398.186	386.09
398.565	382.7
398.944	374.79
399.323	373.89
399.701	373.66
400.08	400.1
400.458	392.19
400.837	397.16
401.215	405.3
401.594	413.89
401.972	393.1
402.351	410.5
402.729	415.02
403.107	393.55
403.486	418.41
403.864	414.79
404.242	419.54
404.62	410.05
404.999	400.78
405.377	449.14
405.755	429.93
406.133	431.51
406.511	424.96
406.889	426.99
407.267	453.89
407.645	439.2
408.023	440.55
408.401	458.63
408.779	430.38
409.156	431.97
409.534	458.41
409.912	462.7
410.29	452.3
410.667	469.25
411.045	454.79
411.422	465.86
411.8	463.38
412.178	444.4
412.555	452.08
412.933	468.35
413.31	472.19
413.687	476.03
414.065	486.2
414.442	472.64
414.819	495.92
415.197	510.38
415.574	499.08
415.951	511.74
416.328	483.04
416.705	492.76
417.082	498.18
417.46	499.76
417.837	521.23
418.214	514.9
418.591	522.81
418.967	523.26
419.344	532.98
419.721	539.53
420.098	549.48
420.475	525.07
420.852	496.37
421.228	558.52
421.605	537.05
421.982	550.38
422.358	543.83
422.735	570.72
423.111	568.46
423.488	560.1
423.864	565.07
424.241	568.01
424.617	594.45
424.994	582.02
425.37	587.89
425.746	608.68
426.123	586.54
426.499	601.45
426.875	590.61
427.251	617.95
427.627	611.85
428.003	623.15
428.379	643.94
428.756	626.09
429.132	622.47
429.507	637.16
429.883	637.84
430.259	632.41
430.635	654.11
431.011	637.84
431.387	681.9
431.763	666.54
432.138	691.17
432.514	698.63
432.89	708.57
433.265	724.16
433.641	704.05
434.016	736.82
434.392	700.89
434.767	726.2
435.143	737.04
435.518	717.83
435.894	750.15
436.269	759.19
436.644	743.6
437.02	770.26
437.395	769.36
437.77	797.15
438.145	780.43
438.52	796.25
438.895	815.91
439.271	810.26
439.646	810.04
440.021	821.79
440.395	809.36
440.77	813.88
441.145	812.52
441.52	836.48
441.895	833.76
442.27	854.78
442.645	860.2
443.019	853.65
443.394	850.26
443.769	861.56
444.143	867.66
444.518	888
444.892	878.06
445.267	874.21
445.641	911.73
446.016	889.58
446.39	906.76
446.764	896.36
447.139	913.54
447.513	928.22
447.887	935.23
448.262	929.13
448.636	926.42
449.01	952.4
449.384	961.9
449.758	955.34
450.132	965.74
450.506	964.16
450.88	972.29
451.254	985.62
451.628	1003.7
452.002	1008.67
452.376	1013.65
452.75	1020.65
453.123	1018.84
453.497	1061.33
453.871	1038.28
454.244	1069.92
454.618	1068.33
454.992	1079.18
455.365	1100.88
455.739	1115.56
456.112	1109.91
456.486	1151.27
456.859	1148.78
457.232	1178.16
457.606	1157.14
457.979	1197.6
458.352	1219.06
458.725	1202.57
459.099	1239.85
459.472	1252.28
459.845	1251.15
460.218	1257.03
460.591	1298.38
460.964	1300.87
461.337	1322.11
461.71	1331.6
462.083	1369.34
462.456	1358.95
462.829	1356.01
463.201	1398.04
463.574	1403.47
463.947	1433.3
464.32	1447.53
464.692	1440.08
465.065	1502.45
465.438	1490.47
465.81	1556.91
466.183	1536.12
466.555	1589.22
466.928	1590.13
467.3	1613.63
467.672	1666.51
468.045	1665.61
468.417	1698.83
468.789	1696.57
469.161	1704.25
469.534	1764.81
469.906	1829.22
470.278	1818.82
470.65	1854.08
471.022	1899.95
471.394	1920.97
471.766	1956.22
472.138	2017.46
472.51	2040.29
472.882	2094.75
473.253	2118.25
473.625	2152.15
473.997	2225.14
474.369	2264.01
474.74	2280.28
475.112	2351.69
475.484	2415.42
475.855	2448.18
476.227	2499.71
476.598	2588.52
476.97	2651.34
477.341	2676.2
477.713	2758.23
478.084	2808.17
478.455	2913.48
478.827	2927.95
479.198	3086.13
479.569	3096.3
479.94	3199.8
480.311	3253.59
480.682	3417.65
481.053	3465.33
481.424	3559.12
481.795	3657.87
482.166	3746.91
482.537	3820.58
482.908	3924.08
483.279	3985.32
483.65	4107.35
484.021	4283.39
484.391	4345.76
484.762	4396.16
485.133	4474.12
485.503	4631.4
485.874	4760.21
486.244	4879.76
486.615	5017.16
486.985	5124.05
487.356	5241.78
487.726	5346.87
488.097	5533.53
488.467	5530.36
488.837	5762.45
489.207	5899.62
489.578	5990.69
489.948	6141.87
490.318	6260.06
490.688	6384.58
491.058	6513.61
491.428	6667.06
491.798	6791.35
492.168	6946.6
492.538	7068.4
492.908	7192.47
493.278	7323.54
493.648	7438.79
494.017	7523.08
494.387	7644.66
494.757	7833.58
495.126	7956.74
495.496	8104.98
495.866	8149.5
496.235	8314.24
496.605	8443.73
496.974	8520.11
497.344	8614.35
497.713	8792.2
498.082	8854.12
498.452	8950.84
498.821	9070.16
499.19	9178.18
499.559	9280.77
499.928	9398.51
500.298	9498.39
500.667	9548.56
501.036	9557.83
501.405	9688.67
501.774	9798.27
502.143	9871.94
502.512	9956.46
502.88	10087.08
503.249	10203.69
503.618	10257.47
503.987	10274.87
504.356	10393.29
504.724	10489.78
505.093	10542.89
505.462	10610.68
505.83	10703.79
506.199	10721.41
506.567	10911.01
506.936	10977.23
507.304	11139.48
507.672	11063.55
508.041	11151.01
508.409	11194.85
508.777	11260.83
509.145	11494.05
509.514	11452.69
509.882	11477.78
510.25	11458.57
510.618	11566.81
510.986	11586.02
511.354	11704.89
511.722	11721.61
512.09	11862.85
512.458	11842.97
512.826	11976.97
513.193	11969.74
513.561	11988.72
513.929	12109.17
514.297	12190.75
514.664	12214.03
515.032	12265.33
515.4	12320.92
515.767	12337.87
516.135	12382.16
516.502	12332.44
516.869	12510.52
517.237	12477.75
517.604	12494.25
517.972	12558.65
518.339	12544.42
518.706	12576.51
519.073	12524.98
519.44	12582.16
519.808	12705.77
520.175	12774.01
520.542	12859.89
520.909	12900.79
521.276	12882.03
521.643	12914.58
522.009	12908.25
522.376	13041.8
522.743	13038.87
523.11	13123.38
523.477	13167
523.843	13196.38
524.21	13268.01
524.577	13331.29
524.943	13286.32
525.31	13352.53
525.676	13458.97
526.043	13421.68
526.409	13425.3
526.776	13432.75
527.142	13489.02
527.508	13471.4
527.874	13533.99
528.241	13533.09
528.607	13589.36
528.973	13610.6
529.339	13596.37
529.705	13625.74
530.071	13765.63
530.437	13600.66
530.803	13726.08
531.169	13753.65
531.535	13680.88
531.901	13713.2
532.267	13705.29
532.632	13713.2
532.998	13661.9
533.364	13650.15
533.73	13637.27
534.095	13706.42
534.461	13647.44
534.826	13594.11
535.192	13668.23
535.557	13714.33
535.923	13687.21
536.288	13641.34
536.653	13590.49
537.019	13561.34
537.384	13562.02
537.749	13564.05
538.114	13497.84
538.479	13484.05
538.845	13518.18
539.21	13465.07
539.575	13363.38
539.94	13362.47
540.305	13363.6
540.67	13233.21
541.034	13279.31
541.399	13275.47
541.764	13242.02
542.129	13277.5
542.494	13259.2
542.858	13258.52
543.223	13175.36
543.587	13138.07
543.952	13146.66
544.316	13041.13
544.681	13125.87
545.045	13061.92
545.41	13134.23
545.774	13023.5
546.138	13012.2
546.503	12978.3
546.867	12877.51
547.231	12961.58
547.595	12930.17
547.959	12840
548.324	12764.07
548.688	12804.97
549.052	12766.11
549.416	12809.04
549.779	12666.45
550.143	12659.44
550.507	12694.24
550.871	12752.32
551.235	12630.52
551.599	12695.15
551.962	12655.15
552.326	12552.78
552.689	12622.38
553.053	12528.6
553.417	12569.05
553.78	12623.06
554.143	12513
554.507	12508.48
554.87	12504.87
555.234	12532.89
555.597	12397.53
555.96	12477.3
556.323	12521.14
556.686	12443.4
557.05	12472.1
557.413	12440.01
557.776	12383.06
558.139	12416.28
558.502	12418.09
558.865	12328.6
559.228	12482.72
559.59	12376.51
559.953	12465.1
560.316	12499.45
560.679	12507.58
561.041	12420.35
561.404	12468.26
561.767	12482.95
562.129	12453.57
562.492	12519.33
562.854	12461.25
563.217	12445.21
563.579	12464.42
563.941	12547.35
564.304	12505.32
564.666	12574.7
565.028	12511.42
565.39	12564.75
565.753	12612.66
566.115	12525.43
566.477	12553.91
566.839	12609.5
567.201	12595.26
567.563	12649.5
567.925	12660.35
568.287	12621.02
568.648	12649.05
569.01	12646.33
569.372	12738.54
569.734	12654.7
570.095	12680.91
570.457	12702.83
570.819	12771.08
571.18	12713
571.542	12783.05
571.903	12823.28
572.265	12831.64
572.626	12813.11
572.987	12689.5
573.349	12811.08
573.71	12829.83
574.071	12839.78
574.432	12844.3
574.794	12863.73
575.155	12832.77
575.516	12830.96
575.877	12894.69
576.238	12890.4
576.599	12952.77
576.96	12917.06
577.32	12899.89
577.681	12908.25
578.042	12977.85
578.403	12938.3
578.763	12956.16
579.124	12901.69
579.485	12941.69
579.845	12910.06
580.206	12965.2
580.566	12924.97
580.927	12901.69
581.287	12996.83
581.648	12951.41
582.008	13014.01
582.368	12967.91
582.728	12965.42
583.089	12961.13
583.449	12929.49
583.809	12949.38
584.169	13023.05
584.529	12941.69
584.889	12911.86
585.249	12908.47
585.609	12823.28
585.969	12971.98
586.329	12872.32
586.688	12916.16
587.048	12919.55
587.408	12846.78
587.768	12894.92
588.127	12761.81
588.487	12867.35
588.846	12908.25
589.206	12814.47
589.565	12826.89
589.925	12916.84
590.284	12853.79
590.643	12861.92
591.003	12874.12
591.362	12819.89
591.721	12834.58
592.08	12845.2
592.44	12864.18
592.799	12853.33
593.158	12835.93
593.517	12754.81
593.876	12814.47
594.235	12787.35
594.593	12764.07
594.952	12786.44
595.311	12691.3
595.67	12706.45
596.029	12791.42
596.387	12782.6
596.746	12826.44
597.104	12770.4
597.463	12661.02
597.822	12752.55
598.18	12684.3
598.538	12626.22
598.897	12763.17
599.255	12688.37
599.613	12809.72
599.972	12715.03
600.33	12738.08
600.688	12733.34
601.046	12782.15
601.404	12690.17
601.762	12800
602.12	12815.14
602.478	12817.4
602.836	12779.21
603.194	12778.99
603.552	12736.05
603.91	12664.86
604.268	12814.01
604.625	12707.12
604.983	12717.07
605.341	12617.86
605.698	12701.7
606.056	12713.9
606.413	12652.66
606.771	12752.32
607.128	12762.04
607.485	12672.1
607.843	12649.27
608.2	12737.18
608.557	12785.54
608.914	12776.27
609.272	12807.23
609.629	12895.14
609.986	12778.76
610.343	12764.07
610.7	12889.94
611.057	12865.54
611.414	12825.76
611.771	12897.63
612.127	12948.47
612.484	12879.55
612.841	12961.58
613.198	12959.09
613.554	12885.42
613.911	12957.29
614.267	12955.48
614.624	12940.56
614.98	12930.39
615.337	13019.21
615.693	12950.51
616.05	12930.17
616.406	12990.28
616.762	12973.56
617.118	12990.73
617.475	12928.13
617.831	13005.42
618.187	13041.13
618.543	13100.79
618.899	13125.87
619.255	13127
619.611	13148.02
619.967	13136.04
620.323	13129.03
620.678	13115.25
621.034	13087.68
621.39	13131.29
621.746	13063.72
622.101	13202.25
622.457	13122.71
622.812	13101.24
623.168	13228.92
623.523	13166.55
623.879	13151.86
624.234	13039.54
624.589	13172.87
624.945	13088.81
625.3	13122.48
625.655	13112.54
626.01	13072.31
626.365	13114.12
626.72	13077.74
627.075	13098.75
627.43	13075.93
627.785	13070.5
628.14	13079.09
628.495	13113.89
628.85	13095.14
629.205	12999.32
629.559	13128.58
629.914	13035.7
630.269	13085.64
630.623	12999.32
630.978	12976.27
631.332	13006.55
631.687	13008.81
632.041	13028.7
632.396	12937.85
632.75	12962.94
633.104	12959.32
633.459	12891.53
633.813	12923.16
634.167	12905.54
634.521	12903.05
634.875	12884.75
635.229	12925.42
635.583	12933.78
635.937	12823.73
636.291	12803.17
636.645	12827.8
636.999	12763.62
637.352	12759.55
637.706	12676.84
638.06	12800.91
638.413	12696.05
638.767	12752.32
639.121	12692.89
639.474	12640.91
639.828	12696.95
640.181	12687.91
640.534	12647.01
640.888	12588.26
641.241	12634.81
641.594	12630.06
641.947	12665.32
642.301	12609.5
642.654	12619.67
643.007	12646.79
643.36	12565.43
643.713	12488.15
644.066	12567.01
644.419	12556.62
644.771	12342.16
645.124	12341.03
645.477	12243.18
645.83	12164.31
646.182	12240.24
646.535	12094.48
646.888	12156.4
647.24	12012.23
647.593	12168.38
647.945	12099.91
648.298	11968.61
648.65	12061.26
649.002	12014.26
649.355	12173.35
649.707	12046.8
650.059	12233.69
650.411	12310.52
650.763	12310.52
651.115	12433.68
651.467	12449.73
651.819	12331.99
652.171	12396.62
652.523	12380.58
652.875	12352.1
653.227	12347.81
653.578	12413.8
653.93	12413.57
654.282	12306.91
654.633	12313.46
654.985	12313.01
655.337	12350.07
655.688	12358.43
656.039	12359.56
656.391	12262.62
656.742	12320.24
657.094	12320.47
657.445	12385.1
657.796	12357.75
658.147	12335.16
658.498	12318.43
658.849	12293.58
659.2	12341.26
659.551	12321.6
659.902	12324.08
660.253	12326.34
660.604	12400.69
660.955	12334.48
661.306	12351.88
661.656	12365.21
662.007	12339.22
662.358	12412.22
662.708	12401.59
663.059	12429.16
663.409	12249.73
663.76	12415.83
664.11	12393.46
664.461	12381.26
664.811	12402.95
665.161	12400.01
665.511	12414.02
665.862	12304.42
666.212	12416.51
666.562	12384.19
666.912	12413.8
667.262	12382.39
667.612	12371.77
667.962	12404.08
668.312	12321.37
668.662	12395.95
669.011	12374.93
669.361	12365.89
669.711	12309.39
670.06	12283.18
670.41	12350.52
670.76	12296.06
671.109	12377.64
671.459	12396.62
671.808	12288.38
672.157	12345.33
672.507	12207.7
672.856	12300.35
673.205	12240.7
673.554	12279.34
673.904	12214.48
674.253	12341.26
674.602	12306
674.951	12173.35
675.3	12016.52
675.649	12246.57
675.998	12228.72
676.346	12219.9
676.695	12281.82
677.044	12148.95
677.393	12235.72
677.741	12228.72
678.09	12204.76
678.438	12172.9
678.787	12120.25
679.135	12175.39
679.484	12075.05
679.832	12065.33
680.181	11993.24
680.529	12083.41
680.877	12000.25
681.225	11918.44
681.573	11971.55
681.922	11890.87
682.27	11880.25
682.618	11884.32
682.966	11866.02
683.314	11909.86
683.661	11765.68
684.009	11711.67
684.357	11718.9
684.705	11696.53
685.053	11649.3
685.4	11762.06
685.748	11651.33
686.095	11630.77
686.443	11633.03
686.79	11581.96
687.138	11555.97
687.485	11583.09
687.832	11527.72
688.18	11569.53
688.527	11538.57
688.874	11403.65
689.221	11433.94
689.568	11336.54
689.915	11294.28
690.262	11280.95
690.609	11323.43
690.956	11219.25
691.303	11286.6
691.65	11168.63
691.997	11187.16
692.344	11175.19
692.69	11020.61
693.037	11137.45
693.383	10951.01
693.73	11058.58
694.077	10984.23
694.423	10973.38
694.769	10889.77
695.116	10804.35
695.462	10903.1
695.808	10806.38
696.155	10802.54
696.501	10757.34
696.847	10700.62
697.193	10611.13
697.539	10670.34
697.885	10564.81
698.231	10478.71
698.577	10566.84
698.923	10506.5
699.269	10445.04
699.614	10406.39
699.96	10348.77
700.306	10305.83
700.651	10278.94
700.997	10229.67
701.342	10214.76
701.688	10129.34
702.033	10157.59
702.379	10149
702.724	10113.07
703.069	10109.68
703.415	9999.85
703.76	9967.08
704.105	9990.36
704.45	9954.88
704.795	9922.11
705.14	9806.86
705.485	9857.93
705.83	9802.12
706.175	9838.72
706.52	9732.06
706.865	9743.59
707.209	9720.76
707.554	9684.6
707.899	9679.63
708.243	9595.57
708.588	9587.21
708.932	9592.18
709.277	9479.41
709.621	9570.03
709.966	9481.45
710.31	9474.44
710.654	9386.31
710.998	9459.53
711.342	9367.78
711.687	9367.32
712.031	9315.12
712.375	9328.23
712.719	9347.89
713.063	9375.23
713.407	9365.74
713.75	9299.76
714.094	9254.11
714.438	9208.46
714.782	9243.94
715.125	9219.98
715.469	9278.97
715.812	9086.65
716.156	9102.7
716.499	9096.37
716.843	9109.25
717.186	9085.75
717.53	9144.96
717.873	9134.56
718.216	9006.88
718.559	9018.63
718.902	8951.06
719.246	9004.4
719.589	8955.36
719.932	8929.6
720.275	8926.66
720.617	8931.63
720.96	8951.97
721.303	8963.95
721.646	8899.99
721.989	8884.17
722.331	8918.75
722.674	8813.89
723.016	8839.88
723.359	8744.06
723.701	8854.12
724.044	8790.16
724.386	8708.36
724.729	8859.54
725.071	8798.07
725.413	8773.44
725.755	8789.03
726.097	8709.94
726.439	8737.74
726.782	8774.57
727.124	8808.69
727.465	8703.16
727.807	8730.05
728.149	8747.45
728.491	8656.16
728.833	8767.34
729.175	8690.28
729.516	8716.04
729.858	8613.45
730.199	8732.54
730.541	8661.81
730.882	8663.84
731.224	8659.55
731.565	8712.43
731.906	8674.46
732.248	8683.95
732.589	8632.2
732.93	8593.56
733.271	8683.05
733.612	8603.05
733.953	8588.14
734.294	8624.74
734.635	8602.37
734.976	8660.22
735.317	8603.73
735.658	8656.61
735.999	8610.28
736.339	8608.25
736.68	8668.36
737.021	8650.73
737.361	8630.39
737.702	8658.42
738.042	8641.02
738.383	8653.9
738.723	8623.16
739.063	8638.3
739.404	8667
739.744	8613.9
740.084	8647.12
740.424	8644.18
740.764	8686.66
741.104	8750.62
741.444	8667.68
741.784	8662.26
742.124	8783.61
742.464	8837.85
742.804	8748.36
743.143	8788.36
743.483	8822.03
743.823	8818.19
744.162	8846.66
744.502	8888.92
744.841	8872.87
745.181	8937.05
745.52	8901.12
745.86	8949.71
746.199	8996.26
746.538	9030.61
746.877	9084.85
747.216	9123.49
747.556	9131.62
747.895	9185.86
748.234	9259.3
748.573	9313.99
748.911	9276.93
749.25	9339.75
749.589	9386.76
749.928	9471.95
750.267	9590.37
750.605	9564.16
750.944	9600.09
751.283	9710.59
751.621	9834.66
751.96	9904.71
752.298	10009.12
752.636	10057.93
752.975	10107.64
753.313	10155.55
753.651	10296.11
753.989	10360.07
754.327	10480.06
754.666	10523.68
755.004	10696.78
755.342	10755.08
755.679	10891.13
756.017	11005.93
756.355	11166.37
756.693	11292.7
757.031	11413.82
757.368	11496.76
757.706	11597.55
758.044	11789.18
758.381	11927.48
758.719	12084.09
759.056	12283.18
759.394	12348.94
