Data from hue_22_FLMS001491_00008.txt Node
Date: Tue Feb 07 17:09:25 GMT 2017
User: dcchb
Spectrometer: FLMS00149
Trigger mode: 0
Integration Time (sec): 2.000000E-2
Scans to average: 10
Electric dark correction enabled: true
Nonlinearity correction enabled: false
Boxcar width: 0
XAxis mode: Wavelengths
Number of Pixels in Spectrum: 2048
>>>>>Begin Spectral Data<<<<<
341.393	-1.41
341.776	-1.41
342.16	-1.41
342.543	-80.05
342.927	-71.69
343.31	-60.39
343.693	-56.55
344.077	-74.4
344.46	-60.62
344.843	-66.5
345.226	-47.29
345.61	-26.72
345.993	-29.89
346.376	9.43
346.759	15.54
347.142	22.77
347.525	16.44
347.908	69.09
348.291	87.17
348.674	94.63
349.057	107.29
349.44	104.35
349.823	147.96
350.206	152.71
350.588	179.6
350.971	203.33
351.354	222.54
351.737	252.59
352.119	239.49
352.502	267.51
352.884	283.1
353.267	266.15
353.65	297.79
354.032	292.37
354.414	300.5
354.797	316.09
355.179	324.68
355.562	319.71
355.944	319.26
356.326	322.87
356.709	320.16
357.091	335.3
357.473	320.16
357.855	346.15
358.238	350.67
358.62	334.62
359.002	336.43
359.384	329.2
359.766	325.13
360.148	328.75
360.53	320.84
360.912	306.6
361.294	325.13
361.676	320.39
362.057	323.1
362.439	334.62
362.821	316.77
363.203	344.12
363.584	335.98
363.966	311.57
364.348	351.12
364.729	321.29
365.111	319.48
365.493	327.84
365.874	306.83
366.256	304.79
366.637	321.29
367.019	318.58
367.4	332.82
367.781	321.07
368.163	330.78
368.544	311.8
368.925	307.96
369.306	312.25
369.688	302.31
370.069	307.28
370.45	293.95
370.831	313.16
371.212	315.87
371.593	305.25
371.974	308.18
372.355	314.29
372.736	312.93
373.117	310.67
373.498	314.74
373.879	308.41
374.26	304.12
374.641	323.78
375.021	297.11
375.402	314.51
375.783	325.81
376.163	330.1
376.544	322.65
376.925	325.13
377.305	329.88
377.686	318.58
378.066	341.18
378.447	339.6
378.827	326.04
379.208	333.95
379.588	312.7
379.968	314.06
380.349	346.6
380.729	345.47
381.109	333.04
381.489	356.32
381.87	352.93
382.25	335.75
382.63	355.87
383.01	329.88
383.39	346.15
383.77	345.7
384.15	336.88
384.53	339.82
384.91	349.76
385.29	337.34
385.67	335.98
386.049	354.28
386.429	343.21
386.809	358.13
387.189	361.74
387.568	349.76
387.948	335.98
388.328	355.87
388.707	352.48
389.087	346.83
389.466	361.52
389.846	362.19
390.225	343.21
390.605	355.64
390.984	373.72
391.363	354.74
391.743	330.33
392.122	348.18
392.501	370.33
392.881	385.92
393.26	385.47
393.639	380.95
394.018	369.88
394.397	385.02
394.776	368.3
395.155	375.07
395.534	378.92
395.913	357.67
396.292	362.42
396.671	387.73
397.05	381.85
397.429	369.65
397.808	379.37
398.186	392.93
398.565	400.38
398.944	388.18
399.323	370.33
399.701	386.15
400.08	386.37
400.458	394.28
400.837	392.48
401.215	408.07
401.594	401.51
401.972	399.71
402.351	405.13
402.729	392.7
403.107	368.75
403.486	388.41
403.864	414.62
404.242	379.82
404.62	404.9
404.999	393.38
405.377	426.82
405.755	413.04
406.133	418.69
406.511	423.21
406.889	420.72
407.267	397.9
407.645	429.76
408.023	428.63
408.401	437.9
408.779	433.83
409.156	425.24
409.534	428.41
409.912	427.95
410.29	424.34
410.667	431.8
411.045	432.25
411.422	449.42
411.8	441.51
412.178	454.85
412.555	458.91
412.933	438.58
413.31	474.51
413.687	474.96
414.065	448.75
414.442	465.02
414.819	473.6
415.197	454.62
415.574	466.82
415.951	474.73
416.328	458.91
416.705	493.26
417.082	484.45
417.46	470.21
417.837	478.12
418.214	487.16
418.591	489.87
418.967	500.95
419.344	493.72
419.721	516.31
420.098	493.72
420.475	521.06
420.852	498.01
421.228	505.47
421.605	509.53
421.982	540.72
422.358	519.03
422.735	516.99
423.111	529.2
423.488	521.51
423.864	523.77
424.241	532.58
424.617	544.79
424.994	553.83
425.37	522.64
425.746	553.6
426.123	543.43
426.499	548.18
426.875	547.95
427.251	549.76
427.627	551.57
428.003	547.95
428.379	566.26
428.756	592.24
429.132	580.49
429.507	569.42
429.883	566.03
430.259	567.39
430.635	582.08
431.011	595.86
431.387	613.94
431.763	604.9
432.138	584.79
432.514	594.5
432.89	624.79
433.265	631.11
433.641	621.4
434.016	621.17
434.392	639.47
434.767	627.5
435.143	661.85
435.518	659.36
435.894	665.91
436.269	680.6
436.644	693.48
437.02	684.67
437.395	642.19
437.77	691
438.145	695.52
438.52	691.9
438.895	697.33
439.271	705.01
439.646	712.24
440.021	707.95
440.395	702.98
440.77	709.98
441.145	702.75
441.52	739.59
441.895	702.52
442.27	714.95
442.645	742.3
443.019	735.07
443.394	732.58
443.769	748.4
444.143	749.75
444.518	727.83
444.892	759.92
445.267	769.41
445.641	770.54
446.016	748.17
446.39	777.78
446.764	765.57
447.139	775.06
447.513	767.83
447.887	785.91
448.262	789.3
448.636	784.33
449.01	773.26
449.384	827.72
449.758	811.67
450.132	811
450.506	822.52
450.88	835.18
451.254	841.5
451.628	829.3
452.002	833.59
452.376	853.48
452.75	843.54
453.123	851.67
453.497	833.14
453.871	874.72
454.244	871.78
454.618	867.49
454.992	864.55
455.365	896.42
455.739	904.33
456.112	918.79
456.486	919.02
456.859	926.7
457.232	945
457.606	944.1
457.979	954.27
458.352	975.51
458.725	966.02
459.099	997.88
459.472	1015.74
459.845	1009.63
460.218	1011.67
460.591	1041.05
460.964	1045.57
461.337	1035.85
461.71	1048.96
462.083	1066.58
462.456	1056.86
462.829	1058.9
463.201	1081.27
463.574	1094.83
463.947	1102.97
464.32	1115.39
464.692	1123.08
465.065	1137.31
465.438	1164.66
465.81	1144.09
466.183	1149.29
466.555	1190.19
466.928	1201.49
467.3	1217.76
467.672	1242.85
468.045	1237.2
468.417	1236.75
468.789	1259.12
469.161	1270.64
469.534	1304.54
469.906	1287.82
470.278	1329.4
470.65	1338.44
471.022	1365.33
471.394	1377.76
471.766	1411.88
472.138	1411.21
472.51	1452.79
472.882	1463.63
473.253	1480.58
473.625	1499.57
473.997	1511.54
474.369	1538.66
474.74	1563.07
475.112	1567.36
475.484	1561.71
475.855	1637.19
476.227	1655.95
476.598	1697.53
476.97	1702.5
477.341	1782.95
477.713	1766.68
478.084	1797.64
478.455	1841.7
478.827	1861.14
479.198	1947.24
479.569	1901.36
479.94	1974.35
480.311	1981.59
480.682	2015.26
481.053	2070.62
481.424	2106.78
481.795	2137.97
482.166	2159.43
482.537	2217.96
482.908	2266.78
483.279	2264.06
483.65	2328.47
484.021	2370.5
484.391	2394
484.762	2419.09
485.133	2464.29
485.503	2493.89
485.874	2599.2
486.244	2579.08
486.615	2650.27
486.985	2641.68
487.356	2701.34
487.726	2757.84
488.097	2817.72
488.467	2818.4
488.837	2879.42
489.207	2916.03
489.578	2953.09
489.948	2999.86
490.318	3045.51
490.688	3074.21
491.058	3138.84
491.428	3161.67
491.798	3182.46
492.168	3264.26
492.538	3304.94
492.908	3339.29
493.278	3377.71
493.648	3368.89
494.017	3439.18
494.387	3504.48
494.757	3541.09
495.126	3535.22
495.496	3598.72
495.866	3618.38
496.235	3663.8
496.605	3702.45
496.974	3685.72
497.344	3737.47
497.713	3782.89
498.082	3791.26
498.452	3845.94
498.821	3873.74
499.19	3868.54
499.559	3937.92
499.928	3953.96
500.298	3986.51
500.667	4040.52
501.036	3997.13
501.405	4078.48
501.774	4098.14
502.143	4123.22
502.512	4133.39
502.88	4183.34
503.249	4216.56
503.618	4223.79
503.987	4253.39
504.356	4261.75
504.724	4280.28
505.093	4299.04
505.462	4305.37
505.83	4332.48
506.199	4419.94
506.567	4406.16
506.936	4411.58
507.304	4492.03
507.672	4515.31
508.041	4554.63
508.409	4564.8
508.777	4577.45
509.145	4612.48
509.514	4624.23
509.882	4669.43
510.25	4648.41
510.618	4659.93
510.986	4676.2
511.354	4704.68
511.722	4709.42
512.09	4790.33
512.458	4745.13
512.826	4854.05
513.193	4861.28
513.561	4826.26
513.929	4895.41
514.297	4936.54
514.664	4981.06
515.032	4963.88
515.4	4977.21
515.767	4998.46
516.135	5047.27
516.502	4994.61
516.869	5086.14
517.237	5101.28
517.604	5076.19
517.972	5145.34
518.339	5153.03
518.706	5160.49
519.073	5206.13
519.44	5230.31
519.808	5255.62
520.175	5283.65
520.542	5308.96
520.909	5318.67
521.276	5287.49
521.643	5367.26
522.009	5381.27
522.376	5414.26
522.743	5412
523.11	5463.08
523.477	5550.98
523.843	5590.53
524.21	5616.74
524.577	5664.2
524.943	5665.33
525.31	5637.08
525.676	5747.36
526.043	5767.02
526.409	5776.29
526.776	5804.76
527.142	5849.06
527.508	5831.2
527.874	5892.9
528.241	5897.87
528.607	5936.51
528.973	6017.19
529.339	5980.58
529.705	6071.65
530.071	6134.7
530.437	6056.51
530.803	6115.49
531.169	6154.81
531.535	6190.74
531.901	6164.3
532.267	6227.58
532.632	6202.94
532.998	6268.48
533.364	6317.97
533.73	6340.12
534.095	6419.66
534.461	6403.39
534.826	6450.4
535.192	6487.23
535.557	6546.89
535.923	6506.44
536.288	6564.29
536.653	6537.17
537.019	6559.77
537.384	6585.53
537.749	6616.72
538.114	6625.31
538.479	6700.33
538.845	6742.82
539.21	6709.6
539.575	6719.77
539.94	6820.56
540.305	6737.85
540.67	6798.86
541.034	6866.88
541.399	6888.35
541.764	6913.43
542.129	6929.7
542.494	6943.94
542.858	6990.95
543.223	6988.46
543.587	7046.76
543.952	7077.72
544.316	7096.93
544.681	7096.93
545.045	7071.85
545.41	7144.61
545.774	7226.42
546.138	7225.06
546.503	7266.19
546.867	7207.89
547.231	7310.26
547.595	7322.24
547.959	7361.11
548.324	7336.93
548.688	7394.55
549.052	7419.64
549.416	7418.51
549.779	7474.32
550.143	7545.96
550.507	7513.42
550.871	7543.93
551.235	7586.64
551.599	7661.89
551.962	7670.7
552.326	7658.05
552.689	7755.22
553.053	7724.03
553.417	7752.73
553.78	7838.16
554.143	7809.46
554.507	7871.37
554.87	7776.01
555.234	7894.2
555.597	7811.72
555.96	7894.43
556.323	7979.85
556.686	7987.53
557.05	7960.64
557.413	8039.73
557.776	8071.82
558.139	8042.44
558.502	8126.74
558.865	8076.57
559.228	8190.46
559.59	8171.25
559.953	8179.84
560.316	8304.36
560.679	8262.55
561.041	8367.18
561.404	8359.27
561.767	8378.71
562.129	8392.94
562.492	8488.99
562.854	8444.69
563.217	8457.35
563.579	8530.79
563.941	8579.15
564.304	8559.49
564.666	8666.83
565.028	8632.71
565.39	8658.92
565.753	8684.69
566.115	8732.37
566.477	8748.87
566.839	8833.38
567.201	8895.3
567.563	8888.52
567.925	8924.68
568.287	9040.61
568.648	8964.23
569.01	9065.24
569.372	9111.79
569.734	9127.84
570.095	9164.45
570.457	9159.93
570.819	9272.02
571.18	9264.56
571.542	9293.48
571.903	9357.21
572.265	9358.34
572.626	9411.67
572.987	9526.25
573.349	9517.89
573.71	9576.87
574.071	9619.35
574.432	9647.15
574.794	9717.65
575.155	9805.56
575.516	9748.39
575.877	9855.05
576.238	9966.01
576.599	10013.92
576.96	10003.75
577.32	10129.62
577.681	10210.3
578.042	10331.65
578.403	10309.05
578.763	10429.95
579.124	10495.71
579.485	10646.67
579.845	10738.87
580.206	10841.47
580.566	10869.49
580.927	11004.85
581.287	11140.89
581.648	11138.86
582.008	11402.13
582.368	11473.09
582.728	11580.88
583.089	11811.16
583.449	11919.18
583.809	12095.9
584.169	12244.59
584.529	12349.68
584.889	12594.41
585.249	12660.85
585.609	12822.43
585.969	13219.71
586.329	13285.92
586.688	13470.32
587.048	13686.36
587.408	13845.46
587.768	14131.32
588.127	14286.57
588.487	14550.07
588.846	14855.37
589.206	15000
589.565	15215.81
589.925	15567.44
590.284	15783.94
590.643	16096.24
591.003	16319.06
591.362	16612.84
591.721	16849.9
592.08	17129.89
592.44	17431.12
592.799	17687.61
593.158	18055.51
593.517	18389.06
593.876	18656.85
594.235	18851.88
594.593	19283.28
594.952	19577.51
595.311	19855.24
595.67	20058.85
596.029	20586.07
596.387	20802.56
596.746	21171.82
597.104	21421.98
597.463	21725.02
597.822	22163.65
598.18	22420.82
598.538	22831.43
598.897	23155.04
599.255	23347.13
599.613	23944.85
599.972	24056.71
600.33	24476.81
600.688	24560.88
601.046	25000.42
601.404	25386.17
601.762	25653.73
602.12	26062.54
602.478	26346.6
602.836	26708.85
603.194	26716.53
603.552	27216.4
603.91	27467.47
604.268	27770.06
604.625	28013.9
604.983	28374.11
605.341	28545.63
605.698	28937.26
606.056	29302.22
606.413	29591.03
606.771	29893.17
607.128	30038.25
607.485	30218.58
607.843	30500.38
608.2	31003.2
608.557	31194.6
608.914	31342.4
609.272	31691.77
609.629	31909.61
609.986	32299.66
610.343	32350.73
610.7	32799.76
611.057	32947.78
611.414	33120.65
611.771	33506.18
612.127	33762.22
612.484	33891.26
612.841	34230
613.198	34288.31
613.554	34453.73
613.911	34855.3
614.267	35024.11
614.624	34973.04
614.98	35446.47
615.337	35717.65
615.693	35668.84
616.05	35900.92
616.406	36214.36
616.762	36347.01
617.118	36436.73
617.475	36654.8
617.831	36861.8
618.187	36970.72
618.543	37323.48
618.899	37497.26
619.255	37616.36
619.611	37683.02
619.967	37948.32
620.323	38060.86
620.678	38223.8
621.034	38126.85
621.39	38339.05
621.746	38277.13
622.101	38801.64
622.457	38625.37
622.812	38918.69
623.168	39032.82
623.523	39261.06
623.879	39448.17
624.234	39162.3
624.589	39543.08
624.945	39559.81
625.3	39577.89
625.655	39681.61
626.01	39744.66
626.365	39928.61
626.72	39863.75
627.075	39931.77
627.43	39933.13
627.785	40005.22
628.14	40190.3
628.495	40299.22
628.85	40288.15
629.205	40234.59
629.559	40578.31
629.914	40531.76
630.269	40567.24
630.623	40382.38
630.978	40483.17
631.332	40897.17
631.687	40835.71
632.041	40621.02
632.396	40688.59
632.75	40713
633.104	40839.77
633.459	40752.09
633.813	40704.86
634.167	40803.84
634.521	40772.66
634.875	40911.41
635.229	40809.27
635.583	40703.96
635.937	40788.02
636.291	40860.79
636.645	40761.36
636.999	40840
637.352	40776.5
637.706	40733.34
638.06	40935.82
638.413	40842.03
638.767	40705.99
639.121	40755.48
639.474	40601.36
639.828	40749.61
640.181	40759.78
640.534	40826.67
640.888	40670.96
641.241	40554.13
641.594	40741.92
641.947	40864.18
642.301	40661.7
642.654	40754.13
643.007	40724.75
643.36	40761.36
643.713	40640.68
644.066	40846.33
644.419	40623.96
644.771	40331.54
645.124	40050.64
645.477	40062.17
645.83	39828.05
646.182	39685.68
646.535	39696.75
646.888	39723.64
647.24	39371.34
647.593	39657.88
647.945	39580.6
648.298	39403.88
648.65	39399.13
649.002	39310.55
649.355	39396.2
649.707	39491.56
650.059	39641.39
650.411	40089.28
650.763	39944.43
651.115	40550.97
651.467	40309.39
651.819	40433.23
652.171	40233.46
652.523	40326.11
652.875	40299.67
653.227	40186.46
653.578	40408.82
653.93	40314.59
654.282	40097.65
654.633	40075.27
654.985	40098.55
655.337	40163.41
655.688	40184.88
656.039	40349.62
656.391	40026.24
656.742	40031.66
657.094	40111.43
657.445	40297.42
657.796	40074.37
658.147	40054.26
658.498	39994.37
658.849	40081.38
659.2	40070.3
659.551	39885.22
659.902	40059.68
660.253	40120.47
660.604	40126.57
660.955	39819.46
661.306	40128.61
661.656	39988.5
662.007	39904.66
662.358	39886.8
662.708	39972.68
663.059	39826.47
663.409	39768.62
663.76	40035.28
664.11	39993.24
664.461	40035.05
664.811	39946.01
665.161	40030.08
665.511	39804.32
665.862	39908.27
666.212	39945.33
666.562	39925.9
666.912	39857.65
667.262	39835.96
667.612	39950.53
667.962	39886.35
668.312	39885.9
668.662	40043.41
669.011	39819.91
669.361	39679.58
669.711	39788.05
670.06	39814.94
670.41	39636.87
670.76	39598.9
671.109	39909.18
671.459	39568.85
671.808	39621.95
672.157	39700.37
672.507	39547.15
672.856	39470.77
673.205	39569.75
673.554	39745.57
673.904	39543.99
674.253	39775.17
674.602	39607.94
674.951	39121.63
675.3	38833.05
675.649	39542.63
675.998	39426.48
676.346	39398
676.695	39604.33
677.044	39308.06
677.393	39434.39
677.741	39406.36
678.09	39438.23
678.438	39215.41
678.787	39182.87
679.135	39410.21
679.484	39125.24
679.832	39316.88
680.181	39061.06
680.529	39121.4
680.877	39053.83
681.225	38967.96
681.573	39254.05
681.922	38902.65
682.27	38935.19
682.618	38912.14
682.966	38864.68
683.314	38876.44
683.661	38764.8
684.009	38666.05
684.357	38545.14
684.705	38361.42
685.053	38503.11
685.4	38387.63
685.748	38311.25
686.095	38262.21
686.443	38065.61
686.79	38070.81
687.138	38140.18
687.485	38149.67
687.832	38111.26
688.18	37988.78
688.527	37862.45
688.874	37814.99
689.221	37663.36
689.568	37593.31
689.915	37543.14
690.262	37504.27
690.609	37541.1
690.956	37297.04
691.303	37316.02
691.65	37219.08
691.997	37178.17
692.344	36878.75
692.69	36902.7
693.037	36932.98
693.383	36562.6
693.73	36700.9
694.077	36498.64
694.423	36492.09
694.769	36477.18
695.116	36309.05
695.462	36356.28
695.808	36197.86
696.155	36211.19
696.501	35976.17
696.847	36020.24
697.193	35741.15
697.539	35970.3
697.885	35571.89
698.231	35637.2
698.577	35692.79
698.923	35460.03
699.269	35333.93
699.614	35198.11
699.96	35019.81
700.306	34986.14
700.651	34967.39
700.997	34725.13
701.342	34695.75
701.688	34686.94
702.033	34609.2
702.379	34561.29
702.724	34434.97
703.069	34587.28
703.415	34086.73
703.76	34136.22
704.105	34124.7
704.45	34057.35
704.795	33945.72
705.14	33820.52
705.485	33899.17
705.83	33803.8
706.175	33744.14
706.52	33658.49
706.865	33544.82
707.209	33602
707.554	33487.42
707.899	33479.52
708.243	33432.51
708.588	33198.17
708.932	33004.05
709.277	32965.63
709.621	32994.1
709.966	32812.87
710.31	32914.56
710.654	32641.57
710.998	32657.16
711.342	32695.13
711.687	32587.34
712.031	32465.08
712.375	32415.59
712.719	32414.01
713.063	32331.75
713.407	32372.88
713.75	32275.71
714.094	32184.18
714.438	32054.69
714.782	32021.02
715.125	31937.86
715.469	31946.45
715.812	31740.58
716.156	31737.87
716.499	31608.6
716.843	31671.43
717.186	31548.27
717.53	31628.04
717.873	31684.53
718.216	31554.82
718.559	31433.92
718.902	31217.43
719.246	31244.77
719.589	31197.77
719.932	31132.91
720.275	31143.31
720.617	31082.97
720.96	30938.11
721.303	30981.28
721.646	30868.06
721.989	30753.94
722.331	30766.82
722.674	30658.57
723.016	30757.78
723.359	30705.35
723.701	30794.39
724.044	30422.42
724.386	30328.64
724.729	30488.86
725.071	30409.54
725.413	30273.05
725.755	30368.64
726.097	30102.43
726.439	30052.71
726.782	30095.42
727.124	30181.97
727.465	30068.31
727.807	30031.92
728.149	29910.57
728.491	29831.93
728.833	29899.04
729.175	29971.81
729.516	29742.66
729.858	29737.69
730.199	29817.24
730.541	29685.26
730.882	29627.64
731.224	29743.12
731.565	29573.4
731.906	29496.34
732.248	29511.48
732.589	29308.78
732.93	29244.82
733.271	29353.3
733.612	29258.16
733.953	29391.94
734.294	29169.12
734.635	29237.59
734.976	29149.23
735.317	28985.17
735.658	29062
735.999	29018.84
736.339	28909.47
736.68	29101.33
737.021	28935.45
737.361	28764.84
737.702	28919.41
738.042	28789.69
738.383	28804.38
738.723	28856.59
739.063	28636.25
739.404	28782.24
739.744	28582.02
740.084	28500.66
740.424	28551.74
740.764	28496.82
741.104	28560.1
741.444	28425.18
741.784	28200.56
742.124	28335.7
742.464	28327.79
742.804	28147
743.143	28323.94
743.483	28163.95
743.823	28109.71
744.162	28038.08
744.502	28084.4
744.841	27874.01
745.181	28069.04
745.52	27940.23
745.86	28062.26
746.199	28037.62
746.538	27771.19
746.877	27866.78
747.216	27817.74
747.556	27906.55
747.895	27719.44
748.234	27606.22
748.573	27657.75
748.911	27629.95
749.25	27674.47
749.589	27490.52
749.928	27605.77
750.267	27602.16
750.605	27461.37
750.944	27439.45
751.283	27233.8
751.621	27399.22
751.96	27253.46
752.298	27124.88
752.636	27187.7
752.975	27010.76
753.313	26939.12
753.651	27139.79
753.989	27005.34
754.327	26869.97
754.666	26729.86
755.004	26804.89
755.342	26715.63
755.679	26657.77
756.017	26497.55
756.355	26667.26
756.693	26490.09
757.031	26716.53
757.368	26268.86
757.706	26369.87
758.044	26288.29
758.381	26410.1
758.719	26243.32
759.056	26255.75
759.394	26060.05
759.731	25944.57
760.068	25873.61
760.405	25830.68
760.743	25835.2
