Data from hue_240_FLMS001491_00026.txt Node
Date: Tue Feb 07 16:35:15 GMT 2017
User: dcchb
Spectrometer: FLMS00149
Trigger mode: 0
Integration Time (sec): 2.000000E-2
Scans to average: 10
Electric dark correction enabled: true
Nonlinearity correction enabled: false
Boxcar width: 0
XAxis mode: Wavelengths
Number of Pixels in Spectrum: 2048
>>>>>Begin Spectral Data<<<<<
341.393	-21.12
341.776	-21.12
342.16	-21.12
342.543	-43.04
342.927	-54.79
343.31	-58.63
343.693	-54.56
344.077	-68.57
344.46	-64.28
344.843	-47.33
345.226	-22.02
345.61	-19.76
345.993	-20.89
346.376	-24.73
346.759	6
347.142	27.02
347.525	20.01
347.908	61.59
348.291	59.11
348.674	97.07
349.057	109.95
349.44	138.88
349.823	133.91
350.206	154.47
350.588	178.2
350.971	190.86
351.354	204.42
351.737	236.96
352.119	241.02
352.502	262.72
352.884	272.66
353.267	268.82
353.65	291.42
354.032	304.75
354.414	287.58
354.797	294.58
355.179	304.98
355.562	307.24
355.944	322.15
356.326	332.55
356.709	323.06
357.091	334.58
357.473	338.42
357.855	336.39
358.238	344.07
358.62	329.16
359.002	320.34
359.384	353.79
359.766	349.5
360.148	320.34
360.53	337.07
360.912	331.19
361.294	323.96
361.676	333.68
362.057	317.41
362.439	324.86
362.821	341.36
363.203	303.17
363.584	307.46
363.966	333.68
364.348	306.33
364.729	335.26
365.111	310.85
365.493	285.32
365.874	313.57
366.256	320.12
366.637	306.79
367.019	288.93
367.4	296.16
367.781	288.48
368.163	296.84
368.544	324.86
368.925	320.8
369.306	330.06
369.688	315.83
370.069	314.7
370.45	296.62
370.831	286.9
371.212	297.29
371.593	314.7
371.974	318.76
372.355	321.7
372.736	323.96
373.117	315.15
373.498	317.41
373.879	308.37
374.26	305.88
374.641	307.92
375.021	319.67
375.402	309.27
375.783	319.89
376.163	322.38
376.544	344.52
376.925	315.6
377.305	305.2
377.686	334.58
378.066	296.84
378.447	313.34
378.827	330.29
379.208	319.89
379.588	346.33
379.968	328.03
380.349	333.23
380.729	336.62
381.109	338.2
381.489	314.47
381.87	341.36
382.25	331.87
382.63	347.24
383.01	349.27
383.39	336.16
383.77	314.7
384.15	343.62
384.53	333.9
384.91	351.08
385.29	335.03
385.67	348.82
386.049	356.05
386.429	359.89
386.809	349.72
387.189	358.54
387.568	337.07
387.948	346.11
388.328	365.54
388.707	373
389.087	365.77
389.466	348.14
389.846	335.94
390.225	348.14
390.605	347.46
390.984	358.54
391.363	375.26
391.743	355.82
392.122	384.07
392.501	374.81
392.881	360.12
393.26	383.39
393.639	372.77
394.018	380.91
394.397	375.94
394.776	384.98
395.155	394.47
395.534	403.73
395.913	385.2
396.292	406.22
396.671	392.89
397.05	398.31
397.429	406.44
397.808	382.04
398.186	398.53
398.565	397.63
398.944	405.09
399.323	406.67
399.701	413
400.08	416.84
400.458	401.47
400.837	415.26
401.215	409.16
401.594	402.38
401.972	413.68
402.351	411.19
402.729	410.06
403.107	411.19
403.486	435.14
403.864	435.82
404.242	420.91
404.62	442.83
404.999	430.62
405.377	439.66
405.755	457.97
406.133	457.74
406.511	447.57
406.889	444.86
407.267	465.88
407.645	462.26
408.023	467.23
408.401	477.18
408.779	487.35
409.156	480.34
409.534	497.52
409.912	502.49
410.29	508.14
410.667	506.33
411.045	511.53
411.422	509.94
411.8	510.62
412.178	532.32
412.555	528.47
412.933	526.89
413.31	543.39
413.687	565.99
414.065	571.41
414.442	568.02
414.819	564.18
415.197	566.21
415.574	564.86
415.951	574.12
416.328	579.55
416.705	599.66
417.082	604.86
417.46	616.83
417.837	640.79
418.214	625.65
418.591	623.39
418.967	634.23
419.344	673.33
419.721	660.67
420.098	648.25
420.475	664.74
420.852	670.17
421.228	690.5
421.605	697.06
421.982	688.7
422.358	688.02
422.735	720.56
423.111	711.29
423.488	729.15
423.864	747.9
424.241	750.16
424.617	742.71
424.994	751.07
425.37	762.82
425.746	793.33
426.123	795.81
426.499	809.82
426.875	826.32
427.251	841.69
427.627	835.36
428.003	827.68
428.379	846.88
428.756	869.48
429.132	859.54
429.507	871.06
429.883	866.55
430.259	897.5
430.635	915.36
431.011	902.02
431.387	946.77
431.763	929.14
432.138	946.54
432.514	931.85
432.89	963.94
433.265	996.03
433.641	1004.17
434.016	1012.3
434.392	1018.63
434.767	1067.9
435.143	1061.57
435.518	1062.25
435.894	1064.05
436.269	1093.21
436.644	1117.84
437.02	1092.08
437.395	1118.74
437.77	1134.11
438.145	1194.22
438.52	1181.34
438.895	1180.44
439.271	1219.98
439.646	1230.15
440.021	1252.07
440.395	1276.93
440.77	1269.47
441.145	1259.98
441.52	1302.69
441.895	1302.47
442.27	1327.32
442.645	1348.11
443.019	1302.01
443.394	1334.56
443.769	1356.93
444.143	1349.7
444.518	1375.68
444.892	1369.81
445.267	1381.56
445.641	1427.89
446.016	1432.63
446.39	1421.33
446.764	1448.68
447.139	1428.79
447.513	1422.69
447.887	1453.87
448.262	1453.65
448.636	1508.11
449.01	1513.08
449.384	1493.42
449.758	1516.25
450.132	1512.63
450.506	1515.34
450.88	1554.44
451.254	1537.94
451.628	1553.31
452.002	1610.93
452.376	1581.1
452.75	1592.18
453.123	1628.56
453.497	1645.73
453.871	1689.57
454.244	1717.37
454.618	1679.4
454.992	1722.34
455.365	1730.7
455.739	1779.29
456.112	1766.41
456.486	1769.8
456.859	1801.44
457.232	1845.28
457.606	1824.49
457.979	1875.11
458.352	1899.96
458.725	1927.31
459.099	1920.53
459.472	1957.36
459.845	2003.01
460.218	1976.35
460.591	1958.04
460.964	1994.42
461.337	2045.5
461.71	2107.87
462.083	2109.9
462.456	2103.57
462.829	2119.85
463.201	2153.29
463.574	2153.74
463.947	2172.95
464.32	2251.37
464.692	2215.21
465.065	2233.51
465.438	2279.39
465.81	2284.59
466.183	2331.14
466.555	2372.72
466.928	2358.03
467.3	2384.25
467.672	2389.89
468.045	2466.5
468.417	2484.58
468.789	2497.69
469.161	2524.13
469.534	2565.26
469.906	2589.89
470.278	2617.46
470.65	2667.63
471.022	2708.3
471.394	2752.37
471.766	2743.78
472.138	2799.15
472.51	2813.39
472.882	2877.57
473.253	2920.5
473.625	2942.2
473.997	2979.94
474.369	2997.79
474.74	3035.98
475.112	3096.09
475.484	3148.07
475.855	3170.89
476.227	3215.18
476.598	3294.28
476.97	3321.62
477.341	3401.17
477.713	3441.39
478.084	3398.68
478.455	3531.79
478.827	3517.32
479.198	3613.37
479.569	3614.5
479.94	3748.73
480.311	3723.19
480.682	3796.86
481.053	3849.74
481.424	3924.09
481.795	3950.08
482.166	4018.55
482.537	4077.08
482.908	4129.28
483.279	4152.11
483.65	4229.62
484.021	4308.26
484.391	4380.58
484.762	4360.69
485.133	4405.44
485.503	4488.6
485.874	4550.06
486.244	4582.61
486.615	4652.43
486.985	4733.79
487.356	4760.45
487.726	4825.54
488.097	4885.65
488.467	4846.78
488.837	4964.06
489.207	5051.75
489.578	5100.56
489.948	5141.91
490.318	5143.04
490.688	5216.26
491.058	5338.29
491.428	5349.59
491.798	5412.87
492.168	5469.14
492.538	5473.43
492.908	5550.94
493.278	5592.07
493.648	5614.67
494.017	5685.63
494.387	5749.35
494.757	5769.47
495.126	5822.8
495.496	5853.53
495.866	5881.33
496.235	5916.58
496.605	5940.08
496.974	5959.29
497.344	5992.29
497.713	6056.92
498.082	6069.57
498.452	6097.82
498.821	6163.35
499.19	6182.11
499.559	6218.49
499.928	6259.17
500.298	6292.39
500.667	6347.3
501.036	6345.27
501.405	6371.71
501.774	6378.72
502.143	6408.77
502.512	6461.65
502.88	6460.97
503.249	6503.46
503.618	6568.99
503.987	6525.61
504.356	6552.27
504.724	6578.49
505.093	6636.79
505.462	6675.21
505.83	6707.3
506.199	6735.54
506.567	6768.76
506.936	6790.46
507.304	6794.75
507.672	6796.56
508.041	6859.83
508.409	6887.4
508.777	6940.28
509.145	7001.98
509.514	6967.63
509.882	6968.08
510.25	6922.88
510.618	6997.23
510.986	7030.22
511.354	7116.78
511.722	7123.1
512.09	7204.23
512.458	7088.98
512.826	7207.4
513.193	7217.34
513.561	7206.04
513.929	7214.17
514.297	7245.13
514.664	7350.67
515.032	7298.24
515.4	7336.21
515.767	7335.08
516.135	7408.29
516.502	7285.13
516.869	7433.83
517.237	7445.81
517.604	7354.51
517.972	7443.55
518.339	7502.53
518.706	7440.38
519.073	7460.72
519.44	7505.69
519.808	7547.05
520.175	7540.04
520.542	7611.68
520.909	7637.89
521.276	7598.35
521.643	7658.46
522.009	7685.57
522.376	7683.09
522.743	7812.13
523.11	7788.62
523.477	7824.55
523.843	7822.75
524.21	7933.03
524.577	7842.86
524.943	7878.34
525.31	7922.86
525.676	7952.46
526.043	8043.76
526.409	8058.22
526.776	8055.73
527.142	8047.15
527.508	8096.86
527.874	8102.74
528.241	8003.08
528.607	8140.93
528.973	8186.35
529.339	8088.73
529.705	8238.1
530.071	8234.94
530.437	8229.52
530.803	8218.89
531.169	8219.35
531.535	8195.39
531.901	8236.29
532.267	8191.55
532.632	8222.74
532.998	8255.5
533.364	8246.24
533.73	8319.46
534.095	8331.43
534.461	8352.45
534.826	8290.53
535.192	8262.51
535.557	8324.43
535.923	8303.41
536.288	8281.49
536.653	8341.15
537.019	8274.94
537.384	8295.95
537.749	8316.07
538.114	8352.9
538.479	8328.95
538.845	8292.79
539.21	8286.91
539.575	8308.61
539.94	8329.85
540.305	8323.98
540.67	8316.74
541.034	8285.56
541.399	8248.27
541.764	8324.65
542.129	8258.67
542.494	8279.46
542.858	8316.52
543.223	8274.26
543.587	8331.89
543.952	8266.12
544.316	8249.18
544.681	8271.32
545.045	8290.76
545.41	8269.97
545.774	8262.96
546.138	8259.34
546.503	8239.23
546.867	8195.17
547.231	8272.68
547.595	8231.55
547.959	8310.19
548.324	8227.03
548.688	8222.06
549.052	8279.46
549.416	8235.84
549.779	8261.15
550.143	8266.12
550.507	8279.91
550.871	8247.82
551.235	8239.91
551.599	8215.73
551.962	8276.52
552.326	8227.26
552.689	8245.56
553.053	8220.48
553.417	8209.4
553.78	8366.91
554.143	8292.79
554.507	8275.84
554.87	8330.98
555.234	8314.48
555.597	8302.51
555.96	8287.82
556.323	8302.96
556.686	8311.55
557.05	8321.04
557.413	8377.76
557.776	8349.29
558.139	8354.71
558.502	8396.74
558.865	8395.84
559.228	8437.19
559.59	8395.16
559.953	8440.58
560.316	8517.19
560.679	8497.76
561.041	8504.08
561.404	8472.22
561.767	8564.87
562.129	8494.59
562.492	8562.39
562.854	8515.61
563.217	8538.43
563.579	8564.2
563.941	8594.25
564.304	8589.28
564.666	8669.96
565.028	8683.29
565.39	8705.43
565.753	8716.28
566.115	8697.3
566.477	8710.18
566.839	8862.04
567.201	8771.87
567.563	8874.47
567.925	8877.41
568.287	8830.86
568.648	8893.23
569.01	8958.54
569.372	9005.99
569.734	8921.47
570.095	9015.71
570.457	8966.22
570.819	8951.53
571.18	9025.65
571.542	9086.67
571.903	9110.62
572.265	9090.51
572.626	9142.26
572.987	9141.36
573.349	9201.92
573.71	9156.95
574.071	9194.24
574.432	9179.09
574.794	9274.01
575.155	9243.5
575.516	9288.92
575.877	9288.7
576.238	9289.37
576.599	9344.06
576.96	9355.36
577.32	9335.47
577.681	9414.12
578.042	9476.04
578.403	9445.98
578.763	9425.42
579.124	9509.71
579.485	9515.81
579.845	9502.02
580.206	9422.25
580.566	9588.35
580.927	9547.22
581.287	9587.22
581.648	9538.86
582.008	9608.24
582.368	9621.12
582.728	9575.69
583.089	9614.56
583.449	9655.69
583.809	9691.62
584.169	9646.43
584.529	9587.9
584.889	9725.07
585.249	9661.57
585.609	9636.71
585.969	9692.3
586.329	9688.46
586.688	9715.35
587.048	9750.83
587.408	9671.74
587.768	9731.85
588.127	9738.63
588.487	9713.32
588.846	9817.95
589.206	9713.09
589.565	9761.23
589.925	9793.09
590.284	9761.9
590.643	9761.68
591.003	9837.83
591.362	9853.88
591.721	9845.29
592.08	9838.51
592.44	9916.93
592.799	9883.94
593.158	9832.64
593.517	9817.04
593.876	9888.23
594.235	9842.13
594.593	9938.62
594.952	9902.24
595.311	9939.98
595.67	9888.23
596.029	9973.42
596.387	9988.34
596.746	9931.17
597.104	9945.18
597.463	9928.23
597.822	9932.75
598.18	9946.31
598.538	9917.38
598.897	9942.69
599.255	9911.28
599.613	10096.36
599.972	10017.04
600.33	10001.67
600.688	9978.62
601.046	9977.94
601.404	10009.13
601.762	9968.68
602.12	10058.39
602.478	10055.68
602.836	10091.84
603.194	10009.36
603.552	10030.15
603.91	10031.05
604.268	10070.14
604.625	10024.5
604.983	10038.28
605.341	9934.56
605.698	10002.12
606.056	10057.26
606.413	10105.4
606.771	10146.98
607.128	10150.82
607.485	10059.75
607.843	10125.51
608.2	10160.99
608.557	10139.07
608.914	10135.45
609.272	10121.89
609.629	10193.98
609.986	10219.75
610.343	10198.5
610.7	10249.8
611.057	10197.83
611.414	10191.05
611.771	10151.27
612.127	10266.07
612.484	10249.8
612.841	10265.85
613.198	10219.75
613.554	10279.18
613.911	10336.8
614.267	10321.44
614.624	10271.95
614.98	10290.7
615.337	10383.36
615.693	10308.1
616.05	10357.37
616.406	10375.45
616.762	10321.89
617.118	10332.51
617.475	10343.36
617.831	10346.97
618.187	10472.62
618.543	10441.89
618.899	10432.85
619.255	10494.31
619.611	10408.67
619.967	10499.06
620.323	10451.15
620.678	10415.22
621.034	10462.22
621.39	10339.06
621.746	10435.78
622.101	10527.53
622.457	10436.24
622.812	10384.71
623.168	10386.07
623.523	10369.35
623.879	10440.98
624.234	10428.33
624.589	10479.85
624.945	10402.79
625.3	10471.04
625.655	10361.89
626.01	10483.24
626.365	10435.33
626.72	10405.96
627.075	10414.09
627.43	10426.97
627.785	10378.61
628.14	10404.83
628.495	10409.8
628.85	10422.45
629.205	10359.4
629.559	10450.93
629.914	10314.88
630.269	10371.15
630.623	10314.21
630.978	10344.04
631.332	10343.13
631.687	10367.31
632.041	10351.95
632.396	10402.11
632.75	10233.53
633.104	10283.7
633.459	10195.34
633.813	10287.99
634.167	10259.52
634.521	10278.73
634.875	10276.24
635.229	10216.36
635.583	10177.94
635.937	10169.35
636.291	10125.74
636.645	10125.28
636.999	10131.84
637.352	10139.75
637.706	10106.75
638.06	10187.2
638.413	10063.59
638.767	10093.42
639.121	10142.46
639.474	10093.42
639.828	10055.91
640.181	10074.89
640.534	10034.44
640.888	9981.56
641.241	9950.15
641.594	10017.04
641.947	10029.69
642.301	9988.57
642.654	9918.74
643.007	9970.03
643.36	10014.55
643.713	9904.95
644.066	9974.55
644.419	9957.83
644.771	9886.65
645.124	9733.43
645.477	9737.05
645.83	9696.6
646.182	9708.8
646.535	9664.51
646.888	9567.11
647.24	9497.96
647.593	9550.38
647.945	9520.78
648.298	9557.39
648.65	9570.04
649.002	9575.24
649.355	9613.89
649.707	9536.6
650.059	9569.82
650.411	9748.12
650.763	9705.86
651.115	9843.48
651.467	9805.07
651.819	9793.99
652.171	9813.65
652.523	9722.81
652.875	9715.13
653.227	9716.03
653.578	9795.58
653.93	9758.51
654.282	9699.76
654.633	9677.16
654.985	9659.08
655.337	9705.18
655.688	9677.61
656.039	9750.83
656.391	9674
656.742	9665.41
657.094	9713.09
657.445	9735.24
657.796	9676.48
658.147	9691.4
658.498	9673.55
658.849	9720.55
659.2	9698.63
659.551	9705.86
659.902	9700.89
660.253	9705.86
660.604	9745.41
660.955	9699.08
661.306	9689.14
661.656	9635.81
662.007	9721.68
662.358	9624.05
662.708	9681.45
663.059	9677.84
663.409	9608.69
663.76	9692.3
664.11	9699.08
664.461	9751.06
664.811	9662.7
665.161	9708.8
665.511	9690.27
665.862	9668.8
666.212	9662.25
666.562	9657.27
666.912	9690.95
667.262	9659.53
667.612	9629.25
667.962	9665.64
668.312	9649.14
668.662	9665.18
669.011	9629.93
669.361	9655.47
669.711	9589.71
670.06	9666.99
670.41	9662.02
670.76	9579.31
671.109	9657.5
671.459	9643.04
671.808	9622.25
672.157	9601.46
672.507	9542.48
672.856	9602.59
673.205	9532.53
673.554	9656.37
673.904	9568.01
674.253	9564.85
674.602	9558.97
674.951	9452.31
675.3	9400.33
675.649	9535.47
675.998	9505.19
676.346	9513.1
676.695	9576.15
677.044	9449.6
677.393	9473.1
677.741	9510.16
678.09	9452.08
678.438	9475.81
678.787	9442.82
679.135	9424.29
679.484	9403.5
679.832	9441.91
680.181	9361.69
680.529	9375.25
680.877	9383.38
681.225	9325.31
681.573	9371.18
681.922	9330.5
682.27	9279.88
682.618	9310.84
682.966	9221.81
683.314	9314.01
683.661	9201.47
684.009	9183.61
684.357	9134.58
684.705	9171.64
685.053	9163.28
685.4	9167.57
685.748	9075.59
686.095	9072.66
686.443	9140.9
686.79	9096.84
687.138	9046.89
687.485	9092.09
687.832	8998.31
688.18	8967.57
688.527	8900.68
688.874	8876.28
689.221	8956.5
689.568	8872.89
689.915	8870.85
690.262	8838.31
690.609	8827.01
690.956	8852.32
691.303	8810.52
691.65	8748.82
691.997	8737.3
692.344	8685.32
692.69	8625.66
693.037	8697.98
693.383	8606.45
693.73	8627.24
694.077	8624.31
694.423	8605.78
694.769	8617.98
695.116	8518.1
695.462	8561.48
695.808	8504.31
696.155	8470.41
696.501	8398.78
696.847	8413.92
697.193	8380.02
697.539	8411.43
697.885	8366.01
698.231	8300.47
698.577	8278.1
698.923	8286.46
699.269	8235.16
699.614	8168.05
699.96	8192.23
700.306	8130.08
700.651	8115.39
700.997	8051.89
701.342	8066.81
701.688	8095.06
702.033	8060.93
702.379	8033.81
702.724	8004.21
703.069	7953.14
703.415	7846.25
703.76	7910.43
704.105	7947.26
704.45	7872.69
704.795	7829.3
705.14	7789.07
705.485	7813.93
705.83	7728.96
706.175	7745.23
706.52	7679.25
706.865	7695.29
707.209	7666.37
707.554	7603.54
707.899	7627.95
708.243	7603.54
708.588	7590.89
708.932	7536.88
709.277	7498.91
709.621	7539.59
709.966	7497.11
710.31	7502.98
710.654	7448.07
710.998	7508.86
711.342	7440.38
711.687	7351.12
712.031	7409.2
712.375	7361.29
712.719	7371.01
713.063	7345.24
713.407	7368.75
713.75	7279.71
714.094	7333.04
714.438	7284.91
714.782	7274.06
715.125	7252.82
715.469	7287.39
715.812	7252.59
716.156	7223.67
716.499	7177.79
716.843	7199.94
717.186	7092.37
717.53	7170.33
717.873	7166.72
718.216	7146.15
718.559	7106.15
718.902	7093.27
719.246	7107.74
719.589	7062.09
719.932	7059.6
720.275	7067.74
720.617	7035.42
720.96	7065.7
721.303	7092.14
721.646	6995.88
721.989	6981.19
722.331	6953.16
722.674	6943.22
723.016	7035.42
723.359	7011.47
723.701	6991.58
724.044	6898.93
724.386	6870.91
724.729	6928.76
725.071	6943.67
725.413	6890.79
725.755	6907.29
726.097	7005.82
726.439	6847.4
726.782	6887.86
727.124	6922.88
727.465	6928.31
727.807	6883.56
728.149	6862.09
728.491	6893.51
728.833	6850.79
729.175	6820.74
729.516	6805.6
729.858	6946.84
730.199	6828.42
730.541	6838.14
730.882	6787.97
731.224	6858.48
731.565	6810.12
731.906	6857.12
732.248	6809.21
732.589	6758.14
732.93	6720.18
733.271	6761.53
733.612	6747.97
733.953	6773.96
734.294	6768.08
734.635	6802.66
734.976	6785.26
735.317	6770.12
735.658	6770.57
735.999	6771.7
736.339	6809.44
736.68	6788.65
737.021	6765.6
737.361	6789.55
737.702	6801.53
738.042	6753.17
738.383	6743.45
738.723	6775.54
739.063	6773.51
739.404	6789.33
739.744	6796.56
740.084	6766.73
740.424	6808.76
740.764	6786.84
741.104	6778.25
741.444	6889.21
741.784	6761.53
742.124	6756.33
742.464	6870.23
742.804	6901.19
743.143	6774.86
743.483	6834.52
743.823	6814.19
744.162	6852.15
744.502	6866.39
744.841	6883.34
745.181	6935.09
745.52	6894.86
745.86	6929.44
746.199	6970.79
746.538	6952.03
746.877	7001.98
747.216	7032.26
747.556	7028.87
747.895	7052.37
748.234	7085.14
748.573	7048.98
748.911	7113.84
749.25	7144.12
749.589	7147.96
749.928	7220.05
750.267	7322.65
750.605	7309.99
750.944	7342.53
751.283	7368.97
751.621	7394.51
751.96	7438.12
752.298	7499.36
752.636	7552.92
752.975	7590.66
753.313	7681.96
753.651	7704.56
753.989	7776.19
754.327	7806.02
754.666	7873.59
755.004	8016.87
755.342	8052.8
755.679	8089.18
756.017	8126.47
756.355	8261.38
756.693	8304.54
757.031	8377.08
757.368	8490.53
757.706	8547.47
758.044	8564.87
758.381	8731.87
758.719	8784.98
759.056	8890.06
759.394	8933.23
759.731	9011.87
760.068	9164.18
760.405	9194.91
760.743	9303.61
761.08	9413.21
761.417	9478.75
761.754	9531.63
762.091	9694.56
762.428	9773.88
762.765	9776.82
763.102	9932.3
763.438	9972.29
763.775	10071.73
764.112	10125.96
764.449	10317.14
764.785	10276.69
765.122	10391.72
765.458	10440.53
765.795	10612.96
766.131	10639.4
766.467	10727.08
