Data from hue_60_FLMS001491_69.txt Node
Date: Mon Feb 06 15:17:45 GMT 2017
User: dcchb
Spectrometer: FLMS00149
Trigger mode: 0
Integration Time (sec): 2.000000E-2
Scans to average: 10
Electric dark correction enabled: true
Nonlinearity correction enabled: false
Boxcar width: 0
XAxis mode: Wavelengths
Number of Pixels in Spectrum: 2048
>>>>>Begin Spectral Data<<<<<
341.393	-7.37
341.776	-7.37
342.16	-7.37
342.543	-67.48
342.927	-63.42
343.31	-74.04
343.693	-76.07
344.077	-44.43
344.46	-72.46
344.843	-63.87
345.226	-34.26
345.61	-24.55
345.993	-17.99
346.376	-3.76
346.759	3.93
347.142	41.21
347.525	18.16
347.908	69.24
348.291	75.34
348.674	95.22
349.057	108.33
349.44	106.52
349.823	144.71
350.206	167.99
350.588	198.72
350.971	206.86
351.354	226.07
351.737	227.88
352.119	253.86
352.502	265.61
352.884	274.88
353.267	310.36
353.65	283.47
354.032	302.22
354.414	312.84
354.797	325.5
355.179	318.04
355.562	315.78
355.944	339.51
356.326	336.35
356.709	334.99
357.091	346.29
357.473	348.1
357.855	355.56
358.238	351.71
358.62	346.52
359.002	344.26
359.384	344.93
359.766	362.56
360.148	349
360.53	337.93
360.912	325.5
361.294	332.51
361.676	346.52
362.057	350.36
362.439	314.65
362.821	326.86
363.203	320.75
363.584	323.92
363.966	322.79
364.348	329.34
364.729	324.6
365.111	313.3
365.493	313.97
365.874	318.95
366.256	314.2
366.637	323.47
367.019	311.04
367.4	311.26
367.781	311.71
368.163	333.18
368.544	305.16
368.925	300.64
369.306	315.33
369.688	325.05
370.069	293.18
370.45	307.2
370.831	314.65
371.212	311.49
371.593	322.34
371.974	318.27
372.355	313.97
372.736	296.8
373.117	319.17
373.498	333.41
373.879	312.62
374.26	329.57
374.641	317.59
375.021	324.82
375.402	330.02
375.783	318.27
376.163	331.6
376.544	346.52
376.925	330.47
377.305	304.26
377.686	299.29
378.066	322.11
378.447	332.73
378.827	328.89
379.208	337.03
379.588	329.57
379.968	349.45
380.349	339.28
380.729	344.03
381.109	334.54
381.489	317.14
381.87	315.78
382.25	325.73
382.63	345.61
383.01	334.77
383.39	363.24
383.77	327.99
384.15	349.45
384.53	335.22
384.91	349
385.29	352.84
385.67	344.48
386.049	359.4
386.429	358.95
386.809	358.72
387.189	352.17
387.568	340.19
387.948	368.66
388.328	321.88
388.707	345.16
389.087	352.84
389.466	358.72
389.846	353.75
390.225	363.01
390.605	363.01
390.984	368.66
391.363	366.4
391.743	370.47
392.122	357.36
392.501	359.85
392.881	373.18
393.26	384.26
393.639	374.76
394.018	370.7
394.397	359.17
394.776	366.18
395.155	363.92
395.534	376.35
395.913	387.42
396.292	381.77
396.671	374.09
397.05	370.92
397.429	366.4
397.808	364.37
398.186	391.71
398.565	378.83
398.944	374.76
399.323	381.77
399.701	392.84
400.08	381.54
400.458	385.39
400.837	398.72
401.215	404.82
401.594	395.55
401.972	379.96
402.351	382.9
402.729	389.68
403.107	408.44
403.486	410.7
403.864	420.64
404.242	412.5
404.62	414.54
404.999	415.67
405.377	398.27
405.755	413.41
406.133	399.62
406.511	410.24
406.889	424.03
407.267	429.23
407.645	414.31
408.023	446.85
408.401	426.06
408.779	428.77
409.156	424.25
409.534	432.62
409.912	443.46
410.29	447.08
410.667	430.81
411.045	445.04
411.422	435.1
411.8	445.27
412.178	437.59
412.555	465.38
412.933	446.17
413.31	460.41
413.687	439.85
414.065	463.35
414.442	466.97
414.819	460.19
415.197	468.32
415.574	455.21
415.951	492.5
416.328	482.33
416.705	472.61
417.082	478.04
417.46	482.11
417.837	490.47
418.214	499.96
418.591	488.21
418.967	511.94
419.344	500.41
419.721	485.95
420.098	507.87
420.475	507.19
420.852	501.09
421.228	510.13
421.605	524.82
421.982	500.41
422.358	509.22
422.735	509.45
423.111	541.31
423.488	511.94
423.864	531.37
424.241	513.52
424.617	532.73
424.994	539.28
425.37	538.6
425.746	530.24
426.123	545.61
426.499	526.62
426.875	552.84
427.251	551.48
427.627	548.09
428.003	581.54
428.379	587.87
428.756	562.1
429.132	568.21
429.507	565.72
429.883	594.19
430.259	582.67
430.635	594.19
431.011	608.2
431.387	603.01
431.763	606.85
432.138	610.69
432.514	620.18
432.89	617.7
433.265	640.97
433.641	630.58
434.016	634.64
434.392	629.9
434.767	626.06
435.143	620.41
435.518	653.4
435.894	643.68
436.269	674.42
436.644	660.41
437.02	666.06
437.395	665.83
437.77	674.64
438.145	680.07
438.52	674.64
438.895	667.86
439.271	688.2
439.646	679.16
440.021	696.34
440.395	709.22
440.77	665.6
441.145	720.29
441.52	688.65
441.895	712.16
442.27	706.05
442.645	720.52
443.019	738.82
443.394	726.85
443.769	727.07
444.143	721.2
444.518	756.22
444.892	761.65
445.267	728.65
445.641	740.63
446.016	735.88
446.39	770.91
446.764	753.51
447.139	755.09
447.513	772.72
447.887	765.94
448.262	757.8
448.636	763
449.01	799.39
449.384	779.5
449.758	814.53
450.132	771.36
450.506	811.81
450.88	837.58
451.254	806.62
451.628	832.83
452.002	851.59
452.376	851.36
452.75	848.65
453.123	824.92
453.497	850.68
453.871	848.88
454.244	880.74
454.618	850.23
454.992	877.8
455.365	876.45
455.739	892.04
456.112	928.42
456.486	913.28
456.859	926.16
457.232	951.25
457.606	939.04
457.979	938.14
458.352	987.86
458.725	986.27
459.099	980.17
459.472	1007.29
459.845	1025.14
460.218	997.8
460.591	1028.08
460.964	1025.37
461.337	1057.91
461.71	1071.69
462.083	1084.8
462.456	1078.47
462.829	1096.33
463.201	1088.19
463.574	1117.34
463.947	1115.99
464.32	1138.81
464.692	1162.09
465.065	1190.56
465.438	1170.22
465.81	1214.74
466.183	1227.62
466.555	1272.59
466.928	1268.3
467.3	1261.29
467.672	1280.73
468.045	1320.5
468.417	1316.43
468.789	1377
469.161	1355.98
469.534	1426.26
469.906	1407.96
470.278	1459.48
470.65	1479.37
471.022	1471.23
471.394	1530.89
471.766	1542.42
472.138	1548.07
472.51	1610.66
472.882	1644.11
473.253	1677.1
473.625	1719.81
473.997	1741.96
474.369	1766.59
474.74	1796.65
475.112	1841.39
475.484	1883.43
475.855	1938.34
476.227	1997.32
476.598	2060.37
476.97	2104.21
477.341	2169.52
477.713	2220.82
478.084	2271.66
478.455	2316.63
478.827	2364.32
479.198	2448.61
479.569	2492.9
479.94	2574.03
480.311	2641.6
480.682	2751.65
481.053	2818.77
481.424	2924.3
481.795	2944.19
482.166	3099.21
482.537	3140.57
482.908	3250.85
483.279	3317.29
483.65	3413.33
484.021	3544.85
484.391	3642.25
484.762	3715.69
485.133	3820.78
485.503	3901.68
485.874	4033.2
486.244	4166.3
486.615	4301.89
486.985	4354.77
487.356	4533.3
487.726	4611.26
488.097	4774.42
488.467	4872.95
488.837	5035.88
489.207	5187.74
489.578	5307.97
489.948	5445.14
490.318	5611.69
490.688	5693.95
491.058	5863.43
491.428	6020.27
491.798	6138.23
492.168	6333.93
492.538	6443.53
492.908	6610.31
493.278	6781.83
493.648	6845.78
494.017	7039
494.387	7202.61
494.757	7309.72
495.126	7479.21
495.496	7596.95
495.866	7763.5
496.235	7947.45
496.605	8096.14
496.974	8242.13
497.344	8386.3
497.713	8474.89
498.082	8637.6
498.452	8837.14
498.821	8994.42
499.19	9097.7
499.559	9296.34
499.928	9409.33
500.298	9504.69
500.667	9713.28
501.036	9822.2
501.405	10010.89
501.774	10074.62
502.143	10191.46
502.512	10288.4
502.88	10497.89
503.249	10596.19
503.618	10736.07
503.987	10891.78
504.356	10993.47
504.724	11215.16
505.093	11317.08
505.462	11423.74
505.83	11583.73
506.199	11737.4
506.567	11972.2
506.936	11966.32
507.304	12156.38
507.672	12349.36
508.041	12405.41
508.409	12566.99
508.777	12695.34
509.145	12823.7
509.514	12924.72
509.882	13095.33
510.25	13166.52
510.618	13334.65
510.986	13418.04
511.354	13645.38
511.722	13770.57
512.09	13877.23
512.458	13971.02
512.826	14138.7
513.193	14338.01
513.561	14342.08
513.929	14558.35
514.297	14627.27
514.664	14839.02
515.032	14842.18
515.4	15048.95
515.767	15250.31
516.135	15333.47
516.502	15308.16
516.869	15586.12
517.237	15667.47
517.604	15707.69
517.972	15892.77
518.339	16125.76
518.706	16129.6
519.073	16281.01
519.44	16393.78
519.808	16601.23
520.175	16658.4
520.542	16856.59
520.909	16970.94
521.276	16927.55
521.643	17168.22
522.009	17272.85
522.376	17523.92
522.743	17614.08
523.11	17862.44
523.477	17974.98
523.843	18144.01
524.21	18360.96
524.577	18407.74
524.943	18520.5
525.31	18638.01
525.676	18831.45
526.043	18951.45
526.409	19053.37
526.776	19250.2
527.142	19396.86
527.508	19487.71
527.874	19623.07
528.241	19773.8
528.607	19891.31
528.973	20093.34
529.339	20023.06
529.705	20320
530.071	20416.95
530.437	20471.86
530.803	20640.45
531.169	20854.68
531.535	20794.79
531.901	20914.34
532.267	21042.47
532.632	21148.91
532.998	21221.45
533.364	21390.48
533.73	21453.08
534.095	21661.44
534.461	21685.16
534.826	21860.75
535.192	21901.88
535.557	22067.08
535.923	22064.36
536.288	22100.52
536.653	22293.96
537.019	22188.43
537.384	22375.54
537.749	22502.09
538.114	22563.79
538.479	22727.85
538.845	22667.74
539.21	22761.52
539.575	22849.65
539.94	22919.03
540.305	23085.13
540.67	23084.68
541.034	23145.24
541.399	23287.38
541.764	23326.25
542.129	23378.45
542.494	23457.77
542.858	23645.79
543.223	23675.17
543.587	23844.66
543.952	23687.6
544.316	23885.56
544.681	23854.15
545.045	24052.33
545.41	24110.19
545.774	24218.21
546.138	24234.48
546.503	24182.95
546.867	24339.33
547.231	24504.75
547.595	24488.03
547.959	24623.39
548.324	24687.12
548.688	24598.99
549.052	24839.21
549.416	24850.5
549.779	24871.3
550.143	24962.37
550.507	25203.72
550.871	25355.58
551.235	25267.67
551.599	25479.87
551.962	25417.72
552.326	25645.06
552.689	25763.7
553.053	25580.2
553.417	25781.78
553.78	26095.67
554.143	25963.92
554.507	26039.85
554.87	26243.69
555.234	26390.13
555.597	26306.96
555.96	26520.97
556.323	26594.64
556.686	26600.06
557.05	26777.69
557.413	26927.74
557.776	26919.6
558.139	27064.68
558.502	27202.53
558.865	27262.64
559.228	27480.49
559.59	27592.81
559.953	27639.13
560.316	27919.12
560.679	27817.43
561.041	28054.49
561.404	28239.34
561.767	28435.5
562.129	28364.31
562.492	28548.71
562.854	28604.08
563.217	28633.23
563.579	28766.11
563.941	28929.04
564.304	28988.7
564.666	29196.61
565.028	29178.3
565.39	29340.56
565.753	29505.52
566.115	29568.8
566.477	29776.25
566.839	29806.53
567.201	30123.36
567.563	30045.4
567.925	30325.84
568.287	30179.63
568.648	30327.2
569.01	30535.55
569.372	30840.86
569.734	30629.34
570.095	30912.72
570.457	31113.84
570.819	31091.02
571.18	31063.45
571.542	31149.77
571.903	31321.97
572.265	31371.01
572.626	31545.02
572.987	31596.54
573.349	31812.58
573.71	31862.75
574.071	31868.4
574.432	31920.38
574.794	32356.52
575.155	32215.96
575.516	32169.63
575.877	32240.37
576.238	32312.91
576.599	32449.85
576.96	32654.82
577.32	32578.44
577.681	32776.62
578.042	32658.21
578.403	32700.92
578.763	32788.38
579.124	32744.53
579.485	33100.23
579.845	33122.6
580.206	33038.31
580.566	33104.75
580.927	33037.41
581.287	33390.17
581.648	33280.79
582.008	33349.72
582.368	33300.45
582.728	33354.24
583.089	33346.78
583.449	33356.95
583.809	33409.6
584.169	33372.77
584.529	33321.47
584.889	33686.66
585.249	33570.28
585.609	33394.69
585.969	33643.95
586.329	33447.57
586.688	33500.9
587.048	33708.8
587.408	33603.27
587.768	33500.67
588.127	33663.61
588.487	33450.73
588.846	33790.83
589.206	33615.92
589.565	33666.09
589.925	33794.68
590.284	33773.21
590.643	33758.29
591.003	33833.32
591.362	33921.68
591.721	33834.22
592.08	33919.19
592.44	33918.74
592.799	33848.01
593.158	33822.25
593.517	33994.9
593.876	33863.6
594.235	34029.02
594.593	34137.72
594.952	34092.3
595.311	34052.52
595.67	34323.25
596.029	34220.43
596.387	34235.57
596.746	34355.11
597.104	34315.57
597.463	34256.36
597.822	34514.88
598.18	34312.63
598.538	34250.26
598.897	34566.86
599.255	34198.96
599.613	34723.01
599.972	34591.49
600.33	34613.86
600.688	34519.86
601.046	34684.82
601.404	34709.23
601.762	34678.95
602.12	34949.22
602.478	34939.51
602.836	34914.19
603.194	34762.33
603.552	34899.05
603.91	34780.19
604.268	34929.11
604.625	34944.7
604.983	34991.71
605.341	34845.04
605.698	35196
606.056	35223.57
606.413	35204.58
606.771	35330.46
607.128	35388.53
607.485	35367.06
607.843	35227.63
608.2	35533.39
608.557	35598.7
608.914	35579.26
609.272	35753.95
609.629	35871.91
609.986	35828.97
610.343	35849.09
610.7	36044.33
611.057	36010.44
611.414	35990.1
611.771	36042.98
612.127	36181.51
612.484	36197.78
612.841	36302.18
613.198	36232.58
613.554	36254.72
613.911	36570.2
614.267	36437.09
614.624	36461.5
614.98	36588.28
615.337	36670.76
615.693	36645.9
616.05	36632.79
616.406	36920.24
616.762	36720.25
617.118	36862.62
617.475	36785.11
617.831	36941.94
618.187	37017.87
618.543	37108.71
618.899	37331.53
619.255	37378.76
619.611	37223.29
619.967	37380.8
620.323	37565.65
620.678	37297.64
621.034	37285.66
621.39	37269.39
621.746	37262.16
622.101	37734.69
622.457	37406.56
622.812	37376.5
623.168	37622.37
623.523	37573.56
623.879	37745.53
624.234	37471.87
624.589	37759.09
624.945	37748.7
625.3	37621.92
625.655	37745.53
626.01	37841.35
626.365	37882.25
626.72	37731.3
627.075	37768.13
627.43	37772.2
627.785	37906.21
628.14	37725.19
628.495	37851.29
628.85	37772.65
629.205	37718.42
629.559	37900.11
629.914	37794.8
630.269	37650.62
630.623	37748.47
630.978	37645.65
631.332	37895.13
631.687	37863.5
632.041	37719.54
632.396	37859.88
632.75	37680.22
633.104	37812.2
633.459	37662.15
633.813	37627.34
634.167	37653.56
634.521	37663.28
634.875	37662.15
635.229	37624.41
635.583	37484.52
635.937	37371.98
636.291	37409.04
636.645	37594.12
636.999	37454.69
637.352	37533.34
637.706	37390.51
638.06	37421.7
638.413	37376.28
638.767	37282.04
639.121	37348.03
639.474	37220.35
639.828	37135.83
640.181	37274.81
640.534	37222.16
640.888	37102.61
641.241	37035.95
641.594	37108.49
641.947	37211.08
642.301	37181.93
642.654	37065.1
643.007	37012.44
643.36	37009.73
643.713	36948.49
644.066	37213.57
644.419	36812.68
644.771	36769.97
645.124	36388.96
645.477	36309.19
645.83	36234.39
646.182	35882.98
646.535	35790.56
646.888	35891.8
647.24	35754.4
647.593	35906.94
647.945	35725.93
648.298	35828.07
648.65	35675.08
649.002	35591.01
649.355	35765.47
649.707	35579.04
650.059	35687.96
650.411	36119.59
650.763	36125.69
651.115	36557.54
651.467	36402.97
651.819	36533.59
652.171	36258.34
652.523	36266.48
652.875	36319.13
653.227	36068.06
653.578	36427.83
653.93	36331.78
654.282	36123.88
654.633	36186.48
654.985	36207.95
655.337	36205.69
655.688	36082.53
656.039	36352.35
656.391	35972.7
656.742	36010.44
657.094	36071.9
657.445	36154.16
657.796	36113.94
658.147	36029.87
658.498	35964.34
658.849	35990.32
659.2	35963.21
659.551	35962.98
659.902	36062.64
660.253	35882.31
660.604	35983.32
660.955	35857
661.306	36052.7
661.656	35938.35
662.007	35988.74
662.358	35936.09
662.708	36068.51
663.059	35978.57
663.409	35631.92
663.76	35887.5
664.11	35860.84
664.461	35895.19
664.811	35835.07
665.161	35833.72
665.511	35796.88
665.862	35842.53
666.212	35848.86
666.562	35898.35
666.912	35807.05
667.262	35684.8
667.612	35697.45
667.962	35852.02
668.312	35724.57
668.662	35866.03
669.011	35715.08
669.361	35761.4
669.711	35706.72
670.06	35609.77
670.41	35647.28
670.76	35621.75
671.109	35633.72
671.459	35555.31
671.808	35456.33
672.157	35622.2
672.507	35477.34
672.856	35420.85
673.205	35500.62
673.554	35661.07
673.904	35453.16
674.253	35548.08
674.602	35440.51
674.951	35049.33
675.3	34804.59
675.649	35383.11
675.998	35340.4
676.346	35275.32
676.695	35527.51
677.044	35134.53
677.393	35251.14
677.741	35397.8
678.09	35255.2
678.438	35198.03
678.787	35234.19
679.135	35287.29
679.484	35083.23
679.832	35103.79
680.181	34962.33
680.529	35016.57
680.877	34982.44
681.225	34870.13
681.573	35155.32
681.922	34804.37
682.27	34885.27
682.618	34755.78
682.966	34688.66
683.314	34688.66
683.661	34617.71
684.009	34543.81
684.357	34433.53
684.705	34393.76
685.053	34420.87
685.4	34441.44
685.748	34316.7
686.095	34082.8
686.443	34029.7
686.79	34046.87
687.138	34103.37
687.485	34041.22
687.832	33875.58
688.18	33987.44
688.527	33773.66
688.874	33695.24
689.221	33745.86
689.568	33641.91
689.915	33615.92
690.262	33443.95
690.609	33490.5
690.956	33282.15
691.303	33354.69
691.65	33166.67
691.997	33037.86
692.344	33022.49
692.69	32878.09
693.037	33065.88
693.383	32722.39
693.73	32863.63
694.077	32652.56
694.423	32644.42
694.769	32661.82
695.116	32338.22
695.462	32385.45
695.808	32406.01
696.155	32490.76
696.501	32154.04
696.847	32233.36
697.193	31897.1
697.539	31976.65
697.885	31644.22
698.231	31621.63
698.577	31738.91
698.923	31672.02
699.269	31446.49
699.614	31392.71
699.96	31344.57
700.306	31324.46
700.651	31292.6
700.997	31130.79
701.342	31135.31
701.688	30988.2
702.033	30849.44
702.379	30948.88
702.724	30686.74
703.069	30780.52
703.415	30403.13
703.76	30519.96
704.105	30487.19
704.45	30391.83
704.795	30229.35
705.14	30102.34
705.485	30147.99
705.83	29983.48
706.175	30030.71
706.52	29893.54
706.865	29813.99
707.209	29700.77
707.554	29653.54
707.899	29749.59
708.243	29642.24
708.588	29527.22
708.932	29347.11
709.277	29337.62
709.621	29427.56
709.966	29179.43
710.31	29271.41
710.654	28924.07
710.998	29176.72
711.342	29057.63
711.687	29114.57
712.031	28766.56
712.375	28702.38
712.719	28827.35
713.063	28745.09
713.407	28800.01
713.75	28707.58
714.094	28731.31
714.438	28387.81
714.782	28593.91
715.125	28505.32
715.469	28502.39
715.812	28235.27
716.156	28134.49
716.499	28204.99
716.843	28179
717.186	28002.06
717.53	28060.14
717.873	28120.02
718.216	27921.84
718.559	27963.42
718.902	27755.51
719.246	27813.59
719.589	27762.97
719.932	27626.7
720.275	27617.44
720.617	27535.63
720.96	27503.77
721.303	27461.28
721.646	27513.49
721.989	27199.6
722.331	27434.84
722.674	27350.55
723.016	27264.45
723.359	27198.47
723.701	27279.37
724.044	26980.39
724.386	26891.58
724.729	27069.88
725.071	26910.56
725.413	27029.88
725.755	26848.19
726.097	26794.18
726.439	26756.9
726.782	26637.12
727.124	26866.72
727.465	26551.93
727.807	26643.68
728.149	26573.62
728.491	26588.99
728.833	26480.29
729.175	26294.76
729.516	26353.52
729.858	26357.81
730.199	26321.2
730.541	26304.03
730.882	26337.25
731.224	26269.68
731.565	26130.02
731.906	26152.39
732.248	26197.81
732.589	26020.19
732.93	25979.74
733.271	25925.73
733.612	26036.01
733.953	25943.13
734.294	25972.06
734.635	25799.18
734.976	25774.77
735.317	25657.26
735.658	25667.66
735.999	25692.29
736.339	25581.33
736.68	25728
737.021	25563.48
737.361	25514.67
737.702	25724.15
738.042	25383.82
738.383	25502.24
738.723	25422.92
739.063	25294.11
739.404	25465.86
739.744	25208.24
740.084	25212.76
740.424	25289.14
740.764	25222.25
741.104	25368.68
741.444	25215.01
741.784	25139.31
742.124	25117.39
742.464	25041.69
742.804	24981.12
743.143	24967.79
743.483	24874.46
743.823	24850.73
744.162	24925.53
744.502	24805.99
744.841	24826.1
745.181	24777.29
745.52	24670.62
745.86	24655.26
746.199	24712.2
746.538	24640.34
746.877	24652.54
747.216	24621.13
747.556	24541.13
747.895	24511.76
748.234	24446.67
748.573	24413.23
748.911	24372.1
749.25	24311.31
749.589	24144.76
749.928	24362.83
750.267	24242.39
750.605	24136.17
750.944	24152.9
751.283	23918.1
751.621	24046.46
751.96	23940.7
752.298	23932.11
752.636	23908.38
752.975	23846.69
753.313	23733.47
753.651	23850.53
753.989	23696.41
754.327	23626.81
754.666	23453.48
755.004	23679.91
755.342	23454.84
755.679	23453.71
756.017	23361.5
756.355	23499.35
756.693	23238.8
757.031	23214.16
