Data from hue_260_FLMS001491_00023.txt Node
Date: Tue Feb 07 15:58:46 GMT 2017
User: dcchb
Spectrometer: FLMS00149
Trigger mode: 0
Integration Time (sec): 2.000000E-2
Scans to average: 10
Electric dark correction enabled: true
Nonlinearity correction enabled: false
Boxcar width: 0
XAxis mode: Wavelengths
Number of Pixels in Spectrum: 2048
>>>>>Begin Spectral Data<<<<<
341.393	-35.71
341.776	-35.71
342.16	-35.71
342.543	-65.76
342.927	-44.74
343.31	-58.53
343.693	-80.22
344.077	-60.56
344.46	-53.11
344.843	-58.3
345.226	-47.23
345.61	-22.15
345.993	-18.08
346.376	-12.66
346.759	-6.1
347.142	33.22
347.525	40.68
347.908	62.82
348.291	63.73
348.674	93.33
349.057	123.16
349.44	148.47
349.823	153.22
350.206	146.66
350.588	180.56
350.971	217.62
351.354	214.46
351.737	217.62
352.119	229.6
352.502	285.19
352.884	274.34
353.267	282.7
353.65	293.55
354.032	300.78
354.414	294.68
354.797	295.81
355.179	310.73
355.562	322.93
355.944	311.4
356.326	313.89
356.709	320.22
357.091	339.2
357.473	317.51
357.855	349.14
358.238	350.05
358.62	328.13
359.002	343.49
359.384	326.09
359.766	328.13
360.148	333.1
360.53	349.6
360.912	336.94
361.294	322.93
361.676	332.42
362.057	318.41
362.439	327
362.821	308.92
363.203	327.67
363.584	324.06
363.966	320.67
364.348	301.24
364.729	322.25
365.111	314.12
365.493	308.47
365.874	314.57
366.256	311.86
366.637	313.21
367.019	306.66
367.4	304.85
367.781	303.27
368.163	299.2
368.544	299.65
368.925	297.39
369.306	322.93
369.688	298.98
370.069	299.65
370.45	312.31
370.831	313.21
371.212	312.76
371.593	298.98
371.974	314.79
372.355	301.46
372.736	296.72
373.117	310.95
373.498	302.59
373.879	315.02
374.26	321.35
374.641	312.76
375.021	327
375.402	299.43
375.783	309.37
376.163	324.96
376.544	306.66
376.925	311.18
377.305	326.32
377.686	318.86
378.066	323.38
378.447	309.14
378.827	318.41
379.208	315.25
379.588	338.97
379.968	333.32
380.349	315.25
380.729	320.9
381.109	330.84
381.489	344.62
381.87	346.43
382.25	347.34
382.63	337.17
383.01	346.43
383.39	340.1
383.77	329.26
384.15	359.99
384.53	339.65
384.91	340.33
385.29	343.95
385.67	344.85
386.049	352.99
386.429	344.85
386.809	367
387.189	360.67
387.568	352.08
387.948	356.15
388.328	366.54
388.707	369.26
389.087	377.84
389.466	363.61
389.846	352.99
390.225	385.75
390.605	362.7
390.984	373.1
391.363	354.79
391.743	361.57
392.122	387.56
392.501	355.7
392.881	363.38
393.26	380.78
393.639	386.2
394.018	378.07
394.397	375.58
394.776	391.4
395.155	381.01
395.534	379.2
395.913	383.27
396.292	392.31
396.671	392.76
397.05	386.88
397.429	386.43
397.808	368.13
398.186	387.79
398.565	406.99
398.944	398.18
399.323	405.64
399.701	427.33
400.08	400.67
400.458	416.26
400.837	430.72
401.215	429.82
401.594	415.81
401.972	413.32
402.351	423.72
402.729	435.02
403.107	425.53
403.486	447.67
403.864	457.39
404.242	430.72
404.62	432.53
404.999	445.64
405.377	461
405.755	456.03
406.133	447.67
406.511	460.55
406.889	476.15
407.267	466.2
407.645	446.77
408.023	471.4
408.401	488.35
408.779	492.42
409.156	491.51
409.534	467.11
409.912	510.27
410.29	503.26
410.667	505.52
411.045	520.44
411.422	548.23
411.8	510.72
412.178	540.32
412.555	562.47
412.933	557.5
413.31	571.74
413.687	569.02
414.065	571.28
414.442	596.82
414.819	582.58
415.197	600.44
415.574	593.43
415.951	613.09
416.328	623.94
416.705	602.47
417.082	649.93
417.46	652.41
417.837	649.93
418.214	652.86
418.591	663.94
418.967	669.36
419.344	654.67
419.721	667.78
420.098	675.46
420.475	688.8
420.852	698.96
421.228	700.32
421.605	722.92
421.982	739.19
422.358	728.79
422.735	759.08
423.111	752.97
423.488	789.81
423.864	795.23
424.241	825.52
424.617	842.46
424.994	832.52
425.37	835.01
425.746	836.59
426.123	865.97
426.499	840.43
426.875	857.15
427.251	879.07
427.627	894.89
428.003	919.98
428.379	920.88
428.756	926.3
429.132	932.4
429.507	947.77
429.883	947.55
430.259	981.22
430.635	983.48
431.011	978.96
431.387	1006.3
431.763	1014.21
432.138	1029.13
432.514	1026.64
432.89	1057.83
433.265	1075.9
433.641	1067.09
434.016	1112.29
434.392	1138.5
434.767	1176.47
435.143	1173.53
435.518	1157.48
435.894	1198.39
436.269	1214.88
436.644	1239.97
437.02	1234.09
437.395	1266.63
437.77	1289.23
438.145	1289.91
438.52	1287.2
438.895	1325.16
439.271	1339.4
439.646	1373.3
440.021	1404.26
440.395	1364.03
440.77	1382.56
441.145	1432.05
441.52	1451.04
441.895	1451.04
442.27	1461.88
442.645	1468.66
443.019	1496.91
443.394	1514.76
443.769	1495.55
444.143	1524.25
444.518	1563.12
444.892	1522.45
445.267	1579.62
445.641	1561.77
446.016	1578.26
446.39	1563.57
446.764	1574.42
447.139	1583.91
447.513	1637.25
447.887	1631.37
448.262	1614.42
448.636	1662.56
449.01	1674.31
449.384	1685.61
449.758	1680.18
450.132	1700.52
450.506	1706.62
450.88	1736.9
451.254	1726.73
451.628	1757.24
452.002	1768.32
452.376	1776.9
452.75	1773.51
453.123	1808.99
453.497	1842.89
453.871	1846.73
454.244	1921.98
454.618	1884.47
454.992	1899.16
455.365	1915.66
455.739	1957.01
456.112	2006.27
456.486	2011.47
456.859	2002.66
457.232	2048.76
457.606	2045.82
457.979	2078.14
458.352	2099.38
458.725	2117.68
459.099	2107.74
459.472	2152.26
459.845	2179.83
460.218	2219.83
460.591	2213.28
460.964	2223.22
461.337	2282.88
461.71	2338.02
462.083	2357.45
462.456	2363.33
462.829	2352.48
463.201	2388.64
463.574	2398.13
463.947	2442.65
464.32	2476.77
464.692	2472.7
465.065	2528.3
465.438	2542.31
465.81	2575.75
466.183	2561.74
466.555	2615.07
466.928	2664.79
467.3	2642.42
467.672	2701.4
468.045	2747.72
468.417	2761.51
468.789	2752.02
469.161	2832.92
469.534	2811
469.906	2905.23
470.278	2924.67
470.65	2971.67
471.022	2972.58
471.394	3051.67
471.766	3044.89
472.138	3107.49
472.51	3135.28
472.882	3185.9
473.253	3217.32
473.625	3276.3
473.997	3300.25
474.369	3312.46
474.74	3375.73
475.112	3439.01
475.484	3466.8
475.855	3545.67
476.227	3521.04
476.598	3621.37
476.97	3658.21
477.341	3730.3
477.713	3751.54
478.084	3749.05
478.455	3880.58
478.827	3914.7
479.198	3993.12
479.569	3977.75
479.94	4110.17
480.311	4131.64
480.682	4201.92
481.053	4263.84
481.424	4349.72
481.795	4335.25
482.166	4422.48
482.537	4489.6
482.908	4553.55
483.279	4617.28
483.65	4634.23
484.021	4771.4
484.391	4779.31
484.762	4775.92
485.133	4867.67
485.503	4903.83
485.874	4977.5
486.244	5042.13
486.615	5102.92
486.985	5128.9
487.356	5195.34
487.726	5218.39
488.097	5398.5
488.467	5365.06
488.837	5504.49
489.207	5539.29
489.578	5568.44
489.948	5599.4
490.318	5724.6
490.688	5679.17
491.058	5772.5
491.428	5842.56
491.798	5880.98
492.168	5992.16
492.538	5995.55
492.908	6015.89
493.278	6073.06
493.648	6076
494.017	6148.54
494.387	6234.86
494.757	6307.86
495.126	6344.24
495.496	6294.07
495.866	6370.68
496.235	6385.59
496.605	6495.87
496.974	6501.52
497.344	6557.79
497.713	6631.24
498.082	6684.12
498.452	6672.37
498.821	6684.57
499.19	6710.33
499.559	6691.35
499.928	6736.32
500.298	6738.81
500.667	6783.78
501.036	6813.61
501.405	6893.83
501.774	6886.15
502.143	6941.06
502.512	6918.69
502.88	6965.24
503.249	6989.65
503.618	7035.75
503.987	7061.96
504.356	7122.3
504.724	7062.64
505.093	7147.16
505.462	7136.08
505.83	7169.75
506.199	7247.27
506.567	7308.51
506.936	7229.19
507.304	7330.88
507.672	7302.86
508.041	7405.68
508.409	7386.92
508.777	7499.24
509.145	7494.94
509.514	7434.38
509.882	7520.03
510.25	7539.69
510.618	7547.37
510.986	7544.66
511.354	7567.48
511.722	7636.41
512.09	7685.67
512.458	7611.78
512.826	7641.61
513.193	7738.78
513.561	7668.27
513.929	7743.98
514.297	7749.17
514.664	7813.35
515.032	7800.7
515.4	7863.3
515.767	7886.57
516.135	7859
516.502	7823.07
516.869	7914.14
517.237	7949.85
517.604	7842.05
517.972	7917.08
518.339	8023.74
518.706	7948.27
519.073	8019.45
519.44	8029.85
519.808	8001.6
520.175	8082.05
520.542	8116.85
520.909	8085.89
521.276	8045.21
521.643	8175.15
522.009	8131.54
522.376	8170.63
522.743	8176.06
523.11	8197.07
523.477	8304.19
523.843	8336.96
524.21	8305.32
524.577	8427.35
524.943	8365.88
525.31	8409.27
525.676	8377.18
526.043	8421.25
526.409	8425.77
526.776	8443.62
527.142	8467.35
527.508	8430.74
527.874	8584.63
528.241	8537.85
528.607	8562.71
528.973	8583.05
529.339	8554.13
529.705	8618.08
530.071	8588.7
530.437	8644.97
530.803	8653.33
531.169	8714.8
531.535	8640.45
531.901	8625.31
532.267	8599.77
532.632	8677.51
532.998	8670.96
533.364	8740.56
533.73	8699.88
534.095	8696.04
534.461	8693.78
534.826	8746.89
535.192	8684.52
535.557	8729.71
535.923	8680.9
536.288	8736.04
536.653	8691.75
537.019	8693.78
537.384	8717.06
537.749	8720
538.114	8721.8
538.479	8731.97
538.845	8705.31
539.21	8668.7
539.575	8694.46
539.94	8703.05
540.305	8712.31
540.67	8639.32
541.034	8723.39
541.399	8650.85
541.764	8661.69
542.129	8618.76
542.494	8621.92
542.858	8695.36
543.223	8666.21
543.587	8650.39
543.952	8669.6
544.316	8662.37
544.681	8666.44
545.045	8647.23
545.41	8678.19
545.774	8626.89
546.138	8589.15
546.503	8634.8
546.867	8568.14
547.231	8653.56
547.595	8597.74
547.959	8613.56
548.324	8544.63
548.688	8583.73
549.052	8569.72
549.416	8542.15
549.779	8583.96
550.143	8601.13
550.507	8605.42
550.871	8569.04
551.235	8609.49
551.599	8583.28
551.962	8577.4
552.326	8548.25
552.689	8560.9
553.053	8527.46
553.417	8509.15
553.78	8650.39
554.143	8532.43
554.507	8530.85
554.87	8596.84
555.234	8631.41
555.597	8559.77
555.96	8520.23
556.323	8601.81
556.686	8585.99
557.05	8582.37
557.413	8590.73
557.776	8611.52
558.139	8618.76
558.502	8587.8
558.865	8603.62
559.228	8591.64
559.59	8637.96
559.953	8604.29
560.316	8672.54
560.679	8678.42
561.041	8682.94
561.404	8712.31
561.767	8744.63
562.129	8639.77
562.492	8812.42
562.854	8763.84
563.217	8760
563.579	8764.97
563.941	8816.72
564.304	8834.34
564.666	8846.32
565.028	8856.49
565.39	8863.27
565.753	8915.25
566.115	8943.27
566.477	9016.03
566.839	8982.14
567.201	8994.57
567.563	9046.54
567.925	9006.54
568.287	9037.5
568.648	9037.28
569.01	9114.34
569.372	9108.46
569.734	9137.61
570.095	9145.3
570.457	9194.56
570.819	9220.77
571.18	9190.72
571.542	9222.36
571.903	9228.68
572.265	9292.19
572.626	9296.93
572.987	9291.51
573.349	9339.87
573.71	9321.11
574.071	9321.79
574.432	9363.82
574.794	9464.16
575.155	9396.14
575.516	9350.94
575.877	9500.32
576.238	9478.62
576.599	9523.59
576.96	9555.23
577.32	9489.47
577.681	9590.26
578.042	9585.51
578.403	9604.49
578.763	9618.73
579.124	9585.51
579.485	9675
579.845	9703.47
580.206	9707.09
580.566	9707.77
580.927	9786.86
581.287	9851.27
581.648	9769.91
582.008	9856.92
582.368	9837.48
582.728	9851.27
583.089	9864.83
583.449	9853.53
583.809	9910.25
584.169	9926.74
584.529	9906.63
584.889	10072.28
585.249	9925.61
585.609	9926.74
585.969	10002.45
586.329	9990.47
586.688	10066.18
587.048	10035.44
587.408	10063.46
587.768	10024.82
588.127	10088.32
588.487	10041.54
588.846	10173.97
589.206	10061.2
589.565	10170.35
589.925	10145.72
590.284	10144.59
590.643	10173.29
591.003	10220.07
591.362	10245.38
591.721	10240.86
592.08	10213.52
592.44	10243.57
592.799	10283.8
593.158	10234.99
593.517	10282.89
593.876	10279.28
594.235	10295.1
594.593	10267.98
594.952	10366.73
595.311	10348.88
595.67	10353.85
596.029	10469.33
596.387	10447.41
596.746	10419.16
597.104	10391.59
597.463	10401.99
597.822	10411.25
598.18	10370.57
598.538	10423.91
598.897	10482.21
599.255	10403.79
599.613	10521.08
599.972	10477.24
600.33	10509.1
600.688	10416.45
601.046	10532.83
601.404	10530.8
601.762	10473.4
602.12	10544.81
602.478	10540.29
602.836	10625.48
603.194	10530.8
603.552	10570.12
603.91	10529.44
604.268	10579.16
604.625	10554.52
604.983	10610.79
605.341	10486.73
605.698	10592.04
606.056	10674.3
606.413	10562.21
606.771	10710.23
607.128	10622.77
607.485	10585.94
607.843	10555.65
608.2	10712.94
608.557	10658.48
608.914	10600.85
609.272	10710.68
609.629	10668.19
609.986	10749.32
610.343	10717.91
610.7	10734.86
611.057	10712.94
611.414	10762.2
611.771	10791.35
612.127	10827.29
612.484	10807.63
612.841	10782.09
613.198	10819.38
613.554	10753.16
613.911	10851.01
614.267	10858.92
614.624	10757.46
614.98	10870.67
615.337	10940.05
615.693	10961.97
616.05	10904.35
616.406	11006.04
616.762	10955.19
617.118	10872.48
617.475	10896.21
617.831	10999.71
618.187	10908.64
618.543	10907.51
618.899	11029.99
619.255	10932.14
619.611	10946.15
619.967	11034.29
620.323	11027.28
620.678	11058.92
621.034	10950.9
621.39	10967.17
621.746	10972.59
622.101	11140.27
622.457	11029.54
622.812	10971.24
623.168	10982.08
623.523	10990.22
623.879	11059.37
624.234	11023.89
624.589	11031.12
624.945	11082.42
625.3	11050.1
625.655	10960.84
626.01	10976.43
626.365	11029.31
626.72	10987.28
627.075	10979.15
627.43	10921.97
627.785	10918.81
628.14	10966.72
628.495	10958.58
628.85	10897.57
629.205	10925.81
629.559	10903.67
629.914	10911.8
630.269	10931.69
630.623	10827.74
630.978	10805.59
631.332	10939.83
631.687	10779.83
632.041	10875.42
632.396	10902.09
632.75	10833.61
633.104	10810.11
633.459	10907.06
633.813	10781.86
634.167	10736.44
634.521	10819.83
634.875	10788.42
635.229	10765.59
635.583	10686.95
635.937	10750.23
636.291	10693.96
636.645	10723.33
636.999	10582.55
637.352	10719.94
637.706	10704.13
638.06	10663.22
638.413	10695.31
638.767	10651.02
639.121	10643.34
639.474	10546.62
639.828	10573.96
640.181	10627.29
640.534	10583.22
640.888	10589.33
641.241	10526.28
641.594	10461.87
641.947	10532.15
642.301	10547.52
642.654	10529.67
643.007	10509.33
643.36	10519.95
643.713	10437.92
644.066	10514.3
644.419	10399.05
644.771	10370.35
645.124	10343.46
645.477	10226.85
645.83	10201.54
646.182	10200.64
646.535	10183.01
646.888	10179.62
647.24	10100.07
647.593	10098.94
647.945	10093.07
648.298	10049
648.65	10095.55
649.002	10075.89
649.355	10150.02
649.707	10134.2
650.059	10165.16
650.411	10246.96
650.763	10264.81
651.115	10338.26
651.467	10321.08
651.819	10351.37
652.171	10312.27
652.523	10324.02
652.875	10351.82
653.227	10290.8
653.578	10332.61
653.93	10305.72
654.282	10340.07
654.633	10260.3
654.985	10307.3
655.337	10359.95
655.688	10289.22
656.039	10370.35
656.391	10229.11
656.742	10251.93
657.094	10342.55
657.445	10360.18
657.796	10326.73
658.147	10297.81
658.498	10228.88
658.849	10397.47
659.2	10326.06
659.551	10221.43
659.902	10383.68
660.253	10311.37
660.604	10350.01
660.955	10213.29
661.306	10370.8
661.656	10276.79
662.007	10298.94
662.358	10267.75
662.708	10366.06
663.059	10341.42
663.409	10282.22
663.76	10375.09
664.11	10419.39
664.461	10286.96
664.811	10380.52
665.161	10381.2
665.511	10316.34
665.862	10323.34
666.212	10326.28
666.562	10380.97
666.912	10320.41
667.262	10365.6
667.612	10384.59
667.962	10318.6
668.312	10300.52
668.662	10381.65
669.011	10323.12
669.361	10269.56
669.711	10258.94
670.06	10404.25
670.41	10253.97
670.76	10297.58
671.109	10275.89
671.459	10301.2
671.808	10250.8
672.157	10275.21
672.507	10274.08
672.856	10233.18
673.205	10253.74
673.554	10152.73
673.904	10226.85
674.253	10240.18
674.602	10230.47
674.951	10062.11
675.3	10010.13
675.649	10218.49
675.998	10135.33
676.346	10127.42
676.695	10207.19
677.044	10089.45
677.393	10214.19
677.741	10187.08
678.09	10144.59
678.438	10089.45
678.787	10146.17
679.135	10141.88
679.484	10026.18
679.832	10095.33
680.181	9988.89
680.529	10040.87
680.877	9981.88
681.225	10002.22
681.573	10013.3
681.922	10017.36
682.27	9873.64
682.618	9993.18
682.966	9879.97
683.314	9915.45
683.661	9889.01
684.009	9795.22
684.357	9764.72
684.705	9825.96
685.053	9804.04
685.4	9808.33
685.748	9689.69
686.095	9711.84
686.443	9680.88
686.79	9617.83
687.138	9601.56
687.485	9691.27
687.832	9603.14
688.18	9615.79
688.527	9550.48
688.874	9505.06
689.221	9573.08
689.568	9466.64
689.915	9386.19
690.262	9508.22
690.609	9427.55
690.956	9361.79
691.303	9317.5
691.65	9269.59
691.997	9269.13
692.344	9265.07
692.69	9192.3
693.037	9230.27
693.383	9124.96
693.73	9159.08
694.077	9077.28
694.423	9121.12
694.769	9069.59
695.116	9056.03
695.462	9064.85
695.808	9015.13
696.155	9020.55
696.501	8938.97
696.847	8910.27
697.193	8875.02
697.539	8924.51
697.885	8803.61
698.231	8738.53
698.577	8752.76
698.923	8726.55
699.269	8691.07
699.614	8658.3
699.96	8651.07
700.306	8638.42
700.651	8565.65
700.997	8515.03
701.342	8490.4
701.688	8508.02
702.033	8462.38
702.379	8446.33
702.724	8364.53
703.069	8351.64
703.415	8326.79
703.76	8368.37
704.105	8324.07
704.45	8338.76
704.795	8195.49
705.14	8175.15
705.485	8111.88
705.83	8183.74
706.175	8171.99
706.52	8111.65
706.865	8100.58
707.209	8069.39
707.554	8016.51
707.899	8039.79
708.243	8012.9
708.588	8014.7
708.932	7931.32
709.277	7921.83
709.621	7938.55
709.966	7875.27
710.31	7889.74
710.654	7804.09
710.998	7825.56
711.342	7813.35
711.687	7785.11
712.031	7728.38
712.375	7736.52
712.719	7717.99
713.063	7757.08
713.407	7742.17
713.75	7761.6
714.094	7655.17
714.438	7597.09
714.782	7692.91
715.125	7656.07
715.469	7618.1
715.812	7618.33
716.156	7578.11
716.499	7617.43
716.843	7535.85
717.186	7500.14
717.53	7531.1
717.873	7589.86
718.216	7519.58
718.559	7446.58
718.902	7480.03
719.246	7441.16
719.589	7392.35
719.932	7340.82
720.275	7412.01
720.617	7337.89
720.96	7450.43
721.303	7395.29
721.646	7359.13
721.989	7368.85
722.331	7421.73
722.674	7360.26
723.016	7388.96
723.359	7343.08
723.701	7371.78
724.044	7276.87
724.386	7313.03
724.729	7284.55
725.071	7251.33
725.413	7255.18
725.755	7295.18
726.097	7242.75
726.439	7192.58
726.782	7205.01
727.124	7240.49
727.465	7251.33
727.807	7276.87
728.149	7208.17
728.491	7176.08
728.833	7150.55
729.175	7175.86
729.516	7192.81
729.858	7279.13
730.199	7292.69
730.541	7220.38
730.882	7264.89
731.224	7217.66
731.565	7136.54
731.906	7126.82
732.248	7153.26
732.589	7095.63
732.93	7110.32
733.271	7171.56
733.612	7122.52
733.953	7226.25
734.294	7151.68
734.635	7144.22
734.976	7174.05
735.317	7187.61
735.658	7106.48
735.999	7152.13
736.339	7145.8
736.68	7137.21
737.021	7164.11
737.361	7174.73
737.702	7147.16
738.042	7191.22
738.383	7211.79
738.723	7224.22
739.063	7120.94
739.404	7204.1
739.744	7184.67
740.084	7194.61
740.424	7233.48
740.764	7214.05
741.104	7214.95
741.444	7212.69
741.784	7163.65
742.124	7290.66
742.464	7257.44
742.804	7217.21
743.143	7292.69
743.483	7288.62
743.823	7299.92
744.162	7293.37
744.502	7340.15
744.841	7404.55
745.181	7334.04
745.52	7354.38
745.86	7433.48
746.199	7454.95
746.538	7514.6
746.877	7535.62
747.216	7539.01
747.556	7551.44
747.895	7605.22
748.234	7639.12
748.573	7647.71
748.911	7680.25
749.25	7778.1
749.589	7815.16
749.928	7861.49
750.267	7940.36
750.605	7971.54
750.944	7993.91
751.283	8040.47
751.621	8228.71
751.96	8220.8
752.298	8300.57
752.636	8407.46
752.975	8384.19
753.313	8455.37
753.651	8590.73
753.989	8579.89
754.327	8725.65
754.666	8766.32
755.004	8973.55
755.342	9077.28
755.679	9123.6
756.017	9119.31
756.355	9395.01
756.693	9339.64
757.031	9505.96
757.368	9579.86
757.706	9702.34
758.044	9804.94
758.381	10024.6
758.719	10129.68
759.056	10225.27
759.394	10265.49
759.731	10352.5
760.068	10563.56
760.405	10664.35
760.743	10691.47
761.08	10886.27
761.417	11057.34
761.754	11168.07
762.091	11302.98
762.428	11460.94
762.765	11489.87
763.102	11614.38
763.438	11787.03
763.775	11959.46
