Data from hue_250_FLMS001491_00022.txt Node
Date: Tue Feb 07 16:00:44 GMT 2017
User: dcchb
Spectrometer: FLMS00149
Trigger mode: 0
Integration Time (sec): 2.000000E-2
Scans to average: 10
Electric dark correction enabled: true
Nonlinearity correction enabled: false
Boxcar width: 0
XAxis mode: Wavelengths
Number of Pixels in Spectrum: 2048
>>>>>Begin Spectral Data<<<<<
341.393	-40.55
341.776	-40.55
342.16	-40.55
342.543	-60.21
342.927	-81.9
343.31	-59.98
343.693	-82.36
344.077	-51.62
344.46	-55.92
344.843	-38.29
345.226	-28.8
345.61	-38.29
345.993	-15.24
346.376	-28.12
346.759	6
347.142	15.27
347.525	60.46
347.908	64.08
348.291	74.48
348.674	101.37
349.057	76.96
349.44	128.94
349.823	129.62
350.206	154.25
350.588	185.43
350.971	208.94
351.354	217.75
351.737	223.85
352.119	234.47
352.502	251.19
352.884	256.62
353.267	260.01
353.65	272.21
354.032	296.39
354.414	301.81
354.797	301.59
355.179	304.07
355.562	292.55
355.944	301.81
356.326	310.63
356.709	318.99
357.091	306.11
357.473	314.24
357.855	317.41
358.238	316.95
358.62	338.88
359.002	323.96
359.384	348.14
359.766	340.01
360.148	328.48
360.53	318.31
360.912	302.72
361.294	331.42
361.676	347.24
362.057	327.35
362.439	344.3
362.821	311.08
363.203	290.06
363.584	324.41
363.966	309.27
364.348	322.38
364.729	311.53
365.111	311.08
365.493	333.68
365.874	299.55
366.256	324.19
366.637	309.95
367.019	311.98
367.4	288.48
367.781	276.5
368.163	297.97
368.544	302.72
368.925	291.42
369.306	291.64
369.688	307.01
370.069	301.81
370.45	294.36
370.831	305.66
371.212	290.06
371.593	314.7
371.974	297.29
372.355	296.39
372.736	301.59
373.117	301.14
373.498	312.21
373.879	300.01
374.26	281.7
374.641	296.84
375.021	304.75
375.402	319.67
375.783	314.02
376.163	323.96
376.544	313.57
376.925	317.86
377.305	331.19
377.686	300.46
378.066	310.18
378.447	312.66
378.827	322.6
379.208	310.85
379.588	316.73
379.968	312.21
380.349	324.19
380.729	315.83
381.109	333
381.489	352.66
381.87	318.08
382.25	341.81
382.63	337.52
383.01	307.24
383.39	322.38
383.77	329.84
384.15	333
384.53	338.2
384.91	327.8
385.29	326.9
385.67	340.68
386.049	346.56
386.429	347.46
386.809	358.31
387.189	334.81
387.568	343.17
387.948	353.79
388.328	358.76
388.707	343.62
389.087	365.09
389.466	365.09
389.846	359.67
390.225	366.45
390.605	366.22
390.984	366.22
391.363	384.07
391.743	377.29
392.122	375.48
392.501	352.89
392.881	360.12
393.26	364.41
393.639	395.6
394.018	365.32
394.397	374.81
394.776	372.55
395.155	384.52
395.534	361.47
395.913	370.29
396.292	394.47
396.671	378.2
397.05	380.91
397.429	391.76
397.808	382.26
398.186	378.87
398.565	404.41
398.944	398.31
399.323	392.43
399.701	402.6
400.08	417.74
400.458	408.7
400.837	407.12
401.215	420.68
401.594	402.83
401.972	408.7
402.351	444.41
402.729	435.6
403.107	443.28
403.486	429.49
403.864	424.07
404.242	436.95
404.62	443.28
404.999	433.79
405.377	438.53
405.755	436.05
406.133	433.34
406.511	452.54
406.889	456.39
407.267	463.39
407.645	464.07
408.023	478.98
408.401	499.77
408.779	477.63
409.156	488.48
409.534	477.4
409.912	521.02
410.29	499.1
410.667	492.32
411.045	505.42
411.422	529.38
411.8	522.83
412.178	534.35
412.555	548.14
412.933	529.38
413.31	537.06
413.687	551.98
414.065	563.95
414.442	574.8
414.819	591.52
415.197	595.14
415.574	592.65
415.951	589.49
416.328	612.77
416.705	604.41
417.082	618.64
417.46	622.26
417.837	617.06
418.214	631.75
418.591	659.54
418.967	648.92
419.344	672.65
419.721	657.06
420.098	658.19
420.475	667.45
420.852	688.02
421.228	687.11
421.605	691.86
421.982	739.99
422.358	697.06
422.735	742.71
423.111	722.37
423.488	750.16
423.864	761.24
424.241	782.48
424.617	777.73
424.994	777.73
425.37	793.78
425.746	799.43
426.123	814.34
426.499	810.73
426.875	810.05
427.251	836.26
427.627	856.6
428.003	881.46
428.379	866.09
428.756	885.53
429.132	887.79
429.507	910.16
429.883	893.89
430.259	927.33
430.635	932.31
431.011	943.38
431.387	957.16
431.763	980.44
432.138	984.28
432.514	992.87
432.89	999.65
433.265	1029.25
433.641	1064.28
434.016	1039.42
434.392	1040.33
434.767	1097.95
435.143	1097.05
435.518	1121.45
435.894	1128.23
436.269	1142.92
436.644	1164.62
437.02	1186.31
437.395	1190.83
437.77	1191.96
438.145	1240.32
438.52	1222.24
438.895	1261.34
439.271	1246.65
439.646	1268.12
440.021	1269.7
440.395	1301.79
440.77	1322.8
441.145	1324.39
441.52	1347.89
441.895	1367.55
442.27	1386.98
442.645	1389.47
443.019	1382.69
443.394	1413.88
443.769	1444.61
444.143	1386.53
444.518	1442.35
444.892	1451.84
445.267	1459.52
445.641	1474.21
446.016	1468.11
446.39	1471.73
446.764	1492.97
447.139	1476.7
447.513	1497.71
447.887	1516.47
448.262	1518.28
448.636	1530.26
449.01	1572.74
449.384	1581.33
449.758	1588.11
450.132	1598.05
450.506	1589.69
450.88	1651.84
451.254	1637.15
451.628	1646.64
452.002	1659.97
452.376	1688.67
452.75	1707.88
453.123	1673.08
453.497	1728.9
453.871	1758.27
454.244	1775.22
454.618	1760.76
454.992	1818.38
455.365	1796.46
455.739	1831.04
456.112	1869.23
456.486	1885.5
456.859	1891.38
457.232	1930.92
457.606	1942.22
457.979	1943.8
458.352	1993.52
458.725	2010.02
459.099	1984.93
459.472	2038.49
459.845	2070.36
460.218	2041.43
460.591	2096.57
460.964	2112.61
461.337	2180.63
461.71	2163.01
462.083	2203.01
462.456	2195.55
462.829	2209.79
463.201	2277.36
463.574	2269.67
463.947	2301.54
464.32	2365.71
464.692	2354.64
465.065	2365.26
465.438	2391.02
465.81	2417.24
466.183	2470.34
466.555	2499.04
466.928	2524.58
467.3	2502.89
467.672	2533.85
468.045	2607.52
468.417	2626.72
468.789	2663.11
469.161	2683.45
469.534	2711.24
469.906	2755.99
470.278	2760.05
470.65	2766.38
471.022	2837.11
471.394	2905.81
471.766	2884.35
472.138	2934.97
472.51	2988.52
472.882	3042.98
473.253	3036.21
473.625	3091.35
473.997	3155.3
474.369	3176.09
474.74	3238.69
475.112	3228.52
475.484	3300.15
475.855	3308.74
476.227	3362.3
476.598	3466.02
476.97	3486.36
477.341	3562.75
477.713	3576.3
478.084	3571.11
478.455	3727.49
478.827	3685.68
479.198	3821.04
479.569	3785.34
479.94	3900.82
480.311	3940.36
480.682	4003.41
481.053	4086.12
481.424	4156.63
481.795	4103.97
482.166	4211.99
482.537	4218.32
482.908	4384.87
483.279	4395.72
483.65	4447.92
484.021	4541.25
484.391	4581.93
484.762	4614.92
485.133	4648.82
485.503	4658.08
485.874	4766.33
486.244	4843.84
486.615	4919.77
486.985	4931.75
487.356	5022.59
487.726	5056.04
488.097	5144.62
488.467	5154.12
488.837	5257.39
489.207	5305.98
489.578	5346.43
489.948	5343.26
490.318	5503.71
490.688	5493.77
491.058	5599.08
491.428	5613.54
491.798	5652.63
492.168	5740.32
492.538	5742.57
492.908	5828.22
493.278	5849.69
493.648	5891.05
494.017	5931.95
494.387	6009.91
494.757	6044.04
495.126	6067.09
495.496	6117.48
495.866	6122
496.235	6170.59
496.605	6273.18
496.974	6247.19
497.344	6293.07
497.713	6333.97
498.082	6423.24
498.452	6460.07
498.821	6428.66
499.19	6438.15
499.559	6487.87
499.928	6566.73
500.298	6540.97
500.667	6625.04
501.036	6571.25
501.405	6614.42
501.774	6608.77
502.143	6671.59
502.512	6752.94
502.88	6811.25
503.249	6787.07
503.618	6797.46
503.987	6824.35
504.356	6881.98
504.724	6903.9
505.093	6896.44
505.462	7002.2
505.83	6940.51
506.199	7043.11
506.567	7092.37
506.936	7067.96
507.304	7145.02
507.672	7140.73
508.041	7169.2
508.409	7171.01
508.777	7207.17
509.145	7291.01
509.514	7288.07
509.882	7255.76
510.25	7268.86
510.618	7266.83
510.986	7320.84
511.354	7495.07
511.722	7461.63
512.09	7436.99
512.458	7463.21
512.826	7492.36
513.193	7505.47
513.561	7541.4
513.929	7546.82
514.297	7659.59
514.664	7651.9
515.032	7653.49
515.4	7812.35
515.767	7697.33
516.135	7747.04
516.502	7669.08
516.869	7791.79
517.237	7792.01
517.604	7753.37
517.972	7775.74
518.339	7767.83
518.706	7784.56
519.073	7878.56
519.44	7885.57
519.808	7983.42
520.175	7844.67
520.542	8036.07
520.909	8038.56
521.276	8007.15
521.643	8004.21
522.009	8085.34
522.376	8073.36
522.743	8080.37
523.11	8122.17
523.477	8193.13
523.843	8170.31
524.21	8311.55
524.577	8304.77
524.943	8290.3
525.31	8270.64
525.676	8376.86
526.043	8395.39
526.409	8383.64
526.776	8441.26
527.142	8460.47
527.508	8514.25
527.874	8527.59
528.241	8589.51
528.607	8537.98
528.973	8555.61
529.339	8535.5
529.705	8638.09
530.071	8621.37
530.437	8662.95
530.803	8637.19
531.169	8670.63
531.535	8734.13
531.901	8691.2
532.267	8720.12
532.632	8716.96
532.998	8695.94
533.364	8728.49
533.73	8793.57
534.095	8793.12
534.461	8797.86
534.826	8770.97
535.192	8726.45
535.557	8816.39
535.923	8754.47
536.288	8806.22
536.653	8785.43
537.019	8785.21
537.384	8799.9
537.749	8774.59
538.114	8751.54
538.479	8816.84
538.845	8763.96
539.21	8801.93
539.575	8803.06
539.94	8828.82
540.305	8847.8
540.67	8818.2
541.034	8833.79
541.399	8824.75
541.764	8813.91
542.129	8858.88
542.494	8859.56
542.858	8856.62
543.223	8866.79
543.587	8924.86
543.952	8826.11
544.316	8844.19
544.681	8803.51
545.045	8876.96
545.41	8922.15
545.774	8898.2
546.138	8890.29
546.503	8815.71
546.867	8836.96
547.231	8916.5
547.595	8855.49
547.959	8875.37
548.324	8855.04
548.688	8795.38
549.052	8871.98
549.416	8857.07
549.779	8874.92
550.143	8895.71
550.507	8936.16
550.871	8903.4
551.235	8828.82
551.599	8872.66
551.962	8934.58
552.326	8900.91
552.689	8938.2
553.053	8876.73
553.417	8912.44
553.78	8962.15
554.143	8873.57
554.507	8880.8
554.87	8992.89
555.234	8954.24
555.597	8959.21
555.96	8985.43
556.323	9008.03
556.686	9036.5
557.05	9046.67
557.413	9052.09
557.776	9035.6
558.139	9070.17
558.502	9096.61
558.865	9086.22
559.228	9113.79
559.59	9147.91
559.953	9105.2
560.316	9225.2
560.679	9173.9
561.041	9206.44
561.404	9223.84
561.767	9247.12
562.129	9243.95
562.492	9335.25
562.854	9262.03
563.217	9316.94
563.579	9323.27
563.941	9377.96
564.304	9399.88
564.666	9459.09
565.028	9398.75
565.39	9446.66
565.753	9549.03
566.115	9544.96
566.477	9573.21
566.839	9538.18
567.201	9573.21
567.563	9584.51
567.925	9652.08
568.287	9669.93
568.648	9658.63
569.01	9725.75
569.372	9793.54
569.734	9700.89
570.095	9752.87
570.457	9801
570.819	9782.69
571.18	9778.4
571.542	9903.14
571.903	9855.69
572.265	9936.59
572.626	9914.44
572.987	9904.73
573.349	9956.02
573.71	10062.46
574.071	10037.38
574.432	10022.24
574.794	10074.21
575.155	10151.72
575.516	10065.63
575.877	10151.05
576.238	10173.19
576.599	10268.11
576.96	10176.81
577.32	10216.81
577.681	10263.81
578.042	10323.7
578.403	10258.39
578.763	10275.79
579.124	10332.06
579.485	10326.41
579.845	10398.95
580.206	10435.33
580.566	10450.25
580.927	10395.79
581.287	10374.32
581.648	10438.27
582.008	10477.14
582.368	10410.7
582.728	10539.74
583.089	10509.46
583.449	10543.35
583.809	10526.18
584.169	10601.88
584.529	10569.57
584.889	10673.07
585.249	10624.93
585.609	10586.06
585.969	10639.17
586.329	10533.86
586.688	10694.08
587.048	10672.39
587.408	10619.96
587.768	10706.29
588.127	10674.2
588.487	10720.52
588.846	10786.51
589.206	10746.29
589.565	10742.44
589.925	10748.55
590.284	10817.47
590.643	10777.7
591.003	10861.76
591.362	10793.52
591.721	10738.15
592.08	10847.75
592.44	10838.94
592.799	10840.29
593.158	10841.65
593.517	10833.29
593.876	10899.5
594.235	10854.08
594.593	10889.11
594.952	10964.81
595.311	10821.54
595.67	10885.04
596.029	10975.88
596.387	11010.01
596.746	10981.99
597.104	10924.13
597.463	10972.49
597.822	10988.54
598.18	10970.69
598.538	10898.6
598.897	10985.6
599.255	10931.59
599.613	11121.19
599.972	11050.01
600.33	11029.89
600.688	10956.9
601.046	11053.4
601.404	11137.01
601.762	11054.07
602.12	11131.59
602.478	11069.21
602.836	11050.23
603.194	11077.12
603.552	11071.25
603.91	11090.01
604.268	11147.63
604.625	11094.07
604.983	11092.26
605.341	11062.21
605.698	11112.15
606.056	11133.62
606.413	11179.49
606.771	11216.56
607.128	11284.35
607.485	11132.49
607.843	11155.09
608.2	11194.41
608.557	11212.04
608.914	11131.59
609.272	11199.15
609.629	11259.72
609.986	11335.65
610.343	11250.23
610.7	11323.67
611.057	11347.63
611.414	11320.96
611.771	11302.65
612.127	11338.36
612.484	11305.14
612.841	11473.05
613.198	11319.83
613.554	11351.02
613.911	11409.09
614.267	11344.46
614.624	11342.43
614.98	11382.43
615.337	11489.32
615.693	11468.07
616.05	11497.45
616.406	11502.88
616.762	11506.04
617.118	11498.58
617.475	11395.99
617.831	11518.47
618.187	11484.34
618.543	11559.15
618.899	11551.46
619.255	11538.35
619.611	11537.45
619.967	11513.5
620.323	11549.88
620.678	11517.34
621.034	11449.54
621.39	11515.3
621.746	11447.96
622.101	11626.04
622.457	11584.68
622.812	11605.02
623.168	11641.4
623.523	11601.86
623.879	11630.56
624.234	11589.65
624.589	11556.21
624.945	11554.17
625.3	11509.43
625.655	11551.91
626.01	11571.8
626.365	11564.79
626.72	11536.77
627.075	11526.6
627.43	11477.11
627.785	11476.21
628.14	11525.25
628.495	11507.17
628.85	11523.44
629.205	11489.99
629.559	11513.95
629.914	11508.53
630.269	11498.13
630.623	11391.92
630.978	11418.36
631.332	11366.38
631.687	11378.36
632.041	11415.42
632.396	11395.76
632.75	11331.58
633.104	11410.9
633.459	11336.78
633.813	11274.63
634.167	11274.86
634.521	11348.53
634.875	11272.83
635.229	11274.63
635.583	11290
635.937	11295.42
636.291	11269.89
636.645	11257.23
636.999	11203.67
637.352	11248.87
637.706	11157.57
638.06	11211.36
638.413	11220.85
638.767	11125.26
639.121	11188.53
639.474	11135.88
639.828	11087.29
640.181	11141.3
640.534	11130.68
640.888	11093.85
641.241	10988.76
641.594	11110.57
641.947	11056.33
642.301	11085.26
642.654	11059.95
643.007	11043
643.36	10982.89
643.713	11010.23
644.066	11051.14
644.419	10926.85
644.771	10897.24
645.124	10782.22
645.477	10774.08
645.83	10684.82
646.182	10711.94
646.535	10643.92
646.888	10658.83
647.24	10573.18
647.593	10648.21
647.945	10638.49
648.298	10591.49
648.65	10650.24
649.002	10554.88
649.355	10615.44
649.707	10575.44
650.059	10630.81
650.411	10733.18
650.763	10837.81
651.115	10854.08
651.467	10787.87
651.819	10777.47
652.171	10810.46
652.523	10734.53
652.875	10807.75
653.227	10713.29
653.578	10838.03
653.93	10804.36
654.282	10715.55
654.633	10713.52
654.985	10760.75
655.337	10716.23
655.688	10836.23
656.039	10855.89
656.391	10629
656.742	10664.03
657.094	10714.65
657.445	10776.34
657.796	10743.57
658.147	10723.46
658.498	10734.31
658.849	10714.65
659.2	10699.73
659.551	10677.36
659.902	10761.43
660.253	10733.18
660.604	10771.6
660.955	10759.39
661.306	10704.7
661.656	10690.47
662.007	10782.44
662.358	10741.54
662.708	10794.87
663.059	10766.4
663.409	10713.97
663.76	10736.57
664.11	10749
664.461	10732.27
664.811	10751.93
665.161	10770.69
665.511	10656.34
665.862	10732.5
666.212	10731.37
666.562	10755.78
666.912	10746.51
667.262	10723.69
667.612	10707.19
667.962	10805.04
668.312	10747.87
668.662	10760.07
669.011	10659.51
669.361	10656.57
669.711	10710.13
670.06	10713.52
670.41	10648.66
670.76	10624.48
671.109	10670.36
671.459	10691.6
671.808	10666.06
672.157	10742.44
672.507	10602.56
672.856	10565.95
673.205	10610.7
673.554	10554.2
673.904	10604.82
674.253	10550.58
674.602	10640.07
674.951	10429.46
675.3	10380.42
675.649	10545.84
675.998	10634.88
676.346	10593.97
676.695	10578.15
677.044	10383.36
677.393	10539.06
677.741	10529.12
678.09	10430.14
678.438	10477.59
678.787	10472.17
679.135	10468.78
679.484	10438.04
679.832	10463.13
680.181	10349.46
680.529	10411.15
680.877	10480.3
681.225	10337.26
681.573	10318.27
681.922	10283.92
682.27	10268.11
682.618	10343.58
682.966	10219.97
683.314	10320.76
683.661	10245.28
684.009	10180.65
684.357	10186.98
684.705	10096.58
685.053	10156.24
685.4	10153.53
685.748	10075.79
686.095	10129.35
686.443	10086.87
686.79	10072.18
687.138	10055.46
687.485	10005.06
687.832	9958.96
688.18	9993.08
688.527	9967.1
688.874	9955.35
689.221	9911.73
689.568	9876.93
689.915	9832.86
690.262	9870.38
690.609	9796.93
690.956	9764.84
691.303	9714.67
691.65	9681.45
691.997	9620.89
692.344	9669.25
692.69	9618.18
693.037	9648.46
693.383	9577.5
693.73	9565.07
694.077	9513.55
694.423	9447.79
694.769	9461.57
695.116	9465.41
695.462	9399.65
695.808	9348.81
696.155	9424.29
696.501	9328.47
696.847	9300
697.193	9270.84
697.539	9300.45
697.885	9184.52
698.231	9216.38
698.577	9148.36
698.923	9124.41
699.269	9148.81
699.614	9105.42
699.96	9017.74
700.306	9074.46
700.651	8936.16
700.997	8958.76
701.342	8934.13
701.688	8874.47
702.033	8894.58
702.379	8861.14
702.724	8802.61
703.069	8775.94
703.415	8668.83
703.76	8768.94
704.105	8735.72
704.45	8722.84
704.795	8607.36
705.14	8566.91
705.485	8637.19
705.83	8549.05
706.175	8524.2
706.52	8560.58
706.865	8495.72
707.209	8481.03
707.554	8481.94
707.899	8413.92
708.243	8421.15
708.588	8419.79
708.932	8299.57
709.277	8272
709.621	8323.75
709.966	8242.62
710.31	8237.42
710.654	8231.32
710.998	8191.1
711.342	8243.53
711.687	8214.83
712.031	8149.97
712.375	8146.81
712.719	8163.98
713.063	8131.89
713.407	8196.3
713.75	8019.35
714.094	8083.53
714.438	8061.61
714.782	8042.4
715.125	8076.07
715.469	8053.47
715.812	7954.27
716.156	7956.53
716.499	8036.3
716.843	7983.42
717.186	7903.65
717.53	7965.34
717.873	7954.72
718.216	7952.91
718.559	7871.33
718.902	7821.39
719.246	7848.96
719.589	7826.14
719.932	7844.67
720.275	7827.27
720.617	7787.72
720.96	7786.59
721.303	7806.7
721.646	7789.53
721.989	7696.42
722.331	7788.62
722.674	7693.94
723.016	7721.73
723.359	7737.1
723.701	7781.17
724.044	7664.33
724.386	7591.79
724.729	7689.19
725.071	7639.93
725.413	7636.99
725.755	7615.07
726.097	7556.31
726.439	7543.66
726.782	7618.23
727.124	7633.6
727.465	7514.51
727.807	7606.48
728.149	7527.39
728.491	7555.63
728.833	7617.1
729.175	7589.76
729.516	7525.8
729.858	7514.73
730.199	7520.83
730.541	7508.86
730.882	7522.42
731.224	7439.25
731.565	7515.64
731.906	7457.11
732.248	7535.3
732.589	7502.08
732.93	7409.42
733.271	7459.59
733.612	7503.43
733.953	7537.1
734.294	7493.04
734.635	7456.43
734.976	7467.05
735.317	7459.14
735.658	7427.5
735.999	7460.95
736.339	7444
736.68	7465.47
737.021	7479.03
737.361	7362.65
737.702	7431.34
738.042	7445.81
738.383	7423.43
738.723	7448.07
739.063	7442.87
739.404	7443.1
739.744	7483.32
740.084	7394.96
740.424	7506.37
740.764	7434.96
741.104	7461.85
741.444	7433.15
741.784	7487.16
742.124	7520.16
742.464	7480.38
742.804	7475.41
743.143	7491.23
743.483	7546.6
743.823	7475.18
744.162	7503.43
744.502	7506.14
744.841	7485.35
745.181	7615.29
745.52	7558.35
745.86	7630.21
746.199	7600.15
746.538	7641.96
746.877	7720.6
747.216	7708.17
747.556	7672.02
747.895	7780.04
748.234	7785.46
748.573	7775.06
748.911	7837.44
749.25	7889.64
749.589	7864.1
749.928	7939.81
750.267	7975.74
750.605	8008.73
750.944	8004.89
751.283	8056.86
751.621	8194.04
751.96	8240.36
752.298	8233.58
752.636	8281.94
752.975	8328.5
753.313	8363.3
753.651	8474.93
753.989	8561.48
754.327	8640.13
754.666	8653.23
755.004	8758.31
755.342	8863.62
755.679	8874.7
756.017	8967.8
756.355	9067.23
756.693	9138.42
757.031	9187
757.368	9313.33
757.706	9405.08
758.044	9476.26
758.381	9555.36
758.719	9686.2
759.056	9805.74
759.394	9878.51
759.731	9868.57
760.068	10048.22
760.405	10055.23
760.743	10208.9
761.08	10304.71
761.417	10469.46
761.754	10520.98
762.091	10596.46
762.428	10747.42
762.765	10778.15
763.102	10966.39
