Data from hue_90_FLMS001491_34.txt Node
Date: Mon Feb 06 15:25:02 GMT 2017
User: dcchb
Spectrometer: FLMS00149
Trigger mode: 0
Integration Time (sec): 2.000000E-2
Scans to average: 10
Electric dark correction enabled: true
Nonlinearity correction enabled: false
Boxcar width: 0
XAxis mode: Wavelengths
Number of Pixels in Spectrum: 2048
>>>>>Begin Spectral Data<<<<<
341.393	-22.5
341.776	-22.5
342.16	-22.5
342.543	-46.45
342.927	-63.63
343.31	-68.6
343.693	-66.79
344.077	-80.35
344.46	-40.35
344.843	-55.94
345.226	-56.85
345.61	-19.11
345.993	-21.37
346.376	-8.94
346.759	-5.32
347.142	23.38
347.525	49.36
347.908	61.57
348.291	74
348.674	95.92
349.057	119.42
349.44	130.94
349.823	129.81
350.206	158.29
350.588	214.78
350.971	196.48
351.354	225.63
351.737	239.19
352.119	251.17
352.502	258.85
352.884	261.33
353.267	277.38
353.65	279.19
354.032	289.58
354.414	290.71
354.797	310.83
355.179	313.31
355.562	339.3
355.944	355.12
356.326	333.88
356.709	332.97
357.091	320.32
357.473	342.91
357.855	345.17
358.238	354.21
358.62	359.64
359.002	339.52
359.384	340.43
359.766	329.36
360.148	327.1
360.53	351.5
360.912	360.32
361.294	329.81
361.676	326.64
362.057	327.55
362.439	339.52
362.821	335.46
363.203	334.33
363.584	328.23
363.966	319.64
364.348	322.12
364.729	328.68
365.111	329.36
365.493	333.42
365.874	324.38
366.256	332.07
366.637	327.1
367.019	307.21
367.4	312.41
367.781	316.47
368.163	338.4
368.544	304.27
368.925	314.67
369.306	322.35
369.688	329.81
370.069	298.17
370.45	308.34
370.831	320.99
371.212	328.23
371.593	323.93
371.974	320.32
372.355	330.71
372.736	308.11
373.117	333.42
373.498	339.07
373.879	328
374.26	327.32
374.641	308.11
375.021	307.21
375.402	334.33
375.783	320.99
376.163	324.16
376.544	312.63
376.925	330.71
377.305	333.42
377.686	337.72
378.066	337.72
378.447	341.78
378.827	342.91
379.208	340.43
379.588	343.59
379.968	341.33
380.349	344.04
380.729	341.78
381.109	329.36
381.489	333.88
381.87	334.55
382.25	356.47
382.63	351.28
383.01	350.82
383.39	347.43
383.77	353.54
384.15	347.66
384.53	373.87
384.91	356.02
385.29	355.34
385.67	358.06
386.049	358.96
386.429	372.52
386.809	355.34
387.189	349.02
387.568	373.65
387.948	382.24
388.328	369.81
388.707	396.7
389.087	360.09
389.466	369.35
389.846	365.29
390.225	376.81
390.605	395.34
390.984	385.17
391.363	376.36
391.743	406.19
392.122	378.17
392.501	370.48
392.881	383.37
393.26	387.43
393.639	402.57
394.018	399.86
394.397	418.62
394.776	380.43
395.155	403.48
395.534	376.81
395.913	417.26
396.292	424.95
396.671	406.19
397.05	421.56
397.429	404.83
397.808	432.86
398.186	397.38
398.565	409.35
398.944	426.75
399.323	412.07
399.701	403.93
400.08	450.93
400.458	405.96
400.837	423.36
401.215	416.81
401.594	419.52
401.972	426.98
402.351	414.1
402.729	445.06
403.107	419.75
403.486	425.62
403.864	421.78
404.242	447.09
404.62	453.42
404.999	444.15
405.377	450.26
405.755	456.58
406.133	449.58
406.511	457.94
406.889	445.96
407.267	461.56
407.645	459.3
408.023	473.08
408.401	474.66
408.779	448.45
409.156	476.24
409.534	475.11
409.912	482.57
410.29	487.54
410.667	478.5
411.045	498.16
411.422	486.19
411.8	476.92
412.178	508.11
412.555	525.73
412.933	500.88
413.31	516.7
413.687	494.78
414.065	510.59
414.442	506.98
414.819	544.49
415.197	527.09
415.574	520.31
415.951	527.77
416.328	544.94
416.705	546.3
417.082	539.97
417.46	551.72
417.837	556.69
418.214	551.04
418.591	533.19
418.967	535.68
419.344	576.35
419.721	572.06
420.098	558.28
420.475	585.62
420.852	576.81
421.228	578.39
421.605	586.07
421.982	560.99
422.358	599.86
422.735	612.06
423.111	603.25
423.488	620.65
423.864	616.13
424.241	618.61
424.617	625.17
424.994	619.74
425.37	622.23
425.746	631.72
426.123	647.54
426.499	645.05
426.875	647.09
427.251	652.29
427.627	657.93
428.003	660.19
428.379	650.25
428.756	674.88
429.132	663.13
429.507	688.44
429.883	707.65
430.259	692.28
430.635	685.28
431.011	708.78
431.387	719.63
431.763	720.76
432.138	728.89
432.514	739.74
432.89	736.12
433.265	760.98
433.641	761.43
434.016	754.88
434.392	774.77
434.767	787.42
435.143	805.28
435.518	786.07
435.894	807.76
436.269	809.8
436.644	826.74
437.02	811.83
437.395	823.58
437.77	827.65
438.145	818.16
438.52	847.99
438.895	862.68
439.271	843.01
439.646	884.14
440.021	862.9
440.395	871.49
440.77	885.05
441.145	887.08
441.52	902.9
441.895	887.53
442.27	903.13
442.645	919.4
443.019	898.15
443.394	909.91
443.769	939.51
444.143	918.27
444.518	929.57
444.892	939.96
445.267	946.74
445.641	952.39
446.016	944.48
446.39	966.63
446.764	981.54
447.139	976.8
447.513	992.84
447.887	1004.14
448.262	989.45
448.636	1019.51
449.01	998.26
449.384	1032.84
449.758	1030.13
450.132	1043.69
450.506	1064.03
450.88	1059.96
451.254	1042.33
451.628	1075.55
452.002	1078.94
452.376	1094.76
452.75	1091.6
453.123	1111.71
453.497	1104.48
453.871	1137.7
454.244	1162.33
454.618	1145.61
454.992	1154.42
455.365	1188.77
455.739	1175.44
456.112	1219.73
456.486	1237.81
456.859	1237.35
457.232	1274.87
457.606	1241.42
457.979	1251.14
458.352	1306.73
458.725	1294.3
459.099	1291.14
459.472	1344.47
459.845	1346.96
460.218	1361.19
460.591	1385.6
460.964	1378.59
461.337	1412.49
461.71	1422.43
462.083	1463.79
462.456	1450.23
462.829	1465.15
463.201	1479.61
463.574	1510.57
463.947	1540.17
464.32	1559.38
464.692	1579.27
465.065	1600.28
465.438	1621.07
465.81	1637.8
466.183	1639.38
466.555	1693.16
466.928	1730.45
467.3	1759.6
467.672	1773.16
468.045	1793.95
468.417	1844.34
468.789	1801.41
469.161	1854.74
469.534	1898.81
469.906	1932.25
470.278	1976.54
470.65	2018.12
471.022	2045.24
471.394	2078.01
471.766	2114.85
472.138	2178.35
472.51	2211.57
472.882	2268.29
473.253	2285.46
473.625	2320.04
473.997	2381.05
474.369	2383.31
474.74	2482.29
475.112	2508.73
475.484	2584.66
475.855	2662.85
476.227	2712.8
476.598	2795.05
476.97	2861.49
477.341	2922.96
477.713	3020.13
478.084	3033.69
478.455	3131.32
478.827	3216.06
479.198	3290.18
479.569	3394.81
479.94	3487.24
480.311	3551.19
480.682	3665.09
481.053	3809.26
481.424	3872.31
481.795	3957.73
482.166	4033.89
482.537	4160.89
482.908	4328.35
483.279	4404.5
483.65	4540.09
484.021	4611.05
484.391	4748.45
484.762	4875.9
485.133	4966.75
485.503	5067.76
485.874	5206.97
486.244	5359.73
486.615	5498.49
486.985	5657.35
487.356	5794.75
487.726	5917.01
488.097	6089.66
488.467	6240.39
488.837	6363.1
489.207	6549.53
489.578	6667.49
489.948	6802.18
490.318	7013.02
490.688	7105
491.058	7266.12
491.428	7404.88
491.798	7544.53
492.168	7748.6
492.538	7899.33
492.908	8085.54
493.278	8289.37
493.648	8315.81
494.017	8543.6
494.387	8658.85
494.757	8847.1
495.126	8987.89
495.496	9065.17
495.866	9176.58
496.235	9389.68
496.605	9543.58
496.974	9656.12
497.344	9786.96
497.713	9866.73
498.082	10070.79
498.452	10201.86
498.821	10273.95
499.19	10351.47
499.559	10511.69
499.928	10664.23
500.298	10812.92
500.667	10898.57
501.036	10928.85
501.405	11170.88
501.774	11162.29
502.143	11276.19
502.512	11419.91
502.88	11569.96
503.249	11600.47
503.618	11753.24
503.987	11838.66
504.356	11982.38
504.724	11977.64
505.093	12160.01
505.462	12179.89
505.83	12296.05
506.199	12391.19
506.567	12569.94
506.936	12588.47
507.304	12708.69
507.672	12854.45
508.041	12786.66
508.409	12969.02
508.777	13046.31
509.145	13163.14
509.514	13192.29
509.882	13206.98
510.25	13258.06
510.618	13478.84
510.986	13420.08
511.354	13514.32
511.722	13686.52
512.09	13772.39
512.458	13663.69
512.826	13766.97
513.193	13873.41
513.561	13885.16
513.929	13953.18
514.297	14109.11
514.664	14226.84
515.032	14148.65
515.4	14265.94
515.767	14353.62
516.135	14383.45
516.502	14226.39
516.869	14585.03
517.237	14523.78
517.604	14408.08
517.972	14541.64
518.339	14647.17
518.706	14678.36
519.073	14699.37
519.44	14729.88
519.808	14836.32
520.175	14842.65
520.542	15005.81
520.909	14961.29
521.276	14899.59
521.643	15039.93
522.009	15112.24
522.376	15141.85
522.743	15224.78
523.11	15223.2
523.477	15365.8
523.843	15380.03
524.21	15479.01
524.577	15533.25
524.943	15547.03
525.31	15524.21
525.676	15608.95
526.043	15705.22
526.409	15646.02
526.776	15740.48
527.142	15735.96
527.508	15839
527.874	15835.16
528.241	15897.76
528.607	15811.66
528.973	16009.17
529.339	15901.83
529.705	15934.14
530.071	16085.33
530.437	16043.29
530.803	16012.11
531.169	16011.88
531.535	15988.38
531.901	15994.71
532.267	15984.99
532.632	16076.96
532.998	15979.34
533.364	16071.77
533.73	16028.6
534.095	16071.77
534.461	15973.46
534.826	16042.84
535.192	16008.49
535.557	16060.92
535.923	16015.95
536.288	16009.4
536.653	16066.12
537.019	15861.6
537.384	15914.48
537.749	15989.06
538.114	15924.65
538.479	15871.55
538.845	15869.51
539.21	15808.5
539.575	15788.61
539.94	15737.09
540.305	15809.85
540.67	15721.95
541.034	15772.11
541.399	15787.48
541.764	15656.41
542.129	15678.78
542.494	15600.59
542.858	15671.1
543.223	15520.82
543.587	15569.86
543.952	15542.29
544.316	15476.08
544.681	15429.3
545.045	15427.04
545.41	15458.45
545.774	15331.22
546.138	15324.44
546.503	15413.7
546.867	15284.22
547.231	15359.92
547.595	15302.3
547.959	15180.94
548.324	15117.67
548.688	15128.29
549.052	15174.39
549.416	15152.69
549.779	15109.98
550.143	15145.46
550.507	15101.17
550.871	15011.68
551.235	15018.91
551.599	15071.57
551.962	15014.62
552.326	14993.83
552.689	15011
553.053	14858.24
553.417	14860.05
553.78	14946.82
554.143	14912.93
554.507	14915.19
554.87	14818.47
555.234	14875.19
555.597	14724.23
555.96	14865.24
556.323	14803.1
556.686	14719.94
557.05	14819.6
557.413	14766.26
557.776	14823.66
558.139	14873.15
558.502	14753.38
558.865	14804.23
559.228	14821.18
559.59	14831.35
559.953	14770.78
560.316	14885.13
560.679	14953.15
561.041	14888.52
561.404	14901.18
561.767	14872.7
562.129	14812.14
562.492	14841.52
562.854	14838.8
563.217	14888.75
563.579	14873.83
563.941	14829.99
564.304	14935.75
564.666	14964.68
565.028	14990.67
565.39	14971.91
565.753	15024.79
566.115	15031.12
566.477	15059.59
566.839	14982.98
567.201	15241.51
567.563	15103.88
567.925	15191.34
568.287	15153.6
568.648	15068.63
569.01	15201.06
569.372	15287.38
569.734	15120.38
570.095	15269.98
570.457	15326.02
570.819	15291.22
571.18	15331.67
571.542	15346.14
571.903	15323.54
572.265	15444.44
572.626	15398.79
572.987	15354.27
573.349	15448.96
573.71	15431.78
574.071	15412.57
574.432	15489.64
574.794	15511.1
575.155	15562.18
575.516	15433.14
575.877	15571.44
576.238	15489.86
576.599	15603.98
576.96	15554.04
577.32	15629.74
577.681	15638.56
578.042	15619.58
578.403	15598.33
578.763	15543.87
579.124	15588.84
579.485	15624.09
579.845	15621.84
580.206	15552.68
580.566	15657.54
580.927	15683.53
581.287	15653.7
581.648	15586.36
582.008	15702.96
582.368	15575.06
582.728	15628.16
583.089	15552.46
583.449	15609.86
583.809	15579.8
584.169	15649.63
584.529	15487.38
584.889	15624.09
585.249	15516.08
585.609	15545.45
585.969	15527.6
586.329	15569.41
586.688	15589.75
587.048	15392.01
587.408	15536.64
587.768	15493.48
588.127	15476.08
588.487	15430.43
588.846	15531.89
589.206	15408.51
589.565	15446.02
589.925	15473.82
590.284	15415.51
590.643	15463.2
591.003	15545.23
591.362	15501.84
591.721	15444.44
592.08	15500.93
592.44	15486.02
592.799	15463.87
593.158	15426.13
593.517	15422.97
593.876	15407.15
594.235	15376.64
594.593	15365.34
594.952	15374.38
595.311	15361.05
595.67	15390.65
596.029	15433.14
596.387	15423.2
596.746	15417.32
597.104	15355.63
597.463	15374.61
597.822	15433.82
598.18	15360.6
598.538	15331.9
598.897	15405.12
599.255	15316.53
599.613	15467.26
599.972	15349.98
600.33	15416.42
600.688	15246.03
601.046	15435.17
601.404	15436.53
601.762	15387.26
602.12	15476.3
602.478	15430.65
602.836	15447.83
603.194	15388.62
603.552	15313.82
603.91	15283.54
604.268	15406.25
604.625	15239.25
604.983	15329.87
605.341	15323.54
605.698	15387.72
606.056	15435.85
606.413	15439.24
606.771	15464.55
607.128	15416.19
607.485	15308.62
607.843	15463.87
608.2	15490.99
608.557	15540.03
608.914	15473.14
609.272	15538.22
609.629	15536.41
609.986	15572.34
610.343	15574.6
610.7	15606.69
611.057	15539.8
611.414	15575.28
611.771	15548.16
612.127	15583.19
612.484	15622.96
612.841	15638.11
613.198	15645.11
613.554	15581.16
613.911	15671.55
614.267	15637.88
614.624	15719.23
614.98	15650.31
615.337	15749.52
615.693	15719.91
616.05	15776.41
616.406	15817.76
616.762	15699.12
617.118	15687.82
617.475	15650.53
617.831	15788.61
618.187	15744.77
618.543	15827.03
618.899	15854.37
619.255	15769.63
619.611	15839.23
619.967	15840.36
620.323	15891.66
620.678	15831.32
621.034	15819.12
621.39	15848.72
621.746	15790.64
622.101	15931.66
622.457	15836.97
622.812	15877.42
623.168	15831.32
623.523	15912.45
623.879	15885.56
624.234	15813.24
624.589	15890.08
624.945	15891.88
625.3	15891.43
625.655	15811.43
626.01	15862.51
626.365	15929.17
626.72	15878.55
627.075	15823.64
627.43	15881.49
627.785	15821.38
628.14	15862.51
628.495	15802.62
628.85	15825.45
629.205	15762.62
629.559	15947.02
629.914	15801.94
630.269	15827.71
630.623	15748.16
630.978	15726.01
631.332	15793.36
631.687	15769.85
632.041	15694.38
632.396	15751.1
632.75	15757.65
633.104	15710.65
633.459	15588.16
633.813	15583.19
634.167	15642.17
634.521	15507.49
634.875	15644.66
635.229	15499.8
635.583	15539.13
635.937	15513.14
636.291	15436.98
636.645	15552.01
636.999	15453.03
637.352	15540.48
637.706	15397.89
638.06	15500.93
638.413	15452.57
638.767	15370.77
639.121	15422.29
639.474	15325.12
639.828	15369.41
640.181	15395.4
640.534	15350.43
640.888	15253.26
641.241	15146.82
641.594	15226.14
641.947	15277.44
642.301	15246.25
642.654	15245.57
643.007	15214.39
643.36	15313.37
643.713	15190.89
644.066	15288.96
644.419	15156.31
644.771	15079.7
645.124	14969.42
645.477	14866.37
645.83	14776.89
646.182	14819.14
646.535	14620.51
646.888	14829.31
647.24	14708.64
647.593	14699.6
647.945	14706.6
648.298	14642.2
648.65	14678.36
649.002	14593.39
649.355	14730.78
649.707	14661.86
650.059	14759.71
650.411	14855.53
650.763	14921.29
651.115	14971.46
651.467	14893.49
651.819	14981.17
652.171	14933.49
652.523	14813.95
652.875	14903.89
653.227	14897.33
653.578	15048.97
653.93	14944.34
654.282	14948.63
654.633	14863.66
654.985	14849.88
655.337	14932.36
655.688	14976.43
656.039	14980.27
656.391	14902.08
656.742	14895.07
657.094	14925.13
657.445	14948.86
657.796	14959.03
658.147	14886.26
658.498	14861.4
658.849	14908.63
659.2	14898.46
659.551	14854.85
659.902	15019.59
660.253	14872.7
660.604	15006.48
660.955	14893.04
661.306	14986.15
661.656	14891.91
662.007	14959.71
662.358	14904.34
662.708	14863.21
663.059	14988.41
663.409	14781.63
663.76	15003.09
664.11	14916.54
664.461	14948.63
664.811	14923.77
665.161	15012.59
665.511	14920.38
665.862	14982.98
666.212	14948.41
666.562	15060.49
666.912	14978.91
667.262	14973.26
667.612	14973.26
667.962	15039.03
668.312	14913.61
668.662	15004.68
669.011	14954.96
669.361	14866.15
669.711	14925.81
670.06	14979.37
670.41	14822.31
670.76	15009.42
671.109	14980.5
671.459	14979.59
671.808	14852.82
672.157	14963.32
672.507	14795.64
672.856	14779.37
673.205	14837.22
673.554	14925.13
673.904	14793.61
674.253	14942.3
674.602	14815.75
674.951	14679.71
675.3	14619.6
675.649	14812.59
675.998	14761.52
676.346	14702.99
676.695	14798.58
677.044	14623.67
677.393	14709.77
677.741	14746.6
678.09	14648.98
678.438	14629.54
678.787	14639.71
679.135	14658.92
679.484	14590
679.832	14577.57
680.181	14517.01
680.529	14571.47
680.877	14526.95
681.225	14555.2
681.573	14573.73
681.922	14407.4
682.27	14459.61
682.618	14442.43
682.966	14368.31
683.314	14372.83
683.661	14371.92
684.009	14277.69
684.357	14252.61
684.705	14198.82
685.053	14183.91
685.4	14168.99
685.748	14121.54
686.095	14086.06
686.443	14030.01
686.79	14088.09
687.138	14032.27
687.485	14092.38
687.832	13980.07
688.18	13898.72
688.527	13838.15
688.874	13978.94
689.221	13842.67
689.568	13747.08
689.915	13792.73
690.262	13760.19
690.609	13735.33
690.956	13702.11
691.303	13677.25
691.65	13562.68
691.997	13603.13
692.344	13466.19
692.69	13425.73
693.037	13381.67
693.383	13309.81
693.73	13352.06
694.077	13308.68
694.423	13272.29
694.769	13204.05
695.116	13228
695.462	13068.91
695.808	13124.73
696.155	13055.12
696.501	13001.34
696.847	12944.62
697.193	12842.25
697.539	12900.78
697.885	12800.21
698.231	12786.43
698.577	12753.66
698.923	12718.86
699.269	12612.87
699.614	12581.24
699.96	12487.68
700.306	12630.05
700.651	12477.28
700.997	12434.35
701.342	12432.99
701.688	12335.59
702.033	12390.96
702.379	12331.98
702.724	12231.64
703.069	12290.17
703.415	12106.9
703.76	12034.58
704.105	12108.26
704.45	12050.4
704.795	11969.73
705.14	11966.79
705.485	11927.92
705.83	11815.83
706.175	11915.72
706.52	11856.74
706.865	11765.44
707.209	11750.75
707.554	11711.43
707.899	11724.76
708.243	11669.17
708.588	11696.29
708.932	11575.61
709.277	11516.18
709.621	11531.77
709.966	11425.34
710.31	11559.34
710.654	11381.27
710.998	11427.82
711.342	11358.22
711.687	11385.11
712.031	11334.26
712.375	11288.84
712.719	11345.56
713.063	11332.91
713.407	11305.56
713.75	11187.83
714.094	11238.67
714.438	11140.14
714.782	11186.02
715.125	11132.01
715.469	11106.47
715.812	11137.43
716.156	11031.22
716.499	11041.39
716.843	11063.76
717.186	10983.54
717.53	11042.07
717.873	11028.96
718.216	11012.46
718.559	10881.62
718.902	10850.66
719.246	10905.12
719.589	10847.5
719.932	10847.72
720.275	10840.04
720.617	10841.17
720.96	10898.57
721.303	10768.4
721.646	10794.39
721.989	10702.87
722.331	10796.43
722.674	10754.39
723.016	10724.79
723.359	10779.48
723.701	10766.6
724.044	10703.77
724.386	10567.73
724.729	10586.94
725.071	10705.35
725.413	10652.7
725.755	10672.59
726.097	10591.23
726.439	10544.45
726.782	10567.96
727.124	10585.58
727.465	10530.9
727.807	10570.89
728.149	10568.18
728.491	10568.86
728.833	10614.51
729.175	10478.47
729.516	10511.69
729.858	10561.4
730.199	10528.18
730.541	10524.57
730.882	10493.38
731.224	10544.23
731.565	10415.64
731.906	10505.59
732.248	10494.29
732.589	10474.4
732.93	10480.05
733.271	10428.3
733.612	10473.5
733.953	10503.33
734.294	10355.08
734.635	10421.52
734.976	10498.13
735.317	10389.43
735.658	10412.48
735.999	10449.32
736.339	10374.06
736.68	10473.04
737.021	10431.91
737.361	10391.69
737.702	10487.28
738.042	10523.21
738.383	10529.09
738.723	10485.25
739.063	10443.89
739.404	10454.29
739.744	10451.35
740.084	10446.15
740.424	10425.14
740.764	10489.99
741.104	10544.23
741.444	10464
741.784	10464.68
742.124	10547.84
742.464	10513.72
742.804	10448.86
743.143	10536.54
743.483	10566.83
743.823	10520.73
744.162	10631.91
744.502	10649.31
744.841	10611.12
745.181	10832.81
745.52	10734.51
745.86	10782.87
746.199	10760.49
746.538	10793.94
746.877	10971.11
747.216	11015.63
747.556	10989.41
747.895	11136.08
748.234	11023.09
748.573	11022.86
748.911	11161.61
749.25	11214.04
749.589	11318.45
749.928	11426.47
750.267	11341.5
750.605	11502.4
750.944	11588.95
751.283	11669.17
751.621	11755.95
751.96	11856.96
752.298	12001.37
752.636	12089.72
752.975	12098.31
753.313	12210.63
753.651	12386.89
753.989	12484.29
754.327	12621.24
754.666	12606.77
755.004	12781.68
755.342	12933.32
755.679	12997.27
