Data from hue_330_FLMS001491_100.txt Node
Date: Mon Feb 06 15:46:12 GMT 2017
User: dcchb
Spectrometer: FLMS00149
Trigger mode: 0
Integration Time (sec): 2.000000E-2
Scans to average: 10
Electric dark correction enabled: true
Nonlinearity correction enabled: false
Boxcar width: 0
XAxis mode: Wavelengths
Number of Pixels in Spectrum: 2048
>>>>>Begin Spectral Data<<<<<
341.393	-9.65
341.776	-9.65
342.16	-9.65
342.543	-57.1
342.927	-71.11
343.31	-82.19
343.693	-71.79
344.077	-72.24
344.46	-43.54
344.843	-59.36
345.226	-38.12
345.61	-22.98
345.993	-33.83
346.376	-8.29
346.759	17.02
347.142	14.53
347.525	46.85
347.908	58.15
348.291	77.58
348.674	99.73
349.057	118.49
349.44	116.45
349.823	140.63
350.206	155.32
350.588	185.6
350.971	218.82
351.354	226.05
351.737	251.59
352.119	247.07
352.502	248.43
352.884	280.06
353.267	280.97
353.65	274.19
354.032	296.79
354.414	302.21
354.797	314.19
355.179	306.73
355.562	316.9
355.944	325.03
356.326	349.44
356.709	335.66
357.091	351.25
357.473	340.63
357.855	328.2
358.238	361.42
358.62	340.17
359.002	320.97
359.384	348.54
359.766	347.41
360.148	335.88
360.53	342.89
360.912	345.15
361.294	363
361.676	352.15
362.057	343.56
362.439	355.32
362.821	344.02
363.203	305.83
363.584	310.12
363.966	325.26
364.348	314.64
364.729	337.01
365.111	318.48
365.493	318.71
365.874	318.48
366.256	309.89
366.637	326.16
367.019	321.87
367.4	315.54
367.781	310.34
368.163	312.38
368.544	306.96
368.925	321.19
369.306	330.91
369.688	305.15
370.069	323.9
370.45	319.84
370.831	297.92
371.212	325.94
371.593	318.93
371.974	305.15
372.355	316.67
372.736	304.92
373.117	314.41
373.498	322.77
373.879	293.85
374.26	303.34
374.641	312.38
375.021	323
375.402	329.78
375.783	317.58
376.163	318.71
376.544	335.43
376.925	324.58
377.305	324.13
377.686	325.49
378.066	320.06
378.447	331.81
378.827	335.2
379.208	327.75
379.588	321.19
379.968	355.32
380.349	324.58
380.729	329.78
381.109	323.68
381.489	328.42
381.87	332.49
382.25	350.57
382.63	343.34
383.01	356.67
383.39	334.75
383.77	355.09
384.15	345.6
384.53	350.12
384.91	317.12
385.29	356.45
385.67	349.89
386.049	339.04
386.429	341.76
386.809	343.56
387.189	340.63
387.568	350.8
387.948	342.89
388.328	367.29
388.707	372.94
389.087	347.18
389.466	342.21
389.846	363.22
390.225	384.24
390.605	369.1
390.984	366.61
391.363	360.51
391.743	374.75
392.122	381.08
392.501	361.87
392.881	394.18
393.26	374.75
393.639	379.27
394.018	389.44
394.397	382.66
394.776	385.37
395.155	364.81
395.534	370.46
395.913	367.07
396.292	384.02
396.671	378.37
397.05	393.28
397.429	416.1
397.808	396.22
398.186	378.59
398.565	376.56
398.944	396.67
399.323	417.91
399.701	376.33
400.08	393.51
400.458	398.25
400.837	419.95
401.215	396.44
401.594	389.66
401.972	392.15
402.351	390.79
402.729	407.97
403.107	395.77
403.486	396.67
403.864	411.36
404.242	420.17
404.62	412.49
404.999	418.82
405.377	416.33
405.755	431.25
406.133	417.91
406.511	441.87
406.889	446.84
407.267	432.6
407.645	460.62
408.023	440.51
408.401	457.91
408.779	451.36
409.156	477.57
409.534	483.45
409.912	452.49
410.29	466.73
410.667	493.84
411.045	477.57
411.422	483.67
411.8	486.84
412.178	524.12
412.555	508.53
412.933	510.34
413.31	537.68
413.687	539.94
414.065	514.63
414.442	519.83
414.819	528.19
415.197	543.11
415.574	541.3
415.951	532.71
416.328	556.44
416.705	546.5
417.082	552.15
417.46	582.65
417.837	561.64
418.214	581.52
418.591	592.6
418.967	599.83
419.344	607.29
419.721	608.64
420.098	595.54
420.475	622.88
420.852	620.17
421.228	630.11
421.605	615.65
421.982	639.38
422.358	644.8
422.735	676.89
423.111	643.22
423.488	650.45
423.864	674.18
424.241	692.03
424.617	672.37
424.994	685.02
425.37	696.1
425.746	708.3
426.123	726.61
426.499	735.42
426.875	716.44
427.251	714.4
427.627	738.58
428.003	732.93
428.379	756.89
428.756	755.98
429.132	762.76
429.507	772.25
429.883	767.06
430.259	799.82
430.635	801.18
431.011	786.26
431.387	821.97
431.763	812.03
432.138	831.69
432.514	818.13
432.89	853.16
433.265	840.73
433.641	874.17
434.016	893.38
434.392	874.62
434.767	887.28
435.143	889.99
435.518	909.88
435.894	913.49
436.269	918.24
436.644	933.38
437.02	930.89
437.395	930.67
437.77	941.97
438.145	956.66
438.52	962.76
438.895	990.78
439.271	993.72
439.646	977.22
440.021	1001.17
440.395	1021.74
440.77	977.45
441.145	1010.67
441.52	1045.47
441.895	1024.68
442.27	1008.86
442.645	1040.04
443.019	1049.08
443.394	1024.45
443.769	1068.52
444.143	1047.27
444.518	1057.9
444.892	1055.41
445.267	1058.35
445.641	1069.2
446.016	1079.36
446.39	1062.64
446.764	1070.78
447.139	1075.3
447.513	1094.73
447.887	1093.83
448.262	1091.57
448.636	1101.96
449.01	1111.23
449.384	1121.4
449.758	1130.66
450.132	1130.66
450.506	1152.13
450.88	1145.35
451.254	1144
451.628	1153.71
452.002	1169.76
452.376	1165.24
452.75	1173.83
453.123	1169.31
453.497	1206.59
453.871	1182.86
454.244	1207.27
454.618	1205.24
454.992	1197.55
455.365	1235.29
455.739	1258.79
456.112	1256.53
456.486	1239.81
456.859	1293.14
457.232	1288.85
457.606	1303.54
457.979	1296.99
458.352	1339.24
458.725	1332.01
459.099	1348.06
459.472	1348.06
459.845	1353.03
460.218	1374.5
460.591	1356.87
460.964	1384.67
461.337	1399.81
461.71	1390.99
462.083	1424.21
462.456	1403.42
462.829	1431.45
463.201	1446.13
463.574	1465.79
463.947	1470.99
464.32	1508.51
464.692	1504.21
465.065	1490.2
465.438	1507.15
465.81	1537.66
466.183	1545.57
466.555	1572.23
466.928	1609.52
467.3	1543.98
467.672	1602.06
468.045	1594.38
468.417	1630.99
468.789	1636.86
469.161	1631.67
469.534	1678.67
469.906	1681.16
470.278	1723.64
470.65	1741.49
471.022	1726.35
471.394	1787.37
471.766	1787.14
472.138	1805.9
472.51	1818.33
472.882	1834.6
473.253	1854.71
473.625	1894.26
473.997	1922.73
474.369	1909.85
474.74	1923.18
475.112	1942.62
475.484	2008.83
475.855	2014.93
476.227	2048.15
476.598	2085.21
476.97	2091.77
477.341	2134.93
477.713	2153.91
478.084	2183.06
478.455	2183.29
478.827	2214.25
479.198	2278.88
479.569	2274.81
479.94	2345.77
480.311	2345.77
480.682	2404.75
481.053	2437.07
481.424	2442.49
481.795	2474.13
482.166	2481.36
482.537	2531.98
482.908	2582.15
483.279	2571.75
483.65	2604.75
484.021	2637.29
484.391	2697.17
484.762	2674.35
485.133	2719.1
485.503	2762.48
485.874	2816.27
486.244	2832.54
486.615	2861.92
486.985	2895.14
487.356	2936.94
487.726	2943.5
488.097	3018.3
488.467	3031.4
488.837	3067.79
489.207	3099.65
489.578	3143.49
489.948	3168.57
490.318	3201.79
490.688	3187.33
491.058	3234.79
491.428	3273.2
491.798	3326.54
492.168	3374.45
492.538	3402.69
492.908	3432.75
493.278	3433.2
493.648	3428.46
494.017	3507.77
494.387	3521.79
494.757	3549.36
495.126	3569.92
495.496	3570.15
495.866	3573.54
496.235	3630.94
496.605	3676.36
496.974	3685.4
497.344	3696.24
497.713	3694.44
498.082	3726.07
498.452	3758.16
498.821	3759.52
499.19	3774.66
499.559	3821.44
499.928	3824.15
500.298	3844.04
500.667	3878.61
501.036	3875.22
501.405	3944.83
501.774	3875.67
502.143	3929.91
502.512	3946.18
502.88	3995.67
503.249	3965.84
503.618	4018.5
503.987	3976.69
504.356	4045.61
504.724	4029.34
505.093	4073.41
505.462	4065.27
505.83	4121.54
506.199	4126.06
506.567	4171.26
506.936	4184.37
507.304	4180.07
507.672	4185.72
508.041	4194.31
508.409	4245.61
508.777	4220.75
509.145	4240.86
509.514	4251.26
509.882	4277.7
510.25	4287.87
510.618	4324.93
510.986	4325.15
511.354	4340.52
511.722	4370.58
512.09	4372.84
512.458	4331.93
512.826	4401.76
513.193	4406.73
513.561	4413.29
513.929	4439.28
514.297	4464.36
514.664	4516.34
515.032	4500.29
515.4	4509.1
515.767	4515.21
516.135	4539.16
516.502	4527.86
516.869	4596.33
517.237	4583.45
517.604	4555.66
517.972	4582.1
518.339	4635.88
518.706	4636.78
519.073	4604.7
519.44	4663.22
519.808	4672.49
520.175	4669.1
520.542	4681.08
520.909	4683.79
521.276	4739.38
521.643	4752.94
522.009	4771.02
522.376	4789.78
522.743	4823.45
523.11	4860.51
523.477	4872.71
523.843	4861.64
524.21	4928.75
524.577	4943.9
524.943	4933.95
525.31	4950
525.676	5011.69
526.043	5015.31
526.409	5044.91
526.776	5105.25
527.142	5084.68
527.508	5119.26
527.874	5105.93
528.241	5173.04
528.607	5160.39
528.973	5208.07
529.339	5258.01
529.705	5244.23
530.071	5293.04
530.437	5313.6
530.803	5339.59
531.169	5353.6
531.535	5329.42
531.901	5363.32
532.267	5422.75
532.632	5420.27
532.998	5461.62
533.364	5458.46
533.73	5477.44
534.095	5521.73
534.461	5492.81
534.826	5556.99
535.192	5578.91
535.557	5634.95
535.923	5637.66
536.288	5657.55
536.653	5707.04
537.019	5664.55
537.384	5744.1
537.749	5742.52
538.114	5782.97
538.479	5763.08
538.845	5828.17
539.21	5810.09
539.575	5872.01
539.94	5883.53
540.305	5938.45
540.67	5826.36
541.034	5927.82
541.399	5900.48
541.764	5987.03
542.129	6009.86
542.494	6033.36
542.858	6023.42
543.223	6007.82
543.587	6112.68
543.952	6139.8
544.316	6145.45
544.681	6131.66
545.045	6184.99
545.41	6261.83
545.774	6224.31
546.138	6223.18
546.503	6221.38
546.867	6297.53
547.231	6290.98
547.595	6341.15
547.959	6395.16
548.324	6400.35
548.688	6416.63
549.052	6429.28
549.416	6458.66
549.779	6453.46
550.143	6464.76
550.507	6553.12
550.871	6625.21
551.235	6589.05
551.599	6576.85
551.962	6596.73
552.326	6616.62
552.689	6644.87
553.053	6700.46
553.417	6690.74
553.78	6747.92
554.143	6636.05
554.507	6691.65
554.87	6736.62
555.234	6855.94
555.597	6779.55
555.96	6835.6
556.323	6826.56
556.686	6863.17
557.05	6923.05
557.413	6872.66
557.776	6918.08
558.139	6966.89
558.502	6981.58
558.865	6959.89
559.228	7020.45
559.59	7048.25
559.953	7024.07
560.316	7124.86
560.679	7104.74
561.041	7126.44
561.404	7152.88
561.767	7225.19
562.129	7244.85
562.492	7232.42
562.854	7245.08
563.217	7281.01
563.579	7236.26
563.941	7356.71
564.304	7408.69
564.666	7387
565.028	7442.81
565.39	7354.91
565.753	7478.97
566.115	7448.46
566.477	7488.24
566.839	7516.48
567.201	7511.06
567.563	7530.95
567.925	7616.14
568.287	7608.91
568.648	7638.29
569.01	7707.21
569.372	7732.3
569.734	7713.99
570.095	7834.89
570.457	7857.04
570.819	7828.57
571.18	7863.37
571.542	7906.08
571.903	7927.55
572.265	7930.03
572.626	8105.85
572.987	8124.38
573.349	8136.35
573.71	8170.93
574.071	8188.56
574.432	8300.87
574.794	8321.66
575.155	8380.64
575.516	8431.26
575.877	8452.05
576.238	8509.45
576.599	8626.51
576.96	8635.1
577.32	8690.46
577.681	8831.25
578.042	8956.45
578.403	8951.25
578.763	9054.97
579.124	9089.1
579.485	9339.26
579.845	9429.43
580.206	9455.42
580.566	9575.86
580.927	9689.99
581.287	9878.45
581.648	9909.87
582.008	10175.17
582.368	10209.52
582.728	10398.22
583.089	10532.22
583.449	10708.72
583.809	10950.97
584.169	11141.92
584.529	11249.94
584.889	11482.25
585.249	11637.96
585.609	11764.28
585.969	12020.09
586.329	12240.65
586.688	12492.85
587.048	12664.82
587.408	12932.84
587.768	13081.53
588.127	13417.34
588.487	13614.85
588.846	13924.9
589.206	14091.45
589.565	14266.36
589.925	14734.82
590.284	14827.03
590.643	15166
591.003	15464.97
591.362	15735.48
591.721	16050.27
592.08	16190.83
592.44	16589.69
592.799	16896.58
593.158	17175.89
593.517	17343.34
593.876	17738.81
594.235	17964.12
594.593	18287.05
594.952	18618.11
595.311	18920.48
595.67	19278.89
596.029	19554.36
596.387	19966.1
596.746	20291.97
597.104	20504.16
597.463	20721.56
597.822	21165.62
598.18	21284.71
598.538	21665.72
598.897	21958.59
599.255	22155.42
599.613	22827.27
599.972	22802.63
600.33	23270.42
600.688	23316.75
601.046	23864.98
601.404	24187.68
601.762	24379.77
602.12	24742.47
602.478	25093.2
602.836	25303.59
603.194	25322.79
603.552	25854.08
603.91	25883.46
604.268	26366.61
604.625	26444.35
604.983	26726.83
605.341	26947.38
605.698	27255.85
606.056	27602.96
606.413	27786.91
606.771	28000.92
607.128	28347.57
607.485	28474.8
607.843	28709.15
608.2	29210.6
608.557	29428.45
608.914	29512.74
609.272	29754.54
609.629	30002.45
609.986	30329.89
610.343	30507.07
610.7	30855.76
611.057	30951.12
611.414	31211.68
611.771	31313.15
612.127	31594.49
612.484	31780.03
612.841	32009.62
613.198	31923.75
613.554	32368.26
613.911	32596.05
614.267	32661.58
614.624	32867.68
614.98	33000.11
615.337	33365.07
615.693	33483.03
616.05	33410.04
616.406	33948.1
616.762	33894.77
617.118	33983.13
617.475	34184.03
617.831	34350.35
618.187	34577.24
618.543	34746.73
618.899	34990.56
619.255	35074.4
619.611	35056.32
619.967	35404.56
620.323	35485.01
620.678	35441.85
621.034	35574.95
621.39	35782.41
621.746	35678.91
622.101	36209.97
622.457	35940.82
622.812	36224.2
623.168	36393.46
623.523	36427.81
623.879	36565.89
624.234	36544.19
624.589	36626.45
624.945	36700.12
625.3	36817.63
625.655	36906.22
626.01	36887.91
626.365	37080.68
626.72	37117.96
627.075	37126.78
627.43	37242.48
627.785	37248.81
628.14	37415.81
628.495	37442.25
628.85	37304.4
629.205	37374.91
629.559	37602.47
629.914	37576.94
630.269	37602.47
630.623	37673.88
630.978	37567.9
631.332	37768.8
631.687	37973.31
632.041	37738.06
632.396	37793.2
632.75	37718.4
633.104	37891.05
633.459	37709.81
633.813	37731.28
634.167	37720.66
634.521	37759.76
634.875	37952.29
635.229	37986.87
635.583	37888.57
635.937	37888.57
636.291	37823.26
636.645	37960.2
636.999	37844.27
637.352	37962.24
637.706	37845.4
638.06	37962.69
638.413	37825.52
638.767	37858.06
639.121	37979.18
639.474	37725.86
639.828	37842.92
640.181	37908.23
640.534	37820.09
640.888	37775.57
641.241	37570.83
641.594	37658.97
641.947	37769.92
642.301	37707.33
642.654	37938.96
643.007	37820.09
643.36	37704.39
643.713	37740.55
644.066	37780.32
644.419	37580.33
644.771	37493.77
645.124	37131.52
645.477	37002.94
645.83	36841.59
646.182	36848.59
646.535	36757.07
646.888	36709.84
647.24	36530.86
647.593	36725.66
647.945	36649.95
648.298	36414.25
648.65	36359.34
649.002	36247.48
649.355	36550.3
649.707	36430.98
650.059	36761.14
650.411	37015.37
650.763	37053.56
651.115	37488.12
651.467	37394.34
651.819	37408.35
652.171	37359.77
652.523	37260.56
652.875	37193.44
653.227	37080.9
653.578	37447.22
653.93	37135.37
654.282	37171.07
654.633	36963.39
654.985	37190.96
655.337	37099.89
655.688	37182.6
656.039	37421.91
656.391	36923.62
656.742	37010.85
657.094	37096.5
657.445	37150.96
657.796	37164.97
658.147	36933.79
658.498	36999.1
658.849	37084.97
659.2	36994.58
659.551	36972.66
659.902	37013.33
660.253	36945.54
660.604	37056.95
660.955	36872.32
661.306	37050.4
661.656	36913.68
662.007	36916.84
662.358	36917.29
662.708	36882.26
663.059	36919.55
663.409	36761.59
663.76	37014.69
664.11	36918.87
664.461	37024.18
664.811	36960.45
665.161	36885.43
665.511	36898.54
665.862	36951.42
666.212	36877.75
666.562	36960.91
666.912	36961.13
667.262	36939.44
667.612	36833.68
667.962	36769.95
668.312	36841.36
668.662	36958.19
669.011	36832.55
669.361	36771.08
669.711	36601.37
670.06	36735.6
670.41	36698.09
670.76	36583.06
671.109	36883.85
671.459	36791.87
671.808	36700.35
672.157	36807.69
672.507	36712.33
672.856	36715.94
673.205	36815.37
673.554	36842.94
673.904	36833.9
674.253	36866.45
674.602	36675.94
674.951	36143.53
675.3	35988.05
675.649	36686.11
675.998	36518.43
676.346	36426.46
676.695	36637.07
677.044	36445.89
677.393	36576.06
677.741	36487.02
678.09	36488.83
678.438	36354.59
678.787	36393.24
679.135	36350.98
679.484	36166.13
679.832	36146.69
680.181	36171.77
680.529	36229.85
680.877	36075.05
681.225	36083.19
681.573	36152.34
681.922	35925.45
682.27	35891.78
682.618	35853.82
682.966	35837.09
683.314	35939.69
683.661	35787.38
684.009	35673.26
684.357	35452.92
684.705	35502.64
685.053	35582.86
685.4	35504.67
685.748	35311.68
686.095	35218.13
686.443	35241.4
686.79	35183.78
687.138	35311.23
687.485	35254.06
687.832	35216.55
688.18	34994.86
688.527	34995.08
688.874	34888.64
689.221	34893.84
689.568	34797.35
689.915	34636.67
690.262	34584.25
690.609	34582.44
690.956	34457.02
691.303	34409.56
691.65	34308.55
691.997	34301.99
692.344	34221.09
692.69	34091.38
693.037	34106.97
693.383	33927.54
693.73	34023.58
694.077	33876.02
694.423	33843.25
694.769	33677.83
695.116	33595.57
695.462	33580.43
695.808	33402.58
696.155	33441
696.501	33209.37
696.847	33250.95
697.193	33043.04
697.539	33129.82
697.885	32922.59
698.231	32902.93
698.577	32863.16
698.923	32752.88
699.269	32579.55
699.614	32560.57
699.96	32310.63
700.306	32449.16
700.651	32278.32
700.997	32173.91
701.342	32136.17
701.688	32123.97
702.033	31999.46
702.379	32003.75
702.724	31910.87
703.069	31828.16
703.415	31524.67
703.76	31679.24
704.105	31620.93
704.45	31474.72
704.795	31387.95
705.14	31286.48
705.485	31129.87
705.83	31118.35
706.175	31133.26
706.52	30963.55
706.865	30978.92
707.209	30955.87
707.554	30757.45
707.899	30881.74
708.243	30740.73
708.588	30677.46
708.932	30528.76
709.277	30433.85
709.621	30464.35
709.966	30333.74
710.31	30385.94
710.654	30143.91
710.998	30134.42
711.342	30133.29
711.687	30000.86
712.031	29993.18
712.375	29849
712.719	29808.55
713.063	29844.71
713.407	30005.38
713.75	29593.87
714.094	29658.95
714.438	29533.53
714.782	29596.81
715.125	29402.69
715.469	29433.87
715.812	29296.48
716.156	29191.62
716.499	29211.96
716.843	29260.32
717.186	29143.49
717.53	29133.99
717.873	29124.73
718.216	29095.35
718.559	28831.4
718.902	28816.49
719.246	28841.12
719.589	28759.31
719.932	28736.04
720.275	28700.56
720.617	28564.52
720.96	28462.6
721.303	28503.28
721.646	28533.11
721.989	28396.61
722.331	28578.98
722.674	28341.92
723.016	28329.04
723.359	28308.25
723.701	28436.84
724.044	28026
724.386	27860.13
724.729	28127.92
725.071	27917.75
725.413	27896.29
725.755	28031.65
726.097	27846.8
726.439	27596.63
726.782	27771.77
727.124	27698.1
727.465	27634.6
727.807	27676.18
728.149	27652.68
728.491	27567.26
728.833	27641.15
729.175	27444.09
729.516	27421.27
729.858	27398.9
730.199	27425.34
730.541	27398.9
730.882	27397.77
731.224	27377.43
731.565	27151.67
731.906	27189.19
732.248	27225.34
732.589	27061.28
732.93	26990.55
733.271	26901.06
733.612	26981.51
733.953	26958.01
734.294	26879.82
734.635	26801.17
734.976	26811.12
735.317	26653.16
735.658	26584
735.999	26652.03
736.339	26697.45
736.68	26607.51
737.021	26534.51
737.361	26536.32
737.702	26628.75
738.042	26552.37
738.383	26521.63
738.723	26593.72
739.063	26382.65
739.404	26385.14
739.744	26407.29
740.084	26239.38
740.424	26266.72
740.764	26152.38
741.104	26319.15
741.444	26120.06
741.784	26079.84
742.124	25999.84
742.464	25892.27
742.804	25924.59
743.143	25841.88
743.483	25859.28
743.823	25721.43
744.162	25677.59
744.502	25724.59
744.841	25733.86
745.181	25735.89
745.52	25673.75
745.86	25583.8
746.199	25571.6
746.538	25395.79
746.877	25579.06
747.216	25447.31
747.556	25370.7
747.895	25393.75
748.234	25422.68
748.573	25302.68
748.911	25327.09
749.25	25232.63
749.589	25119.18
749.928	25155.12
750.267	25185.17
750.605	25154.44
750.944	24952.18
751.283	24926.65
751.621	24929.36
751.96	24781.79
752.298	24829.93
752.636	24762.36
752.975	24726.88
753.313	24631.74
753.651	24753.09
753.989	24585.64
754.327	24554.68
754.666	24411.63
755.004	24487.34
755.342	24536.37
755.679	24315.59
756.017	24233.78
756.355	24387.45
756.693	24165.08
757.031	24261.13
757.368	24066.1
757.706	23992.66
758.044	23914.47
758.381	23988.59
758.719	23833.57
759.056	23894.58
759.394	23602.61
