Data from hue_70_FLMS001491_81.txt Node
Date: Mon Feb 06 15:21:32 GMT 2017
User: dcchb
Spectrometer: FLMS00149
Trigger mode: 0
Integration Time (sec): 2.000000E-2
Scans to average: 10
Electric dark correction enabled: true
Nonlinearity correction enabled: false
Boxcar width: 0
XAxis mode: Wavelengths
Number of Pixels in Spectrum: 2048
>>>>>Begin Spectral Data<<<<<
341.393	-16.45
341.776	-16.45
342.16	-16.45
342.543	-67.98
342.927	-65.94
343.31	-70.01
343.693	-79.05
344.077	-46.51
344.46	-77.7
344.843	-42.67
345.226	-47.19
345.61	-33.18
345.993	-15.1
346.376	-0.18
346.759	-4.03
347.142	28.06
347.525	38.46
347.908	65.13
348.291	97.67
348.674	91.57
349.057	94.73
349.44	133.6
349.823	153.94
350.206	155.29
350.588	201.84
350.971	200.49
351.354	210.88
351.737	231.67
352.119	249.53
352.502	265.57
352.884	267.83
353.267	268.96
353.65	279.36
354.032	307.38
354.414	300.37
354.797	318.45
355.179	307.38
355.562	315.51
355.944	343.99
356.326	329.3
356.709	328.85
357.091	346.25
357.473	334.04
357.855	351.22
358.238	354.61
358.62	343.76
359.002	343.76
359.384	345.12
359.766	343.31
360.148	333.82
360.53	347.6
360.912	326.14
361.294	311.22
361.676	338.34
362.057	331.79
362.439	334.5
362.821	326.36
363.203	328.62
363.584	338.79
363.966	330.43
364.348	332.24
364.729	329.98
365.111	314.61
365.493	323.88
365.874	320.49
366.256	315.06
366.637	315.06
367.019	306.02
367.4	326.36
367.781	317.55
368.163	331.11
368.544	303.99
368.925	299.24
369.306	324.78
369.688	310.77
370.069	322.75
370.45	306.02
370.831	311.45
371.212	316.87
371.593	327.04
371.974	334.95
372.355	305.8
372.736	310.32
373.117	310.99
373.498	307.6
373.879	306.93
374.26	314.38
374.641	289.07
375.021	311.45
375.402	313.48
375.783	325.23
376.163	321.84
376.544	309.64
376.925	315.97
377.305	336.76
377.686	324.78
378.066	319.36
378.447	322.52
378.827	317.32
379.208	349.86
379.588	325.23
379.968	300.15
380.349	323.42
380.729	316.87
381.109	341.5
381.489	338.34
381.87	330.2
382.25	343.99
382.63	356.64
383.01	323.42
383.39	346.93
383.77	336.08
384.15	326.59
384.53	326.59
384.91	334.95
385.29	336.76
385.67	349.64
386.049	333.59
386.429	354.38
386.809	320.94
387.189	353.03
387.568	346.25
387.948	346.02
388.328	369.07
388.707	358
389.087	351.67
389.466	343.99
389.846	363.2
390.225	354.84
390.605	378.79
390.984	358.9
391.363	365.91
391.743	359.81
392.122	345.34
392.501	345.12
392.881	371.78
393.26	369.75
393.639	352.58
394.018	362.29
394.397	362.29
394.776	360.94
395.155	372.01
395.534	364.1
395.913	353.71
396.292	359.35
396.671	365.23
397.05	360.48
397.429	376.08
397.808	390.54
398.186	386.47
398.565	390.31
398.944	365.46
399.323	388.73
399.701	400.48
400.08	392.57
400.458	412.01
400.837	397.09
401.215	396.87
401.594	402.52
401.972	386.92
402.351	410.65
402.729	381.05
403.107	400.48
403.486	410.43
403.864	411.11
404.242	400.71
404.62	398.45
404.999	398.68
405.377	406.13
405.755	421.95
406.133	420.6
406.511	410.43
406.889	401.39
407.267	411.78
407.645	415.17
408.023	429.41
408.401	414.72
408.779	425.79
409.156	415.85
409.534	428.05
409.912	415.62
410.29	446.58
410.667	431.67
411.045	447.04
411.422	435.51
411.8	441.16
412.178	455.62
412.555	437.54
412.933	452.01
413.31	459.69
413.687	462.18
414.065	449.97
414.442	452.46
414.819	452.01
415.197	458.34
415.574	462.4
415.951	440.26
416.328	488.39
416.705	470.09
417.082	492.23
417.46	489.3
417.837	481.84
418.214	481.84
418.591	486.58
418.967	495.62
419.344	477.77
419.721	480.48
420.098	495.62
420.475	511.44
420.852	517.09
421.228	500.59
421.605	523.19
421.982	498.56
422.358	511.22
422.735	512.35
423.111	502.18
423.488	517.09
423.864	532.23
424.241	519.12
424.617	543.3
424.994	531.78
425.37	531.78
425.746	520.48
426.123	550.31
426.499	555.73
426.875	553.02
427.251	557.32
427.627	562.51
428.003	547.82
428.379	575.17
428.756	576.75
429.132	570.2
429.507	574.26
429.883	587.82
430.259	589.63
430.635	607.03
431.011	595.96
431.387	579.24
431.763	605.9
432.138	610.42
432.514	623.3
432.89	581.5
433.265	635.73
433.641	637.54
434.016	625.56
434.392	653.36
434.767	661.49
435.143	619.46
435.518	626.01
435.894	682.28
436.269	649.06
436.644	651.32
437.02	684.32
437.395	664.43
437.77	663.3
438.145	673.47
438.52	696.3
438.895	673.92
439.271	695.39
439.646	697.2
440.021	705.56
440.395	717.09
440.77	730.87
441.145	708.05
441.52	717.99
441.895	709.63
442.27	729.06
442.645	751.89
443.019	741.49
443.394	725.45
443.769	767.48
444.143	753.69
444.518	738.1
444.892	764.09
445.267	762.06
445.641	776.29
446.016	777.88
446.39	743.3
446.764	758.89
447.139	762.06
447.513	787.37
447.887	784.88
448.262	803.86
448.636	802.06
449.01	793.24
449.384	796.86
449.758	832.34
450.132	805.67
450.506	848.38
450.88	838.66
451.254	807.25
451.628	841.38
452.002	809.51
452.376	846.8
452.75	862.62
453.123	870.53
453.497	898.55
453.871	884.09
454.244	923.86
454.618	927.02
454.992	908.49
455.365	935.84
455.739	968.15
456.112	922.05
456.486	930.64
456.859	936.97
457.232	1005.21
457.606	941.94
457.979	963.86
458.352	979.45
458.725	1014.93
459.099	1000.92
459.472	1037.76
459.845	1024.65
460.218	1060.35
460.591	1078.88
460.964	1070.07
461.337	1087.25
461.71	1053.57
462.083	1106.45
462.456	1125.21
462.829	1112.56
463.201	1146.45
463.574	1158.88
463.947	1165.44
464.32	1192.55
464.692	1197.75
465.065	1211.08
465.438	1226.45
465.81	1248.6
466.183	1270.97
466.555	1293.79
466.928	1310.29
467.3	1322.72
467.672	1343.06
468.045	1353.68
468.417	1375.37
468.789	1387.8
469.161	1434.58
469.534	1456.28
469.906	1485.43
470.278	1512.32
470.65	1527.91
471.022	1543.5
471.394	1561.58
471.766	1590.06
472.138	1647.23
472.51	1689.26
472.882	1699.66
473.253	1772.88
473.625	1785.98
473.997	1793.44
474.369	1844.06
474.74	1869.6
475.112	1960.22
475.484	1963.83
475.855	2021.91
476.227	2064.85
476.598	2143.26
476.97	2166.09
477.341	2253.77
477.713	2269.59
478.084	2318.4
478.455	2406.98
478.827	2461.45
479.198	2573.53
479.569	2613.08
479.94	2718.61
480.311	2767.88
480.682	2876.8
481.053	2905.73
481.424	3060.07
481.795	3096.68
482.166	3202.22
482.537	3252.84
482.908	3382.78
483.279	3475.88
483.65	3624.58
484.021	3712.26
484.391	3797.91
484.762	3875.42
485.133	3947.28
485.503	4092.36
485.874	4221.85
486.244	4313.83
486.615	4472.02
486.985	4606.47
487.356	4718.11
487.726	4877.43
488.097	4974.15
488.467	5059.12
488.837	5190.87
489.207	5381.37
489.578	5519.45
489.948	5623.85
490.318	5788.14
490.688	5864.75
491.058	6064.29
491.428	6187.9
491.798	6333.89
492.168	6587.21
492.538	6663.37
492.908	6880.54
493.278	6991.27
493.648	7018.16
494.017	7252.28
494.387	7345.16
494.757	7583.35
495.126	7708.99
495.496	7805.49
495.866	7953.96
496.235	8181.97
496.605	8243.44
496.974	8445.02
497.344	8598.01
497.713	8697.21
498.082	8857.44
498.452	9053.14
498.821	9138.56
499.19	9306.92
499.559	9425.78
499.928	9569.28
500.298	9768.15
500.667	9864.42
501.036	9927.01
501.405	10122.94
501.774	10248.13
502.143	10354.12
502.512	10486.77
502.88	10642.93
503.249	10719.31
503.618	10873.43
503.987	11021
504.356	11104.84
504.724	11235.68
505.093	11322.68
505.462	11406.3
505.83	11592.73
506.199	11726.74
506.567	11989.11
506.936	11958.15
507.304	12128.99
507.672	12309.32
508.041	12245.37
508.409	12500.05
508.777	12610.78
509.145	12741.85
509.514	12787.28
509.882	12999.25
510.25	13032.24
510.618	13227.04
510.986	13289.64
511.354	13383.42
511.722	13486.24
512.09	13629.06
512.458	13699.8
512.826	13854.59
513.193	13826.12
513.561	13989.51
513.929	14158.54
514.297	14248.03
514.664	14407.35
515.032	14360.34
515.4	14595.14
515.767	14636.04
516.135	14764.4
516.502	14655.25
516.869	15016.37
517.237	15017.05
517.604	15032.42
517.972	15224.5
518.339	15282.8
518.706	15399.19
519.073	15418.85
519.44	15558.28
519.808	15671.04
520.175	15806.41
520.542	15978.15
520.909	16027.87
521.276	16020.19
521.643	16236.23
522.009	16213.4
522.376	16319.61
522.743	16513.96
523.11	16621.07
523.477	16751.92
523.843	16846.38
524.21	17068.29
524.577	17069.2
524.943	17195.97
525.31	17278.01
525.676	17504.21
526.043	17416.53
526.409	17438.45
526.776	17778.11
527.142	17812.23
527.508	17843.64
527.874	17953.47
528.241	18040.25
528.607	18095.16
528.973	18245.44
529.339	18219.45
529.705	18310.3
530.071	18409.5
530.437	18508.03
530.803	18548.71
531.169	18695.37
531.535	18710.96
531.901	18694.24
532.267	18734.01
532.632	18888.36
532.998	18957.74
533.364	19035.7
533.73	18931.07
534.095	19161.35
534.461	19220.1
534.826	19221.91
535.192	19256.94
535.557	19408.8
535.923	19222.81
536.288	19372.19
536.653	19572.41
537.019	19346.2
537.384	19460.77
537.749	19580.32
538.114	19556.36
538.479	19594.56
538.845	19605.4
539.21	19519.98
539.575	19617.83
539.94	19659.41
540.305	19674.1
540.67	19700.77
541.034	19636.36
541.399	19781.22
541.764	19849.92
542.129	19886.07
542.494	19851.05
542.858	19937.15
543.223	19937.6
543.587	20037.93
543.952	19849.24
544.316	20091.04
544.681	19933.76
545.045	20057.14
545.41	20237.48
545.774	20123.81
546.138	20127.2
546.503	20151.15
546.867	20137.82
547.231	20304.59
547.595	20224.6
547.959	20385.5
548.324	20263.69
548.688	20331.71
549.052	20293.07
549.416	20260.98
549.779	20375.78
550.143	20343.01
550.507	20450.58
550.871	20396.12
551.235	20440.41
551.599	20555.43
551.962	20554.53
552.326	20552.27
552.689	20587.52
553.053	20560.18
553.417	20648.31
553.78	20739.38
554.143	20675.43
554.507	20773.06
554.87	20780.74
555.234	20903.45
555.597	20679.27
555.96	20891.47
556.323	20820.29
556.686	20841.3
557.05	20945.48
557.413	21001.3
557.776	21062.54
558.139	21186.38
558.502	21250.56
558.865	21241.74
559.228	21393.38
559.59	21282.42
559.953	21323.32
560.316	21546.14
560.679	21533.71
561.041	21629.3
561.404	21695.74
561.767	21720.38
562.129	21617.33
562.492	21929.18
562.854	21961.95
563.217	21962.4
563.579	21860.26
563.941	22075.62
564.304	22143.87
564.666	22204.66
565.028	22267.93
565.39	22298.21
565.753	22371.43
566.115	22443.97
566.477	22452.33
566.839	22474.93
567.201	22584.08
567.563	22709.95
567.925	22722.61
568.287	22697.98
568.648	22847.58
569.01	22865.66
569.372	23028.36
569.734	22951.08
570.095	22989.27
570.457	23078.76
570.819	23166.44
571.18	23101.36
571.542	23307
571.903	23275.36
572.265	23265.87
572.626	23446.43
572.987	23385.19
573.349	23608.01
573.71	23548.12
574.071	23684.39
574.432	23744.73
574.794	23764.62
575.155	23832.86
575.516	23592.87
575.877	23814.33
576.238	23844.61
576.599	23913.54
576.96	23965.51
577.32	23889.36
577.681	24026.3
578.042	24060.43
578.403	24123.25
578.763	24118.73
579.124	24031.73
579.485	24236.92
579.845	24195.34
580.206	24154.21
580.566	24059.52
580.927	24204.83
581.287	24368.44
581.648	24232.85
582.008	24342.23
582.368	24177.49
582.728	24219.74
583.089	24238.05
583.449	24230.14
583.809	24120.76
584.169	24188.11
584.529	24138.62
584.889	24319.85
585.249	24311.95
585.609	24245.28
585.969	24414.54
586.329	24324.83
586.688	24348.33
587.048	24169.35
587.408	24297.26
587.768	24281.44
588.127	24218.84
588.487	24192.4
588.846	24368.44
589.206	24223.81
589.565	24261.1
589.925	24400.08
590.284	24203.7
590.643	24342.68
591.003	24397.59
591.362	24394.88
591.721	24302.45
592.08	24285.96
592.44	24337.03
592.799	24383.13
593.158	24270.36
593.517	24367.54
593.876	24334.77
594.235	24326.18
594.593	24321.89
594.952	24379.06
595.311	24184.49
595.67	24383.81
596.029	24427.87
596.387	24476.91
596.746	24414.32
597.104	24231.04
597.463	24392.85
597.822	24438.5
598.18	24291.38
598.538	24384.03
598.897	24448.21
599.255	24274.88
599.613	24642.78
599.972	24457.03
600.33	24551.49
600.688	24469.46
601.046	24542.22
601.404	24604.14
601.762	24472.85
602.12	24713.52
602.478	24629.23
602.836	24678.49
603.194	24549
603.552	24617.47
603.91	24608.89
604.268	24676.23
604.625	24545.84
604.983	24629.45
605.341	24658.6
605.698	24666.51
606.056	24743.8
606.413	24705.83
606.771	24929.1
607.128	24823.8
607.485	24687.75
607.843	24684.14
608.2	24995.77
608.557	24891.14
608.914	24925.94
609.272	25143.34
609.629	25108.53
609.986	25077.12
610.343	25011.36
610.7	25193.28
611.057	25081.64
611.414	25134.07
611.771	25043.23
612.127	25215.2
612.484	25140.17
612.841	25348.08
613.198	25254.29
613.554	25206.39
613.911	25351.01
614.267	25359.83
614.624	25356.89
614.98	25547.62
615.337	25452.71
615.693	25518.24
616.05	25513.95
616.406	25725.69
616.762	25559.82
617.118	25614.74
617.475	25627.62
617.831	25625.58
618.187	25732.93
618.543	25744
618.899	25901.51
619.255	25933.37
619.611	25788.52
619.967	25970.88
620.323	25946.48
620.678	25838.91
621.034	25814.96
621.39	25872.81
621.746	25847.95
622.101	26093.82
622.457	25929.53
622.812	25946.25
623.168	26096.08
623.523	26021.73
623.879	26035.97
624.234	25891.11
624.589	25969.76
624.945	26084.55
625.3	25967.04
625.655	26044.56
626.01	26134.04
626.365	26007.95
626.72	26120.03
627.075	26063.09
627.43	26124.55
627.785	25946.93
628.14	26132.91
628.495	26061.28
628.85	26061.96
629.205	26032.58
629.559	26096.31
629.914	26083.2
630.269	26008.4
630.623	25912.13
630.978	25880.27
631.332	25930.43
631.687	26195.96
632.041	26021.51
632.396	26021.28
632.75	25888.63
633.104	25951.22
633.459	25880.94
633.813	25871.45
634.167	25774.73
634.521	25794.39
634.875	25929.98
635.229	25809.31
635.583	25695.41
635.937	25688.41
636.291	25713.49
636.645	25747.61
636.999	25625.36
637.352	25720.5
637.706	25534.96
638.06	25686.6
638.413	25610.67
638.767	25447.73
639.121	25638.69
639.474	25371.8
639.828	25401.86
640.181	25432.82
640.534	25558.47
640.888	25423.55
641.241	25202.09
641.594	25388.98
641.947	25509.88
642.301	25224.69
642.654	25338.59
643.007	25269.43
643.36	25334.74
643.713	25344.01
644.066	25290.45
644.419	25181.75
644.771	25108.53
645.124	24751.48
645.477	24770.92
645.83	24563.46
646.182	24568.66
646.535	24509.91
646.888	24540.19
647.24	24414.32
647.593	24434.65
647.945	24489.79
648.298	24388.78
648.65	24347.65
649.002	24266.52
649.355	24494.54
649.707	24484.14
650.059	24481.88
650.411	24703.57
650.763	24715.1
651.115	25059.27
651.467	24893.63
651.819	24963
652.171	24923.68
652.523	24883.68
652.875	24788.54
653.227	24837.13
653.578	24924.36
653.93	24876.68
654.282	24805.27
654.633	24683.69
654.985	24779.96
655.337	24790.35
655.688	24778.6
656.039	24910.57
656.391	24739.73
656.742	24781.54
657.094	24848.43
657.445	24876
657.796	24857.24
658.147	24752.84
658.498	24697.92
658.849	25012.72
659.2	24772.27
659.551	24837.36
659.902	24850.24
660.253	24766.62
660.604	24819.05
660.955	24737.47
661.306	24777.02
661.656	24805.94
662.007	24858.6
662.358	24802.55
662.708	24762.56
663.059	24758.49
663.409	24596.68
663.76	24761.2
664.11	24905.83
664.461	24869.44
664.811	24826.51
665.161	24937.69
665.511	24790.35
665.862	24730.69
666.212	24748.54
666.562	24780.18
666.912	24798.71
667.262	24818.82
667.612	24747.87
667.962	24867.64
668.312	24790.8
668.662	24860.41
669.011	24683.46
669.361	24788.32
669.711	24761.65
670.06	24600.98
670.41	24698.83
670.76	24636.23
671.109	24712.61
671.459	24715.1
671.808	24653.18
672.157	24674.2
672.507	24408.44
672.856	24516.01
673.205	24613.41
673.554	24647.76
673.904	24413.41
674.253	24746.06
674.602	24567.98
674.951	24132.29
675.3	24149.01
675.649	24516.01
675.998	24434.88
676.346	24387.88
676.695	24509.68
677.044	24362.34
677.393	24380.87
677.741	24458.16
678.09	24353.53
678.438	24234.43
678.787	24384.26
679.135	24363.02
679.484	24201.89
679.832	24376.12
680.181	24125.06
680.529	24102.01
680.877	24287.31
681.225	23995.34
681.573	24146.98
681.922	23997.15
682.27	23963.71
682.618	24008.22
682.966	23878.06
683.314	23881.67
683.661	23869.25
684.009	23717.38
684.357	23688.23
684.705	23756.71
685.053	23765.29
685.4	23656.14
685.748	23625.64
686.095	23509.71
686.443	23502.25
686.79	23437.39
687.138	23484.85
687.485	23440.56
687.832	23331.86
688.18	23353.33
688.527	23303.38
688.874	23262.03
689.221	23129.38
689.568	23084.41
689.915	22961.92
690.262	22967.8
690.609	22917.86
690.956	22772.32
691.303	22779.1
691.65	22688.26
691.997	22836.73
692.344	22513.57
692.69	22456.63
693.037	22549.28
693.383	22440.36
693.73	22331.21
694.077	22288.72
694.423	22148.61
694.769	22156.52
695.116	22134.15
695.462	22084.89
695.808	22002.85
696.155	22180.7
696.501	21831.78
696.847	21799.24
697.193	21684.9
697.539	21634.5
697.885	21655.97
698.231	21424.11
698.577	21541.62
698.923	21408.29
699.269	21263.44
699.614	21290.33
699.96	21214.4
700.306	21258.69
700.651	21035.2
700.997	21030.68
701.342	21097.79
701.688	20948.19
702.033	20870
702.379	20873.62
702.724	20718.82
703.069	20797.01
703.415	20553.4
703.76	20519.5
704.105	20490.58
704.45	20482.67
704.795	20292.16
705.14	20231.37
705.485	20206.74
705.83	20189.57
706.175	20133.75
706.52	20063.92
706.865	20057.37
707.209	20021.44
707.554	19860.54
707.899	20028.89
708.243	19892.85
708.588	19758.17
708.932	19626.87
709.277	19726.08
709.621	19650.6
709.966	19478.17
710.31	19636.59
710.654	19402.02
710.998	19524.05
711.342	19435.24
711.687	19341.68
712.031	19310.72
712.375	19276.6
712.719	19260.1
713.063	19261
713.407	19196.6
713.75	19119.77
714.094	19119.31
714.438	19043.61
714.782	19005.19
715.125	18960.67
715.469	18915.48
715.812	18880.9
716.156	18694.69
716.499	18728.59
716.843	18722.04
717.186	18637.97
717.53	18821.47
717.873	18735.14
718.216	18685.88
718.559	18547.8
718.902	18426.68
719.246	18586.22
719.589	18558.42
719.932	18433.23
720.275	18357.98
720.617	18421.93
720.96	18404.3
721.303	18341.71
721.646	18268.94
721.989	18198.43
722.331	18230.52
722.674	18237.53
723.016	18261.26
723.359	18242.05
723.701	18206.57
724.044	18144.65
724.386	17973.81
724.729	18102.17
725.071	18055.61
725.413	18179.68
725.755	17950.53
726.097	17964.77
726.439	17889.74
726.782	17912.34
727.124	17985.11
727.465	17771.33
727.807	17964.54
728.149	17838.44
728.491	17828.5
728.833	17894.94
729.175	17741.5
729.516	17746.02
729.858	17747.15
730.199	17808.84
730.541	17701.95
730.882	17654.27
731.224	17687.26
731.565	17655.4
731.906	17622.63
732.248	17701.95
732.589	17583.99
732.93	17591.9
733.271	17515.51
733.612	17528.4
733.953	17571.56
734.294	17540.82
734.635	17539.24
734.976	17558.22
735.317	17525.91
735.658	17502.41
735.999	17487.94
736.339	17415.86
736.68	17540.82
737.021	17506.93
737.361	17414.95
737.702	17543.76
738.042	17447.72
738.383	17471.67
738.723	17480.49
739.063	17395.97
739.404	17377.89
739.744	17353.71
740.084	17369.3
740.424	17438.45
740.764	17403.43
741.104	17444.33
741.444	17329.08
741.784	17325.01
742.124	17395.97
742.464	17343.32
742.804	17258.57
743.143	17364.11
743.483	17445.91
743.823	17353.26
744.162	17426.25
744.502	17504.44
744.841	17363.43
745.181	17516.42
745.52	17535.63
745.86	17486.14
746.199	17438.91
746.538	17488.85
746.877	17607.26
747.216	17647.94
747.556	17645
747.895	17696.98
748.234	17657.21
748.573	17705.57
748.911	17781.04
749.25	17831.44
749.589	17763.42
749.928	17905.11
750.267	17881.83
750.605	17945.79
750.944	17912.57
751.283	18036.63
751.621	18081.37
751.96	18049.74
752.298	18148.72
752.636	18224.2
752.975	18181.03
753.313	18227.81
753.651	18388.71
753.989	18354.36
754.327	18403.4
754.666	18462.38
755.004	18605.65
755.342	18745.31
755.679	18686.1
756.017	18662.83
756.355	18830.06
756.693	18810.85
