Data from hue_130_FLMS001491_00071.txt Node
Date: Tue Feb 07 16:58:03 GMT 2017
User: dcchb
Spectrometer: FLMS00149
Trigger mode: 0
Integration Time (sec): 2.000000E-2
Scans to average: 10
Electric dark correction enabled: true
Nonlinearity correction enabled: false
Boxcar width: 0
XAxis mode: Wavelengths
Number of Pixels in Spectrum: 2048
>>>>>Begin Spectral Data<<<<<
341.393	-13.12
341.776	-13.12
342.16	-13.12
342.543	-61.93
342.927	-74.81
343.31	-60.13
343.693	-63.97
344.077	-60.13
344.46	-54.93
344.843	-66.45
345.226	-31.2
345.61	-49.5
345.993	-35.72
346.376	-7.25
346.759	24.84
347.142	17.61
347.525	39.53
347.908	52.41
348.291	100.77
348.674	92.41
349.057	101.68
349.44	135.12
349.823	140.55
350.206	180.77
350.588	180.32
350.971	198.62
351.354	230.04
351.737	239.3
352.119	249.47
352.502	259.41
352.884	292.86
353.267	279.75
353.65	288.57
354.032	304.38
354.414	317.94
354.797	328.79
355.179	337.15
355.562	299.86
355.944	325.4
356.326	332.86
356.709	328.79
357.091	341.45
357.473	343.25
357.855	328.34
358.238	343.93
358.62	337.83
359.002	337.38
359.384	330.37
359.766	342.8
360.148	339.41
360.53	319.98
360.912	323.37
361.294	329.92
361.676	351.84
362.057	323.59
362.439	333.08
362.821	332.18
363.203	307.55
363.584	322.24
363.966	331.05
364.348	319.53
364.729	328.11
365.111	337.83
365.493	324.95
365.874	323.82
366.256	322.92
366.637	322.69
367.019	305.74
367.4	312.52
367.781	316.14
368.163	313.42
368.544	297.38
368.925	298.96
369.306	295.35
369.688	303.48
370.069	309.13
370.45	315.46
370.831	328.79
371.212	320.43
371.593	308.68
371.974	320.66
372.355	322.69
372.736	326.3
373.117	317.49
373.498	327.43
373.879	318.4
374.26	291.5
374.641	308.9
375.021	326.08
375.402	348.23
375.783	321.56
376.163	314.55
376.544	319.3
376.925	334.44
377.305	348.23
377.686	317.94
378.066	323.59
378.447	323.14
378.827	324.95
379.208	335.12
379.588	314.78
379.968	317.49
380.349	329.24
380.729	327.89
381.109	343.71
381.489	347.32
381.87	319.98
382.25	331.73
382.63	337.15
383.01	348.23
383.39	333.76
383.77	343.93
384.15	343.25
384.53	344.38
384.91	334.67
385.29	335.34
385.67	345.74
386.049	343.25
386.429	356.36
386.809	378.73
387.189	341.22
387.568	365.17
387.948	363.82
388.328	346.64
388.707	345.51
389.087	351.84
389.466	343.71
389.846	372.63
390.225	363.37
390.605	375.57
390.984	355.68
391.363	353.42
391.743	376.93
392.122	364.95
392.501	356.81
392.881	364.27
393.26	352.52
393.639	384.61
394.018	375.34
394.397	381.22
394.776	363.82
395.155	385.29
395.534	371.95
395.913	361.56
396.292	378.51
396.671	375.34
397.05	379.64
397.429	404.04
397.808	391.39
398.186	389.81
398.565	417.15
398.944	391.39
399.323	398.17
399.701	386.64
400.08	418.73
400.458	418.96
400.837	394.1
401.215	392.97
401.594	415.34
401.972	395.91
402.351	390.94
402.729	399.07
403.107	389.35
403.486	396.13
403.864	404.04
404.242	405.62
404.62	430.93
404.999	437.04
405.377	425.96
405.755	440.65
406.133	437.94
406.511	429.81
406.889	442.23
407.267	431.39
407.645	431.16
408.023	435.23
408.401	409.01
408.779	420.99
409.156	435.68
409.534	420.09
409.912	429.13
410.29	459.86
410.667	442.46
411.045	444.95
411.422	446.08
411.8	437.04
412.178	462.57
412.555	457.6
412.933	446.75
413.31	481.56
413.687	464.38
414.065	493.08
414.442	483.36
414.819	466.41
415.197	467.32
415.574	486.3
415.951	496.92
416.328	467.32
416.705	496.24
417.082	481.78
417.46	496.02
417.837	502.12
418.214	498.28
418.591	470.03
418.967	486.75
419.344	505.51
419.721	524.72
420.098	500.99
420.475	503.7
420.852	531.5
421.228	522.46
421.605	539.41
421.982	534.89
422.358	523.81
422.735	531.72
423.111	517.94
423.488	558.39
423.864	533.31
424.241	539.18
424.617	540.31
424.994	564.72
425.37	558.16
425.746	573.08
426.123	557.03
426.499	568.56
426.875	578.05
427.251	574.21
427.627	583.7
428.003	573.3
428.379	589.8
428.756	591.38
429.132	581.44
429.507	616.92
429.883	595.45
430.259	606.52
430.635	618.95
431.011	623.02
431.387	645.39
431.763	649.46
432.138	639.07
432.514	647.43
432.89	648.33
433.265	650.36
433.641	644.26
434.016	672.51
434.392	667.31
434.767	665.05
435.143	681.32
435.518	717.93
435.894	701.44
436.269	695.11
436.644	701.44
437.02	705.73
437.395	698.05
437.77	701.66
438.145	734.66
438.52	748.89
438.895	726.75
439.271	738.72
439.646	754.54
440.021	752.51
440.395	755.22
440.77	743.02
441.145	780.53
441.52	757.71
441.895	753.19
442.27	782.79
442.645	775.56
443.019	795.67
443.394	791.83
443.769	775.33
444.143	780.08
444.518	805.84
444.892	809.46
445.267	803.58
445.641	815.33
446.016	811.26
446.39	839.06
446.764	831.15
447.139	795.45
447.513	836.8
447.887	839.74
448.262	844.48
448.636	860.98
449.01	850.58
449.384	878.38
449.758	879.06
450.132	878.61
450.506	867.53
450.88	891.71
451.254	901.88
451.628	923.13
452.002	907.98
452.376	908.89
452.75	941.66
453.123	940.53
453.497	939.85
453.871	978.72
454.244	975.1
454.618	964.48
454.992	960.19
455.365	975.55
455.739	990.47
456.112	1005.38
456.486	1010.13
456.859	1040.86
457.232	1064.59
457.606	1061.43
457.979	1061.43
458.352	1066.4
458.725	1077.25
459.099	1103.01
459.472	1116.79
459.845	1153.63
460.218	1158.15
460.591	1147.07
460.964	1163.12
461.337	1193.4
461.71	1205.38
462.083	1248.54
462.456	1246.96
462.829	1230.24
463.201	1255.32
463.574	1267.52
463.947	1295.77
464.32	1289.22
464.692	1300.29
465.065	1326.96
465.438	1365.6
465.81	1364.47
466.183	1369.44
466.555	1427.52
466.928	1429.33
467.3	1424.81
467.672	1471.59
468.045	1473.62
468.417	1521.98
468.789	1516.1
469.161	1568.53
469.534	1559.49
469.906	1585.25
470.278	1620.51
470.65	1668.19
471.022	1728.98
471.394	1770.11
471.766	1750.45
472.138	1827.96
472.51	1851.46
472.882	1885.59
473.253	1901.18
473.625	1958.13
473.997	1999.71
474.369	2019.59
474.74	2045.81
475.112	2093.94
475.484	2152.25
475.855	2209.65
476.227	2264.11
476.598	2327.38
476.97	2362.41
477.341	2438.57
477.713	2486.93
478.084	2539.35
478.455	2614.83
478.827	2690.99
479.198	2753.13
479.569	2816.86
479.94	2923.52
480.311	2974.14
480.682	3051.43
481.053	3173.01
481.424	3255.27
481.795	3339.33
482.166	3415.04
482.537	3512.89
482.908	3616.39
483.279	3682.15
483.65	3770.73
484.021	3881.92
484.391	4027.45
484.762	4087.56
485.133	4145.64
485.503	4258.18
485.874	4422.69
486.244	4497.95
486.615	4616.14
486.985	4768.67
487.356	4866.07
487.726	4954.21
488.097	5127.53
488.467	5192.84
488.837	5397.13
489.207	5522.78
489.578	5644.36
489.948	5760.96
490.318	5926.16
490.688	5922.32
491.058	6127.51
491.428	6269.88
491.798	6349.65
492.168	6572.47
492.538	6700.15
492.908	6767.94
493.278	6969.75
493.648	7003.64
494.017	7174.49
494.387	7289.29
494.757	7408.83
495.126	7560.01
495.496	7684.3
495.866	7809.72
496.235	7898.76
496.605	8035.25
496.974	8142.82
497.344	8251.07
497.713	8343.95
498.082	8446.09
498.452	8592.75
498.821	8665.75
499.19	8745.29
499.559	8863.03
499.928	9051.05
500.298	9050.14
500.667	9200.42
501.036	9251.27
501.405	9417.82
501.774	9383.24
502.143	9535.1
502.512	9600.86
502.88	9743.01
503.249	9800.18
503.618	9895.54
503.987	9961.08
504.356	9996.11
504.724	10110.45
505.093	10222.32
505.462	10241.98
505.83	10267.06
506.199	10386.83
506.567	10588.41
506.936	10555.41
507.304	10604.23
507.672	10709.53
508.041	10764.45
508.409	10819.14
508.777	10884.22
509.145	11021.39
509.514	11009.41
509.882	11167.6
510.25	11218.9
510.618	11181.84
510.986	11267.71
511.354	11322.63
511.722	11439.91
512.09	11515.16
512.458	11419.8
512.826	11605.56
513.193	11569.63
513.561	11625.67
513.929	11665.67
514.297	11825.89
514.664	11785.89
515.032	11864.31
515.4	11928.03
515.767	11898.2
516.135	11953.12
516.502	11904.31
516.869	12061.14
517.237	12043.96
517.604	12050.52
517.972	12179.78
518.339	12276.95
518.706	12264.52
519.073	12191.3
519.44	12261.81
519.808	12391.3
520.175	12345.88
520.542	12496.15
520.909	12469.71
521.276	12506.78
521.643	12519.43
522.009	12546.32
522.376	12544.51
522.743	12659.09
523.11	12683.95
523.477	12757.39
523.843	12776.15
524.21	12823.15
524.577	12908.12
524.943	12853.43
525.31	12837.39
525.676	12939.76
526.043	12973.66
526.409	12990.38
526.776	13042.81
527.142	13022.92
527.508	13067.21
527.874	13106.08
528.241	13064.73
528.607	13060.89
528.973	13196.48
529.339	13097.72
529.705	13229.92
530.071	13210.94
530.437	13199.64
530.803	13198.96
531.169	13172.52
531.535	13123.03
531.901	13184.5
532.267	13134.78
532.632	13233.08
532.998	13275.34
533.364	13103.37
533.73	13174.1
534.095	13240.09
534.461	13232.63
534.826	13166.42
535.192	13166.87
535.557	13192.18
535.923	13071.05
536.288	13149.47
536.653	13061.11
537.019	13030.38
537.384	13045.29
537.749	13065.18
538.114	13009.14
538.479	12992.19
538.845	12975.46
539.21	12903.38
539.575	12850.72
539.94	12896.14
540.305	12953.32
540.67	12876.94
541.034	12819.76
541.399	12788.8
541.764	12721.46
542.129	12709.03
542.494	12737.5
542.858	12674.23
543.223	12694.12
543.587	12744.06
543.952	12548.58
544.316	12645.53
544.681	12536.38
545.045	12467.23
545.41	12505.42
545.774	12466.32
546.138	12487.12
546.503	12421.35
546.867	12330.06
547.231	12402.6
547.595	12355.14
547.959	12334.12
548.324	12312.88
548.688	12213.68
549.052	12231.75
549.416	12187.91
549.779	12165.32
550.143	12095.71
550.507	12147.92
550.871	12037.64
551.235	12049.61
551.599	12064.75
551.962	12009.39
552.326	12057.97
552.689	12073.34
553.053	11994.92
553.417	11875.15
553.78	12028.82
554.143	11896.85
554.507	11889.16
554.87	11851.43
555.234	11844.87
555.597	11770.07
555.96	11703.86
556.323	11773.69
556.686	11740.92
557.05	11827.02
557.413	11693.24
557.776	11728.27
558.139	11820.47
558.502	11756.51
558.865	11721.71
559.228	11761.26
559.59	11674.48
559.953	11777.76
560.316	11761.48
560.679	11688.49
561.041	11745.44
561.404	11813.46
561.767	11751.54
562.129	11782.95
562.492	11840.35
562.854	11723.52
563.217	11764.87
563.579	11826.57
563.941	11805.33
564.304	11816.62
564.666	11770.07
565.028	11744.31
565.39	11760.35
565.753	11817.3
566.115	11797.64
566.477	11843.97
566.839	11887.13
567.201	11909.5
567.563	11908.83
567.925	11852.56
568.287	11919.22
568.648	11908.15
569.01	11907.47
569.372	11982.27
569.734	11946.34
570.095	12005.77
570.457	11974.81
570.819	12027.01
571.18	11926.68
571.542	12034.02
571.903	12031.08
572.265	12057.07
572.626	11991.76
572.987	11985.89
573.349	12068.37
573.71	12056.62
574.071	12069.5
574.432	12108.37
574.794	12079.22
575.155	12123.51
575.516	12045.32
575.877	12083.74
576.238	12074.24
576.599	12118.54
576.96	12081.93
577.32	12166.45
577.681	12116.73
578.042	12135.26
578.403	12150.63
578.763	12147.01
579.124	12144.53
579.485	12154.02
579.845	12194.69
580.206	12142.49
580.566	12124.41
580.927	12195.15
581.287	12135.49
581.648	12163.73
582.008	12192.89
582.368	12163.73
582.728	12130.06
583.089	12162.38
583.449	12138.88
583.809	12097.07
584.169	12162.6
584.529	12075.37
584.889	12196.05
585.249	12058.65
585.609	11903.18
585.969	12076.28
586.329	12017.97
586.688	12049.16
587.048	12015.04
587.408	11992.89
587.768	12035.38
588.127	11910.18
588.487	11964.42
588.846	11995.83
589.206	11907.02
589.565	11963.29
589.925	11916.28
590.284	11888.94
590.643	11980.69
591.003	11972.55
591.362	11953.34
591.721	11925.77
592.08	12011.42
592.44	11954.47
592.799	11934.81
593.158	11962.38
593.517	11898.66
593.876	11859.79
594.235	11883.74
594.593	11843.97
594.952	11953.57
595.311	11853.23
595.67	11894.36
596.029	11980.91
596.387	11901.37
596.746	11914.7
597.104	11914.47
597.463	11855.95
597.822	12009.39
598.18	11839.9
598.538	11873.12
598.897	11860.46
599.255	11785.44
599.613	11910.63
599.972	11825.44
600.33	11897.53
600.688	11815.04
601.046	11887.13
601.404	11833.8
601.762	11836.74
602.12	11939.78
602.478	11802.84
602.836	11887.13
603.194	11830.18
603.552	11816.62
603.91	11771.43
604.268	11835.61
604.625	11793.35
604.983	11823.18
605.341	11834.25
605.698	11858.21
606.056	11909.05
606.413	11812.78
606.771	11949.05
607.128	11860.92
607.485	11854.82
607.843	11834.25
608.2	11859.79
608.557	11887.13
608.914	11838.32
609.272	12004.87
609.629	11875.15
609.986	12001.48
610.343	11965.32
610.7	11967.13
611.057	11953.12
611.414	11957.19
611.771	11937.07
612.127	12018.43
612.484	11876.28
612.841	12045.32
613.198	12021.59
613.554	12020.91
613.911	12062.72
614.267	12024.08
614.624	11987.69
614.98	12008.71
615.337	12068.14
615.693	12037.86
616.05	11957.64
616.406	12087.35
616.762	12099.33
617.118	12003.51
617.475	12057.97
617.831	12069.5
618.187	12136.16
618.543	12137.97
618.899	12116.05
619.255	12194.24
619.611	12125.32
619.967	12184.07
620.323	12211.42
620.678	12167.35
621.034	12105.2
621.39	12170.29
621.746	12217.52
622.101	12258.65
622.457	12142.04
622.812	12206.67
623.168	12153.34
623.523	12270.62
623.879	12247.57
624.234	12142.94
624.589	12200.12
624.945	12128.03
625.3	12195.15
625.655	12165.32
626.01	12239.66
626.365	12150.85
626.72	12106.11
627.075	12169.16
627.43	12087.58
627.785	12057.97
628.14	12142.72
628.495	12133.23
628.85	12122.15
629.205	12103.85
629.559	12124.64
629.914	12067.47
630.269	12042.16
630.623	12037.41
630.978	11991.31
631.332	12068.82
631.687	12041.25
632.041	12064.53
632.396	11996.28
632.75	11925.1
633.104	12048.93
633.459	11919.9
633.813	12032.89
634.167	12008.94
634.521	11899.56
634.875	11944.76
635.229	11911.31
635.583	11886.23
635.937	11847.36
636.291	11848.94
636.645	11962.84
636.999	11800.13
637.352	11904.98
637.706	11696.63
638.06	11907.02
638.413	11801.94
638.767	11776.4
639.121	11781.6
639.474	11705.44
639.828	11699.79
640.181	11721.71
640.534	11797.42
640.888	11739.79
641.241	11637.42
641.594	11739.79
641.947	11677.87
642.301	11624.76
642.654	11724.2
643.007	11708.38
643.36	11749.28
643.713	11676.06
644.066	11677.19
644.419	11628.15
644.771	11552.22
645.124	11395.17
645.477	11443.53
645.83	11359.69
646.182	11291.21
646.535	11328.5
646.888	11283.76
647.24	11267.49
647.593	11344.77
647.945	11240.37
648.298	11282.85
648.65	11224.1
649.002	11177.09
649.355	11275.17
649.707	11242.85
650.059	11309.29
650.411	11375.96
650.763	11501.15
651.115	11502.96
651.467	11554.48
651.819	11537.08
652.171	11525.78
652.523	11517.2
652.875	11520.81
653.227	11422.51
653.578	11521.72
653.93	11446.24
654.282	11486.24
654.633	11439.01
654.985	11420.25
655.337	11500.93
655.688	11415.96
656.039	11514.94
656.391	11436.75
656.742	11442.62
657.094	11466.58
657.445	11521.94
657.796	11524.65
658.147	11514.94
658.498	11532.34
658.849	11458.67
659.2	11454.37
659.551	11472.68
659.902	11505.67
660.253	11512.9
660.604	11573.24
660.955	11496.18
661.306	11582.73
661.656	11462.51
662.007	11578.66
662.358	11534.37
662.708	11515.16
663.059	11559
663.409	11526.24
663.76	11554.03
664.11	11606.69
664.461	11600.81
664.811	11575.95
665.161	11538.21
665.511	11589.29
665.862	11558.33
666.212	11601.26
666.562	11565.56
666.912	11529.85
667.262	11582.28
667.612	11564.65
667.962	11559.46
668.312	11575.73
668.662	11573.69
669.011	11556.29
669.361	11532.11
669.711	11483.98
670.06	11478.33
670.41	11494.82
670.76	11582.51
671.109	11616.63
671.459	11632
671.808	11533.69
672.157	11553.81
672.507	11537.76
672.856	11554.48
673.205	11471.32
673.554	11553.81
673.904	11453.7
674.253	11549.06
674.602	11464.77
674.951	11315.17
675.3	11242.4
675.649	11399.01
675.998	11425.22
676.346	11453.47
676.695	11462.51
677.044	11289.18
677.393	11314.94
677.741	11356.07
678.09	11292.34
678.438	11345.9
678.787	11327.82
679.135	11281.95
679.484	11216.64
679.832	11292.12
680.181	11204.21
680.529	11296.19
680.877	11218.67
681.225	11205.57
681.573	11253.25
681.922	11186.36
682.27	11152.46
682.618	11126.47
682.966	11018.91
683.314	11099.81
683.661	11079.47
684.009	11026.81
684.357	11014.39
684.705	11039.92
685.053	10940.26
685.4	10946.59
685.748	10886.25
686.095	10904.11
686.443	10887.84
686.79	10831.11
687.138	10797.22
687.485	10859.59
687.832	10858.23
688.18	10848.74
688.527	10780.27
688.874	10719.93
689.221	10679.71
689.568	10716.99
689.915	10630.67
690.262	10601.29
690.609	10597.22
690.956	10559.26
691.303	10565.36
691.65	10486.49
691.997	10468.19
692.344	10365.36
692.69	10326.04
693.037	10365.59
693.383	10276.55
693.73	10242.65
694.077	10232.26
694.423	10211.92
694.769	10197.68
695.116	10121.75
695.462	10129.21
695.808	10053.28
696.155	10059.83
696.501	10019.38
696.847	9998.14
697.193	9918.14
697.539	9994.75
697.885	9881.76
698.231	9786.17
698.577	9807.41
698.923	9746.62
699.269	9698.94
699.614	9688.32
699.96	9637.7
700.306	9597.25
700.651	9599.06
700.997	9522.45
701.342	9608.32
701.688	9558.38
702.033	9468.44
702.379	9431.6
702.724	9414.43
703.069	9440.87
703.415	9327.65
703.76	9287.65
704.105	9342.34
704.45	9248.33
704.795	9233.19
705.14	9154.1
705.485	9206.98
705.83	9125.4
706.175	9169.01
706.52	9110.93
706.865	9024.61
707.209	9102.57
707.554	9031.84
707.899	9059.86
708.243	8976.92
708.588	8969.02
708.932	8901.9
709.277	8934.67
709.621	8895.12
709.966	8832.52
710.31	8870.71
710.654	8697.84
710.998	8806.31
711.342	8758.17
711.687	8691.51
712.031	8740.55
712.375	8679.53
712.719	8707.1
713.063	8632.98
713.407	8731.96
713.75	8617.84
714.094	8598.18
714.438	8602.92
714.782	8556.37
715.125	8555.47
715.469	8548.69
715.812	8549.14
716.156	8461.01
716.499	8496.94
716.843	8440.44
717.186	8457.16
717.53	8489.71
717.873	8475.24
718.216	8463.49
718.559	8396.38
718.902	8346.21
719.246	8268.92
719.589	8371.74
719.932	8330.39
720.275	8317.51
720.617	8351.63
720.96	8336.26
721.303	8321.57
721.646	8324.96
721.989	8272.31
722.331	8230.5
722.674	8328.81
723.016	8306.43
723.359	8296.94
723.701	8251.29
724.044	8242.03
724.386	8192.31
724.729	8263.72
725.071	8231.41
725.413	8173.56
725.755	8129.26
726.097	8195.02
726.439	8129.49
726.782	8121.81
727.124	8177.4
727.465	8133.78
727.807	8082.49
728.149	8112.77
728.491	8184.4
728.833	8169.94
729.175	8123.84
729.516	8077.97
729.858	8120.9
730.199	8125.42
730.541	8140.79
730.882	8090.39
731.224	8131.75
731.565	8062.15
731.906	8060.34
732.248	8118.19
732.589	8038.19
732.93	7995.26
733.271	8052.2
733.612	8095.14
733.953	8130.39
734.294	8061.24
734.635	8047.01
734.976	8049.94
735.317	8040.23
735.658	8008.14
735.999	8063.28
736.339	8102.37
736.68	8096.5
737.021	8069.83
737.361	8035.48
737.702	8137.17
738.042	8031.64
738.383	8083.84
738.723	8120.22
739.063	8105.76
739.404	8082.49
739.744	8065.54
740.084	8144.63
740.424	8115.7
740.764	8167.23
741.104	8152.77
741.444	8129.26
741.784	8177.62
742.124	8198.64
742.464	8221.01
742.804	8315.25
743.143	8288.81
743.483	8285.87
743.823	8279.54
744.162	8303.04
744.502	8319.32
744.841	8311.86
745.181	8476.37
745.52	8379.88
745.86	8478.63
746.199	8454.45
746.538	8541
746.877	8601.57
747.216	8686.09
747.556	8693.77
747.895	8741.9
748.234	8827.55
748.573	8793.65
748.911	8815.35
749.25	8908
749.589	8927.21
749.928	9080.2
750.267	9157.26
750.605	9145.51
750.944	9231.38
751.283	9316.58
751.621	9414.43
751.96	9464.82
752.298	9474.54
752.636	9667.98
752.975	9747.75
753.313	9787.98
753.651	9939.16
753.989	9921.53
754.327	10023
754.666	10165.59
755.004	10337.57
755.342	10397.9
755.679	10540.95
756.017	10654.39
756.355	10792.47
756.693	10884.9
757.031	11071.33
757.368	11181.84
757.706	11270.2
758.044	11475.62
758.381	11669.28
758.719	11673.8
759.056	11831.77
