Data from hue_120_FLMS001491_00062.txt Node
Date: Tue Feb 07 16:59:48 GMT 2017
User: dcchb
Spectrometer: FLMS00149
Trigger mode: 0
Integration Time (sec): 2.000000E-2
Scans to average: 10
Electric dark correction enabled: true
Nonlinearity correction enabled: false
Boxcar width: 0
XAxis mode: Wavelengths
Number of Pixels in Spectrum: 2048
>>>>>Begin Spectral Data<<<<<
341.393	0.45
341.776	0.45
342.16	0.45
342.543	-48.59
342.927	-62.15
343.31	-69.38
343.693	-77.96
344.077	-74.12
344.46	-61.69
344.843	-45.87
345.226	-48.59
345.61	-19.89
345.993	-16.04
346.376	-1.58
346.759	-0.9
347.142	18.3
347.525	43.61
347.908	73.44
348.291	85.2
348.674	93.1
349.057	102.37
349.44	148.02
349.823	151.86
350.206	169.26
350.588	188.24
350.971	227.79
351.354	219.43
351.737	248.58
352.119	256.94
352.502	271.18
352.884	268.24
353.267	282.25
353.65	294.23
354.032	315.02
354.414	341.91
354.797	318.41
355.179	327.9
355.562	326.55
355.944	333.78
356.326	346.66
356.709	359.99
357.091	355.7
357.473	333.78
357.855	327.9
358.238	333.78
358.62	356.37
359.002	353.21
359.384	370.39
359.766	369.48
360.148	353.89
360.53	346.66
360.912	358.41
361.294	351.18
361.676	348.24
362.057	346.43
362.439	336.26
362.821	346.88
363.203	329.03
363.584	321.35
363.966	348.69
364.348	343.27
364.729	310.5
365.111	315.7
365.493	331.29
365.874	337.62
366.256	331.97
366.637	326.32
367.019	328.35
367.4	324.29
367.781	332.87
368.163	331.52
368.544	334
368.925	323.16
369.306	320.9
369.688	345.98
370.069	320.44
370.45	311.4
370.831	336.04
371.212	341.01
371.593	329.03
371.974	327.45
372.355	303.49
372.736	328.58
373.117	335.13
373.498	332.42
373.879	325.87
374.26	330.61
374.641	327
375.021	338.75
375.402	348.92
375.783	333.78
376.163	333.55
376.544	327
376.925	348.47
377.305	330.39
377.686	343.49
378.066	346.66
378.447	326.09
378.827	315.25
379.208	331.52
379.588	351.63
379.968	355.92
380.349	357.73
380.729	331.97
381.109	355.47
381.489	369.03
381.87	354.57
382.25	368.13
382.63	350.5
383.01	379.43
383.39	370.61
383.77	351.63
384.15	369.03
384.53	377.84
384.91	354.34
385.29	390.5
385.67	358.63
386.049	367.45
386.429	350.95
386.809	375.13
387.189	380.55
387.568	368.8
387.948	375.13
388.328	387.11
388.707	396.6
389.087	362.48
389.466	363.15
389.846	378.97
390.225	369.93
390.605	370.84
390.984	368.13
391.363	367.22
391.743	381.46
392.122	402.7
392.501	376.71
392.881	399.76
393.26	390.27
393.639	395.02
394.018	414
394.397	389.82
394.776	411.29
395.155	388.24
395.534	411.06
395.913	414.45
396.292	410.16
396.671	418.52
397.05	400.44
397.429	407.9
397.808	421.91
398.186	411.06
398.565	426.66
398.944	424.62
399.323	416.49
399.701	414.68
400.08	412.64
400.458	425.3
400.837	426.43
401.215	412.19
401.594	405.41
401.972	437.5
402.351	413.1
402.729	452.64
403.107	454.9
403.486	469.37
403.864	454.45
404.242	425.53
404.62	448.8
404.999	451.97
405.377	448.58
405.755	445.86
406.133	447.45
406.511	454.23
406.889	483.6
407.267	476.15
407.645	472.53
408.023	503.04
408.401	472.76
408.779	449.71
409.156	497.84
409.534	500.1
409.912	498.29
410.29	484.51
410.667	492.87
411.045	498.07
411.422	499.87
411.8	516.6
412.178	514.11
412.555	508.69
412.933	489.93
413.31	532.42
413.687	540.32
414.065	530.61
414.442	547.56
414.819	512.08
415.197	545.97
415.574	564.05
415.951	567.67
416.328	546.65
416.705	564.05
417.082	571.28
417.46	566.76
417.837	576.26
418.214	562.25
418.591	564.5
418.967	566.99
419.344	581.68
419.721	565.18
420.098	573.09
420.475	587.56
420.852	591.17
421.228	604.5
421.605	582.13
421.982	610.38
422.358	623.94
422.735	607.89
423.111	609.7
423.488	633.88
423.864	602.02
424.241	642.92
424.617	641.34
424.994	641.57
425.37	647.44
425.746	649.47
426.123	657.38
426.499	654.22
426.875	661
427.251	664.84
427.627	676.37
428.003	692.41
428.379	682.47
428.756	688.57
429.132	711.85
429.507	705.52
429.883	705.74
430.259	702.81
430.635	731.96
431.011	712.52
431.387	737.16
431.763	754.1
432.138	752.75
432.514	758.4
432.89	756.59
433.265	775.12
433.641	792.52
434.016	792.07
434.392	812.41
434.767	802.46
435.143	808.11
435.518	809.92
435.894	825.06
436.269	818.06
436.644	834.55
437.02	822.8
437.395	853.99
437.77	848.57
438.145	861.67
438.52	891.05
438.895	852.86
439.271	876.14
439.646	911.84
440.021	909.13
440.395	882.91
440.77	891.05
441.145	929.69
441.52	931.5
441.895	915.68
442.27	918.85
442.645	942.8
443.019	921.78
443.394	940.99
443.769	969.92
444.143	979.18
444.518	979.64
444.892	944.61
445.267	965.17
445.641	986.64
446.016	981.9
446.39	980.99
446.764	990.03
447.139	988
447.513	1016.24
447.887	1020.31
448.262	1002.46
448.636	1037.49
449.01	1042.46
449.384	1051.72
449.758	1051.27
450.132	1064.83
450.506	1074.1
450.88	1070.03
451.254	1074.77
451.628	1100.31
452.002	1118.39
452.376	1126.07
452.75	1126.3
453.123	1136.92
453.497	1127.88
453.871	1149.35
454.244	1171.49
454.618	1198.39
454.992	1200.87
455.365	1194.54
455.739	1226.86
456.112	1239.97
456.486	1236.35
456.859	1255.33
457.232	1277.93
457.606	1271.6
457.979	1314.32
458.352	1325.61
458.725	1331.04
459.099	1373.52
459.472	1389.12
459.845	1380.53
460.218	1411.26
460.591	1418.72
460.964	1463.01
461.337	1457.36
461.71	1464.14
462.083	1498.04
462.456	1506.4
462.829	1526.06
463.201	1543.69
463.574	1550.02
463.947	1597.02
464.32	1610.35
464.692	1632.95
465.065	1635.44
465.438	1698.71
465.81	1714.98
466.183	1698.03
466.555	1759.5
466.928	1788.88
467.3	1755.66
467.672	1807.41
468.045	1865.26
468.417	1859.39
468.789	1906.39
469.161	1909.1
469.534	1962.66
469.906	2025.71
470.278	2019.83
470.65	2058.7
471.022	2129.89
471.394	2162.43
471.766	2158.59
472.138	2208.53
472.51	2236.78
472.882	2320.84
473.253	2373.95
473.625	2418.02
473.997	2432.93
474.369	2515.64
474.74	2530.1
475.112	2646.71
475.484	2674.73
475.855	2729.65
476.227	2758.57
476.598	2851.45
476.97	2917.21
477.341	2961.05
477.713	3051.22
478.084	3125.12
478.455	3237.65
478.827	3298.44
479.198	3426.8
479.569	3452.11
479.94	3555.84
480.311	3624.54
480.682	3760.35
481.053	3899.33
481.424	3950.86
481.795	4043.96
482.166	4151.53
482.537	4247.12
482.908	4418.19
483.279	4493.22
483.65	4613.44
484.021	4745.19
484.391	4865.41
484.762	4969.59
485.133	5074.89
485.503	5158.51
485.874	5341.55
486.244	5478.05
486.615	5590.14
486.985	5733.86
487.356	5879.62
487.726	6039.16
488.097	6181.08
488.467	6345.6
488.837	6490.45
489.207	6696.55
489.578	6810.89
489.948	6972.92
490.318	7140.83
490.688	7235.52
491.058	7411.1
491.428	7508.73
491.798	7698.78
492.168	7937.42
492.538	8006.12
492.908	8166.34
493.278	8364.53
493.648	8429.16
494.017	8654.91
494.387	8767.45
494.757	8911.63
495.126	9091.51
495.496	9184.84
495.866	9339.87
496.235	9460.99
496.605	9639.29
496.974	9753.42
497.344	9909.8
497.713	10034.99
498.082	10143.01
498.452	10244.93
498.821	10420.52
499.19	10473.4
499.559	10686.5
499.928	10789.55
500.298	10910.9
500.667	11082.65
501.036	11108.41
501.405	11184.56
501.774	11390.21
502.143	11381.17
502.512	11508.85
502.88	11685.12
503.249	11672.24
503.618	11900.7
503.987	11923.3
504.356	12042.17
504.724	12086.01
505.093	12220.47
505.462	12291.43
505.83	12414.14
506.199	12524.64
506.567	12738.2
506.936	12745.2
507.304	12899.77
507.672	12918.3
508.041	12932.99
508.409	13164.17
508.777	13189.71
509.145	13252.53
509.514	13248.92
509.882	13398.97
510.25	13400.78
510.618	13510.61
510.986	13441.45
511.354	13683.48
511.722	13781.56
512.09	13830.82
512.458	13798.51
512.826	13993.98
513.193	14046.64
513.561	14107.2
513.929	14139.52
514.297	14285.95
514.664	14325.05
515.032	14388.77
515.4	14477.59
515.767	14467.42
516.135	14607.07
516.502	14461.77
516.869	14713.29
517.237	14703.57
517.604	14643.68
517.972	14810.68
518.339	14868.54
518.706	14840.51
519.073	14813.85
519.44	14883.68
519.808	14994.86
520.175	15050.9
520.542	15157.12
520.909	15163.22
521.276	15135.42
521.643	15351.69
522.009	15300.16
522.376	15325.7
522.743	15467.84
523.11	15529.99
523.477	15689.76
523.843	15592.13
524.21	15764.78
524.577	15798.23
524.943	15863.31
525.31	15881.16
525.676	16039.35
526.043	15914.16
526.409	15979.47
526.776	16092.68
527.142	16038.22
527.508	16082.29
527.874	16163.64
528.241	16180.82
528.607	16159.35
528.973	16282.96
529.339	16233.47
529.705	16360.7
530.071	16432.79
530.437	16473.47
530.803	16396.63
531.169	16372.9
531.535	16300.59
531.901	16299.01
532.267	16358.89
532.632	16331.55
532.998	16381.26
533.364	16367.93
533.73	16387.37
534.095	16441.6
534.461	16414.48
534.826	16381.26
535.192	16416.29
535.557	16480.92
535.923	16298.1
536.288	16423.52
536.653	16370.64
537.019	16321.6
537.384	16381.94
537.749	16328.61
538.114	16348.04
538.479	16259.69
538.845	16274.83
539.21	16195.73
539.575	16221.49
539.94	16233.92
540.305	16305.33
540.67	16195.28
541.034	16212.68
541.399	16189.18
541.764	16101.27
542.129	16080.93
542.494	16128.62
542.858	15981.05
543.223	16082.51
543.587	16051.33
543.952	15904.44
544.316	15986.7
544.681	15863.31
545.045	15913.48
545.41	15862.86
545.774	15739.93
546.138	15761.39
546.503	15764.56
546.867	15736.76
547.231	15803.2
547.595	15694.95
547.959	15792.13
548.324	15688.18
548.688	15671.23
549.052	15613.37
549.416	15592.13
549.779	15504
550.143	15523.21
550.507	15486.37
550.871	15466.03
551.235	15400.27
551.599	15483.21
551.962	15435.07
552.326	15493.15
552.689	15501.29
553.053	15296.55
553.417	15411.35
553.78	15460.61
554.143	15347.85
554.507	15321.63
554.87	15430.33
555.234	15490.21
555.597	15337.68
555.96	15365.47
556.323	15302.65
556.686	15160.73
557.05	15363.21
557.413	15164.8
557.776	15294.29
558.139	15337
558.502	15275.3
558.865	15249.54
559.228	15326.83
559.59	15288.41
559.953	15311.24
560.316	15405.24
560.679	15291.12
561.041	15298.13
561.404	15322.31
561.767	15373.38
562.129	15257
562.492	15443.21
562.854	15323.21
563.217	15287.96
563.579	15363.21
563.941	15377.67
564.304	15452.02
564.666	15444.11
565.028	15476.88
565.39	15485.47
565.753	15639.36
566.115	15548.74
566.477	15630.32
566.839	15563.66
567.201	15576.99
567.563	15632.36
567.925	15678.23
568.287	15678.68
568.648	15692.47
569.01	15698.8
569.372	15750.55
569.734	15726.37
570.095	15725.01
570.457	15785.35
570.819	15787.83
571.18	15764.11
571.542	15823.54
571.903	15735.63
572.265	15782.86
572.626	15848.85
572.987	15843.65
573.349	15913.48
573.71	15908.51
574.071	15938.79
574.432	15923.65
574.794	16001.39
575.155	15870.77
575.516	15908.73
575.877	16020.37
576.238	15983.08
576.599	16098.79
576.96	15992.8
577.32	16007.94
577.681	16031.89
578.042	16099.24
578.403	16000.26
578.763	16082.97
579.124	16038
579.485	16053.82
579.845	16163.64
580.206	16091.78
580.566	16128.16
580.927	16040.03
581.287	16209.07
581.648	16026.92
582.008	16122.06
582.368	16008.62
582.728	16113.02
583.089	15987.83
583.449	16042.29
583.809	16037.32
584.169	16051.1
584.529	16038.9
584.889	16118.22
585.249	15929.3
585.609	15951.44
585.969	16003.2
586.329	15966.36
586.688	15964.1
587.048	15932.69
587.408	15881.16
587.768	15932.69
588.127	15975.4
588.487	15918.68
588.846	15970.65
589.206	15880.71
589.565	15919.36
589.925	15972.01
590.284	15917.77
590.643	15920.94
591.003	15962.74
591.362	15976.08
591.721	15858.57
592.08	15845.23
592.44	15933.14
592.799	15888.62
593.158	15834.61
593.517	15819.25
593.876	15807.49
594.235	15826.7
594.593	15729.53
594.952	15795.97
595.311	15831.9
595.67	15691.79
596.029	15868.51
596.387	15895.85
596.746	15827.15
597.104	15835.52
597.463	15731.56
597.822	15813.6
598.18	15747.16
598.538	15736.99
598.897	15829.64
599.255	15639.14
599.613	15901.73
599.972	15829.41
600.33	15827.61
600.688	15835.52
601.046	15806.14
601.404	15866.93
601.762	15872.58
602.12	15938.56
602.478	15925
602.836	15925.91
603.194	15790.32
603.552	15797.1
603.91	15791.22
604.268	15830.09
604.625	15768.17
604.983	15854.27
605.341	15723.43
605.698	15839.81
606.056	15848.17
606.413	15795.52
606.771	15905.57
607.128	16002.52
607.485	15803.43
607.843	15715.74
608.2	15930.65
608.557	15927.26
608.914	15912.35
609.272	15914.38
609.629	15981.73
609.986	16033.25
610.343	15994.16
610.7	16030.99
611.057	16108.73
611.414	16048.62
611.771	16034.15
612.127	16037.77
612.484	16060.37
612.841	16011.78
613.198	15982.63
613.554	16090.88
613.911	16105.79
614.267	16067.37
614.624	16084.55
614.98	16106.24
615.337	16162.74
615.693	16119.58
616.05	16117.32
616.406	16218.1
616.762	16129.97
617.118	16208.61
617.475	16171.33
617.831	16247.71
618.187	16282.96
618.543	16265.11
618.899	16390.3
619.255	16287.48
619.611	16317.54
619.967	16299.46
620.323	16388.95
620.678	16405.44
621.034	16286.35
621.39	16279.35
621.746	16328.84
622.101	16496.29
622.457	16320.7
622.812	16296.29
623.168	16359.12
623.523	16415.84
623.879	16353.92
624.234	16299.68
624.589	16449.96
624.945	16348.27
625.3	16384.65
625.655	16292
626.01	16422.17
626.365	16382.39
626.72	16373.81
627.075	16364.09
627.43	16308.5
627.785	16295.39
628.14	16346.69
628.495	16297.42
628.85	16340.14
629.205	16262.62
629.559	16363.86
629.914	16208.84
630.269	16263.98
630.623	16179.24
630.978	16212.91
631.332	16288.39
631.687	16330.87
632.041	16152.8
632.396	16160.48
632.75	16112.12
633.104	16088.39
633.459	16081.84
633.813	16031.22
634.167	16078.9
634.521	16007.04
634.875	16054.27
635.229	16016.75
635.583	15903.31
635.937	15964.78
636.291	15936.76
636.645	15871.45
636.999	15875.06
637.352	15940.6
637.706	15839.58
638.06	15893.59
638.413	15880.26
638.767	15791
639.121	15820.83
639.474	15791.68
639.828	15749.42
640.181	15729.08
640.534	15765.69
640.888	15760.49
641.241	15710.1
641.594	15666.25
641.947	15727.72
642.301	15688.63
642.654	15658.57
643.007	15730.66
643.36	15755.52
643.713	15652.24
644.066	15728.17
644.419	15661.06
644.771	15473.04
645.124	15423.32
645.477	15350.1
645.83	15251.8
646.182	15125.93
646.535	15184.23
646.888	15173.61
647.24	15043.9
647.593	15050.68
647.945	15121.64
648.298	15018.81
648.65	15097.46
649.002	15010.9
649.355	15066.04
649.707	15116.44
650.059	15097.46
650.411	15346.72
650.763	15322.99
651.115	15558.23
651.467	15431.68
651.819	15500.61
652.171	15433.04
652.523	15421.97
652.875	15361.4
653.227	15346.26
653.578	15476.2
653.93	15430.78
654.282	15335.87
654.633	15377
654.985	15388.97
655.337	15368.18
655.688	15325.02
656.039	15500.16
656.391	15360.5
656.742	15430.33
657.094	15426.49
657.445	15481.85
657.796	15358.24
658.147	15487.28
658.498	15434.85
658.849	15420.61
659.2	15387.39
659.551	15365.25
659.902	15429.42
660.253	15280.05
660.604	15470.1
660.955	15378.35
661.306	15414.51
661.656	15429.2
662.007	15441.18
662.358	15438.69
662.708	15553.94
663.059	15391.69
663.409	15371.57
663.76	15501.74
664.11	15445.7
664.461	15437.56
664.811	15507.16
665.161	15414.74
665.511	15451.8
665.862	15431.91
666.212	15392.36
666.562	15540.61
666.912	15455.19
667.262	15471.91
667.612	15457.22
667.962	15473.49
668.312	15366.6
668.662	15452.02
669.011	15380.84
669.361	15374.06
669.711	15440.72
670.06	15358.69
670.41	15374.74
670.76	15364.12
671.109	15408.41
671.459	15371.35
671.808	15294.97
672.157	15403.21
672.507	15336.32
672.856	15383.1
673.205	15303.1
673.554	15323.44
673.904	15236.21
674.253	15370.44
674.602	15254.29
674.951	15109.89
675.3	14979.49
675.649	15221.75
675.998	15262.65
676.346	15113.27
676.695	15240.96
677.044	15104.24
677.393	15139.71
677.741	15252.71
678.09	15192.82
678.438	15075.31
678.787	15070.56
679.135	15098.81
679.484	14986.5
679.832	15041.86
680.181	14832.6
680.529	14976.56
680.877	15017.01
681.225	14909.89
681.573	14990.57
681.922	14869.44
682.27	14838.25
682.618	14859.72
682.966	14738.82
683.314	14734.75
683.661	14686.85
684.009	14717.58
684.357	14681.65
684.705	14659.05
685.053	14702.44
685.4	14615.89
685.748	14524.14
686.095	14547.87
686.443	14479.39
686.79	14467.64
687.138	14481.43
687.485	14416.34
687.832	14479.85
688.18	14446.85
688.527	14219.97
688.874	14221.32
689.221	14180.64
689.568	14179.06
689.915	14205.28
690.262	14127.99
690.609	14074.88
690.956	14047.77
691.303	13968.45
691.65	13876.02
691.997	13983.81
692.344	13862.69
692.69	13836.02
693.037	13832.86
693.383	13715.8
693.73	13802.8
694.077	13628.79
694.423	13702.92
694.769	13610.72
695.116	13599.19
695.462	13568.23
695.808	13460.44
696.155	13484.39
696.501	13366.65
696.847	13426.77
697.193	13351.51
697.539	13395.35
697.885	13252.08
698.231	13177.05
698.577	13115.14
698.923	13122.14
699.269	13072.42
699.614	12997.17
699.96	13053.89
700.306	12953.33
700.651	12825.2
700.997	12788.59
701.342	12774.81
701.688	12748.14
702.033	12703.85
702.379	12623.62
702.724	12673.57
703.069	12669.27
703.415	12492.33
703.76	12469.5
704.105	12458.66
704.45	12442.16
704.795	12365.1
705.14	12241.03
705.485	12248.72
705.83	12211.88
706.175	12216.4
706.52	12135.27
706.865	12139.34
707.209	12100.25
707.554	12030.19
707.899	12058.44
708.243	12025.9
708.588	12012.57
708.932	11854.83
709.277	11811.21
709.621	11870.87
709.966	11853.25
710.31	11819.58
710.654	11716.3
710.998	11734.83
711.342	11751.1
711.687	11692.57
712.031	11594.5
712.375	11587.27
712.719	11650.77
713.063	11614.38
713.407	11564.67
713.75	11534.16
714.094	11496.42
714.438	11489.87
714.782	11435.41
715.125	11394.5
715.469	11413.26
715.812	11372.36
716.156	11284.9
716.499	11350.66
716.843	11346.82
717.186	11281.96
717.53	11294.62
717.873	11276.54
718.216	11317.89
718.559	11185.02
718.902	11121.97
719.246	11156.77
719.589	11137.79
719.932	11064.57
720.275	11134.62
720.617	11091.01
720.96	11058.47
721.303	11095.08
721.646	11087.84
721.989	10945.7
722.331	11109.76
722.674	11082.65
723.016	11080.84
723.359	11041.97
723.701	11020.73
724.044	11031.57
724.386	10905.02
724.729	10949.77
725.071	10978.02
725.413	10933.5
725.755	10938.02
726.097	10868.41
726.439	10837
726.782	10885.14
727.124	10902.31
727.465	10873.16
727.807	10869.54
728.149	10842.65
728.491	10849.43
728.833	10786.16
729.175	10805.82
729.516	10834.52
729.858	10804.69
730.199	10803.33
730.541	10771.47
730.882	10818.02
731.224	10787.74
731.565	10725.82
731.906	10788.64
732.248	10764.24
732.589	10708.42
732.93	10693.28
733.271	10651.25
733.612	10734.18
733.953	10722.88
734.294	10641.3
734.635	10625.03
734.976	10710
735.317	10575.99
735.658	10662.54
735.999	10685.37
736.339	10656.44
736.68	10750
737.021	10709.55
737.361	10690.11
737.702	10709.77
738.042	10696.22
738.383	10675.43
738.723	10743.67
739.063	10737.12
739.404	10739.83
739.744	10769.66
740.084	10716.55
740.424	10704.13
740.764	10767.85
741.104	10804.01
741.444	10812.37
741.784	10782.77
742.124	10794.74
742.464	10761.3
742.804	10868.41
743.143	10890.79
743.483	10901.86
743.823	10887.62
744.162	10917.68
744.502	10972.37
744.841	10923.1
745.181	11029.54
745.52	10992.71
745.86	11093.04
746.199	11107.28
746.538	11168.52
746.877	11213.72
747.216	11273.83
747.556	11245.35
747.895	11318.35
748.234	11330.1
748.573	11417.55
748.911	11525.12
749.25	11582.75
749.589	11672.01
749.928	11702.07
750.267	11819.35
750.605	11783.64
750.944	11871.55
751.283	11951.78
751.621	12122.62
751.96	12170.75
752.298	12308.38
752.636	12321.48
752.975	12465.43
753.313	12471.76
753.651	12669.72
753.989	12725.32
754.327	12839.66
754.666	12909.94
755.004	13089.15
755.342	13245.3
755.679	13365.07
756.017	13490.94
756.355	13655.23
756.693	13757.15
