Data from hue_130_FLMS001491_00011.txt Node
Date: Tue Feb 07 16:57:13 GMT 2017
User: dcchb
Spectrometer: FLMS00149
Trigger mode: 0
Integration Time (sec): 2.000000E-2
Scans to average: 10
Electric dark correction enabled: true
Nonlinearity correction enabled: false
Boxcar width: 0
XAxis mode: Wavelengths
Number of Pixels in Spectrum: 2048
>>>>>Begin Spectral Data<<<<<
341.393	-11.36
341.776	-11.36
342.16	-11.36
342.543	-85.25
342.927	-87.06
343.31	-79.38
343.693	-48.64
344.077	-65.37
344.46	-59.04
344.843	-69.43
345.226	-47.06
345.61	-34.41
345.993	-8.42
346.376	-19.72
346.759	19.83
347.142	30.45
347.525	54.41
347.908	59.83
348.291	68.42
348.674	95.31
349.057	103.22
349.44	119.49
349.823	134.4
350.206	167.17
350.588	201.29
350.971	194.29
351.354	207.4
351.737	229.32
352.119	239.71
352.502	233.84
352.884	264.12
353.267	281.29
353.65	278.35
354.032	305.02
354.414	281.29
354.797	303.66
355.179	316.55
355.562	306.6
355.944	328.3
356.326	314.51
356.709	321.97
357.091	355.64
357.473	330.56
357.855	314.74
358.238	342.99
358.62	344.34
359.002	333.27
359.384	332.14
359.766	328.3
360.148	339.14
360.53	334.85
360.912	321.74
361.294	330.56
361.676	334.62
362.057	325.81
362.439	329.43
362.821	317.9
363.203	310.22
363.584	316.32
363.966	326.94
364.348	330.78
364.729	339.37
365.111	327.39
365.493	320.84
365.874	314.96
366.256	303.89
366.637	307.51
367.019	311.8
367.4	340.5
367.781	303.44
368.163	300.05
368.544	317.45
368.925	290.78
369.306	317.68
369.688	311.12
370.069	305.02
370.45	303.44
370.831	312.25
371.212	288.52
371.593	301.4
371.974	302.99
372.355	291.69
372.736	323.55
373.117	315.64
373.498	311.57
373.879	297.11
374.26	303.89
374.641	302.53
375.021	306.83
375.402	306.6
375.783	302.99
376.163	298.92
376.544	340.05
376.925	326.49
377.305	323.32
377.686	307.51
378.066	326.49
378.447	303.21
378.827	317.68
379.208	319.48
379.588	312.25
379.968	310.44
380.349	308.64
380.729	335.08
381.109	320.61
381.489	331.91
381.87	321.97
382.25	316.77
382.63	317.45
383.01	326.49
383.39	337.56
383.77	330.1
384.15	324.23
384.53	329.43
384.91	334.17
385.29	351.8
385.67	345.47
386.049	333.72
386.429	359.03
386.809	343.89
387.189	329.43
387.568	339.37
387.948	359.03
388.328	350.44
388.707	335.53
389.087	353.38
389.466	338.01
389.846	339.37
390.225	356.77
390.605	357.9
390.984	360.84
391.363	375.3
391.743	356.77
392.122	372.59
392.501	340.05
392.881	366.71
393.26	364.91
393.639	354.51
394.018	375.98
394.397	372.59
394.776	363.1
395.155	374.62
395.534	356.09
395.913	381.85
396.292	369.65
396.671	378.69
397.05	388.63
397.429	378.24
397.808	371.46
398.186	387.28
398.565	373.72
398.944	397.9
399.323	384.11
399.701	381.18
400.08	396.77
400.458	385.24
400.837	387.5
401.215	381.63
401.594	409.65
401.972	400.16
402.351	401.74
402.729	392.93
403.107	398.8
403.486	416.88
403.864	408.52
404.242	403.55
404.62	385.24
404.999	398.8
405.377	412.36
405.755	404.23
406.133	413.27
406.511	423.66
406.889	440.84
407.267	439.71
407.645	397.45
408.023	420.72
408.401	414.4
408.779	442.87
409.156	436.77
409.534	454.17
409.912	466.15
410.29	449.42
410.667	441.97
411.045	458.46
411.422	445.81
411.8	465.47
412.178	443.32
412.555	455.52
412.933	464.79
413.31	489.87
413.687	465.02
414.065	470.67
414.442	476.99
414.819	473.83
415.197	479.25
415.574	490.33
415.951	477.45
416.328	494.39
416.705	483.32
417.082	492.59
417.46	512.02
417.837	511.34
418.214	522.42
418.591	497.78
418.967	498.24
419.344	496.88
419.721	524
420.098	519.93
420.475	521.06
420.852	513.38
421.228	545.92
421.605	534.39
421.982	534.39
422.358	539.36
422.735	536.88
423.111	536.88
423.488	552.47
423.864	535.52
424.241	560.15
424.617	558.57
424.994	563.09
425.37	596.09
425.746	554.73
426.123	579.14
426.499	578.69
426.875	565.8
427.251	608.06
427.627	600.61
428.003	585.46
428.379	629.76
428.756	576.65
429.132	623.66
429.507	599.25
429.883	621.85
430.259	611
430.635	634.5
431.011	609.19
431.387	621.85
431.763	643.32
432.138	644.67
432.514	643.99
432.89	669.76
433.265	665.91
433.641	676.08
434.016	692.35
434.392	667.04
434.767	675.18
435.143	686.93
435.518	706.14
435.894	699.59
436.269	715.86
436.644	706.59
437.02	722.86
437.395	719.47
437.77	735.29
438.145	747.72
438.52	739.59
438.895	738.23
439.271	757.66
439.646	748.17
440.021	792.24
440.395	769.64
440.77	783.88
441.145	788.17
441.52	789.3
441.895	806.93
442.27	781.17
442.645	799.02
443.019	806.48
443.394	797.89
443.769	808.51
444.143	798.34
444.518	820.94
444.892	801.05
445.267	818.91
445.641	826.36
446.016	831.56
446.39	840.83
446.764	846.93
447.139	849.64
447.513	858
447.887	851.22
448.262	858.23
448.636	854.61
449.01	872.91
449.384	905.46
449.758	902.97
450.132	926.7
450.506	889.86
450.88	899.81
451.254	907.72
451.628	931.22
452.002	936.64
452.376	921.73
452.75	961.95
453.123	969.86
453.497	961.73
453.871	938
454.244	999.24
454.618	977.09
454.992	992.46
455.365	1011.22
455.739	1015.74
456.112	1057.54
456.486	1058.22
456.859	1053.02
457.232	1079.92
457.606	1085.11
457.979	1077.2
458.352	1099.8
458.725	1121.27
459.099	1129.63
459.472	1160.36
459.845	1173.7
460.218	1170.08
460.591	1201.04
460.964	1195.17
461.337	1209.4
461.71	1234.26
462.083	1233.58
462.456	1236.3
462.829	1253.92
463.201	1256.86
463.574	1270.42
463.947	1309.74
464.32	1340.25
464.692	1332.56
465.065	1344.99
465.438	1370.75
465.81	1411.43
466.183	1455.72
466.555	1454.14
466.928	1444.2
467.3	1442.39
467.672	1508.38
468.045	1520.13
468.417	1537.08
468.789	1546.34
469.161	1578.66
469.534	1620.92
469.906	1664.53
470.278	1684.64
470.65	1696.62
471.022	1715.6
471.394	1757.19
471.766	1781.14
472.138	1807.81
472.51	1872.89
472.882	1922.6
473.253	1948.59
473.625	1980.91
473.997	2041.92
474.369	2094.13
474.74	2115.14
475.112	2191.52
475.484	2216.38
475.855	2283.05
476.227	2336.83
476.598	2392.65
476.97	2419.54
477.341	2533.66
477.713	2567.56
478.084	2598.75
478.455	2670.16
478.827	2759.64
479.198	2826.31
479.569	2858.17
479.94	2995.8
480.311	3046.42
480.682	3153.98
481.053	3232.63
481.424	3343.58
481.795	3400.31
482.166	3499.29
482.537	3597.82
482.908	3695.89
483.279	3765.49
483.65	3888.65
484.021	4049.55
484.391	4088.88
484.762	4159.61
485.133	4262.2
485.503	4375.42
485.874	4524.8
486.244	4606.83
486.615	4775.64
486.985	4843.43
487.356	5041.17
487.726	5098.79
488.097	5280.71
488.467	5406.58
488.837	5540.59
489.207	5645.67
489.578	5833.46
489.948	5928.6
490.318	6068.71
490.688	6209.05
491.058	6303.73
491.428	6450.62
491.798	6623.5
492.168	6750.05
492.538	6810.16
492.908	7014.9
493.278	7152.3
493.648	7221.67
494.017	7356.81
494.387	7449.24
494.757	7597.48
495.126	7844.93
495.496	7908.21
495.866	8028.43
496.235	8145.72
496.605	8264.13
496.974	8425.03
497.344	8489.66
497.713	8595.88
498.082	8729.21
498.452	8866.38
498.821	9005.13
499.19	9039.93
499.559	9196.31
499.928	9289.87
500.298	9345.69
500.667	9554.49
501.036	9522.18
501.405	9686.69
501.774	9775.96
502.143	9842.4
502.512	9956.07
502.88	10162.84
503.249	10099.34
503.618	10215.27
503.987	10238.32
504.356	10400.12
504.724	10522.15
505.093	10588.59
505.462	10635.37
505.83	10689.61
506.199	10869.04
506.567	10989.49
506.936	10933.89
507.304	11108.8
507.672	11070.61
508.041	11173.66
508.409	11327.56
508.777	11412.07
509.145	11463.82
509.514	11461.79
509.882	11612.52
510.25	11568.45
510.618	11674.89
510.986	11656.81
511.354	11856.35
511.722	11843.25
512.09	11988.1
512.458	12038.95
512.826	12046.41
513.193	12053.64
513.561	12175.44
513.929	12184.93
514.297	12282.11
514.664	12295.21
515.032	12388.32
515.4	12417.24
515.767	12497.69
516.135	12576.34
516.502	12497.47
516.869	12589.89
517.237	12652.94
517.604	12587.86
517.972	12657.69
518.339	12711.47
518.706	12678.93
519.073	12732.94
519.44	12833.28
519.808	12914.86
520.175	12908.3
520.542	13027.17
520.909	13062.2
521.276	12980.17
521.643	13171.8
522.009	13134.51
522.376	13225.36
522.743	13159.15
523.11	13274.4
523.477	13347.16
523.843	13365.24
524.21	13460.15
524.577	13510.1
524.943	13462.41
525.31	13549.42
525.676	13529.76
526.043	13573.6
526.409	13623.99
526.776	13739.7
527.142	13656.08
527.508	13658.34
527.874	13843.42
528.241	13752.58
528.607	13717.32
528.973	13847.49
529.339	13796.42
529.705	13879.13
530.071	13834.38
530.437	13866.25
530.803	13892.69
531.169	13916.41
531.535	13858.56
531.901	13812.69
532.267	13838.45
532.632	13922.29
532.998	13858.34
533.364	13901.5
533.73	13913.7
534.095	13941.95
534.461	13862.86
534.826	13896.08
535.192	13817.89
535.557	13985.34
535.923	13773.59
536.288	13841.84
536.653	13795.29
537.019	13783.31
537.384	13731.33
537.749	13693.37
538.114	13706.02
538.479	13640.71
538.845	13651.79
539.21	13628.96
539.575	13640.49
539.94	13549.19
540.305	13571.11
540.67	13513.03
541.034	13523.88
541.399	13464.9
541.764	13435.75
542.129	13463.32
542.494	13423.32
542.858	13394.62
543.223	13399.82
543.587	13367.95
543.952	13212.48
544.316	13353.04
544.681	13162.54
545.045	13189.2
545.41	13278.24
545.774	13161.18
546.138	13190.78
546.503	13167.05
546.867	13035.31
547.231	13115.53
547.595	12998.47
547.959	13096.32
548.324	13007.29
548.688	12962.99
549.052	12914.63
549.416	12933.61
549.779	12895.65
550.143	12887.06
550.507	12945.82
550.871	12802.54
551.235	12804.58
551.599	12856.55
551.962	12777.69
552.326	12679.38
552.689	12776.56
553.053	12597.58
553.417	12558.26
553.78	12747.86
554.143	12596.67
554.507	12671.93
554.87	12621.08
555.234	12656.79
555.597	12449.56
555.96	12495.66
556.323	12468.77
556.686	12516.22
557.05	12553.06
557.413	12527.75
557.776	12498.82
558.139	12529.11
558.502	12444.59
558.865	12463.57
559.228	12562.78
559.59	12514.87
559.953	12479.39
560.316	12557.58
560.679	12509.67
561.041	12571.36
561.404	12519.16
561.767	12562.78
562.129	12532.72
562.492	12556.45
562.854	12519.39
563.217	12471.25
563.579	12495.21
563.941	12545.15
564.304	12599.16
564.666	12586.73
565.028	12637.13
565.39	12647.29
565.753	12638.26
566.115	12641.19
566.477	12643.45
566.839	12661.98
567.201	12698.82
567.563	12676.22
567.925	12696.78
568.287	12687.97
568.648	12644.13
569.01	12752.6
569.372	12807.97
569.734	12681.64
570.095	12813.62
570.457	12857.91
570.819	12789.89
571.18	12799.83
571.542	12865.59
571.903	12895.65
572.265	12943.11
572.626	12927.51
572.987	12821.75
573.349	12936.1
573.71	12988.3
574.071	12891.13
574.432	12905.37
574.794	13019.26
575.155	12996.66
575.516	12970.45
575.877	12975.2
576.238	12956.21
576.599	13000.05
576.96	13002.99
577.32	12969.55
577.681	13051.58
578.042	13019.49
578.403	13007.51
578.763	12992.14
579.124	12989.43
579.485	13034.4
579.845	13019.94
580.206	13028.53
580.566	13036.21
580.927	13032.37
581.287	13049.09
581.648	13050.45
582.008	12994.86
582.368	12968.87
582.728	12978.13
583.089	12943.78
583.449	12988.75
583.809	12954.63
584.169	12981.3
584.529	12996.66
584.889	13005.25
585.249	12890.45
585.609	12896.1
585.969	12961.41
586.329	12862.66
586.688	12929.77
587.048	13021.07
587.408	12918.93
587.768	12898.14
588.127	12871.92
588.487	12873.05
588.846	12967.74
589.206	12759.83
589.565	12808.19
589.925	12795.77
590.284	12839.38
590.643	12822.43
591.003	12915.54
591.362	12952.15
591.721	12801.19
592.08	12829.21
592.44	12798.7
592.799	12805.71
593.158	12841.87
593.517	12859.27
593.876	12793.05
594.235	12767.07
594.593	12755.31
594.952	12789.44
595.311	12737.24
595.67	12740.17
596.029	12868.53
596.387	12818.14
596.746	12829.21
597.104	12763.68
597.463	12804.58
597.822	12709.21
598.18	12780.85
598.538	12749.89
598.897	12730.68
599.255	12594.87
599.613	12848.19
599.972	12755.09
600.33	12698.37
600.688	12689.1
601.046	12746.05
601.404	12795.31
601.762	12712.6
602.12	12810.91
602.478	12777.69
602.836	12795.77
603.194	12796.22
603.552	12705.15
603.91	12687.75
604.268	12755.99
604.625	12661.08
604.983	12770.91
605.341	12738.37
605.698	12724.13
606.056	12758.25
606.413	12788.53
606.771	12746.28
607.128	12793.28
607.485	12741.76
607.843	12678.25
608.2	12788.99
608.557	12845.93
608.914	12797.57
609.272	12841.19
609.629	12912.37
609.986	12869.21
610.343	12891.58
610.7	12884.8
611.057	12927.97
611.414	12867.4
611.771	12784.92
612.127	12911.47
612.484	12937
612.841	12944.01
613.198	12852.26
613.554	12968.64
613.911	13011.8
614.267	12980.62
614.624	12868.08
614.98	12994.4
615.337	13001.18
615.693	13107.4
616.05	12966.83
616.406	13043.22
616.762	12972.48
617.118	13066.27
617.475	13029.88
617.831	13109.2
618.187	13056.78
618.543	13107.62
618.899	13138.81
619.255	13119.15
619.611	13048.87
619.967	13102.88
620.323	13153.72
620.678	13071.92
621.034	13111.24
621.39	13061.07
621.746	13141.97
622.101	13260.84
622.457	13123.21
622.812	13110.11
623.168	13186.49
623.523	13162.08
623.879	13189.88
624.234	13146.04
624.589	13176.09
624.945	13112.14
625.3	13147.17
625.655	13193.27
626.01	13128.41
626.365	13264
626.72	13164.8
627.075	13153.27
627.43	13114.4
627.785	13146.26
628.14	13154.4
628.495	13091.8
628.85	13143.55
629.205	13066.94
629.559	13190.33
629.914	13067.85
630.269	13172.48
630.623	13096.1
630.978	13100.62
631.332	13125.7
631.687	13166.6
632.041	13056.78
632.396	13005.93
632.75	12954.41
633.104	13017
633.459	13000.05
633.813	12966.16
634.167	12942.43
634.521	12938.59
634.875	13002.77
635.229	12897.46
635.583	12801.19
635.937	12913.95
636.291	12826.05
636.645	12832.83
636.999	12790.12
637.352	12781.75
637.706	12756.22
638.06	12815.43
638.413	12730.46
638.767	12734.98
639.121	12774.75
639.474	12751.02
639.828	12719.38
640.181	12703.56
640.534	12676.67
640.888	12719.38
641.241	12609.56
641.594	12585.6
641.947	12601.42
642.301	12641.65
642.654	12578.37
643.007	12663.11
643.36	12590.57
643.713	12523.91
644.066	12626.28
644.419	12473.06
644.771	12392.16
645.124	12406.17
645.477	12367.53
645.83	12341.09
646.182	12244.59
646.535	12149
646.888	12181.54
647.24	12150.58
647.593	12205.27
647.945	12245.95
648.298	12165.5
648.65	12076.24
649.002	12090.7
649.355	12163.69
649.707	12151.71
650.059	12279.17
650.411	12374.53
650.763	12401.88
651.115	12418.37
651.467	12485.94
651.819	12413.18
652.171	12482.55
652.523	12332.73
652.875	12363.23
653.227	12341.77
653.578	12482.55
653.93	12392.84
654.282	12316.46
654.633	12371.37
654.985	12407.53
655.337	12395.55
655.688	12347.64
656.039	12521.87
656.391	12403.69
656.742	12314.2
657.094	12419.28
657.445	12445.94
657.796	12415.66
658.147	12378.38
658.498	12436.68
658.849	12440.97
659.2	12422.22
659.551	12400.3
659.902	12406.17
660.253	12406.17
660.604	12438.49
660.955	12401.43
661.306	12491.37
661.656	12459.73
662.007	12480.75
662.358	12481.2
662.708	12495.89
663.059	12398.94
663.409	12411.37
663.76	12474.42
664.11	12446.85
664.461	12531.37
664.811	12430.58
665.161	12483.23
665.511	12407.75
665.862	12445.27
666.212	12495.43
666.562	12480.75
666.912	12444.59
667.262	12385.61
667.612	12464.47
667.962	12463.34
668.312	12366.62
668.662	12426.28
669.011	12517.58
669.361	12471.25
669.711	12412.27
670.06	12429
670.41	12385.38
670.76	12411.59
671.109	12461.99
671.459	12414.53
671.808	12388.09
672.157	12433.97
672.507	12408.43
672.856	12310.58
673.205	12390.58
673.554	12464.7
673.904	12333.86
674.253	12343.12
674.602	12348.09
674.951	12230.81
675.3	12131.83
675.649	12352.61
675.998	12318.94
676.346	12200.3
676.695	12356
677.044	12236.01
677.393	12237.14
677.741	12294.08
678.09	12238.94
678.438	12160.08
678.787	12261.54
679.135	12198.04
679.484	12092.05
679.832	12158.04
680.181	12106.29
680.529	12062.9
680.877	12058.16
681.225	11990.14
681.573	12157.82
681.922	12054.54
682.27	12025.16
682.618	11939.29
682.966	12072.85
683.314	11989.01
683.661	11913.98
684.009	11887.54
684.357	11812.06
684.705	11766.87
685.053	11835.11
685.4	11798.28
685.748	11699.97
686.095	11746.98
686.443	11677.15
686.79	11615.46
687.138	11665.63
687.485	11738.62
687.832	11608
688.18	11587.89
688.527	11575.91
688.874	11647.77
689.221	11493.2
689.568	11513.54
689.915	11501.11
690.262	11478.96
690.609	11441.9
690.956	11340.89
691.303	11382.92
691.65	11286.2
691.997	11314.9
692.344	11203.26
692.69	11123.94
693.037	11176.6
693.383	11088.69
693.73	11109.03
694.077	11033.1
694.423	10996.94
694.769	10962.14
695.116	10993.78
695.462	10914.91
695.808	10857.74
696.155	10882.6
696.501	10761.02
696.847	10760.34
697.193	10739.77
697.539	10724.63
697.885	10672.66
698.231	10580
698.577	10623.39
698.923	10545.2
699.269	10525.32
699.614	10425.43
699.96	10447.58
700.306	10534.58
700.651	10356.51
700.997	10286.23
701.342	10335.72
701.688	10261.37
702.033	10231.31
702.379	10216.4
702.724	10150.86
703.069	10259.56
703.415	10081.26
703.76	10083.52
704.105	10081.49
704.45	9969.4
704.795	9923.07
705.14	9949.51
705.485	9913.58
705.83	9846.46
706.175	9867.93
706.52	9895.05
706.865	9834.94
707.209	9759.46
707.554	9748.61
707.899	9787.71
708.243	9746.13
708.588	9681.27
708.932	9579.13
709.277	9543.2
709.621	9521.05
709.966	9452.12
710.31	9543.2
710.654	9441.96
710.998	9471.11
711.342	9503.65
711.687	9364.9
712.031	9314.5
712.375	9391.11
712.719	9294.84
713.063	9356.99
713.407	9382.75
713.75	9307.27
714.094	9262.75
714.438	9229.53
714.782	9285.35
715.125	9300.26
715.469	9224.56
715.812	9218.68
716.156	9199.48
716.499	9153.6
716.843	9189.53
717.186	9099.82
717.53	9168.74
717.873	9132.58
718.216	9119.03
718.559	9003.77
718.902	8988.63
719.246	9073.6
719.589	9022.98
719.932	8985.24
720.275	8980.27
720.617	8940.05
720.96	8901.4
721.303	8982.76
721.646	8946.6
721.989	8901.18
722.331	8996.32
722.674	8894.4
723.016	8977.11
723.359	8904.57
723.701	8880.39
724.044	8873.61
724.386	8853.04
724.729	8867.51
725.071	8801.52
725.413	8845.59
725.755	8871.12
726.097	8807.62
726.439	8725.14
726.782	8786.61
727.124	8806.49
727.465	8777.57
727.807	8758.13
728.149	8777.11
728.491	8758.58
728.833	8782.54
729.175	8671.81
729.516	8690.34
729.858	8737.57
730.199	8751.8
730.541	8722.65
730.882	8759.26
731.224	8726.27
731.565	8707.29
731.906	8714.06
732.248	8708.42
732.589	8763.1
732.93	8658.25
733.271	8735.31
733.612	8712.48
733.953	8706.16
734.294	8686.04
734.635	8659.6
734.976	8642.65
735.317	8611.92
735.658	8691.47
735.999	8637.68
736.339	8673.39
736.68	8739.83
737.021	8657.57
737.361	8687.17
737.702	8745.7
738.042	8665.03
738.383	8710
738.723	8676.78
739.063	8728.98
739.404	8691.92
739.744	8719.71
740.084	8782.54
740.424	8779.83
740.764	8726.95
741.104	8844.23
741.444	8709.55
741.784	8765.59
742.124	8855.98
742.464	8816.89
742.804	8829.77
743.143	8877.45
743.483	8851.46
743.823	8869.99
744.162	8880.39
744.502	8978.46
744.841	8952.02
745.181	9030.89
745.52	9033.83
745.86	9020.72
746.199	9093.49
746.538	9146.37
746.877	9189.53
747.216	9299.81
747.556	9182.98
747.895	9269.76
748.234	9301.62
748.573	9326.25
748.911	9482.63
749.25	9524.66
749.589	9519.47
749.928	9645.79
750.267	9711.1
750.605	9770.53
750.944	9844.66
751.283	9881.04
751.621	9955.39
751.96	10050.53
752.298	10123.97
752.636	10208.71
752.975	10254.59
753.313	10348.37
753.651	10561.93
753.989	10540.91
754.327	10694.8
754.666	10737.29
755.004	10945.87
755.342	11028.35
755.679	11198.52
756.017	11309.7
756.355	11380.21
756.693	11556.25
757.031	11685.96
757.368	11821.78
757.706	11942.23
758.044	12033.07
758.381	12206.85
758.719	12384.93
759.056	12572.49
759.394	12690.23
