Data from hue_130_FLMS001491_00064.txt Node
Date: Tue Feb 07 16:57:55 GMT 2017
User: dcchb
Spectrometer: FLMS00149
Trigger mode: 0
Integration Time (sec): 2.000000E-2
Scans to average: 10
Electric dark correction enabled: true
Nonlinearity correction enabled: false
Boxcar width: 0
XAxis mode: Wavelengths
Number of Pixels in Spectrum: 2048
>>>>>Begin Spectral Data<<<<<
341.393	-2.3
341.776	-2.3
342.16	-2.3
342.543	-52.92
342.927	-68.74
343.31	-82.98
343.693	-71.23
344.077	-72.58
344.46	-63.77
344.843	-57.44
345.226	-59.25
345.61	-26.93
345.993	-35.3
346.376	13.29
346.759	-6.37
347.142	22.1
347.525	61.65
347.908	72.05
348.291	76.57
348.674	113.4
349.057	116.79
349.44	141.87
349.823	143
350.206	155.43
350.588	196.56
350.971	224.36
351.354	241.31
351.737	236.34
352.119	261.19
352.502	254.41
352.884	283.34
353.267	281.53
353.65	299.61
354.032	300.51
354.414	289.89
354.797	339.84
355.179	335.77
355.562	343.23
355.944	335.09
356.326	338.03
356.709	357.91
357.091	350.23
357.473	345.94
357.855	346.16
358.238	357.01
358.62	343.9
359.002	344.58
359.384	340.06
359.766	333.73
360.148	346.84
360.53	354.3
360.912	339.16
361.294	337.8
361.676	335.99
362.057	336.9
362.439	327.86
362.821	343.45
363.203	342.32
363.584	324.69
363.966	323.34
364.348	343
364.729	339.61
365.111	320.4
365.493	340.29
365.874	337.58
366.256	354.98
366.637	285.37
367.019	331.25
367.4	329.44
367.781	336.67
368.163	324.92
368.544	309.33
368.925	322.66
369.306	319.27
369.688	341.42
370.069	312.72
370.45	314.75
370.831	310.68
371.212	317.69
371.593	329.21
371.974	310.23
372.355	313.62
372.736	312.72
373.117	324.24
373.498	327.63
373.879	306.16
374.26	305.49
374.641	302.77
375.021	313.62
375.402	322.89
375.783	320.4
376.163	337.58
376.544	338.71
376.925	327.63
377.305	340.06
377.686	319.05
378.066	367.63
378.447	337.35
378.827	336.9
379.208	351.36
379.588	350
379.968	366.73
380.349	348.65
380.729	361.76
381.109	356.56
381.489	349.1
381.87	352.72
382.25	355.2
382.63	349.78
383.01	360.4
383.39	368.76
383.77	358.37
384.15	346.39
384.53	364.92
384.91	349.55
385.29	356.78
385.67	358.37
386.049	359.27
386.429	370.12
386.809	375.77
387.189	361.53
387.568	383.9
387.948	369.44
388.328	374.41
388.707	365.82
389.087	351.36
389.466	397.69
389.846	387.52
390.225	383.9
390.605	380.29
390.984	394.52
391.363	388.42
391.743	406.95
392.122	376.22
392.501	375.31
392.881	381.87
393.26	408.53
393.639	378.48
394.018	391.81
394.397	395.88
394.776	404.47
395.155	377.35
395.534	409.66
395.913	387.74
396.292	402.88
396.671	397.24
397.05	409.66
397.429	408.76
397.808	405.82
398.186	411.47
398.565	405.14
398.944	404.47
399.323	416.22
399.701	406.5
400.08	424.58
400.458	432.04
400.837	421.87
401.215	426.16
401.594	421.19
401.972	440.4
402.351	427.74
402.729	430
403.107	432.04
403.486	417.35
403.864	419.38
404.242	429.1
404.62	454.63
404.999	431.58
405.377	432.49
405.755	439.04
406.133	444.92
406.511	454.86
406.889	462.09
407.267	454.41
407.645	481.3
408.023	458.02
408.401	477.69
408.779	468.42
409.156	463
409.534	486.72
409.912	473.39
410.29	496.44
410.667	470.45
411.045	515.2
411.422	494.41
411.8	495.09
412.178	484.46
412.555	475.43
412.933	492.6
413.31	524.01
413.687	534.63
414.065	525.59
414.442	516.1
414.819	523.33
415.197	520.4
415.574	511.81
415.951	543.67
416.328	507.74
416.705	523.79
417.082	548.19
417.46	532.15
417.837	559.72
418.214	560.62
418.591	541.64
418.967	550.23
419.344	543.22
419.721	553.62
420.098	567.17
420.475	559.26
420.852	570.11
421.228	583.45
421.605	577.57
421.982	580.51
422.358	608.98
422.735	597
423.111	579.15
423.488	587.96
423.864	595.2
424.241	627.51
424.617	601.75
424.994	596.55
425.37	610.79
425.746	623.9
426.123	643.1
426.499	631.35
426.875	622.09
427.251	634.29
427.627	652.14
428.003	622.77
428.379	649.43
428.756	649.43
429.132	660.28
429.507	666.38
429.883	662.99
430.259	707.51
430.635	696.44
431.011	705.25
431.387	698.92
431.763	702.31
432.138	689.43
432.514	732.37
432.89	719.94
433.265	735.08
433.641	716.1
434.016	727.4
434.392	731.01
434.767	758.81
435.143	764.46
435.518	774.63
435.894	788.41
436.269	778.69
436.644	795.42
437.02	796.09
437.395	782.54
437.77	829.31
438.145	834.96
438.52	801.29
438.895	817.11
439.271	817.56
439.646	844
440.021	841.29
440.395	863.44
440.77	858.47
441.145	844.46
441.52	847.17
441.895	895.08
442.27	883.55
442.645	892.82
443.019	889.88
443.394	879.71
443.769	888.07
444.143	910.67
444.518	917.9
444.892	913.15
445.267	938.01
445.641	935.07
446.016	914.51
446.39	926.71
446.764	976.66
447.139	959.71
447.513	948.63
447.887	965.81
448.262	965.36
448.636	960.38
449.01	989.54
449.384	1004
449.758	1009.42
450.132	1004
450.506	1016.88
450.88	1020.27
451.254	1011.46
451.628	1037.22
452.002	1046.71
452.376	1039.25
452.75	1045.81
453.123	1053.49
453.497	1071.57
453.871	1103.88
454.244	1100.72
454.618	1119.25
454.992	1132.81
455.365	1106.14
455.739	1145.69
456.112	1183.43
456.486	1174.62
456.859	1189.76
457.232	1178.68
457.606	1192.24
457.979	1228.85
458.352	1273.37
458.725	1251
459.099	1257.55
459.472	1270.43
459.845	1270.21
460.218	1283.99
460.591	1313.37
460.964	1331.67
461.337	1364.22
461.71	1355.85
462.083	1401.05
462.456	1400.15
462.829	1404.21
463.201	1451.9
463.574	1427.49
463.947	1493.25
464.32	1495.74
464.692	1514.49
465.065	1530.31
465.438	1567.83
465.81	1571.22
466.183	1614.83
466.555	1652.8
466.928	1647.15
467.3	1622.06
467.672	1700.25
468.045	1726.01
468.417	1733.7
468.789	1772.34
469.161	1801.27
469.534	1842.62
469.906	1882.62
470.278	1865.67
470.65	1900.02
471.022	1956.29
471.394	1995.84
471.766	2031.99
472.138	2087.81
472.51	2100.02
472.882	2152.22
473.253	2196.28
473.625	2232.67
473.997	2304.08
474.369	2315.6
474.74	2363.06
475.112	2397.86
475.484	2445.77
475.855	2541.13
476.227	2585.2
476.598	2661.36
476.97	2699.55
477.341	2784.52
477.713	2838.08
478.084	2901.35
478.455	2982.48
478.827	3025.64
479.198	3129.59
479.569	3202.36
479.94	3294.56
480.311	3332.98
480.682	3453.88
481.053	3595.57
481.424	3693.65
481.795	3747.2
482.166	3864.94
482.537	3931.38
482.908	4034.2
483.279	4153.52
483.65	4231.03
484.021	4382.44
484.391	4454.08
484.762	4576.33
485.133	4658.82
485.503	4804.13
485.874	4920.73
486.244	5051.58
486.615	5165.25
486.985	5291.34
487.356	5462.19
487.726	5525.24
488.097	5704.44
488.467	5812.91
488.837	6021.04
489.207	6075.5
489.578	6289.28
489.948	6409.05
490.318	6536.96
490.688	6668.93
491.058	6833
491.428	7036.16
491.798	7138.08
492.168	7285.64
492.538	7424.62
492.908	7560.21
493.278	7726.76
493.648	7808.11
494.017	8038.84
494.387	8126.98
494.757	8270.7
495.126	8393.64
495.496	8520.86
495.866	8601.77
496.235	8745.72
496.605	8939.61
496.974	8994.75
497.344	9158.36
497.713	9264.57
498.082	9441.52
498.452	9579.14
498.821	9667.73
499.19	9713.83
499.559	9821.62
499.928	10021.16
500.298	10104.1
500.667	10283.98
501.036	10249.41
501.405	10427.48
501.774	10566.46
502.143	10635.38
502.512	10741.82
502.88	10817.75
503.249	10926.45
503.618	10980.01
503.987	11045.99
504.356	11202.6
504.724	11242.15
505.093	11317.17
505.462	11373.44
505.83	11522.14
506.199	11537.73
506.567	11758.52
506.936	11723.27
507.304	11885.29
507.672	11901.11
508.041	12039.64
508.409	12113.99
508.777	12234.89
509.145	12304.04
509.514	12243.7
509.882	12379.07
510.25	12390.82
510.618	12457.48
510.986	12468.1
511.354	12692.73
511.722	12755.1
512.09	12842.33
512.458	12783.58
512.826	12944.02
513.193	12957.58
513.561	12929.11
513.929	13097.01
514.297	13174.07
514.664	13259.95
515.032	13217.92
515.4	13340.85
515.767	13424.69
516.135	13438.47
516.502	13274.86
516.869	13499.26
517.237	13516.21
517.604	13515.31
517.972	13642.31
518.339	13698.35
518.706	13611.58
519.073	13706.94
519.44	13845.24
519.808	13902.87
520.175	13887.28
520.542	13998.91
520.909	13991.68
521.276	13886.82
521.643	14068.97
522.009	14114.39
522.376	14151.22
522.743	14106.03
523.11	14235.97
523.477	14383.53
523.843	14354.83
524.21	14481.61
524.577	14422.4
524.943	14511.89
525.31	14566.13
525.676	14563.87
526.043	14522.06
526.409	14665.56
526.776	14715.73
527.142	14762.28
527.508	14769.51
527.874	14785.56
528.241	14748.72
528.607	14840.47
528.973	14826.69
529.339	14770.42
529.705	14956.17
530.071	14959.56
530.437	14904.2
530.803	14994.14
531.169	14905.55
531.535	14901.03
531.901	14889.06
532.267	14900.36
532.632	14913.69
532.998	14945.55
533.364	14927.7
533.73	14840.47
534.095	14995.72
534.461	14968.38
534.826	15004.08
535.192	15012.9
535.557	15061.03
535.923	14962.28
536.288	14916.85
536.653	14924.08
537.019	14885.67
537.384	14840.02
537.749	14830.08
538.114	14851.32
538.479	14783.98
538.845	14888.38
539.21	14785.11
539.575	14748.72
539.94	14712.34
540.305	14706.46
540.67	14681.38
541.034	14614.04
541.399	14642.28
541.764	14655.62
542.129	14568.84
542.494	14545.34
542.858	14534.04
543.223	14515.06
543.587	14562.96
543.952	14432.12
544.316	14476.87
544.681	14401.16
545.045	14442.97
545.41	14385.34
545.774	14353.25
546.138	14335.17
546.503	14289.07
546.867	14205.91
547.231	14331.78
547.595	14139.47
547.959	14256.76
548.324	14210.88
548.688	14096.08
549.052	14136.54
549.416	14025.13
549.779	14075.29
550.143	13988.06
550.507	14025.8
550.871	13982.64
551.235	13881.4
551.599	13948.74
551.962	13917.33
552.326	13913.72
552.689	13945.58
553.053	13792.82
553.417	13786.71
553.78	13876.88
554.143	13815.19
554.507	13788.3
554.87	13808.18
555.234	13915.98
555.597	13741.74
555.96	13758.69
556.323	13728.41
556.686	13673.04
557.05	13726.38
557.413	13852.93
557.776	13712.82
558.139	13767.73
558.502	13753.27
558.865	13797.79
559.228	13781.97
559.59	13769.54
559.953	13722.08
560.316	13892.47
560.679	13704.68
561.041	13789.43
561.404	13834.4
561.767	13883.21
562.129	13786.26
562.492	13859.93
562.854	13747.17
563.217	13877.33
563.579	13818.58
563.941	13862.64
564.304	13878.69
564.666	13949.2
565.028	13894.73
565.39	13896.99
565.753	13958.69
566.115	13996.43
566.477	14044.79
566.839	13996.2
567.201	14066.93
567.563	14075.75
567.925	14133.37
568.287	14088.17
568.648	14082.75
569.01	14119.13
569.372	14143.77
569.734	14188.74
570.095	14250.66
570.457	14226.02
570.819	14215.86
571.18	14196.19
571.542	14245.46
571.903	14302.41
572.265	14308.06
572.626	14358.68
572.987	14338.34
573.349	14283.88
573.71	14396.64
574.071	14432.8
574.432	14409.3
574.794	14438.67
575.155	14472.12
575.516	14371.56
575.877	14412.69
576.238	14430.54
576.599	14472.8
576.96	14546.92
577.32	14454.49
577.681	14415.85
578.042	14487.94
578.403	14456.3
578.763	14469.41
579.124	14448.39
579.485	14478
579.845	14654.94
580.206	14562.74
580.566	14517.54
580.927	14522.97
581.287	14467.37
581.648	14436.41
582.008	14539.01
582.368	14533.36
582.728	14522.29
583.089	14449.97
583.449	14509.41
583.809	14512.12
584.169	14572
584.529	14414.72
584.889	14531.33
585.249	14437.32
585.609	14449.97
585.969	14448.84
586.329	14416.08
586.688	14431.67
587.048	14430.76
587.408	14403.42
587.768	14393.25
588.127	14425.57
588.487	14279.36
588.846	14490.65
589.206	14285.01
589.565	14301.5
589.925	14373.82
590.284	14342.86
590.643	14322.07
591.003	14338.34
591.362	14467.6
591.721	14373.82
592.08	14312.58
592.44	14393.7
592.799	14281.16
593.158	14248.85
593.517	14292.69
593.876	14285.68
594.235	14289.53
594.593	14275.29
594.952	14300.82
595.311	14189.64
595.67	14282.29
596.029	14272.12
596.387	14311.9
596.746	14366.13
597.104	14275.51
597.463	14169.75
597.822	14240.94
598.18	14214.95
598.538	14207.95
598.897	14292.01
599.255	14158.46
599.613	14379.69
599.972	14211.34
600.33	14240.49
600.688	14174.27
601.046	14282.75
601.404	14290.66
601.762	14275.97
602.12	14354.61
602.478	14352.12
602.836	14283.88
603.194	14221.28
603.552	14260.83
603.91	14244.55
604.268	14287.94
604.625	14195.29
604.983	14326.36
605.341	14234.61
605.698	14324.78
606.056	14333.37
606.413	14339.47
606.771	14390.77
607.128	14350.99
607.485	14293.14
607.843	14315.06
608.2	14333.59
608.557	14395.96
608.914	14321.16
609.272	14365
609.629	14433.25
609.986	14439.13
610.343	14403.42
610.7	14503.98
611.057	14526.81
611.414	14397.55
611.771	14402.97
612.127	14503.98
612.484	14557.09
612.841	14492.01
613.198	14428.73
613.554	14495.4
613.911	14541.04
614.267	14607.26
614.624	14504.21
614.98	14623.53
615.337	14617.43
615.693	14541.95
616.05	14602.51
616.406	14627.82
616.762	14579.46
617.118	14645
617.475	14586.24
617.831	14699.46
618.187	14726.12
618.543	14634.6
618.899	14774.48
619.255	14673.7
619.611	14662.17
619.967	14713.7
620.323	14739.68
620.678	14728.84
621.034	14612
621.39	14605.68
621.746	14716.86
622.101	14802.51
622.457	14692
622.812	14681.15
623.168	14762.06
623.523	14716.41
623.879	14809.51
624.234	14632.57
624.589	14679.57
624.945	14670.53
625.3	14754.15
625.655	14747.59
626.01	14703.75
626.365	14723.86
626.72	14690.87
627.075	14732.45
627.43	14696.75
627.785	14690.64
628.14	14687.26
628.495	14719.57
628.85	14690.42
629.205	14621.49
629.559	14681.61
629.914	14579.01
630.269	14681.83
630.623	14537.65
630.978	14631.44
631.332	14645.67
631.687	14598.67
632.041	14491.33
632.396	14625.56
632.75	14479.58
633.104	14541.72
633.459	14489.97
633.813	14471.44
634.167	14468.5
634.521	14442.52
634.875	14486.36
635.229	14464.89
635.583	14344.44
635.937	14384.89
636.291	14315.06
636.645	14348.51
636.999	14387.38
637.352	14405.68
637.706	14367.49
638.06	14370.2
638.413	14306.02
638.767	14317.1
639.121	14323.42
639.474	14261.96
639.828	14285.01
640.181	14325.46
640.534	14238.68
640.888	14209.75
641.241	14209.08
641.594	14173.37
641.947	14140.83
642.301	14131.79
642.654	14131.34
643.007	14125.46
643.36	14158
643.713	14111.23
644.066	14179.47
644.419	14167.04
644.771	13952.59
645.124	13893.83
645.477	13807.73
645.83	13715.08
646.182	13761.4
646.535	13655.19
646.888	13663.78
647.24	13649.32
647.593	13683.44
647.945	13660.16
648.298	13636.66
648.65	13512.37
649.002	13553.5
649.355	13661.52
649.707	13618.13
650.059	13636.89
650.411	13850.21
650.763	13852.93
651.115	13872.36
651.467	13858.12
651.819	13918.69
652.171	13850.21
652.523	13840.27
652.875	13846.15
653.227	13840.27
653.578	13878.91
653.93	13864.68
654.282	13824.68
654.633	13823.32
654.985	13774.74
655.337	13845.02
655.688	13932.92
656.039	13948.29
656.391	13794.85
656.742	13796.88
657.094	13832.14
657.445	14029.65
657.796	13870.33
658.147	13806.6
658.498	13809.76
658.849	13930.66
659.2	13869.42
659.551	13817
659.902	13904
660.253	13907.84
660.604	13922.3
660.955	13866.49
661.306	13993.71
661.656	13943.77
662.007	13994.62
662.358	13958.23
662.708	13926.6
663.059	13932.47
663.409	13878.01
663.76	13897.22
664.11	13927.5
664.461	13950.1
664.811	13942.42
665.161	13859.93
665.511	13886.15
665.862	13920.95
666.212	13991
666.562	13978.35
666.912	13948.74
667.262	13852.93
667.612	13915.3
667.962	13863.32
668.312	13853.83
668.662	14007.5
669.011	13916.2
669.361	13943.55
669.711	13858.12
670.06	13917.78
670.41	13866.94
670.76	13847.73
671.109	13953.04
671.459	13893.6
671.808	13902.19
672.157	13937.67
672.507	13743.55
672.856	13806.6
673.205	13805.24
673.554	13755.53
673.904	13892.7
674.253	13787.39
674.602	13850.44
674.951	13633.95
675.3	13572.03
675.649	13725.47
675.998	13737.22
676.346	13758.92
676.695	13777.45
677.044	13699.03
677.393	13688.64
677.741	13720.27
678.09	13706.72
678.438	13588.07
678.787	13667.17
679.135	13678.47
679.484	13503.78
679.832	13629.66
680.181	13498.13
680.529	13491.58
680.877	13453.84
681.225	13489.77
681.573	13494.74
681.922	13374.97
682.27	13293.39
682.618	13394.41
682.966	13349.66
683.314	13363.67
683.661	13323.9
684.009	13302.66
684.357	13214.3
684.705	13201.87
685.053	13268.76
685.4	13207.75
685.748	13058.82
686.095	13082.1
686.443	13113.29
686.79	13056.34
687.138	13059.95
687.485	13095.88
687.832	13031.25
688.18	12925.04
688.527	12923.23
688.874	12885.04
689.221	12901.09
689.568	12829.45
689.915	12794.2
690.262	12716.69
690.609	12770.47
690.956	12731.83
691.303	12679.62
691.65	12603.24
691.997	12676.23
692.344	12511.49
692.69	12490.7
693.037	12548.33
693.383	12385.62
693.73	12460.42
694.077	12284.61
694.423	12342.23
694.769	12227.21
695.116	12278.05
695.462	12253.65
695.808	12223.37
696.155	12167.55
696.501	12070.6
696.847	12052.75
697.193	11996.03
697.539	12036.93
697.885	11942.02
698.231	11884.84
698.577	11830.83
698.923	11750.84
699.269	11769.82
699.614	11712.87
699.96	11685.75
700.306	11626.54
700.651	11646.43
700.997	11569.37
701.342	11524.4
701.688	11485.76
702.033	11405.53
702.379	11514.91
702.724	11418.41
703.069	11412.76
703.415	11287.8
703.76	11222.71
704.105	11235.59
704.45	11269.27
704.795	11145.88
705.14	11152.66
705.485	11089.16
705.83	11024.98
706.175	11033.11
706.52	11051.64
706.865	10989.95
707.209	11043.96
707.554	10904.3
707.899	10916.96
708.243	10889.39
708.588	10878.77
708.932	10740.24
709.277	10756.28
709.621	10763.97
709.966	10663.41
710.31	10682.39
710.654	10565.78
710.998	10603.52
711.342	10648.49
711.687	10596.06
712.031	10552.67
712.375	10543.18
712.719	10551.54
713.063	10457.08
713.407	10561.49
713.75	10498.66
714.094	10401.72
714.438	10400.14
714.782	10515.16
715.125	10355.17
715.469	10408.27
715.812	10309.97
716.156	10231.55
716.499	10356.97
716.843	10262.74
717.186	10191.55
717.53	10284.66
717.873	10255.51
718.216	10235.17
718.559	10175.96
718.902	10155.85
719.246	10153.59
719.589	10135.28
719.932	10143.19
720.275	10149.3
720.617	10120.37
720.96	10051.22
721.303	10026.59
721.646	10056.64
721.989	9996.3
722.331	10054.38
722.674	10024.33
723.016	10012.58
723.359	9950.66
723.701	9956.31
724.044	9918.34
724.386	9877.66
724.729	9911.11
725.071	9907.72
725.413	9872.92
725.755	9892.58
726.097	9821.62
726.439	9821.17
726.782	9869.98
727.124	9842.64
727.465	9905.01
727.807	9807.16
728.149	9785.24
728.491	9792.24
728.833	9857.78
729.175	9772.13
729.516	9796.31
729.858	9829.76
730.199	9835.63
730.541	9764.9
730.882	9818
731.224	9849.64
731.565	9718.12
731.906	9737.55
732.248	9743.66
732.589	9739.81
732.93	9714.96
733.271	9723.77
733.612	9738.91
733.953	9720.38
734.294	9753.6
734.635	9701.85
734.976	9717.22
735.317	9693.94
735.658	9676.77
735.999	9784.11
736.339	9721.51
736.68	9723.32
737.021	9704.34
737.361	9688.06
737.702	9711.34
738.042	9770.55
738.383	9663.66
738.723	9758.12
739.063	9737.55
739.404	9759.93
739.744	9789.53
740.084	9735.52
740.424	9727.84
740.764	9838.12
741.104	9811.9
741.444	9821.85
741.784	9764.45
742.124	9831.79
742.464	9847.61
742.804	9823.65
743.143	9856.87
743.483	9959.7
743.823	9896.42
744.162	9898.68
744.502	9997.89
744.841	9940.26
745.181	10049.86
745.52	10044.89
745.86	10097.55
746.199	10102.29
746.538	10100.26
746.877	10196.07
747.216	10250.08
747.556	10303.87
747.895	10314.49
748.234	10314.26
748.573	10380.93
748.911	10429.29
749.25	10576.18
749.589	10568.49
749.928	10611.88
750.267	10714.48
750.605	10817.3
750.944	10824.76
751.283	10910.18
751.621	11039.22
751.96	11027.01
752.298	11137.52
752.636	11234.92
752.975	11281.69
753.313	11343.16
753.651	11445.76
753.989	11595.58
754.327	11706.99
754.666	11775.24
755.004	11916.48
755.342	12061.79
755.679	12219.98
756.017	12334.1
756.355	12496.13
756.693	12538.84
757.031	12793.07
757.368	12815.21
757.706	12931.82
758.044	13090.69
