Data from hue_28_FLMS001491_00022.txt Node
Date: Tue Feb 07 17:17:03 GMT 2017
User: dcchb
Spectrometer: FLMS00149
Trigger mode: 0
Integration Time (sec): 2.000000E-2
Scans to average: 10
Electric dark correction enabled: true
Nonlinearity correction enabled: false
Boxcar width: 0
XAxis mode: Wavelengths
Number of Pixels in Spectrum: 2048
>>>>>Begin Spectral Data<<<<<
341.393	-8.43
341.776	-8.43
342.16	-8.43
342.543	-66.96
342.927	-70.35
343.31	-71.26
343.693	-45.95
344.077	-67.19
344.46	-76.9
344.843	-47.3
345.226	-29.22
345.61	-27.64
345.993	-24.7
346.376	-12.27
346.759	10.55
347.142	11.68
347.525	35.18
347.908	63.66
348.291	59.81
348.674	95.52
349.057	126.03
349.44	130.55
349.823	150.43
350.206	183.43
350.588	196.53
350.971	193.6
351.354	226.82
351.737	225.23
352.119	248.28
352.502	295.51
352.884	284.44
353.267	298.23
353.65	297.32
354.032	301.39
354.414	313.59
354.797	317.44
355.179	316.08
355.562	333.25
355.944	345.23
356.326	320.15
356.709	325.12
357.091	343.2
357.473	340.26
357.855	338.23
358.238	354.5
358.62	356.08
359.002	336.19
359.384	361.73
359.766	361.95
360.148	328.28
360.53	333.48
360.912	332.58
361.294	356.53
361.676	333.71
362.057	329.41
362.439	330.09
362.821	318.11
363.203	326.93
363.584	324.67
363.966	322.41
364.348	327.83
364.729	322.63
365.111	345.68
365.493	331.9
365.874	326.93
366.256	328.06
366.637	314.05
367.019	304.1
367.4	329.64
367.781	327.6
368.163	313.59
368.544	316.98
368.925	307.94
369.306	323.08
369.688	309.3
370.069	322.86
370.45	316.76
370.831	299.36
371.212	316.08
371.593	301.62
371.974	319.47
372.355	329.64
372.736	337.1
373.117	339.58
373.498	325.12
373.879	335.29
374.26	327.83
374.641	329.86
375.021	336.87
375.402	326.93
375.783	315.18
376.163	321.28
376.544	320.37
376.925	327.15
377.305	354.95
377.686	322.63
378.066	327.15
378.447	339.81
378.827	352.46
379.208	323.54
379.588	322.18
379.968	326.02
380.349	332.8
380.729	324.89
381.109	323.76
381.489	328.73
381.87	338
382.25	346.59
382.63	342.52
383.01	367.15
383.39	360.82
383.77	355.17
384.15	337.32
384.53	350.88
384.91	366.25
385.29	391.11
385.67	377.09
386.049	344.33
386.429	344.78
386.809	349.98
387.189	366.02
387.568	377.32
387.948	373.7
388.328	399.24
388.707	384.78
389.087	369.64
389.466	351.56
389.846	368.73
390.225	356.08
390.605	382.07
390.984	379.81
391.363	352.69
391.743	385.23
392.122	375.51
392.501	384.1
392.881	393.59
393.26	387.49
393.639	380.48
394.018	377.77
394.397	392.91
394.776	379.81
395.155	389.52
395.534	400.82
395.913	397.66
396.292	404.66
396.671	406.47
397.05	392.91
397.429	403.53
397.808	389.75
398.186	406.47
398.565	404.89
398.944	408.73
399.323	385.23
399.701	410.99
400.08	412.12
400.458	419.58
400.837	411.9
401.215	407.83
401.594	413.25
401.972	422.97
402.351	395.85
402.729	418.9
403.107	420.48
403.486	438.34
403.864	421.84
404.242	412.35
404.62	425.91
404.999	443.08
405.377	442.63
405.755	430.88
406.133	436.53
406.511	464.55
406.889	462.74
407.267	448.73
407.645	423.87
408.023	466.13
408.401	444.89
408.779	466.81
409.156	478.56
409.534	466.58
409.912	467.26
410.29	474.27
410.667	459.8
411.045	482.85
411.422	464.32
411.8	497.09
412.178	472.46
412.555	466.36
412.933	485.57
413.31	494.38
413.687	488.5
414.065	515.62
414.442	513.14
414.819	514.94
415.197	498.67
415.574	517.43
415.951	505.68
416.328	527.15
416.705	530.76
417.082	524.21
417.46	536.19
417.837	512.91
418.214	536.41
418.591	540.71
418.967	539.58
419.344	539.35
419.721	547.71
420.098	545.23
420.475	541.38
420.852	538.9
421.228	556.98
421.605	546.58
421.982	573.02
422.358	567.37
422.735	581.83
423.111	574.15
423.488	572.8
423.864	568.73
424.241	581.38
424.617	591.1
424.994	600.82
425.37	616.41
425.746	596.52
426.123	582.74
426.499	591.1
426.875	615.96
427.251	626.81
427.627	617.99
428.003	609.86
428.379	643.75
428.756	645.56
429.132	637.43
429.507	649.86
429.883	643.3
430.259	667.71
430.635	651.21
431.011	675.62
431.387	668.61
431.763	689.18
432.138	680.14
432.514	688.72
432.89	685.79
433.265	699.57
433.641	712
434.016	727.14
434.392	732.57
434.767	737.09
435.143	725.33
435.518	746.8
435.894	762.17
436.269	710.65
436.644	759.46
437.02	754.71
437.395	744.32
437.77	750.87
438.145	776.86
438.52	755.62
438.895	781.38
439.271	769.85
439.646	818.44
440.021	821.6
440.395	827.48
440.77	793.81
441.145	835.39
441.52	817.08
441.895	825.9
442.27	840.81
442.645	825.22
443.019	844.88
443.394	835.16
443.769	871.54
444.143	843.52
444.518	838.55
444.892	872.22
445.267	860.25
445.641	884.65
446.016	891.21
446.39	912
446.764	894.37
447.139	869.29
447.513	911.77
447.887	917.87
448.262	918.32
448.636	921.26
449.01	931.66
449.384	893.69
449.758	916.52
450.132	958.55
450.506	909.74
450.88	915.61
451.254	954.93
451.628	961.03
452.002	962.84
452.376	994.25
452.75	994.48
453.123	1017.98
453.497	1019.11
453.871	994.25
454.244	1018.66
454.618	1019.34
454.992	1036.51
455.365	1036.96
455.739	1069.05
456.112	1073.8
456.486	1091.65
456.859	1100.01
457.232	1119.67
457.606	1106.11
457.979	1127.36
458.352	1149.05
458.725	1141.82
459.099	1139.33
459.472	1183.63
459.845	1181.59
460.218	1197.86
460.591	1189.95
460.964	1233.8
461.337	1242.83
461.71	1254.59
462.083	1239.9
462.456	1291.87
462.829	1261.59
463.201	1306.34
463.574	1307.69
463.947	1351.76
464.32	1347.01
464.692	1359.89
465.065	1366.45
465.438	1380.46
465.81	1413.23
466.183	1430.17
466.555	1441.25
466.928	1456.16
467.3	1474.92
467.672	1507.46
468.045	1518.99
468.417	1524.64
468.789	1556.5
469.161	1581.13
469.534	1567.12
469.906	1610.28
470.278	1626.33
470.65	1634.46
471.022	1685.08
471.394	1697.96
471.766	1733.67
472.138	1737.06
472.51	1789.71
472.882	1800.33
473.253	1867.68
473.625	1850.28
473.997	1886.89
474.369	1895.92
474.74	1913.78
475.112	2007.11
475.484	2046.88
475.855	2048.46
476.227	2050.04
476.598	2136.37
476.97	2163.71
477.341	2212.07
477.713	2238.51
478.084	2262.47
478.455	2326.2
478.827	2370.49
479.198	2433.54
479.569	2405.06
479.94	2466.98
480.311	2526.87
480.682	2627.2
481.053	2671.27
481.424	2729.8
481.795	2714.43
482.166	2805.51
482.537	2817.71
482.908	2885.96
483.279	2953.07
483.65	3014.54
484.021	3096.35
484.391	3104.93
484.762	3192.16
485.133	3183.12
485.503	3271.48
485.874	3344.47
486.244	3349.22
486.615	3454.98
486.985	3490.91
487.356	3631.7
487.726	3625.82
488.097	3710.34
488.467	3732.03
488.837	3844.57
489.207	3885.48
489.578	3925.7
489.948	4000.73
490.318	4037.79
490.688	4136.09
491.058	4198.01
491.428	4273.49
491.798	4310.55
492.168	4360.72
492.538	4408.4
492.908	4428.74
493.278	4522.75
493.648	4542.41
494.017	4675.06
494.387	4696.98
494.757	4717.09
495.126	4798
495.496	4798.9
495.866	4863.53
496.235	4900.82
496.605	5004.09
496.974	5013.13
497.344	5042.73
497.713	5044.54
498.082	5149.85
498.452	5185.78
498.821	5248.83
499.19	5229.4
499.559	5295.38
499.928	5313.69
500.298	5364.76
500.667	5406.57
501.036	5427.81
501.405	5522.27
501.774	5461.25
502.143	5589.39
502.512	5547.13
502.88	5650.18
503.249	5658.54
503.618	5717.52
503.987	5753
504.356	5770.4
504.724	5844.75
505.093	5823.05
505.462	5830.74
505.83	5922.71
506.199	5955.25
506.567	5962.48
506.936	5988.92
507.304	6044.06
507.672	6072.31
508.041	6061.46
508.409	6187.11
508.777	6283.15
509.145	6223.72
509.514	6257.17
509.882	6241.12
510.25	6335.36
510.618	6347.79
510.986	6411.06
511.354	6435.92
511.722	6448.12
512.09	6545.07
512.458	6512.98
512.826	6579.42
513.193	6624.39
513.561	6577.16
513.929	6648.12
514.297	6789.58
514.664	6696.02
515.032	6743.93
515.4	6798.17
515.767	6785.29
516.135	6927.43
516.502	6843.82
516.869	6912.06
517.237	6895.57
517.604	6888.79
517.972	6963.36
518.339	6984.6
518.706	6995.23
519.073	7112.06
519.44	7089.23
519.808	7128.33
520.175	7166.07
520.542	7223.47
520.909	7288.55
521.276	7257.37
521.643	7345.27
522.009	7371.04
522.376	7392.05
522.743	7448.77
523.11	7567.19
523.477	7511.14
523.843	7574.65
524.21	7588.88
524.577	7657.58
524.943	7723.34
525.31	7759.5
525.676	7813.28
526.043	7838.14
526.409	7951.81
526.776	7925.37
527.142	8008.31
527.508	7975.99
527.874	8137.34
528.241	8152.26
528.607	8171.01
528.973	8221.86
529.339	8240.62
529.705	8303.21
530.071	8322.65
530.437	8392.93
530.803	8427.73
531.169	8467.96
531.535	8467.73
531.901	8473.15
532.267	8504.56
532.632	8554.28
532.998	8599.48
533.364	8646.26
533.73	8649.87
534.095	8754.95
534.461	8780.49
534.826	8848.06
535.192	8865.01
535.557	8881.28
535.923	8857.1
536.288	8949.98
536.653	9043.53
537.019	9035.62
537.384	9070.65
537.749	9079.69
538.114	9098.9
538.479	9142.29
538.845	9195.85
539.21	9132.12
539.575	9255.05
539.94	9286.69
540.305	9284.66
540.67	9304.32
541.034	9396.52
541.399	9433.58
541.764	9443.97
542.129	9497.08
542.494	9476.74
542.858	9581.82
543.223	9585.89
543.587	9687.36
543.952	9666.12
544.316	9702.73
544.681	9781.82
545.045	9808.03
545.41	9832.44
545.774	9932.32
546.138	9930.97
546.503	9948.82
546.867	9913.34
547.231	10096.16
547.595	10077.63
547.959	10094.13
548.324	10100.23
548.688	10131.19
549.052	10148.36
549.416	10167.12
549.779	10248.25
550.143	10221.81
550.507	10297.74
550.871	10284.4
551.235	10391.75
551.599	10382.93
551.962	10446.43
552.326	10533.66
552.689	10564.17
553.053	10475.59
553.417	10538.86
553.78	10675.81
554.143	10664.06
554.507	10689.59
554.87	10765.3
555.234	10803.49
555.597	10781.57
555.96	10803.71
556.323	10867.89
556.686	10864.5
557.05	10903.15
557.413	10918.96
557.776	10989.92
558.139	11010.94
558.502	11003.93
558.865	11144.5
559.228	11141.78
559.59	11190.37
559.953	11193.53
560.316	11335.22
560.679	11317.15
561.041	11367.54
561.404	11425.39
561.767	11462.23
562.129	11481.66
562.492	11560.08
562.854	11506.52
563.217	11598.04
563.579	11633.3
563.941	11691.37
564.304	11713.75
564.666	11821.77
565.028	11823.35
565.39	11817.02
565.753	11936.56
566.115	11859.28
566.477	11975.21
566.839	12000.52
567.201	12072.61
567.563	12086.17
567.925	12201.42
568.287	12162.32
568.648	12265.6
569.01	12265.37
569.372	12320.28
569.734	12335.88
570.095	12433.27
570.457	12490.9
570.819	12505.82
571.18	12563.89
571.542	12631.46
571.903	12639.15
572.265	12673.04
572.626	12775.64
572.987	12803.21
573.349	12897.9
573.71	12870.55
574.071	13043.43
574.432	13062.64
574.794	13248.17
575.155	13266.02
575.516	13257.21
575.877	13306.92
576.238	13425.79
576.599	13572.45
576.96	13566.8
577.32	13705.11
577.681	13768.83
578.042	13921.15
578.403	14037.3
578.763	14078.2
579.124	14226.45
579.485	14308.71
579.845	14542.37
580.206	14514.58
580.566	14597.51
580.927	14891.29
581.287	14977.39
581.648	15033.21
582.008	15235.01
582.368	15431.61
582.728	15533.31
583.089	15698.73
583.449	15846.07
583.809	16052.84
584.169	16234.3
584.529	16398.82
584.889	16738.92
585.249	16787.74
585.609	17067.73
585.969	17350.43
586.329	17500.94
586.688	17706.81
587.048	17975.73
587.408	18118.1
587.768	18451.42
588.127	18549.27
588.487	18879.43
588.846	19236.03
589.206	19318.29
589.565	19608.91
589.925	19992.85
590.284	20153.07
590.643	20480.97
591.003	20850.91
591.362	21208.41
591.721	21410.21
592.08	21628.74
592.44	21954.15
592.799	22255.16
593.158	22400.47
593.517	22847.69
593.876	23047.46
594.235	23287.45
594.593	23635.92
594.952	23896.02
595.311	24258.5
595.67	24616.91
596.029	24925.83
596.387	25257.34
596.746	25668.41
597.104	25881.51
597.463	26086.48
597.822	26612.34
598.18	26814.14
598.538	27010.07
598.897	27455.7
599.255	27435.14
599.613	28158.29
599.972	28422.68
600.33	28651.83
600.688	28775.9
601.046	29092.27
601.404	29614.07
601.762	29746.49
602.12	30060.83
602.478	30386.93
602.836	30771.78
603.194	30901.04
603.552	31115.27
603.91	31279.78
604.268	31736.5
604.625	31885.42
604.983	32384.39
605.341	32434.1
605.698	32711.61
606.056	32987.31
606.413	33181.2
606.771	33536.22
607.128	33818.7
607.485	33947.29
607.843	34139.82
608.2	34694.16
608.557	34923.98
608.914	34956.98
609.272	35236.97
609.629	35460.01
609.986	35825.88
610.343	35838.08
610.7	36300.67
611.057	36369.59
611.414	36482.81
611.771	36714.44
612.127	37127.31
612.484	37181.32
612.841	37537.02
613.198	37560.3
613.554	37792.38
613.911	38132.71
614.267	38304.01
614.624	38385.13
614.98	38469.2
615.337	38951.67
615.693	38927.95
616.05	39131.1
616.406	39339.46
616.762	39437.99
617.118	39550.08
617.475	39633.24
617.831	39986
618.187	40180.12
618.543	40368.59
618.899	40515.47
619.255	40509.37
619.611	40643.15
619.967	40923.83
620.323	41071.62
620.678	40935.8
621.034	40872.98
621.39	41102.58
621.746	41245.4
622.101	41734.2
622.457	41350.93
622.812	41598.61
623.168	41807.19
623.523	41880.41
623.879	42061.42
624.234	41775.1
624.589	42065.04
624.945	42205.37
625.3	42164.24
625.655	42396.33
626.01	42439.94
626.365	42355.88
626.72	42470
627.075	42616.44
627.43	42767.39
627.785	42567.17
628.14	42847.16
628.495	42819.82
628.85	42917.9
629.205	42763.78
629.559	43028.85
629.914	42975.75
630.269	43147.04
630.623	43024.56
630.978	43008.74
631.332	43228.4
631.687	43431.56
632.041	43069.98
632.396	43246.02
632.75	43204.44
633.104	43231.34
633.459	43215.06
633.813	43127.83
634.167	43330.32
634.521	43277.44
634.875	43326.93
635.229	43211.67
635.583	43220.04
635.937	43129.42
636.291	43105.69
636.645	43305.01
636.999	43006.93
637.352	43227.49
637.706	42931.68
638.06	43173.94
638.413	43133.94
638.767	43042.87
639.121	43410.77
639.474	43016.43
639.828	43026.82
640.181	43129.19
640.534	43105.01
640.888	43071.34
641.241	42952.25
641.594	43053.03
641.947	42995.41
642.301	43037.89
642.654	43089.64
643.007	43069.76
643.36	43056.88
643.713	42963.77
644.066	43031.79
644.419	42838.13
644.771	42631.58
645.124	42334.41
645.477	42197.24
645.83	42179.39
646.182	41879.96
646.535	41881.77
646.888	41936.91
647.24	41576.69
647.593	42066.39
647.945	41855.55
648.298	41757.48
648.65	41602.23
649.002	41634.77
649.355	41777.36
649.707	41691.94
650.059	41893.74
650.411	42388.87
650.763	42330.34
651.115	42775.3
651.467	42540.05
651.819	42607.62
652.171	42677.68
652.523	42439.94
652.875	42551.58
653.227	42311.13
653.578	42685.59
653.93	42516.55
654.282	42306.16
654.633	42347.97
654.985	42326.5
655.337	42320.85
655.688	42350
656.039	42543.44
656.391	42055.77
656.742	42362.88
657.094	42445.82
657.445	42473.61
657.796	42398.36
658.147	42300.29
658.498	42332.6
658.849	42378.25
659.2	42418.93
659.551	42159.5
659.902	42376.22
660.253	42200.63
660.604	42381.64
660.955	42099.61
661.306	42299.61
661.656	42278.37
662.007	42249.67
662.358	42207.63
662.708	42206.5
663.059	42083.57
663.409	41952.95
663.76	42130.35
664.11	42094.42
664.461	42195.66
664.811	42235.2
665.161	42245.37
665.511	42121.53
665.862	42135.32
666.212	42176.9
666.562	42368.31
666.912	42071.37
667.262	42011.03
667.612	42190.23
667.962	42229.33
668.312	42076.79
668.662	42301.19
669.011	42126.73
669.361	42210.57
669.711	42154.75
670.06	42168.99
670.41	41877.25
670.76	42048.77
671.109	42075.89
671.459	42032.04
671.808	41969.45
672.157	42174.19
672.507	41772.84
672.856	41706.86
673.205	41959.96
673.554	41903.01
673.904	41763.58
674.253	41973.06
674.602	41714.76
674.951	41350.25
675.3	41096.7
675.649	41853.52
675.998	41664.14
676.346	41765.38
676.695	41912.5
677.044	41426.18
677.393	41740.3
677.741	41653.75
678.09	41598.16
678.438	41505.5
678.787	41618.72
679.135	41594.99
679.484	41365.4
679.832	41454.43
680.181	41202.69
680.529	41379.63
680.877	41366.53
681.225	41197.04
681.573	41428.22
681.922	41205.63
682.27	41095.57
682.618	41003.37
682.966	41054.67
683.314	41170.82
683.661	40983.48
684.009	40820.78
684.357	40837.95
684.705	40690.61
685.053	40749.37
685.4	40674.79
685.748	40447.91
686.095	40479.54
686.443	40244.07
686.79	40323.84
687.138	40444.06
687.485	40289.27
687.832	40073.45
688.18	40139.21
688.527	39986.9
688.874	39968.37
689.221	39850.41
689.568	39911.2
689.915	39663.29
690.262	39659.45
690.609	39424.88
690.956	39595.95
691.303	39459.68
691.65	39369.52
691.997	39273.25
692.344	38965.68
692.69	38950.77
693.037	39050.65
693.383	38617.67
693.73	38851.79
694.077	38618.12
694.423	38684.34
694.769	38647.27
695.116	38468.52
695.462	38430.56
695.808	38335.87
696.155	38443.21
696.501	38142.43
696.847	38104.69
697.193	37858.59
697.539	37972.26
697.885	37725.27
698.231	37614.31
698.577	37651.82
698.923	37614.31
699.269	37367.31
699.614	37152.85
699.96	37226.97
700.306	37138.16
700.651	37017.04
700.997	36904.72
701.342	36896.59
701.688	36727.1
702.033	36728.23
702.379	36601.23
702.724	36633.54
703.069	36592.19
703.415	36157.17
703.76	36187.9
704.105	36196.72
704.45	36097.74
704.795	35954.01
705.14	35894.35
705.485	35853.22
705.83	35693.68
706.175	35633.79
706.52	35630.86
706.865	35550.41
707.209	35413.69
707.554	35328.27
707.899	35358.55
708.243	35186.12
708.588	35331.43
708.932	35018.44
709.277	34991.78
709.621	34895.06
709.966	34730.09
710.31	34827.49
710.654	34571.22
710.998	34623.43
711.342	34604.67
711.687	34388.63
712.031	34205.36
712.375	34182.76
712.719	34167.62
713.063	34231.8
713.407	34267.95
713.75	34125.36
714.094	33957
714.438	33875.2
714.782	33929.43
715.125	33885.37
715.469	33842.43
715.812	33750.23
716.156	33550.69
716.499	33607.41
716.843	33517.69
717.186	33361.99
717.53	33490.12
717.873	33520.63
718.216	33424.81
718.559	33227.98
718.902	33063.01
719.246	33288.55
719.589	33071.6
719.932	32844.49
720.275	32931.04
720.617	32911.38
720.96	32773.98
721.303	32740.99
721.646	32664.38
721.989	32540.09
722.331	32607.21
722.674	32488.34
723.016	32537.15
723.359	32396.59
723.701	32397.5
724.044	32256.71
724.386	32237.05
724.729	32440.43
725.071	32156.6
725.413	32156.15
725.755	32182.59
726.097	32030.27
726.439	31892.2
726.782	31964.06
727.124	32084.51
727.465	31801.35
727.807	31853.56
728.149	31791.86
728.491	31717.51
728.833	31658.08
729.175	31711.86
729.516	31600.23
729.858	31490.17
730.199	31590.29
730.541	31435.26
730.882	31400.69
731.224	31431.42
731.565	31315.49
731.906	31251.09
732.248	31232.55
732.589	31230.52
732.93	31106.91
733.271	31164.53
733.612	31058.77
733.953	31119.56
734.294	30936.74
734.635	30807.25
734.976	30917.99
735.317	30812
735.658	30766.35
735.999	30685.45
736.339	30656.07
736.68	30793.24
737.021	30530.43
737.361	30459.47
737.702	30728.61
738.042	30624.21
738.383	30504.89
738.723	30585.11
739.063	30303.31
739.404	30461.95
739.744	30351.67
740.084	30273.48
740.424	30299.25
740.764	30186.48
741.104	30388.73
741.444	30079.59
741.784	29969.31
742.124	30152.13
742.464	29957.56
742.804	30037.56
743.143	30049.53
743.483	29773.38
743.823	29744.23
744.162	29654.52
744.502	29776.32
744.841	29542.66
745.181	29703.56
745.52	29568.19
745.86	29591.69
746.199	29564.12
746.538	29483
746.877	29488.42
747.216	29534.75
747.556	29473.5
747.895	29365.48
748.234	29228.77
748.573	29248.43
748.911	29338.37
749.25	29274.41
749.589	29067.41
749.928	29154.42
750.267	29047.75
750.605	29133.17
750.944	29043.46
751.283	28967.3
751.621	28966.85
751.96	28904.25
752.298	28886.4
752.636	28884.82
752.975	28686.86
753.313	28580.19
753.651	28844.14
753.989	28534.55
754.327	28539.07
754.666	28491.38
755.004	28480.99
755.342	28494.55
755.679	28405.06
756.017	28202.58
756.355	28334.55
756.693	28193.09
757.031	28252.97
757.368	28024.05
757.706	27987.67
758.044	27897.73
758.381	28044.62
758.719	27712.65
