Data from hue_30_FLMS001491_54.txt Node
Date: Mon Feb 06 15:05:35 GMT 2017
User: dcchb
Spectrometer: FLMS00149
Trigger mode: 0
Integration Time (sec): 2.000000E-2
Scans to average: 10
Electric dark correction enabled: true
Nonlinearity correction enabled: false
Boxcar width: 0
XAxis mode: Wavelengths
Number of Pixels in Spectrum: 2048
>>>>>Begin Spectral Data<<<<<
341.393	-16.88
341.776	-16.88
342.16	-16.88
342.543	-65.24
342.927	-61.85
343.31	-87.84
343.693	-71.11
344.077	-76.99
344.46	-63.66
344.843	-64.11
345.226	-31.12
345.61	-21.4
345.993	-23.43
346.376	-1.51
346.759	1.65
347.142	45.04
347.525	48.2
347.908	48.2
348.291	93.4
348.674	94.98
349.057	109.67
349.44	132.04
349.823	145.38
350.206	167.75
350.588	206.84
350.971	199.16
351.354	222.44
351.737	234.41
352.119	261.08
352.502	269.89
352.884	270.8
353.267	291.59
353.65	288.42
354.032	284.81
354.414	304.92
354.797	306.05
355.179	314.41
355.562	326.84
355.944	336.56
356.326	342.89
356.709	353.28
357.091	341.3
357.473	334.3
357.855	346.28
358.238	339.5
358.62	322.77
359.002	336.33
359.384	342.43
359.766	338.37
360.148	362.32
360.53	348.31
360.912	317.12
361.294	334.07
361.676	332.72
362.057	337.46
362.439	327.97
362.821	337.69
363.203	325.71
363.584	348.08
363.966	334.53
364.348	330.01
364.729	317.58
365.111	313.28
365.493	321.42
365.874	297.24
366.256	306.5
366.637	310.8
367.019	325.94
367.4	320.74
367.781	316.45
368.163	338.59
368.544	285.71
368.925	306.73
369.306	308.54
369.688	332.72
370.069	314.64
370.45	313.51
370.831	308.76
371.212	329.78
371.593	316.67
371.974	298.37
372.355	327.07
372.736	318.25
373.117	330.91
373.498	317.12
373.879	308.99
374.26	310.34
374.641	309.89
375.021	302.44
375.402	322.77
375.783	321.42
376.163	334.53
376.544	316.22
376.925	309.67
377.305	325.94
377.686	329.1
378.066	336.56
378.447	322.77
378.827	339.72
379.208	320.29
379.588	343.56
379.968	352.83
380.349	345.15
380.729	336.11
381.109	331.36
381.489	335.2
381.87	342.43
382.25	316.45
382.63	345.37
383.01	332.04
383.39	334.53
383.77	335.88
384.15	359.38
384.53	330.23
384.91	343.11
385.29	361.87
385.67	353.73
386.049	371.59
386.429	347.63
386.809	343.34
387.189	350.34
387.568	362.32
387.948	339.72
388.328	362.77
388.707	360.51
389.087	345.82
389.466	365.26
389.846	346.95
390.225	344.69
390.605	341.98
390.984	360.74
391.363	360.97
391.743	372.26
392.122	382.21
392.501	359.84
392.881	362.55
393.26	384.02
393.639	373.85
394.018	384.92
394.397	376.78
394.776	380.17
395.155	386.73
395.534	387.18
395.913	384.24
396.292	370.46
396.671	386.5
397.05	364.58
397.429	358.03
397.808	386.05
398.186	370
398.565	391.02
398.944	388.76
399.323	382.89
399.701	390.34
400.08	405.71
400.458	404.13
400.837	395.09
401.215	401.42
401.594	393.05
401.972	378.59
402.351	395.99
402.729	417.01
403.107	410.68
403.486	405.26
403.864	410.68
404.242	451.81
404.62	403.45
404.999	411.36
405.377	412.72
405.755	413.62
406.133	401.64
406.511	411.59
406.889	395.31
407.267	421.08
407.645	433.96
408.023	428.53
408.401	422.66
408.779	429.66
409.156	442.09
409.534	442.09
409.912	431.7
410.29	439.83
410.667	458.59
411.045	458.14
411.422	447.74
411.8	451.13
412.178	451.36
412.555	457.23
412.933	459.49
413.31	461.53
413.687	467.4
414.065	471.92
414.442	453.39
414.819	459.27
415.197	464.24
415.574	484.8
415.951	487.74
416.328	480.51
416.705	461.98
417.082	478.7
417.46	498.81
417.837	491.58
418.214	492.71
418.591	501.98
418.967	483.67
419.344	494.97
419.721	486.84
420.098	525.71
420.475	497.91
420.852	527.74
421.228	503.11
421.605	512.6
421.982	531.13
422.358	532.49
422.735	524.58
423.111	533.62
423.488	547.63
423.864	523.9
424.241	536.78
424.617	516.44
424.994	539.72
425.37	550.34
425.746	563.22
426.123	539.72
426.499	561.19
426.875	562.09
427.251	559.6
427.627	575.65
428.003	578.59
428.379	568.42
428.756	602.99
429.132	585.37
429.507	563.9
429.883	571.36
430.259	622.43
430.635	614.97
431.011	602.99
431.387	598.47
431.763	598.47
432.138	644.12
432.514	604.12
432.89	610
433.265	642.54
433.641	642.09
434.016	632.37
434.392	638.47
434.767	670.11
435.143	667.62
435.518	666.49
435.894	681.86
436.269	671.24
436.644	662.2
437.02	671.69
437.395	690.45
437.77	675.99
438.145	712.59
438.52	684.57
438.895	731.12
439.271	713.05
439.646	717.11
440.021	720.5
440.395	745.14
440.77	738.13
441.145	743.55
441.52	750.79
441.895	735.64
442.27	774.29
442.645	746.49
443.019	742.88
443.394	765.93
443.769	750.11
444.143	780.84
444.518	756.43
444.892	756.21
445.267	758.92
445.641	779.26
446.016	782.42
446.39	777
446.764	793.95
447.139	797.11
447.513	800.73
447.887	762.76
448.262	790.56
448.636	821.97
449.01	820.84
449.384	828.75
449.758	828.07
450.132	828.52
450.506	852.25
450.88	830.33
451.254	830.56
451.628	853.83
452.002	873.49
452.376	853.16
452.75	854.96
453.123	862.42
453.497	881.4
453.871	889.09
454.244	908.3
454.618	892.93
454.992	930.22
455.365	908.52
455.739	949.65
456.112	956.66
456.486	952.81
456.859	939.03
457.232	974.51
457.606	955.07
457.979	986.71
458.352	999.14
458.725	990.1
459.099	1014.06
459.472	1021.06
459.845	1021.51
460.218	1073.94
460.591	1025.81
460.964	1036.88
461.337	1076.65
461.71	1064.9
462.083	1089.76
462.456	1106.03
462.829	1102.87
463.201	1099.93
463.574	1150.32
463.947	1152.58
464.32	1153.94
464.692	1185.8
465.065	1185.12
465.438	1184.22
465.81	1199.36
466.183	1247.04
466.555	1238.91
466.928	1255.63
467.3	1268.29
467.672	1298.12
468.045	1284.56
468.417	1307.61
468.789	1299.02
469.161	1332.24
469.534	1361.62
469.906	1393.93
470.278	1421.28
470.65	1413.59
471.022	1418.56
471.394	1478.9
471.766	1496.3
472.138	1481.84
472.51	1517.77
472.882	1568.39
473.253	1577.2
473.625	1594.83
473.997	1635.06
474.369	1640.48
474.74	1670.76
475.112	1706.69
475.484	1723.19
475.855	1750.76
476.227	1764.32
476.598	1799.57
476.97	1856.07
477.341	1924.09
477.713	1917.76
478.084	1992.56
478.455	2002.5
478.827	2009.28
479.198	2068.26
479.569	2091.77
479.94	2138.09
480.311	2186
480.682	2228.94
481.053	2325.43
481.424	2364.98
481.795	2352.1
482.166	2446.56
482.537	2492.43
482.908	2543.96
483.279	2574.47
483.65	2648.81
484.021	2691.75
484.391	2707.8
484.762	2763.16
485.133	2800.67
485.503	2870.96
485.874	2950.05
486.244	2970.16
486.615	3028.24
486.985	3118.18
487.356	3199.99
487.726	3234.79
488.097	3296.93
488.467	3353.2
488.837	3432.75
489.207	3433.65
489.578	3518.85
489.948	3586.42
490.318	3652.63
490.688	3647.66
491.058	3792.97
491.428	3804.49
491.798	3908.89
492.168	3978.05
492.538	4003.81
492.908	4039.06
493.278	4124.03
493.648	4170.13
494.017	4229.56
494.387	4257.81
494.757	4307.98
495.126	4393.4
495.496	4417.13
495.866	4466.62
496.235	4540.52
496.605	4597.24
496.974	4596.33
497.344	4694.18
497.713	4759.72
498.082	4783
498.452	4850.56
498.821	4873.84
499.19	4928.08
499.559	4971.01
499.928	4996.32
500.298	5005.59
500.667	5110.22
501.036	5117.45
501.405	5153.61
501.774	5197
502.143	5265.47
502.512	5283.32
502.88	5377.33
503.249	5317.44
503.618	5449.87
503.987	5440.61
504.356	5472.92
504.724	5508.17
505.093	5616.42
505.462	5606.02
505.83	5647.38
506.199	5642.63
506.567	5736.64
506.936	5794.27
507.304	5833.36
507.672	5798.34
508.041	5851.89
508.409	5899.58
508.777	5910.65
509.145	6009.18
509.514	5987.26
509.882	6043.98
510.25	6022.96
510.618	6160.13
510.986	6116.75
511.354	6193.13
511.722	6233.58
512.09	6313.35
512.458	6240.58
512.826	6330.98
513.193	6322.39
513.561	6381.82
513.929	6415.5
514.297	6453.46
514.664	6500.46
515.032	6485.55
515.4	6546.11
515.767	6606
516.135	6619.11
516.502	6559.9
516.869	6679.67
517.237	6705.21
517.604	6721.93
517.972	6763.06
518.339	6728.03
518.706	6799.44
519.073	6838.08
519.44	6845.99
519.808	6931.87
520.175	6965.54
520.542	7012.54
520.909	6979.32
521.276	7050.96
521.643	7086.89
522.009	7135.93
522.376	7186.55
522.743	7202.14
523.11	7201.01
523.477	7311.74
523.843	7330.5
524.21	7338.63
524.577	7419.54
524.943	7426.99
525.31	7477.84
525.676	7526.65
526.043	7573.66
526.409	7643.26
526.776	7697.95
527.142	7722.13
527.508	7755.12
527.874	7830.6
528.241	7803.03
528.607	7919.41
528.973	7956.7
529.339	7956.25
529.705	8031.95
530.071	8099.29
530.437	8077.37
530.803	8159.18
531.169	8218.84
531.535	8207.09
531.901	8171.83
532.267	8273.3
532.632	8278.27
532.998	8361.88
533.364	8389.68
533.73	8397.36
534.095	8489.79
534.461	8493.18
534.826	8531.6
535.192	8580.64
535.557	8602.78
535.923	8619.96
536.288	8609.34
536.653	8750.57
537.019	8713.29
537.384	8768.88
537.749	8836.67
538.114	8849.1
538.479	8904.02
538.845	8948.08
539.21	8975.65
539.575	9033.28
539.94	9042.32
540.305	9055.2
540.67	9036.67
541.034	9163.22
541.399	9136.55
541.764	9129.77
542.129	9236.66
542.494	9246.16
542.858	9307.62
543.223	9258.36
543.587	9367.96
543.952	9358.02
544.316	9435.75
544.681	9471.23
545.045	9475.53
545.41	9561.63
545.774	9621.06
546.138	9601.17
546.503	9677.33
546.867	9661.74
547.231	9746.48
547.595	9692.25
547.959	9748.06
548.324	9772.7
548.688	9851.56
549.052	9840.72
549.416	9858.57
549.779	9878.45
550.143	9984.89
550.507	10021.5
550.871	10065.34
551.235	10081.39
551.599	10149.86
551.962	10105.57
552.326	10200.03
552.689	10284.09
553.053	10212.91
553.417	10240.71
553.78	10360.02
554.143	10326.35
554.507	10389.18
554.87	10400.02
555.234	10442.28
555.597	10410.87
555.96	10515.27
556.323	10533.8
556.686	10552.56
557.05	10558.66
557.413	10666.23
557.776	10635.27
558.139	10695.16
558.502	10708.94
558.865	10769.5
559.228	10830.07
559.59	10848.37
559.953	10881.37
560.316	11023.96
560.679	11015.6
561.041	11021.7
561.404	11120
561.767	11104.64
562.129	11128.59
562.492	11222.37
562.854	11185.77
563.217	11178.99
563.579	11225.76
563.941	11325.65
564.304	11416.27
564.666	11454.68
565.028	11416.95
565.39	11533.55
565.753	11504.63
566.115	11597.28
566.477	11566.32
566.839	11647
567.201	11672.08
567.563	11758.41
567.925	11707.79
568.287	11827.33
568.648	11876.59
569.01	11872.3
569.372	12064.39
569.734	11988.68
570.095	12102.8
570.457	12169.24
570.819	12116.36
571.18	12246.53
571.542	12260.54
571.903	12312.52
572.265	12296.47
572.626	12427.77
572.987	12434.77
573.349	12483.81
573.71	12650.59
574.071	12686.97
574.432	12659.62
574.794	12843.35
575.155	12867.53
575.516	12924.7
575.877	12987.75
576.238	13006.73
576.599	13176.67
576.96	13199.05
577.32	13357.01
577.681	13491.47
578.042	13567.4
578.403	13623.44
578.763	13720.39
579.124	13836.32
579.485	14003.09
579.845	14069.08
580.206	14144.78
580.566	14276.08
580.927	14428.62
581.287	14620.25
581.648	14737.08
582.008	14867.25
582.368	14891.2
582.728	15132.33
583.089	15373.23
583.449	15375.03
583.809	15690.05
584.169	15759.88
584.529	15991.97
584.889	16209.81
585.249	16368.68
585.609	16524.83
585.969	16789.01
586.329	16889.12
586.688	17235.32
587.048	17446.62
587.408	17668.53
587.768	17809.77
588.127	18003.67
588.487	18179.71
588.846	18598.45
589.206	18624.89
589.565	18878.44
589.925	19206.35
590.284	19430.97
590.643	19695.37
591.003	19997.28
591.362	20244.51
591.721	20430.95
592.08	20568.12
592.44	20912.74
592.799	21093.08
593.158	21391.82
593.517	21640.86
593.876	21944.8
594.235	22205.14
594.593	22425.47
594.952	22773.48
595.311	22965.79
595.67	23248.95
596.029	23561.94
596.387	23972.1
596.746	24224.74
597.104	24306.78
597.463	24590.84
597.822	24837.16
598.18	24941.79
598.538	25188.56
598.897	25699.96
599.255	25666.51
599.613	26137.24
599.972	26282.09
600.33	26640.73
600.688	26620.16
601.046	27123.88
601.404	27203.2
601.762	27418.56
602.12	27783.75
602.478	27943.52
602.836	28244.75
603.194	28271.19
603.552	28595.7
603.91	28760.9
604.268	29068.68
604.625	29209.92
604.983	29623.47
605.341	29583.25
605.698	29963.35
606.056	30093.52
606.413	30431.81
606.771	30583.45
607.128	30777.11
607.485	30543.22
607.843	31087.39
608.2	31288.29
608.557	31594.27
608.914	31562.63
609.272	31893.02
609.629	32174.59
609.986	32349.73
610.343	32282.39
610.7	32704.97
611.057	32672.21
611.414	32905.19
611.771	33046.21
612.127	33458.17
612.484	33354.9
612.841	33657.04
613.198	33694.1
613.554	33876.02
613.911	34171.6
614.267	34157.36
614.624	34341.09
614.98	34443.01
615.337	34696.56
615.693	34899.27
616.05	34675.54
616.406	35109.66
616.762	35145.36
617.118	35201.63
617.475	35246.83
617.831	35465.35
618.187	35688.62
618.543	35849.98
618.899	35938.56
619.255	35972.23
619.611	36045
619.967	36348.27
620.323	36393.46
620.678	36373.35
621.034	36426.01
621.39	36470.75
621.746	36599.33
622.101	37111.19
622.457	36778.09
622.812	37031.41
623.168	37061.47
623.523	37066.44
623.879	37271.86
624.234	37074.12
624.589	37184.18
624.945	37331.74
625.3	37377.17
625.655	37550.04
626.01	37501.46
626.365	37645.63
626.72	37685.18
627.075	37584.62
627.43	37575.13
627.785	37576.03
628.14	37798.62
628.495	37899.64
628.85	37893.54
629.205	37737.61
629.559	38049.01
629.914	37839.75
630.269	37931.05
630.623	37882.24
630.978	37927.43
631.332	37968.56
631.687	38120.42
632.041	38005.17
632.396	38112.97
632.75	38145.06
633.104	38112.06
633.459	37865.29
633.813	38016.25
634.167	38141.21
634.521	38002.01
634.875	38142.57
635.229	38165.17
635.583	37955.23
635.937	38053.31
636.291	37859.64
636.645	38046.53
636.999	37841.56
637.352	38122.01
637.706	37799.08
638.06	38058.96
638.413	37883.14
638.767	37920.66
639.121	37912.97
639.474	37750.72
639.828	37774.67
640.181	37848.11
640.534	37890.6
640.888	37775.8
641.241	37710.94
641.594	37763.37
641.947	37941.67
642.301	37789.36
642.654	37770.38
643.007	37795.46
643.36	37718.4
643.713	37707.55
644.066	37837.04
644.419	37683.37
644.771	37336.49
645.124	37090.17
645.477	37059.44
645.83	36794.36
646.182	36644.98
646.535	36691.76
646.888	36586
647.24	36641.59
647.593	36612.67
647.945	36667.13
648.298	36490.41
648.65	36415.38
649.002	36355.27
649.355	36527.92
649.707	36446.8
650.059	36485.44
650.411	36938.31
650.763	36960
651.115	37430.72
651.467	37346.21
651.819	37200.22
652.171	37409.26
652.523	37145.08
652.875	37108.25
653.227	36958.65
653.578	37154.35
653.93	37211.07
654.282	36988.48
654.633	37028.93
654.985	36957.29
655.337	37012.2
655.688	37118.64
656.039	37302.59
656.391	36747.13
656.742	37008.59
657.094	36985.99
657.445	37002.94
657.796	36831.87
658.147	37004.07
658.498	36948.25
658.849	37051.3
659.2	36862.38
659.551	36826.67
659.902	36856.95
660.253	36938.99
660.604	36973.11
660.955	36664.19
661.306	36815.83
661.656	36731.76
662.007	36684.53
662.358	36765.21
662.708	36639.11
663.059	36755.26
663.409	36489.51
663.76	36900.57
664.11	36767.92
664.461	36779.22
664.811	36777.86
665.161	36810.18
665.511	36835.49
665.862	36736.05
666.212	36815.6
666.562	36809.5
666.912	36708.26
667.262	36772.66
667.612	36769.95
667.962	36744.87
668.312	36742.83
668.662	36738.99
669.011	36661.25
669.361	36717.52
669.711	36588.71
670.06	36609.5
670.41	36566.57
670.76	36461.94
671.109	36642.5
671.459	36553.69
671.808	36524.53
672.157	36557.98
672.507	36274.82
672.856	36416.29
673.205	36459.22
673.554	36668.03
673.904	36369.51
674.253	36625.55
674.602	36581.71
674.951	35900.37
675.3	35712.58
675.649	36444.08
675.998	36306.69
676.346	36400.47
676.695	36468.04
677.044	36264.2
677.393	36293.81
677.741	36371.09
678.09	36090.65
678.438	36097.2
678.787	36186.01
679.135	36230.98
679.484	35938.11
679.832	36041.83
680.181	35824.89
680.529	35907.38
680.877	35884.32
681.225	35979.46
681.573	36049.29
681.922	35768.4
682.27	35713.71
682.618	35824.44
682.966	35703.31
683.314	35873.03
683.661	35623.31
684.009	35523.88
684.357	35343.1
684.705	35493.6
685.053	35382.42
685.4	35431
685.748	35118.47
686.095	35242.31
686.443	34917.12
686.79	35019.26
687.138	35060.17
687.485	35025.36
687.832	34846.61
688.18	34918.25
688.527	34736.78
688.874	34710.8
689.221	34584.7
689.568	34422.22
689.915	34484.36
690.262	34387.87
690.609	34331.6
690.956	34217.93
691.303	34282.79
691.65	34049.12
691.997	34125.73
692.344	33910.82
692.69	33915.34
693.037	33848.22
693.383	33740.88
693.73	33854.32
694.077	33519.42
694.423	33539.08
694.769	33450.72
695.116	33355.13
695.462	33236.94
695.808	33236.48
696.155	33257.05
696.501	32990.39
696.847	33034
697.193	32782.26
697.539	32855.48
697.885	32745.42
698.231	32584.07
698.577	32542.49
698.923	32585.43
699.269	32331.2
699.614	32173.91
699.96	32166.23
700.306	32124.2
700.651	32111.54
700.997	31886.92
701.342	31856.63
701.688	31721.72
702.033	31771.89
702.379	31840.82
702.724	31708.62
703.069	31697.77
703.415	31385.69
703.76	31390.21
704.105	31437.44
704.45	31382.07
704.795	31088.07
705.14	31061.4
705.485	31023.44
705.83	30896.89
706.175	30855.76
706.52	30822.99
706.865	30768.53
707.209	30675.87
707.554	30561.53
707.899	30690.11
708.243	30385.49
708.588	30415.32
708.932	30112.95
709.277	30133.52
709.621	30194.98
709.966	30070.92
710.31	30109.34
710.654	29693.08
710.998	29767.2
711.342	29870.92
711.687	29771.72
712.031	29558.84
712.375	29483.59
712.719	29671.38
713.063	29465.96
713.407	29637.48
713.75	29395.68
714.094	29341.67
714.438	29298.51
714.782	29277.72
715.125	29226.42
715.469	29149.13
715.812	28975.13
716.156	28970.16
716.499	29067.55
716.843	28943.04
717.186	28752.76
717.53	29047.67
717.873	28965.18
718.216	28768.58
718.559	28693.78
718.902	28429.15
719.246	28588.92
719.589	28287.91
719.932	28389.61
720.275	28280.68
720.617	28284.52
720.96	28242.04
721.303	28247.24
721.646	28252.66
721.989	27916.4
722.331	28165.43
722.674	28081.37
723.016	27995.27
723.359	28081.14
723.701	27948.49
724.044	27805.89
724.386	27773.13
724.729	27942.61
725.071	27725.67
725.413	27739.23
725.755	27746.01
726.097	27635.28
726.439	27377.66
726.782	27567.71
727.124	27614.03
727.465	27431.67
727.807	27469.4
728.149	27383.76
728.491	27391.44
728.833	27406.58
729.175	27332.23
729.516	27102.63
729.858	27151.22
730.199	27306.7
730.541	27079.13
730.882	27135.18
731.224	27134.95
731.565	26855.18
731.906	26849.53
732.248	27034.16
732.589	26788.52
732.93	26779.71
733.271	26830.78
733.612	26731.35
733.953	26830.78
734.294	26548.98
734.635	26583.55
734.976	26702.65
735.317	26418.36
735.658	26450.45
735.999	26500.84
736.339	26432.14
736.68	26532.48
737.021	26285.71
737.361	26278.93
737.702	26374.97
738.042	26287.06
738.383	26232.15
738.723	26348.08
739.063	26195.09
739.404	26114.86
739.744	26093.17
740.084	25931.59
740.424	26007.97
740.764	25919.62
741.104	26083.9
741.444	25864.02
741.784	25708.32
742.124	25890.69
742.464	25814.53
742.804	25687.3
743.143	25703.35
743.483	25746.29
743.823	25513.98
744.162	25574.99
744.502	25586.06
744.841	25514.2
745.181	25538.83
745.52	25464.49
745.86	25566.86
746.199	25478.72
746.538	25434.43
746.877	25437.59
747.216	25389.46
747.556	25325.73
747.895	25281.21
748.234	25147.66
748.573	25273.76
748.911	25193.98
749.25	25100.88
749.589	24984.27
749.928	25073.76
750.267	25201.22
750.605	25004.16
750.944	24935.69
751.283	24894.78
751.621	25020.66
751.96	24757.84
752.298	24796.25
752.636	24710.61
752.975	24660.89
753.313	24480.78
753.651	24636.94
753.989	24466.77
754.327	24334.12
754.666	24418.86
755.004	24376.83
755.342	24374.8
755.679	24370.73
756.017	24239.21
756.355	24266.78
756.693	24168.02
757.031	24154.92
757.368	23994.24
757.706	24006.45
758.044	23954.02
758.381	24018.42
758.719	23815.72
759.056	23853
759.394	23726.9
