Data from hue_36_FLMS001491_00003.txt Node
Date: Tue Feb 07 17:29:19 GMT 2017
User: dcchb
Spectrometer: FLMS00149
Trigger mode: 0
Integration Time (sec): 2.000000E-2
Scans to average: 10
Electric dark correction enabled: true
Nonlinearity correction enabled: false
Boxcar width: 0
XAxis mode: Wavelengths
Number of Pixels in Spectrum: 2048
>>>>>Begin Spectral Data<<<<<
341.393	-32.81
341.776	-32.81
342.16	-32.81
342.543	-43.21
342.927	-63.32
343.31	-75.75
343.693	-59.48
344.077	-73.71
344.46	-54.73
344.843	-38.23
345.226	-26.71
345.61	-30.32
345.993	-28.74
346.376	-7.95
346.759	16.68
347.142	40.86
347.525	32.05
347.908	59.17
348.291	51.48
348.674	93.97
349.057	101.42
349.44	136
349.823	137.13
350.206	158.82
350.588	214.42
350.971	199.95
351.354	220.06
351.737	238.37
352.119	256.45
352.502	256
352.884	272.04
353.267	303.45
353.65	310.23
354.032	305.71
354.414	318.37
354.797	315.43
355.179	312.49
355.562	317.92
355.944	332.6
356.326	345.94
356.709	344.36
357.091	343.68
357.473	333.96
357.855	333.28
358.238	344.81
358.62	323.79
359.002	344.36
359.384	341.42
359.766	351.13
360.148	349.55
360.53	329.21
360.912	326.73
361.294	346.62
361.676	343.68
362.057	340.06
362.439	357.46
362.821	333.28
363.203	326.28
363.584	336.45
363.966	346.39
364.348	342.77
364.729	335.09
365.111	338.93
365.493	317.69
365.874	335.77
366.256	319.5
366.637	319.5
367.019	321.31
367.4	334.86
367.781	302.32
368.163	311.81
368.544	317.24
368.925	326.95
369.306	326.95
369.688	323.11
370.069	344.58
370.45	337.12
370.831	318.82
371.212	321.53
371.593	344.81
371.974	306.84
372.355	311.14
372.736	307.75
373.117	329.21
373.498	335.32
373.879	329.44
374.26	314.07
374.641	311.59
375.021	334.19
375.402	315.2
375.783	312.04
376.163	321.98
376.544	325.15
376.925	315.2
377.305	321.76
377.686	321.31
378.066	330.57
378.447	350.91
378.827	342.1
379.208	345.26
379.588	335.09
379.968	348.65
380.349	333.06
380.729	337.8
381.109	328.76
381.489	333.96
381.87	334.86
382.25	342.77
382.63	364.69
383.01	335.32
383.39	355.2
383.77	344.36
384.15	360.4
384.53	364.92
384.91	356.33
385.29	347.75
385.67	340.74
386.049	385.94
386.429	355.43
386.809	326.28
387.189	367.18
387.568	361.53
387.948	346.84
388.328	357.46
388.707	361.76
389.087	360.85
389.466	377.12
389.846	368.99
390.225	357.91
390.605	383
390.984	373.06
391.363	345.94
391.743	367.86
392.122	375.77
392.501	379.61
392.881	390
393.26	373.28
393.639	381.19
394.018	375.54
394.397	385.94
394.776	357.24
395.155	387.52
395.534	377.35
395.913	392.72
396.292	355.2
396.671	384.13
397.05	394.98
397.429	373.96
397.808	384.58
398.186	396.56
398.565	382.77
398.944	399.27
399.323	384.35
399.701	407.63
400.08	392.72
400.458	384.81
400.837	399.95
401.215	399.72
401.594	404.47
401.972	412.15
402.351	425.03
402.729	411.02
403.107	422.32
403.486	424.35
403.864	422.77
404.242	428.87
404.62	417.12
404.999	402.43
405.377	416.44
405.755	415.31
406.133	415.54
406.511	406.73
406.889	412.15
407.267	440.17
407.645	430
408.023	428.65
408.401	443.79
408.779	458.93
409.156	422.32
409.534	444.69
409.912	445.6
410.29	467.97
410.667	459.83
411.045	450.57
411.422	446.5
411.8	468.65
412.178	464.8
412.555	466.39
412.933	479.72
413.31	452.6
413.687	480.85
414.065	496.89
414.442	478.82
414.819	483.11
415.197	473.39
415.574	471.36
415.951	489.89
416.328	478.14
416.705	469.32
417.082	500.06
417.46	506.38
417.837	490.57
418.214	504.8
418.591	516.33
418.967	512.49
419.344	521.75
419.721	521.53
420.098	520.62
420.475	513.84
420.852	502.32
421.228	559.04
421.605	509.1
421.982	522.66
422.358	531.7
422.735	529.44
423.111	549.77
423.488	547.06
423.864	540.96
424.241	543.9
424.617	552.71
424.994	530.11
425.37	583.9
425.746	568.53
426.123	572.37
426.499	548.64
426.875	556.55
427.251	567.63
427.627	581.19
428.003	567.63
428.379	578.7
428.756	597
429.132	607.85
429.507	599.94
429.883	601.98
430.259	612.14
430.635	613.73
431.011	608.08
431.387	609.43
431.763	618.92
432.138	642.65
432.514	637.91
432.89	667.51
433.265	673.16
433.641	635.87
434.016	661.41
434.392	665.7
434.767	676.78
435.143	666.61
435.518	676.55
435.894	674.06
436.269	660.73
436.644	713.16
437.02	691.69
437.395	691.69
437.77	707.96
438.145	718.36
438.52	705.48
438.895	751.58
439.271	750.22
439.646	729.2
440.021	736.21
440.395	751.12
440.77	731.01
441.145	736.21
441.52	767.85
441.895	770.56
442.27	758.36
442.645	771.91
443.019	738.92
443.394	783.21
443.769	788.41
444.143	759.94
444.518	787.96
444.892	797
445.267	782.54
445.641	805.36
446.016	792.71
446.39	815.53
446.764	819.37
447.139	805.36
447.513	810.78
447.887	782.31
448.262	829.54
448.636	845.36
449.01	848.07
449.384	845.81
449.758	828.18
450.132	854.17
450.506	865.7
450.88	871.12
451.254	854.4
451.628	853.49
452.002	887.17
452.376	878.58
452.75	883.1
453.123	875.19
453.497	890.56
453.871	874.96
454.244	912.48
454.618	937.56
454.992	935.3
455.365	923.1
455.739	978.01
456.112	967.84
456.486	977.11
456.859	996.09
457.232	1006.03
457.606	994.06
457.979	1000.84
458.352	1019.14
458.725	1051.91
459.099	1041.06
459.472	1047.16
459.845	1058.23
460.218	1064.79
460.591	1070.66
460.964	1107.73
461.337	1095.07
461.71	1095.07
462.083	1153.15
462.456	1147.95
462.829	1135.52
463.201	1156.99
463.574	1161.06
463.947	1189.08
464.32	1192.02
464.692	1227.04
465.065	1260.26
465.438	1250.55
465.81	1268.62
466.183	1286.7
466.555	1302.3
466.928	1288.29
467.3	1310.43
467.672	1298.68
468.045	1370.54
468.417	1368.06
468.789	1377.32
469.161	1408.73
469.534	1431.11
469.906	1457.32
470.278	1469.75
470.65	1485.79
471.022	1529.86
471.394	1561.95
471.766	1567.6
472.138	1556.07
472.51	1621.61
472.882	1668.84
473.253	1669.52
473.625	1709.74
473.997	1771.89
474.369	1770.31
474.74	1824.54
475.112	1850.76
475.484	1879.23
475.855	1892.11
476.227	1943.64
476.598	2003.97
476.97	2013.24
477.341	2104.76
477.713	2088.49
478.084	2178.21
478.455	2235.61
478.827	2238.77
479.198	2344.75
479.569	2376.62
479.94	2450.29
480.311	2482.38
480.682	2535.26
481.053	2650.96
481.424	2730.51
481.795	2737.74
482.166	2806.44
482.537	2862.93
482.908	2946.09
483.279	3039.88
483.65	3142.7
484.021	3184.51
484.391	3279.42
484.762	3299.53
485.133	3371.85
485.503	3407.78
485.874	3558.96
486.244	3667.43
486.615	3727.77
486.985	3822.68
487.356	3897.26
487.726	3953.98
488.097	4094.54
488.467	4151.26
488.837	4259.51
489.207	4373.4
489.578	4441.2
489.948	4513.51
490.318	4645.94
490.688	4694.3
491.058	4835.31
491.428	4916.44
491.798	5021.52
492.168	5198.47
492.538	5229.88
492.908	5301.29
493.278	5452.02
493.648	5465.8
494.017	5594.16
494.387	5656.08
494.757	5760.48
495.126	5932.91
495.496	5955.51
495.866	5993.47
496.235	6073.02
496.605	6217.42
496.974	6285.22
497.344	6344.42
497.713	6459
498.082	6533.35
498.452	6628.26
498.821	6702.83
499.19	6743.96
499.559	6924.97
499.928	6996.16
500.298	6996.38
500.667	7099.43
501.036	7176.49
501.405	7222.59
501.774	7298.07
502.143	7417.84
502.512	7427.11
502.88	7595.92
503.249	7623.26
503.618	7749.36
503.987	7793.2
504.356	7847.21
504.724	7924.72
505.093	7974.89
505.462	8053.53
505.83	8157.94
506.199	8192.96
506.567	8332.62
506.936	8362.68
507.304	8451.03
507.672	8447.19
508.041	8546.85
508.409	8598.6
508.777	8728.54
509.145	8775.09
509.514	8800.18
509.882	8888.31
510.25	8943.68
510.618	8951.13
510.986	8998.37
511.354	9101.19
511.722	9221.18
512.09	9347.96
512.458	9221.41
512.826	9474.28
513.193	9423.21
513.561	9541.4
513.929	9593.15
514.297	9651.68
514.664	9752.92
515.032	9705.69
515.4	9830.89
515.767	9821.62
516.135	10008.73
516.502	9927.38
516.869	10127.15
517.237	10072.24
517.604	10110.2
517.972	10236.07
518.339	10302.74
518.706	10257.54
519.073	10396.07
519.44	10411.44
519.808	10579.57
520.175	10501.83
520.542	10679.22
520.909	10814.81
521.276	10699.79
521.643	10837.86
522.009	10944.53
522.376	11026.56
522.743	11041.25
523.11	11129.83
523.477	11257.97
523.843	11282.6
524.21	11379.09
524.577	11446.44
524.943	11488.24
525.31	11531.86
525.676	11674.68
526.043	11731.85
526.409	11795.58
526.776	11941.11
527.142	11897.27
527.508	12005.97
527.874	12125.29
528.241	12110.15
528.607	12210.26
528.973	12330.03
529.339	12328.45
529.705	12395.34
530.071	12614.09
530.437	12630.36
530.803	12610.93
531.169	12777.7
531.535	12718.95
531.901	12834.65
532.267	12866.96
532.632	12854.53
532.998	12977.47
533.364	13094.53
533.73	13104.92
534.095	13227.86
534.461	13257.46
534.826	13343.79
535.192	13466.04
535.557	13449.55
535.923	13563.44
536.288	13523.9
536.653	13638.24
537.019	13579.94
537.384	13664.01
537.749	13768.64
538.114	13771.8
538.479	13768.41
538.845	13915.3
539.21	13872.36
539.575	13995.75
539.94	14009.76
540.305	14082.3
540.67	14058.12
541.034	14247.49
541.399	14198
541.764	14199.13
542.129	14273.71
542.494	14384.21
542.858	14472.8
543.223	14463.98
543.587	14571.1
543.952	14593.25
544.316	14660.14
544.681	14687.03
545.045	14789.63
545.41	14802.51
545.774	14838.44
546.138	14810.87
546.503	14954.82
546.867	14990.75
547.231	15127.7
547.595	15077.3
547.959	15240.01
548.324	15191.87
548.688	15277.07
549.052	15388.25
549.416	15357.52
549.779	15433.45
550.143	15506.22
550.507	15528.81
550.871	15569.72
551.235	15591.19
551.599	15737.85
551.962	15783.5
552.326	15766.55
552.689	15852.65
553.053	15875.25
553.417	15937.39
553.78	16074.79
554.143	15980.78
554.507	16069.37
554.87	16196.37
555.234	16286.31
555.597	16254.67
555.96	16344.84
556.323	16466.19
556.686	16361.34
557.05	16611.27
557.413	16589.8
557.776	16577.37
558.139	16682.68
558.502	16620.31
558.865	16760.19
559.228	16833.64
559.59	16962.22
559.953	16999.51
560.316	17141.43
560.679	17162.22
561.041	17238.15
561.404	17257.13
561.767	17421.87
562.129	17311.59
562.492	17557.69
562.854	17525.6
563.217	17417.13
563.579	17529.67
563.941	17720.17
564.304	17793.61
564.666	17881.3
565.028	17768.08
565.39	17915.87
565.753	17985.7
566.115	18147.96
566.477	18121.06
566.839	18201.06
567.201	18351.79
567.563	18388.17
567.925	18465.01
568.287	18454.84
568.648	18585.68
569.01	18692.12
569.372	18786.58
569.734	18725.34
570.095	18910.19
570.457	19030.19
570.819	19017.76
571.18	19098.66
571.542	19044.2
571.903	19132.11
572.265	19245.33
572.626	19330.3
572.987	19418.43
573.349	19421.82
573.71	19667.46
574.071	19789.27
574.432	19714.47
574.794	19996.27
575.155	20042.14
575.516	20029.04
575.877	20183.16
576.238	20272.64
576.599	20472.87
576.96	20479.87
577.32	20623.82
577.681	20819.52
578.042	20864.49
578.403	21098.39
578.763	21151.27
579.124	21238.04
579.485	21395.78
579.845	21599.16
580.206	21665.83
580.566	21757.35
580.927	21843.9
581.287	22203.22
581.648	22068.76
582.008	22379.03
582.368	22524.56
582.728	22718.46
583.089	22874.38
583.449	23012.46
583.809	23122.97
584.169	23307.59
584.529	23444.09
584.889	23820.8
585.249	23942.6
585.609	24071.87
585.969	24347.57
586.329	24561.35
586.688	24823.49
587.048	24978.74
587.408	25004.72
587.768	25310.7
588.127	25436.58
588.487	25700.75
588.846	25993.4
589.206	26183
589.565	26339.38
589.925	26797.22
590.284	26953.6
590.643	27145.91
591.003	27330.54
591.362	27731.21
591.721	27805.55
592.08	28081.93
592.44	28358.76
592.799	28535.03
593.158	28755.13
593.517	28954
593.876	29271.05
594.235	29292.97
594.593	29570.48
594.952	29822
595.311	30019.28
595.67	30413.4
596.029	30668.76
596.387	30727.51
596.746	31101.51
597.104	31064.45
597.463	31348.51
597.822	31653.81
598.18	31700.59
598.538	31837.31
598.897	32355.04
599.255	32169.96
599.613	32885.87
599.972	32870.05
600.33	33192.31
600.688	33158.18
601.046	33532.64
601.404	33719.97
601.762	33805.62
602.12	34146.63
602.478	34296.23
602.836	34463.01
603.194	34523.57
603.552	34713.85
603.91	34797.69
604.268	34944.8
604.625	35115.42
604.983	35490.1
605.341	35531
605.698	35684.67
606.056	35888.73
606.413	36125.56
606.771	36329.4
607.128	36579.79
607.485	36453.91
607.843	36554.48
608.2	36865.65
608.557	37140.22
608.914	37105.2
609.272	37305.64
609.629	37424.96
609.986	37668.12
610.343	37798.51
610.7	38065.4
611.057	38110.37
611.414	38250.93
611.771	38391.72
612.127	38495.44
612.484	38647.98
612.841	38855.66
613.198	38781.08
613.554	38852.72
613.911	39187.85
614.267	39135.2
614.624	39330.9
614.98	39494.74
615.337	39745.35
615.693	39656.99
616.05	39767.05
616.406	40059.92
616.762	40127.26
617.118	40250.65
617.475	40238.67
617.831	40369.07
618.187	40440.02
618.543	40618.78
618.899	40861.71
619.255	40706.91
619.611	40784.65
619.967	40913.91
620.323	41193.9
620.678	41017.64
621.034	41046.34
621.39	41023.29
621.746	41151.64
622.101	41611.97
622.457	41313.9
622.812	41463.05
623.168	41516.38
623.523	41650.84
623.879	41735.36
624.234	41543.05
624.589	41677.96
624.945	41908.69
625.3	41901.68
625.655	41947.56
626.01	42059.64
626.365	42147.32
626.72	42164.95
627.075	42182.35
627.43	42192.97
627.785	42044.05
628.14	42305.74
628.495	42295.34
628.85	42291.95
629.205	42105.97
629.559	42352.74
629.914	42268.68
630.269	42262.12
630.623	42241.78
630.978	42188.23
631.332	42411.05
631.687	42521.78
632.041	42244.95
632.396	42534.66
632.75	42330.14
633.104	42375.34
633.459	42237.04
633.813	42239.98
634.167	42224.38
634.521	42348.45
634.875	42442.23
635.229	42330.82
635.583	42159.3
635.937	42333.08
636.291	42203.59
636.645	42326.53
636.999	42170.83
637.352	42271.16
637.706	42078.4
638.06	42253.31
638.413	42166.98
638.767	42008.12
639.121	42002.47
639.474	41947.33
639.828	41950.94
640.181	42143.93
640.534	42108
640.888	41875.92
641.241	41791.85
641.594	41781.46
641.947	42035.24
642.301	42021
642.654	42031.39
643.007	41886.77
643.36	42016.48
643.713	41733.55
644.066	42088.34
644.419	41624.4
644.771	41512.76
645.124	41021.25
645.477	41153.45
645.83	40836.85
646.182	40749.17
646.535	40609.06
646.888	40766.57
647.24	40521.6
647.593	40688.15
647.945	40641.37
648.298	40407.48
648.65	40425.79
649.002	40446.13
649.355	40627.59
649.707	40496.97
650.059	40778.77
650.411	41130.4
650.763	41131.08
651.115	41532.2
651.467	41312.09
651.819	41370.4
652.171	41249.95
652.523	41202.49
652.875	41177.86
653.227	41042.72
653.578	41308.7
653.93	41329.27
654.282	41019.44
654.633	41054.7
654.985	41055.15
655.337	41075.71
655.688	41064.41
656.039	41144.19
656.391	40891.09
656.742	40916.17
657.094	41030.97
657.445	41029.39
657.796	41154.81
658.147	41016.73
658.498	40855.15
658.849	41016.05
659.2	40924.76
659.551	40930.41
659.902	41024.42
660.253	40863.97
660.604	40901.26
660.955	40874.82
661.306	40980.8
661.656	40881.82
662.007	40852.67
662.358	40842.95
662.708	40916.4
663.059	40863.97
663.409	40635.73
663.76	40944.19
664.11	40888.37
664.461	40909.39
664.811	40910.97
665.161	40758.43
665.511	40690.64
665.862	40801.6
666.212	40880.69
666.562	40797.75
666.912	40807.02
667.262	40801.6
667.612	40688.15
667.962	40813.35
668.312	40750.98
668.662	40823.97
669.011	40802.05
669.361	40749.39
669.711	40708.72
670.06	40583.98
670.41	40621.71
670.76	40612.45
671.109	40646.57
671.459	40504.2
671.808	40604.77
672.157	40702.62
672.507	40400.7
672.856	40386.69
673.205	40453.81
673.554	40739
673.904	40480.25
674.253	40602.51
674.602	40663.52
674.951	39955.74
675.3	39731.79
675.649	40550.98
675.998	40339.91
676.346	40430.53
676.695	40662.17
677.044	40298.11
677.393	40271.67
677.741	40281.84
678.09	40299.01
678.438	40275.28
678.787	40395.73
679.135	40376.07
679.484	40073.25
679.832	40209.3
680.181	39791.23
680.529	39966.36
680.877	39940.15
681.225	39943.77
681.573	40158.68
681.922	39861.28
682.27	39647.05
682.618	39865.58
682.966	39667.16
683.314	39709.87
683.661	39515.08
684.009	39454.06
684.357	39433.27
684.705	39367.06
685.053	39347.17
685.4	39218.81
685.748	39117.35
686.095	39063.11
686.443	38946.05
686.79	38956.22
687.138	38997.12
687.485	39019.5
687.832	38721.43
688.18	39009.1
688.527	38777.24
688.874	38658.38
689.221	38586.06
689.568	38551.26
689.915	38443.69
690.262	38555.33
690.609	38327.09
690.956	38195.34
691.303	38260.65
691.65	38107.88
691.997	38000.54
692.344	37796.48
692.69	37837.15
693.037	37835.35
693.383	37467
693.73	37683.49
694.077	37406.88
694.423	37383.38
694.769	37322.14
695.116	37256.38
695.462	37108.13
695.808	37089.15
696.155	36953.34
696.501	36821.14
696.847	36821.81
697.193	36550.18
697.539	36743.62
697.885	36398.32
698.231	36430.41
698.577	36461.82
698.923	36406.46
699.269	36183.64
699.614	35893.03
699.96	35998.79
700.306	35986.13
700.651	35824.1
700.997	35756.08
701.342	35650.32
701.688	35511.57
702.033	35545.01
702.379	35413.26
702.724	35362.87
703.069	35441.51
703.415	35022.77
703.76	35057.11
704.105	35046.04
704.45	34962.65
704.795	34813.28
705.14	34642.66
705.485	34796.56
705.83	34518.15
706.175	34519.28
706.52	34621.19
706.865	34312.95
707.209	34187.08
707.554	34147.08
707.899	34216.23
708.243	34018.95
708.588	34027.31
708.932	33812.18
709.277	33917.26
709.621	33780.99
709.966	33562.92
710.31	33571.73
710.654	33419.87
710.998	33419.87
711.342	33592.75
711.687	33252.64
712.031	33200.67
712.375	33064.85
712.719	33255.13
713.063	33173.32
713.407	33219.2
713.75	32957.51
714.094	32995.47
714.438	32890.62
714.782	32869.83
715.125	32656.5
715.469	32716.16
715.812	32727.91
716.156	32487.92
716.499	32591.87
716.843	32547.12
717.186	32310.75
717.53	32439.78
717.873	32441.14
718.216	32263.74
718.559	32166.8
718.902	31942.17
719.246	32072.11
719.589	31913.92
719.932	31782.85
720.275	31853.58
720.617	31861.27
720.96	31599.58
721.303	31728.84
721.646	31862.62
721.989	31490.88
722.331	31594.38
722.674	31374.73
723.016	31402.75
723.359	31400.04
723.701	31400.49
724.044	31184.9
724.386	31040.27
724.729	31288.4
725.071	31165.24
725.413	31167.95
725.755	30957.11
726.097	30905.59
726.439	30742.43
726.782	30835.53
727.124	31120.5
727.465	30839.37
727.807	30729.09
728.149	30622.43
728.491	30700.17
728.833	30659.72
729.175	30464.47
729.516	30489.55
729.858	30493.17
730.199	30395.09
730.541	30363.23
730.882	30359.16
731.224	30401.19
731.565	30304.92
731.906	30164.81
732.248	30180.18
732.589	30011.37
732.93	29867.65
733.271	30005.27
733.612	30016.34
733.953	29955.33
734.294	29897.25
734.635	29791.26
734.976	29939.51
735.317	29739.29
735.658	29714.66
735.999	29677.14
736.339	29611.83
736.68	29660.19
737.021	29589.91
737.361	29407.55
737.702	29620.42
738.042	29506.07
738.383	29448.22
738.723	29443.25
739.063	29299.75
739.404	29474.66
739.744	29312.41
740.084	29064.96
740.424	29281.9
740.764	29210.26
741.104	29325.51
741.444	29106.76
741.784	28923.72
742.124	29038.97
742.464	28888.01
742.804	28902.7
743.143	28871.06
743.483	28888.69
743.823	28627.68
744.162	28674.91
744.502	28691.86
744.841	28610.96
745.181	28710.84
745.52	28589.04
745.86	28610.96
746.199	28536.83
746.538	28504.97
746.877	28543.84
747.216	28357.63
747.556	28358.53
747.895	28425.42
748.234	28394.92
748.573	28231.08
748.911	28218.42
749.25	28162.61
749.589	27950.18
749.928	28041.93
750.267	28103.17
750.605	27968.04
750.944	27878.09
751.283	27766.46
751.621	27957.87
751.96	27755.16
752.298	27723.3
752.636	27721.26
752.975	27581.61
753.313	27550.65
753.651	27705.22
753.989	27515.84
754.327	27479.91
754.666	27218.23
755.004	27384.77
755.342	27410.99
755.679	27242.63
756.017	27100.04
756.355	27167.38
756.693	27049.87
757.031	27188.85
757.368	26955.18
757.706	26958.34
