Data from hue_130_FLMS001491_00067.txt Node
Date: Tue Feb 07 16:57:56 GMT 2017
User: dcchb
Spectrometer: FLMS00149
Trigger mode: 0
Integration Time (sec): 2.000000E-2
Scans to average: 10
Electric dark correction enabled: true
Nonlinearity correction enabled: false
Boxcar width: 0
XAxis mode: Wavelengths
Number of Pixels in Spectrum: 2048
>>>>>Begin Spectral Data<<<<<
341.393	6.12
341.776	6.12
342.16	6.12
342.543	-56.71
342.927	-95.58
343.31	-89.25
343.693	-63.94
344.077	-52.19
344.46	-63.26
344.843	-52.19
345.226	-58.74
345.61	-36.82
345.993	-26.43
346.376	-8.12
346.759	-4.05
347.142	33.69
347.525	56.06
347.908	76.85
348.291	79.33
348.674	94.02
349.057	115.04
349.44	127.47
349.823	149.61
350.206	161.59
350.588	190.07
350.971	217.41
351.354	246.11
351.737	225.54
352.119	239.1
352.502	244.08
352.884	254.7
353.267	269.39
353.65	294.92
354.032	278.2
354.414	289.72
354.797	283.85
355.179	316.16
355.562	305.09
355.944	327.69
356.326	308.25
356.709	312.77
357.091	344.86
357.473	317.07
357.855	340.57
358.238	321.36
358.62	332.21
359.002	310.29
359.384	329.95
359.766	342.15
360.148	338.76
360.53	333.56
360.912	331.98
361.294	322.04
361.676	334.47
362.057	319.33
362.439	317.29
362.821	315.03
363.203	305.32
363.584	345.77
363.966	335.37
364.348	320.01
364.729	317.97
365.111	327.69
365.493	343.96
365.874	319.33
366.256	311.64
366.637	296.96
367.019	324.75
367.4	310.97
367.781	309.16
368.163	305.54
368.544	335.37
368.925	284.75
369.306	320.23
369.688	308.71
370.069	302.83
370.45	305.09
370.831	306.22
371.212	296.05
371.593	314.13
371.974	321.81
372.355	308.25
372.736	302.61
373.117	311.19
373.498	316.39
373.879	309.61
374.26	318.65
374.641	309.38
375.021	318.2
375.402	314.13
375.783	333.34
376.163	309.61
376.544	333.79
376.925	330.4
377.305	324.98
377.686	325.2
378.066	333.56
378.447	333.11
378.827	321.59
379.208	338.76
379.588	316.84
379.968	323.17
380.349	330.17
380.729	320.01
381.109	339.67
381.489	334.69
381.87	338.54
382.25	338.76
382.63	350.51
383.01	316.16
383.39	332.21
383.77	338.08
384.15	320.91
384.53	339.44
384.91	334.24
385.29	352.77
385.67	353
386.049	356.61
386.429	348.03
386.809	356.61
387.189	353.45
387.568	374.92
387.948	360.68
388.328	368.59
388.707	372.43
389.087	367.91
389.466	374.02
389.846	362.94
390.225	367.46
390.605	383.28
390.984	393.22
391.363	383.96
391.743	377.18
392.122	381.7
392.501	387.57
392.881	389.16
393.26	372.66
393.639	392.55
394.018	373.79
394.397	386.22
394.776	402.04
395.155	387.35
395.534	368.37
395.913	357.74
396.292	406.33
396.671	384.41
397.05	399.33
397.429	390.06
397.808	388.7
398.186	414.01
398.565	387.35
398.944	384.41
399.323	409.04
399.701	410.62
400.08	403.85
400.458	388.93
400.837	416.27
401.215	421.47
401.594	390.06
401.972	427.12
402.351	434.8
402.729	433
403.107	422.15
403.486	426.22
403.864	431.87
404.242	430.74
404.62	425.77
404.999	409.72
405.377	443.84
405.755	434.35
406.133	445.88
406.511	443.17
406.889	447.46
407.267	445.43
407.645	454.69
408.023	436.39
408.401	445.65
408.779	467.12
409.156	466.22
409.534	463.73
409.912	468.48
410.29	475.48
410.667	483.84
411.045	469.15
411.422	479.55
411.8	474.13
412.178	486.56
412.555	474.58
412.933	502.6
413.31	476.84
413.687	508.93
414.065	505.31
414.442	503.96
414.819	510.06
415.197	512.54
415.574	511.64
415.951	511.87
416.328	531.75
416.705	524.07
417.082	518.19
417.46	545.54
417.837	521.58
418.214	529.72
418.591	536.72
418.967	559.32
419.344	554.35
419.721	536.95
420.098	582.37
420.475	565.65
420.852	574.46
421.228	544.18
421.605	576.5
421.982	563.62
422.358	570.85
422.735	580.79
423.111	576.04
423.488	590.73
423.864	591.64
424.241	605.2
424.617	602.26
424.994	621.24
425.37	619.21
425.746	587.8
426.123	628.02
426.499	615.82
426.875	635.25
427.251	639.77
427.627	645.65
428.003	637.51
428.379	625.08
428.756	640
429.132	664.4
429.507	671.41
429.883	665.76
430.259	683.39
430.635	682.03
431.011	691.3
431.387	687.68
431.763	700.56
432.138	685.19
432.514	682.71
432.89	702.59
433.265	742.82
433.641	725.42
434.016	734.46
434.392	753.89
434.767	734.23
435.143	740.79
435.518	761.12
435.894	773.78
436.269	766.1
436.644	766.32
437.02	780.33
437.395	784.4
437.77	808.35
438.145	800.9
438.52	802.7
438.895	813.33
439.271	798.41
439.646	839.99
440.021	839.77
440.395	835.92
440.77	843.38
441.145	862.59
441.52	866.66
441.895	866.21
442.27	858.52
442.645	865.3
443.019	895.13
443.394	884.51
443.769	875.47
444.143	893.78
444.518	901.23
444.892	905.98
445.267	922.25
445.641	939.42
446.016	932.87
446.39	943.04
446.764	952.98
447.139	956.37
447.513	951.18
447.887	963.83
448.262	952.98
448.636	995.24
449.01	982.36
449.384	953.89
449.758	981.23
450.132	984.17
450.506	1020.1
450.88	1002.93
451.254	989.82
451.628	1029.82
452.002	1034.79
452.376	1027.78
452.75	1050.83
453.123	1033.89
453.497	1093.77
453.871	1075.92
454.244	1103.04
454.618	1109.14
454.992	1118.63
455.365	1116.37
455.739	1164.28
456.112	1137.16
456.486	1150.49
456.859	1185.29
457.232	1189.14
457.606	1204.5
457.979	1195.46
458.352	1248.34
458.725	1242.69
459.099	1248.79
459.472	1283.37
459.845	1322.69
460.218	1300.54
460.591	1295.8
460.964	1326.31
461.337	1343.71
461.71	1338.74
462.083	1362.46
462.456	1406.53
462.829	1413.76
463.201	1422.58
463.574	1421.22
463.947	1457.6
464.32	1471.61
464.692	1514.78
465.065	1521.56
465.438	1505.51
465.81	1573.53
466.183	1562.68
466.555	1588.22
466.928	1625.06
467.3	1655.11
467.672	1673.42
468.045	1746.41
468.417	1728.56
468.789	1743.92
469.161	1766.75
469.534	1825.28
469.906	1849.01
470.278	1863.02
470.65	1889.23
471.022	1922.22
471.394	1969.68
471.766	1984.82
472.138	2059.62
472.51	2068.89
472.882	2143.23
473.253	2190.92
473.625	2216.45
473.997	2266.17
474.369	2284.7
474.74	2348.43
475.112	2434.75
475.484	2430.01
475.855	2569.21
476.227	2544.81
476.598	2563.34
476.97	2662.09
477.341	2734.86
477.713	2797.68
478.084	2858.47
478.455	2977.11
478.827	3037.45
479.198	3123.1
479.569	3160.61
479.94	3286.93
480.311	3350.89
480.682	3441.96
481.053	3534.61
481.424	3657.09
481.795	3750.65
482.166	3865.68
482.537	3905.67
482.908	4049.17
483.279	4138.21
483.65	4232.45
484.021	4424.53
484.391	4475.15
484.762	4596.05
485.133	4657.74
485.503	4833.56
485.874	4952.43
486.244	5065.42
486.615	5223.38
486.985	5288.69
487.356	5456.37
487.726	5532.52
488.097	5679.41
488.467	5829.01
488.837	5967.99
489.207	6097.48
489.578	6246.4
489.948	6431.03
490.318	6546.96
490.688	6656.11
491.058	6812.26
491.428	6931.36
491.798	7104.91
492.168	7278.24
492.538	7376.77
492.908	7507.39
493.278	7693.82
493.648	7774.27
494.017	7932.23
494.387	8115.51
494.757	8257.65
495.126	8408.83
495.496	8475.72
495.866	8577.42
496.235	8812.66
496.605	8862.38
496.974	9023.73
497.344	9115.71
497.713	9272.31
498.082	9368.58
498.452	9527.22
498.821	9667.78
499.19	9677.73
499.559	9834.56
499.928	9963.59
500.298	9960.43
500.667	10173.08
501.036	10252.63
501.405	10423.92
501.774	10490.36
502.143	10598.15
502.512	10628.89
502.88	10799.96
503.249	10913.85
503.618	10910.46
503.987	11008.31
504.356	11113.62
504.724	11214.86
505.093	11287.17
505.462	11326.04
505.83	11483.1
506.199	11595.19
506.567	11707.5
506.936	11686.03
507.304	11792.7
507.672	11869.53
508.041	11963.32
508.409	12112.01
508.777	12215.74
509.145	12278.34
509.514	12225
509.882	12388.84
510.25	12382.74
510.618	12452.79
510.986	12510.87
511.354	12627.7
511.722	12727.82
512.09	12769.85
512.458	12798.77
512.826	12927.36
513.193	12913.12
513.561	12996.73
513.929	13018.65
514.297	13199.44
514.664	13231.3
515.032	13235.82
515.4	13415.71
515.767	13355.82
516.135	13396.5
516.502	13381.13
516.869	13500.22
517.237	13543.61
517.604	13510.17
517.972	13598.75
518.339	13621.35
518.706	13589.26
519.073	13624.97
519.44	13808.01
519.808	13894.56
520.175	13822.93
520.542	13940.66
520.909	14012.08
521.276	14004.62
521.643	14070.15
522.009	14144.27
522.376	14208.23
522.743	14100.43
523.11	14288.23
523.477	14322.58
523.843	14379.98
524.21	14480.76
524.577	14382.69
524.943	14493.87
525.31	14535
525.676	14504.27
526.043	14645.96
526.409	14574.55
526.776	14766.18
527.142	14786.07
527.508	14760.76
527.874	14778.16
528.241	14782.9
528.607	14801.66
528.973	14892.28
529.339	14863.8
529.705	14904.26
530.071	14950.81
530.437	14977.93
530.803	14941.09
531.169	15010.47
531.535	14842.56
531.901	14909.23
532.267	14929.34
532.632	14934.76
532.998	14916.23
533.364	14946.51
533.73	14859.74
534.095	15005.5
534.461	14952.62
534.826	14947.64
535.192	14992.61
535.557	14920.75
535.923	14914.65
536.288	14909
536.653	14900.19
537.019	14859.06
537.384	14917.14
537.749	14847.99
538.114	14800.75
538.479	14737.93
538.845	14840.53
539.21	14750.81
539.575	14722.11
539.94	14687.76
540.305	14716.24
540.67	14610.25
541.034	14586.52
541.399	14646.86
541.764	14582.23
542.129	14642.57
542.494	14540.42
542.858	14523.7
543.223	14516.92
543.587	14519.63
543.952	14433.08
544.316	14360.31
544.681	14382.69
545.045	14372.07
545.41	14386.98
545.774	14340.65
546.138	14353.54
546.503	14303.59
546.867	14149.02
547.231	14258.4
547.595	14173.65
547.959	14160.09
548.324	14178.85
548.688	14112.41
549.052	14092.3
549.416	14064.96
549.779	14104.05
550.143	13972.53
550.507	14066.31
550.871	14023.37
551.235	13935.92
551.599	13957.61
551.962	13956.94
552.326	13896.82
552.689	13928.69
553.053	13773.66
553.417	13842.81
553.78	13941.34
554.143	13751.97
554.507	13786.54
554.87	13884.85
555.234	13872.87
555.597	13763.04
555.96	13747.68
556.323	13774.57
556.686	13754.91
557.05	13644.4
557.413	13787.67
557.776	13727.34
558.139	13783.15
558.502	13717.62
558.865	13694.8
559.228	13737.05
559.59	13764.4
559.953	13779.99
560.316	13807.79
560.679	13817.96
561.041	13827.22
561.404	13871.06
561.767	13901.57
562.129	13770.05
562.492	13898.18
562.854	13841.01
563.217	13787.45
563.579	13850.05
563.941	13887.78
564.304	13884.62
564.666	13896.15
565.028	13934.79
565.39	13897.05
565.753	13990.15
566.115	13978.86
566.477	13967.1
566.839	14013.66
567.201	14001.45
567.563	14056.82
567.925	14088.91
568.287	14060.44
568.648	14129.13
569.01	14097.95
569.372	14203.93
569.734	14085.52
570.095	14175.69
570.457	14136.14
570.819	14259.53
571.18	14216.36
571.542	14294.1
571.903	14279.19
572.265	14285.29
572.626	14300.66
572.987	14369.81
573.349	14293.65
573.71	14343.59
574.071	14465.4
574.432	14425.85
574.794	14443.93
575.155	14482.8
575.516	14383.59
575.877	14445.96
576.238	14456.81
576.599	14433.98
576.96	14453.42
577.32	14445.51
577.681	14426.08
578.042	14518.5
578.403	14560.99
578.763	14385.17
579.124	14435.34
579.485	14532.74
579.845	14543.13
580.206	14510.59
580.566	14484.38
580.927	14516.92
581.287	14558.05
581.648	14441.67
582.008	14585.17
582.368	14524.6
582.728	14506.3
583.089	14413.42
583.449	14529.12
583.809	14482.57
584.169	14485.73
584.529	14452.29
584.889	14543.13
585.249	14430.37
585.609	14479.41
585.969	14501.33
586.329	14444.61
586.688	14400.77
587.048	14472.4
587.408	14398.51
587.768	14271.96
588.127	14314.89
588.487	14325.97
588.846	14379.3
589.206	14339.52
589.565	14285.06
589.925	14358.51
590.284	14357.15
590.643	14348.11
591.003	14363.48
591.362	14296.59
591.721	14264.27
592.08	14308.79
592.44	14352.18
592.799	14337.72
593.158	14287.77
593.517	14227.89
593.876	14427.88
594.235	14304.5
594.593	14250.94
594.952	14282.12
595.311	14189.92
595.67	14251.39
596.029	14294.1
596.387	14274.67
596.746	14276.93
597.104	14221.79
597.463	14162.13
597.822	14248.23
598.18	14177.72
598.538	14288.68
598.897	14299.3
599.255	14138.85
599.613	14324.38
599.972	14230.6
600.33	14202.58
600.688	14133.2
601.046	14241.67
601.404	14365.74
601.762	14314.44
602.12	14288
602.478	14360.31
602.836	14313.08
603.194	14230.37
603.552	14289.36
603.91	14117.84
604.268	14194.22
604.625	14159.87
604.983	14255.46
605.341	14255.46
605.698	14347.43
606.056	14324.84
606.413	14240.54
606.771	14312.41
607.128	14382.46
607.485	14288
607.843	14292.97
608.2	14372.52
608.557	14339.52
608.914	14304.95
609.272	14427.21
609.629	14492.29
609.986	14445.51
610.343	14385.62
610.7	14532.97
611.057	14427.88
611.414	14381.56
611.771	14443.02
612.127	14577.71
612.484	14422.01
612.841	14556.69
613.198	14498.84
613.554	14479.18
613.911	14580.65
614.267	14493.19
614.624	14524.15
614.98	14624.04
615.337	14660.87
615.693	14555.11
616.05	14576.35
616.406	14708.33
616.762	14563.47
617.118	14559.18
617.475	14571.83
617.831	14651.38
618.187	14686.63
618.543	14651.38
618.899	14754.88
619.255	14670.36
619.611	14689.35
619.967	14725.73
620.323	14700.87
620.678	14587.88
621.034	14678.72
621.39	14664.26
621.746	14575.45
622.101	14820.19
622.457	14688.67
622.812	14725.5
623.168	14715.56
623.523	14795.33
623.879	14794.88
624.234	14583.13
624.589	14751.49
624.945	14762.56
625.3	14744.49
625.655	14716.69
626.01	14756.69
626.365	14653.64
626.72	14783.35
627.075	14700.19
627.43	14667.65
627.785	14824.26
628.14	14704.94
628.495	14706.75
628.85	14746.29
629.205	14687.54
629.559	14687.31
629.914	14606.64
630.269	14697.93
630.623	14550.14
630.978	14559.86
631.332	14586.75
631.687	14652.51
632.041	14557.37
632.396	14639.63
632.75	14512.85
633.104	14593.98
633.459	14550.14
633.813	14502.23
634.167	14511.27
634.521	14516.92
634.875	14522.12
635.229	14415.91
635.583	14393.08
635.937	14383.14
636.291	14397.15
636.645	14352.86
636.999	14370.03
637.352	14459.29
637.706	14285.74
638.06	14376.13
638.413	14264.72
638.767	14322.58
639.121	14354.89
639.474	14223.14
639.828	14176.59
640.181	14154.67
640.534	14145.18
640.888	14177.72
641.241	14190.38
641.594	14093.88
641.947	14181.79
642.301	14093.88
642.654	14195.35
643.007	14180.88
643.36	14099.08
643.713	14039.64
644.066	14161.22
644.419	14063.83
644.771	13943.6
645.124	13812.76
645.477	13837.16
645.83	13734.57
646.182	13698.86
646.535	13674.91
646.888	13678.3
647.24	13620.45
647.593	13673.78
647.945	13702.7
648.298	13518.53
648.65	13580
649.002	13570.28
649.355	13598.53
649.707	13670.62
650.059	13656.83
650.411	13825.87
650.763	13755.58
651.115	13929.37
651.467	13958.29
651.819	13813.21
652.171	13850.95
652.523	13866.99
652.875	13863.15
653.227	13804.62
653.578	13810.95
653.93	13891.17
654.282	13894.79
654.633	13829.48
654.985	13905.86
655.337	13788.35
655.688	13897.5
656.039	13949.25
656.391	13834
656.742	13854.57
657.094	13871.74
657.445	13931.63
657.796	13856.15
658.147	13773.66
658.498	13884.39
658.849	13930.5
659.2	13874.45
659.551	13899.08
659.902	13927.11
660.253	13967.56
660.604	13943.38
660.955	13852.98
661.306	13897.5
661.656	13849.59
662.007	13869.25
662.358	13939.53
662.708	13937.5
663.059	13960.1
663.409	13844.4
663.76	13945.41
664.11	13908.8
664.461	13920.55
664.811	13933.89
665.161	13927.33
665.511	13902.25
665.862	13917.39
666.212	13888.69
666.562	13963.71
666.912	13883.49
667.262	13885.52
667.612	13886.88
667.962	13884.85
668.312	13883.49
668.662	13922.36
669.011	13828.35
669.361	13887.33
669.711	13856.37
670.06	13833.77
670.41	13922.59
670.76	13854.11
671.109	13811.85
671.459	13861.12
671.808	13804.17
672.157	13820.89
672.507	13800.1
672.856	13794.45
673.205	13764.85
673.554	13846.2
673.904	13852.08
674.253	13855.02
674.602	13770.5
674.951	13655.25
675.3	13521.47
675.649	13719.88
675.998	13714.68
676.346	13724.17
676.695	13742.48
677.044	13644.63
677.393	13664.29
677.741	13748.81
678.09	13714
678.438	13637.17
678.787	13635.59
679.135	13673.78
679.484	13594.91
679.832	13578.41
680.181	13397.63
680.529	13581.8
680.877	13498.42
681.225	13433.33
681.573	13503.61
681.922	13401.47
682.27	13353.11
682.618	13360.79
682.966	13374.13
683.314	13398.53
683.661	13337.29
684.009	13200.35
684.357	13298.2
684.705	13217.75
685.053	13184.53
685.4	13220.91
685.748	13151.08
686.095	13115.15
686.443	13130.74
686.79	13108.37
687.138	13006.9
687.485	13141.14
687.832	12942.5
688.18	13008.03
688.527	12934.36
688.874	12848.49
689.221	12926.23
689.568	12871.77
689.915	12767.81
690.262	12761.71
690.609	12740.7
690.956	12614.15
691.303	12713.8
691.65	12587.03
691.997	12655.95
692.344	12514.71
692.69	12531.21
693.037	12490.53
693.383	12358.79
693.73	12413.02
694.077	12310.88
694.423	12333.48
694.769	12263.87
695.116	12258.22
695.462	12199.92
695.808	12078.11
696.155	12148.62
696.501	12026.82
696.847	12133.03
697.193	11990.89
697.539	12005.8
697.885	11892.13
698.231	11816.65
698.577	11832.92
698.923	11841.06
699.269	11790.89
699.614	11752.25
699.96	11646.94
700.306	11618.92
700.651	11599.71
700.997	11515.64
701.342	11493.72
701.688	11503.21
702.033	11448.3
702.379	11431.58
702.724	11364.46
703.069	11373.05
703.415	11303.67
703.76	11307.06
704.105	11219.15
704.45	11189.1
704.795	11143.68
705.14	11127.18
705.485	11080.4
705.83	11028.2
706.175	11026.84
706.52	11078.14
706.865	11017.58
707.209	10944.13
707.554	10923.34
707.899	10862.33
708.243	10837.92
708.588	10837.92
708.932	10793.85
709.277	10772.84
709.621	10737.81
709.966	10703.69
710.31	10757.25
710.654	10585.27
710.998	10579.17
711.342	10655.55
711.687	10605.61
712.031	10582.11
712.375	10527.87
712.719	10534.65
713.063	10485.84
713.407	10504.37
713.75	10422.79
714.094	10417.82
714.438	10324.49
714.782	10360.87
715.125	10310.93
715.469	10398.61
715.812	10342.34
716.156	10252.4
716.499	10253.98
716.843	10258.73
717.186	10224.15
717.53	10217.37
717.873	10274.77
718.216	10258.95
718.559	10199.75
718.902	10160.2
719.246	10097.83
719.589	10111.16
719.932	10129.24
720.275	10045.4
720.617	10049.47
720.96	10053.54
721.303	10089.01
721.646	10079.52
721.989	10000.66
722.331	10002.01
722.674	9968.79
723.016	9958.62
723.359	9972.63
723.701	9872.97
724.044	9882.69
724.386	9900.77
724.729	9875.69
725.071	9903.48
725.413	9855.8
725.755	9879.08
726.097	9851.51
726.439	9729.25
726.782	9809.7
727.124	9864.16
727.465	9821.9
727.807	9807.67
728.149	9892.86
728.491	9764.96
728.833	9821.45
729.175	9762.7
729.516	9842.47
729.858	9773.54
730.199	9799.53
730.541	9780.55
730.882	9750.72
731.224	9784.62
731.565	9679.76
731.906	9757.05
732.248	9810.83
732.589	9706.88
732.93	9700.78
733.271	9696.71
733.612	9692.87
733.953	9781.9
734.294	9717.5
734.635	9776.93
734.976	9761.57
735.317	9686.31
735.658	9709.36
735.999	9676.6
736.339	9698.97
736.68	9756.14
737.021	9714.33
737.361	9673.43
737.702	9697.16
738.042	9754.79
738.383	9715.24
738.723	9722.7
739.063	9712.75
739.404	9750.27
739.744	9754.33
740.084	9752.07
740.424	9806.99
740.764	9764.05
741.104	9816.25
741.444	9751.85
741.784	9822.13
742.124	9782.81
742.464	9829.36
742.804	9880.88
743.143	9871.62
743.483	9929.24
743.823	9873.2
744.162	9866.2
744.502	9889.25
744.841	9992.29
745.181	10034.78
745.52	10034.33
745.86	10071.39
746.199	10153.19
746.538	10162.46
746.877	10190.71
747.216	10225.73
747.556	10199.97
747.895	10293.75
748.234	10362
748.573	10353.19
748.911	10453.98
749.25	10528.32
749.589	10523.13
749.928	10587.98
750.267	10715.66
750.605	10780.97
750.944	10795.66
751.283	10848.54
751.621	11061.42
751.96	10997.01
752.298	11126.73
752.636	11283.79
752.975	11312.71
753.313	11310.9
753.651	11550.44
753.989	11495.98
754.327	11661.63
754.666	11749.08
755.004	11902.98
755.342	12042.18
755.679	12224.1
756.017	12284.89
756.355	12444.66
756.693	12476.52
757.031	12712
757.368	12742.05
