Data from hue_50_FLMS001491_12.txt Node
Date: Mon Feb 06 15:09:39 GMT 2017
User: dcchb
Spectrometer: FLMS00149
Trigger mode: 0
Integration Time (sec): 2.000000E-2
Scans to average: 10
Electric dark correction enabled: true
Nonlinearity correction enabled: false
Boxcar width: 0
XAxis mode: Wavelengths
Number of Pixels in Spectrum: 2048
>>>>>Begin Spectral Data<<<<<
341.393	-9.62
341.776	-9.62
342.16	-9.62
342.543	-58.2
342.927	-69.05
343.31	-60.01
343.693	-62.95
344.077	-71.31
344.46	-48.94
344.843	-43.06
345.226	-28.83
345.61	-36.28
345.993	-29.96
346.376	-10.52
346.759	25.41
347.142	10.27
347.525	42.81
347.908	61.79
348.291	66.54
348.674	68.57
349.057	116.48
349.44	140.89
349.823	140.89
350.206	168.68
350.588	203.26
350.971	224.27
351.354	217.27
351.737	235.8
352.119	260.88
352.502	266.53
352.884	275.8
353.267	281.9
353.65	312.18
354.032	297.27
354.414	318.06
354.797	323.25
355.179	345.85
355.562	334.33
355.944	358.28
356.326	344.04
356.709	339.52
357.091	337.04
357.473	356.47
357.855	367.55
358.238	331.16
358.62	330.03
359.002	335.68
359.384	353.54
359.766	353.54
360.148	346.08
360.53	356.47
360.912	328.9
361.294	350.37
361.676	325.06
362.057	317.15
362.439	348.11
362.821	323.93
363.203	309.7
363.584	341.78
363.966	331.62
364.348	305.63
364.729	308.57
365.111	324.16
365.493	338.85
365.874	322.8
366.256	339.75
366.637	302.69
367.019	309.7
367.4	323.71
367.781	334.1
368.163	319.41
368.544	325.74
368.925	322.35
369.306	303.82
369.688	320.54
370.069	319.19
370.45	305.85
370.831	312.18
371.212	320.54
371.593	315.12
371.974	318.51
372.355	302.69
372.736	308.57
373.117	324.61
373.498	307.89
373.879	306.98
374.26	320.09
374.641	323.25
375.021	308.57
375.402	321.22
375.783	322.35
376.163	324.16
376.544	317.38
376.925	323.25
377.305	316.7
377.686	316.93
378.066	325.06
378.447	333.88
378.827	348.56
379.208	326.87
379.588	315.8
379.968	316.93
380.349	329.81
380.729	330.03
381.109	326.42
381.489	328.23
381.87	339.07
382.25	341.33
382.63	333.42
383.01	342.91
383.39	325.51
383.77	345.85
384.15	338.85
384.53	353.54
384.91	332.29
385.29	337.94
385.67	345.85
386.049	358.28
386.429	327.55
386.809	351.95
387.189	338.4
387.568	352.41
387.948	353.76
388.328	357.38
388.707	350.82
389.087	351.73
389.466	332.97
389.846	366.19
390.225	370.03
390.605	369.58
390.984	333.2
391.363	347.21
391.743	341.11
392.122	379.75
392.501	351.5
392.881	367.77
393.26	364.16
393.639	367.77
394.018	378.62
394.397	370.71
394.776	369.58
395.155	368.9
395.534	363.25
395.913	380.43
396.292	375
396.671	356.93
397.05	382.46
397.429	361.22
397.808	377.26
398.186	379.52
398.565	383.37
398.944	375.91
399.323	392.18
399.701	379.3
400.08	359.19
400.458	374.55
400.837	380.2
401.215	356.47
401.594	385.63
401.972	399.86
402.351	373.2
402.729	394.21
403.107	374.55
403.486	415
403.864	393.31
404.242	398.51
404.62	402.35
404.999	398.96
405.377	404.16
405.755	406.42
406.133	404.83
406.511	393.31
406.889	385.85
407.267	412.07
407.645	407.09
408.023	424.27
408.401	412.52
408.779	407.09
409.156	436.92
409.534	403.48
409.912	411.39
410.29	409.58
410.667	446.41
411.045	444.15
411.422	406.64
411.8	427.21
412.178	420.65
412.555	442.8
412.933	430.14
413.31	442.12
413.687	427.66
414.065	432.4
414.442	450.03
414.819	477.15
415.197	447.09
415.574	472.18
415.951	447.09
416.328	455.91
416.705	450.48
417.082	447.32
417.46	478.5
417.837	451.39
418.214	478.73
418.591	476.92
418.967	480.76
419.344	468.34
419.721	458.39
420.098	478.73
420.475	488
420.852	488
421.228	478.73
421.605	478.73
421.982	506.75
422.358	486.19
422.735	519.86
423.111	513.08
423.488	519.41
423.864	484.83
424.241	509.01
424.617	513.98
424.994	536.81
425.37	504.49
425.746	516.47
426.123	511.5
426.499	492.29
426.875	498.16
427.251	548.56
427.627	514.66
428.003	538.62
428.379	539.29
428.756	559.18
429.132	537.94
429.507	565.73
429.883	560.54
430.259	552.85
430.635	569.12
431.011	582.91
431.387	565.28
431.763	553.3
432.138	586.3
432.514	585.62
432.89	564.38
433.265	582
433.641	605.51
434.016	598.05
434.392	595.11
434.767	600.99
435.143	603.02
435.518	615.9
435.894	625.17
436.269	629.69
436.644	638.27
437.02	625.62
437.395	644.6
437.77	638.27
438.145	648.9
438.52	651.61
438.895	641.89
439.271	651.83
439.646	669.91
440.021	672.4
440.395	639.18
440.77	671.49
441.145	657.26
441.52	661.32
441.895	678.73
442.27	667.2
442.645	667.43
443.019	704.04
443.394	700.87
443.769	685.96
444.143	683.47
444.518	707.2
444.892	672.17
445.267	693.19
445.641	706.29
446.016	721.21
446.39	718.72
446.764	720.98
447.139	721.21
447.513	719.63
447.887	711.94
448.262	737.25
448.636	741.55
449.01	739.51
449.384	760.3
449.758	735.22
450.132	764.6
450.506	774.54
450.88	788.33
451.254	760.08
451.628	780.64
452.002	797.14
452.376	789.68
452.75	791.72
453.123	786.07
453.497	795.11
453.871	804.82
454.244	800.98
454.618	805.95
454.992	833.52
455.365	829.68
455.739	829.68
456.112	870.36
456.486	862.9
456.859	871.04
457.232	871.26
457.606	874.43
457.979	877.59
458.352	892.73
458.725	917.59
459.099	927.98
459.472	916.91
459.845	930.7
460.218	940.64
460.591	950.13
460.964	942.45
461.337	964.59
461.71	1000.98
462.083	973.41
462.456	1009.11
462.829	1020.41
463.201	1014.31
463.574	1009.34
463.947	1062.67
464.32	1069.9
464.692	1073.07
465.065	1065.83
465.438	1092.73
465.81	1108.77
466.183	1134.53
466.555	1159.39
466.928	1166.62
467.3	1190.58
467.672	1202.78
468.045	1204.36
468.417	1231.03
468.789	1234.87
469.161	1255.43
469.534	1256.79
469.906	1285.04
470.278	1313.51
470.65	1323.91
471.022	1386.96
471.394	1372.72
471.766	1416.56
472.138	1426.95
472.51	1481.87
472.882	1492.71
473.253	1521.64
473.625	1570.23
473.997	1603.9
474.369	1632.82
474.74	1650.68
475.112	1668.08
475.484	1707.85
475.855	1771.58
476.227	1784.91
476.598	1857.23
476.97	1895.87
477.341	1955.53
477.713	2002.53
478.084	2046.82
478.455	2113.04
478.827	2140.16
479.198	2224.67
479.569	2247.95
479.94	2317.1
480.311	2375.18
480.682	2465.12
481.053	2573.59
481.424	2635.51
481.795	2686.58
482.166	2750.99
482.537	2851.78
482.908	2952.11
483.279	3005.44
483.65	3107.14
484.021	3237.53
484.391	3309.39
484.762	3363.63
485.133	3428.48
485.503	3552.1
485.874	3683.62
486.244	3753.9
486.615	3867.12
486.985	3975.14
487.356	4083.16
487.726	4180.78
488.097	4271.17
488.467	4449.02
488.837	4537.38
489.207	4692.4
489.578	4777.15
489.948	4896.92
490.318	5042.68
490.688	5132.62
491.058	5243.8
491.428	5391.82
491.798	5511.59
492.168	5688.54
492.538	5798.82
492.908	5916.78
493.278	6015.31
493.648	6113.61
494.017	6276.32
494.387	6451.23
494.757	6524.9
495.126	6617.55
495.496	6756.98
495.866	6855.74
496.235	7075.39
496.605	7130.76
496.974	7276.97
497.344	7409.4
497.713	7494.37
498.082	7689.84
498.452	7779.1
498.821	7955.14
499.19	8022.49
499.559	8202.82
499.928	8273.78
500.298	8359.43
500.667	8537.73
501.036	8582.02
501.405	8767.55
501.774	8810.26
502.143	8925.06
502.512	9065.17
502.88	9143.14
503.249	9233.98
503.618	9339.51
503.987	9422.9
504.356	9603.69
504.724	9622.22
505.093	9725.72
505.462	9883.91
505.83	9987.63
506.199	10104.69
506.567	10275.31
506.936	10280.96
507.304	10525.25
507.672	10562.53
508.041	10720.49
508.409	10712.13
508.777	10911.22
509.145	11017.44
509.514	10997.1
509.882	11186.47
510.25	11228.05
510.618	11367.94
510.986	11465.11
511.354	11506.24
511.722	11685.89
512.09	11842.73
512.458	11844.53
512.826	11974.93
513.193	12079.1
513.561	12075.04
513.929	12240.68
514.297	12471.18
514.664	12480.9
515.032	12628.24
515.4	12720.22
515.767	12763.15
516.135	12842.25
516.502	12835.02
516.869	13128.34
517.237	13215.34
517.604	13161.79
517.972	13311.61
518.339	13424.6
518.706	13471.38
519.073	13562.68
519.44	13675.22
519.808	13830.24
520.175	13773.3
520.542	14036.79
520.909	14116.34
521.276	14103
521.643	14270.23
522.009	14376.44
522.376	14480.62
522.743	14514.29
523.11	14701.18
523.477	14797.22
523.843	14925.81
524.21	15139.59
524.577	15240.15
524.943	15270.43
525.31	15471.78
525.676	15564.66
526.043	15639.46
526.409	15712
526.776	15865.22
527.142	15935.05
527.508	16115.83
527.874	16125.55
528.241	16201.03
528.607	16323.51
528.973	16557.18
529.339	16504.52
529.705	16691.64
530.071	16837.62
530.437	16831.29
530.803	16993.32
531.169	17075.81
531.535	17072.64
531.901	17211.4
532.267	17230.15
532.632	17430.38
532.998	17420.21
533.364	17567.32
533.73	17655
534.095	17815.68
534.461	17796.69
534.826	17895.45
535.192	17913.53
535.557	18103.58
535.923	18054.54
536.288	18143.8
536.653	18308.77
537.019	18352.84
537.384	18409.11
537.749	18503.12
538.114	18471.03
538.479	18562.1
538.845	18616.11
539.21	18600.06
539.575	18740.62
539.94	18804.58
540.305	18917.12
540.67	18939.71
541.034	18920.05
541.399	19077.34
541.764	19270.78
542.129	19231.91
542.494	19272.81
542.858	19390.1
543.223	19441.85
543.587	19489.53
543.952	19588.51
544.316	19641.62
544.681	19686.59
545.045	19799.13
545.41	19907.6
545.774	19846.13
546.138	19959.8
546.503	19984.66
546.867	19983.08
547.231	20238.21
547.595	20279.57
547.959	20287.25
548.324	20320.02
548.688	20454.7
549.052	20537.41
549.416	20500.8
549.779	20677.52
550.143	20629.84
550.507	20688.82
550.871	20719.78
551.235	20828.93
551.599	21044.07
551.962	21084.52
552.326	21056.49
552.689	21232.31
553.053	21058.3
553.417	21202.71
553.78	21445.64
554.143	21374.45
554.507	21509.14
554.87	21661.22
555.234	21683.82
555.597	21690.83
555.96	21848.34
556.323	21883.14
556.686	21934.44
557.05	22047.88
557.413	22056.24
557.776	22273.64
558.139	22382.79
558.502	22362.22
558.865	22448.77
559.228	22521.09
559.59	22578.26
559.953	22690.35
560.316	23008.76
560.679	22891.7
561.041	23081.75
561.404	23219.38
561.767	23274.74
562.129	23189.55
562.492	23426.15
562.854	23469.09
563.217	23432.25
563.579	23652.58
563.941	23767.38
564.304	23870.43
564.666	24051.67
565.028	24019.81
565.39	24079.24
565.753	24204.66
566.115	24379.8
566.477	24419.57
566.839	24534.14
567.201	24801.03
567.563	24668.15
567.925	24842.84
568.287	24970.06
568.648	25006.45
569.01	25091.64
569.372	25266.55
569.734	25231.98
570.095	25448.02
570.457	25517.62
570.819	25702.7
571.18	25558.07
571.542	25773.66
571.903	25833.32
572.265	25877.38
572.626	25968.46
572.987	26073.99
573.349	26212.52
573.71	26156.7
574.071	26339.75
574.432	26489.57
574.794	26595.78
575.155	26628.78
575.516	26721.88
575.877	26778.38
576.238	26798.72
576.599	26982.89
576.96	26949.45
577.32	27078.48
577.681	27241.19
578.042	27278.03
578.403	27378.36
578.763	27479.6
579.124	27618.36
579.485	27766.15
579.845	27818.35
580.206	27848.86
580.566	27900.61
580.927	27982.64
581.287	28191.45
581.648	28109.64
582.008	28413.14
582.368	28377.88
582.728	28485.68
583.089	28475.73
583.449	28541.5
583.809	28770.19
584.169	28876.4
584.529	28887.47
584.889	29254.02
585.249	28970.86
585.609	29018.54
585.969	29304.87
586.329	29325.88
586.688	29531.53
587.048	29648.36
587.408	29476.61
587.768	29572.65
588.127	29710.28
588.487	29823.04
588.846	30060.78
589.206	29961.12
589.565	30096.93
589.925	30352.3
590.284	30275.46
590.643	30421.67
591.003	30573.76
591.362	30748.89
591.721	30575.57
592.08	30871.6
592.44	31017.59
592.799	31078.15
593.158	31039.51
593.517	31107.3
593.876	31295.55
594.235	31303.23
594.593	31449.44
594.952	31650.11
595.311	31639.04
595.67	31719.72
596.029	31852.59
596.387	32101.4
596.746	32078.58
597.104	32022.53
597.463	32160.38
597.822	32417.55
598.18	32232.92
598.538	32269.53
598.897	32594.27
599.255	32394.28
599.613	32811.89
599.972	32766.47
600.33	32960.14
600.688	32836.07
601.046	33030.19
601.404	33157.19
601.762	33136.18
602.12	33347.02
602.478	33374.81
602.836	33321.71
603.194	33415.94
603.552	33517.18
603.91	33457.07
604.268	33711.98
604.625	33608.48
604.983	33835.82
605.341	33817.97
605.698	34018.87
606.056	34174.57
606.413	34063.38
606.771	34256.15
607.128	34375.01
607.485	34151.74
607.843	34421.57
608.2	34550.83
608.557	34654.1
608.914	34562.81
609.272	34745.17
609.629	34892.97
609.986	35104.94
610.343	34784.72
610.7	35185.61
611.057	35081.21
611.414	35246.86
611.771	35122.34
612.127	35270.36
612.484	35384.25
612.841	35490.01
613.198	35358.27
613.554	35466.96
613.911	35737.01
614.267	35710.57
614.624	35795.09
614.98	35933.62
615.337	36098.13
615.693	36064.91
616.05	35988.98
616.406	36240.95
616.762	36163.22
617.118	36140.84
617.475	36265.81
617.831	36450.67
618.187	36557.33
618.543	36494.51
618.899	36666.71
619.255	36610.21
619.611	36703.09
619.967	36818.11
620.323	36883.87
620.678	36797.78
621.034	36665.35
621.39	36824.22
621.746	36904.44
622.101	37260.14
622.457	36858.11
622.812	37028.05
623.168	37170.65
623.523	37259.01
623.879	37296.29
624.234	37033.93
624.589	37115.06
624.945	37291.55
625.3	37390.53
625.655	37388.72
626.01	37397.08
626.365	37426.69
626.72	37415.39
627.075	37416.74
627.43	37340.59
627.785	37360.7
628.14	37619
628.495	37392.56
628.85	37515.72
629.205	37275.73
629.559	37581.26
629.914	37363.86
630.269	37505.78
630.623	37447.7
630.978	37278.89
631.332	37449.28
631.687	37468.04
632.041	37396.63
632.396	37403.86
632.75	37349.63
633.104	37388.72
633.459	37240.7
633.813	37258.33
634.167	37175.39
634.521	37269.85
634.875	37316.18
635.229	37380.81
635.583	37008.62
635.937	37199.57
636.291	37188.5
636.645	37160.48
636.999	37131.78
637.352	37170.65
637.706	36990.54
638.06	37258.1
638.413	37073.93
638.767	37009.97
639.121	36991.44
639.474	36847.72
639.828	36839.81
640.181	37012.91
640.534	37080.48
640.888	36880.49
641.241	36722.98
641.594	36754.61
641.947	37002.29
642.301	36802.3
642.654	36743.31
643.007	36723.2
643.36	36738.34
643.713	36711.22
644.066	36915.29
644.419	36629.42
644.771	36373.61
645.124	36108.53
645.477	36089.32
645.83	35798.93
646.182	35691.59
646.535	35614.3
646.888	35711.48
647.24	35479.84
647.593	35606.39
647.945	35632.16
648.298	35372.95
648.65	35438.94
649.002	35286.85
649.355	35451.6
649.707	35347.87
650.059	35654.3
650.411	36010.68
650.763	35857.24
651.115	36332.7
651.467	36184.68
651.819	36142.65
652.171	36205.93
652.523	36082.09
652.875	36092.48
653.227	35876.44
653.578	36190.79
653.93	36099.49
654.282	35917.57
654.633	35934.52
654.985	36052.48
655.337	36018.13
655.688	36001.41
656.039	36034.41
656.391	35869.89
656.742	35843
657.094	35954.18
657.445	35986.95
657.796	35897.69
658.147	35661.31
658.498	35740.85
658.849	35882.77
659.2	35841.64
659.551	35766.39
659.902	35848.65
660.253	35744.02
660.604	35834.86
660.955	35698.82
661.306	35861.3
661.656	35677.8
662.007	35695.66
662.358	35698.37
662.708	35784.24
663.059	35772.27
663.409	35554.19
663.76	35870.12
664.11	35714.64
664.461	35784.92
664.811	35694.08
665.161	35737.24
665.511	35589.9
665.862	35599.39
666.212	35782.21
666.562	35720.06
666.912	35674.42
667.262	35643.91
667.612	35645.26
667.962	35675.32
668.312	35610.01
668.662	35710.35
669.011	35506.51
669.361	35450.47
669.711	35613.4
670.06	35523.23
670.41	35376.8
670.76	35347.42
671.109	35519.39
671.459	35422.22
671.808	35383.58
672.157	35460.86
672.507	35294.99
672.856	35225.16
673.205	35422.9
673.554	35421.09
673.904	35260.64
674.253	35465.61
674.602	35393.74
674.951	34887.09
675.3	34710.6
675.649	35247.76
675.998	35215.67
676.346	35198.5
676.695	35246.18
677.044	35118.95
677.393	35219.06
677.741	35173.19
678.09	35123.92
678.438	35118.72
678.787	35006.18
679.135	35070.82
679.484	34938.62
679.832	35017.48
680.181	34843.02
680.529	34889.13
680.877	34847.77
681.225	34707.66
681.573	34838.5
681.922	34773.87
682.27	34616.59
682.618	34699.75
682.966	34501.34
683.314	34737.04
683.661	34491.17
684.009	34283.04
684.357	34377.5
684.705	34252.08
685.053	34332.3
685.4	34169.6
685.748	34021.13
686.095	33956.95
686.443	33909.26
686.79	33808.02
687.138	33940.45
687.485	33860.68
687.832	33717.86
688.18	33824.75
688.527	33700.91
688.874	33617.75
689.221	33485.09
689.568	33459.11
689.915	33385.89
690.262	33332.33
690.609	33243.74
690.956	33245.78
691.303	33151.77
691.65	33055.73
691.997	32966.01
692.344	32819.8
692.69	32832
693.037	32832.46
693.383	32584.78
693.73	32724.21
694.077	32624.55
694.423	32408.29
694.769	32430.88
695.116	32401.51
695.462	32248.74
695.808	32194.73
696.155	32223.88
696.501	32067.5
696.847	31935.53
697.193	31818.25
697.539	31872.93
697.885	31651.92
698.231	31610.12
698.577	31683.56
698.923	31502.55
699.269	31469.33
699.614	31209.45
699.96	31143.23
700.306	31206.74
700.651	31130.13
700.997	31027.76
701.342	30909.12
701.688	30873.64
702.033	30787.54
702.379	30665.73
702.724	30683.13
703.069	30680.2
703.415	30314.33
703.76	30442.91
704.105	30375.57
704.45	30275.01
704.795	30133.54
705.14	30153.88
705.485	30049.93
705.83	30044.05
706.175	29980.55
706.52	29955.92
706.865	29724.06
707.209	29873.89
707.554	29691.3
707.899	29674.12
708.243	29578.98
708.588	29488.59
708.932	29258.09
709.277	29347.12
709.621	29381.93
709.966	29130.18
710.31	29167.69
710.654	28826.91
710.998	28960.69
711.342	28966.12
711.687	28925.21
712.031	28787.82
712.375	28583.3
712.719	28661.04
713.063	28639.57
713.407	28679.34
713.75	28569.29
714.094	28594.38
714.438	28515.28
714.782	28345.34
715.125	28293.59
715.469	28219.92
715.812	28201.39
716.156	27975.41
716.499	28064.45
716.843	28078.68
717.186	27850.89
717.53	28054.28
717.873	28035.75
718.216	27971.57
718.559	27775.41
718.902	27550.79
719.246	27631.91
719.589	27622.88
719.932	27474.4
720.275	27419.04
720.617	27494.74
720.96	27377.91
721.303	27290
721.646	27370
721.989	27174.3
722.331	27282.55
722.674	27305.6
723.016	27306.95
723.359	27194.41
723.701	27186.5
724.044	27160.74
724.386	26804.37
724.729	27031.25
725.071	26817.92
725.413	26874.65
725.755	26860.18
726.097	26738.6
726.439	26734.09
726.782	26620.87
727.124	26704.93
727.465	26588.1
727.807	26616.12
728.149	26548.1
728.491	26520.08
728.833	26542.23
729.175	26473.75
729.516	26430.14
729.858	26266.98
730.199	26380.87
730.541	26359.63
730.882	26144.27
731.224	26224.49
731.565	25998.96
731.906	26167.32
732.248	25999.87
732.589	25972.75
732.93	25873.32
733.271	25821.79
733.612	25764.85
733.953	25932.75
734.294	25641.46
734.635	25826.76
734.976	25813.43
735.317	25573.21
735.658	25679.2
735.999	25637.39
736.339	25514.91
736.68	25597.17
737.021	25617.73
737.361	25435.14
737.702	25593.55
738.042	25516.49
738.383	25410.05
738.723	25548.13
739.063	25373.22
739.404	25347
739.744	25290.06
740.084	25280.56
740.424	25244.18
740.764	25231.3
741.104	25310.85
741.444	25026.79
741.784	24992.21
742.124	25103.85
742.464	25072.66
742.804	24956.05
743.143	24880.35
743.483	24932.78
743.823	24777.98
744.162	24786.79
744.502	24814.36
744.841	24719.45
745.181	24818.2
745.52	24677.19
745.86	24736.62
746.199	24637.64
746.538	24546.12
746.877	24579.79
747.216	24682.16
747.556	24448.04
747.895	24510.19
748.234	24361.27
748.573	24490.98
748.911	24386.12
749.25	24197.2
749.589	24204.89
749.928	24200.14
750.267	24213.93
750.605	24100.26
750.944	24005.8
751.283	24032.24
751.621	23970.32
751.96	23942.75
752.298	23786.59
752.636	23830.88
752.975	23703.43
753.313	23684.67
753.651	23743.2
753.989	23619.59
754.327	23680.61
754.666	23507.73
755.004	23475.87
755.342	23536.88
755.679	23514.28
756.017	23329.88
756.355	23376.66
756.693	23265.25
757.031	23257.11
757.368	23183.22
