Data from hue_32_FLMS001491_00024.txt Node
Date: Tue Feb 07 17:23:06 GMT 2017
User: dcchb
Spectrometer: FLMS00149
Trigger mode: 0
Integration Time (sec): 2.000000E-2
Scans to average: 10
Electric dark correction enabled: true
Nonlinearity correction enabled: false
Boxcar width: 0
XAxis mode: Wavelengths
Number of Pixels in Spectrum: 2048
>>>>>Begin Spectral Data<<<<<
341.393	-15.79
341.776	-15.79
342.16	-15.79
342.543	-43.59
342.927	-65.51
343.31	-89.01
343.693	-88.33
344.077	-71.83
344.46	-61.89
344.843	-48.33
345.226	-20.08
345.61	-32.29
345.993	-24.6
346.376	0.71
346.759	13.59
347.142	24.66
347.525	38.22
347.908	71.66
348.291	85
348.674	90.65
349.057	111.89
349.44	133.36
349.823	138.33
350.206	155.73
350.588	215.16
350.971	240.93
351.354	221.49
351.737	240.7
352.119	243.41
352.502	263.75
352.884	289.51
353.267	259
353.65	302.39
354.032	277.54
354.414	315.5
354.797	313.47
355.179	318.21
355.562	333.35
355.944	333.35
356.326	339.91
356.709	315.95
357.091	364.54
357.473	346.01
357.855	335.61
358.238	336.29
358.62	344.65
359.002	345.56
359.384	342.84
359.766	327.25
360.148	349.4
360.53	353.47
360.912	322.73
361.294	337.42
361.676	325.9
362.057	320.47
362.439	346.69
362.821	326.57
363.203	313.69
363.584	321.15
363.966	341.26
364.348	342.39
364.729	328.38
365.111	333.13
365.493	313.47
365.874	334.48
366.256	334.03
366.637	309.62
367.019	319.34
367.4	308.04
367.781	309.62
368.163	312.34
368.544	309.62
368.925	322.73
369.306	313.47
369.688	318.66
370.069	318.44
370.45	308.95
370.831	332.67
371.212	330.42
371.593	295.84
371.974	299.68
372.355	326.35
372.736	316.86
373.117	303.52
373.498	333.35
373.879	327.48
374.26	314.14
374.641	321.6
375.021	322.73
375.402	306.46
375.783	320.02
376.163	340.58
376.544	326.8
376.925	332.67
377.305	338.78
377.686	309.62
378.066	334.71
378.447	351.66
378.827	336.06
379.208	350.98
379.588	336.29
379.968	337.87
380.349	343.75
380.729	341.94
381.109	348.49
381.489	328.16
381.87	325.9
382.25	362.05
382.63	345.78
383.01	344.65
383.39	359.79
383.77	338.32
384.15	352.11
384.53	373.8
384.91	341.49
385.29	346.91
385.67	341.04
386.049	373.58
386.429	325.44
386.809	362.05
387.189	364.76
387.568	357.76
387.948	340.13
388.328	335.16
388.707	364.54
389.087	356.18
389.466	354.37
389.846	391.43
390.225	377.87
390.605	373.13
390.984	375.39
391.363	366.57
391.743	363.63
392.122	374.26
392.501	370.64
392.881	396.18
393.26	386.68
393.639	372.45
394.018	378.78
394.397	397.98
394.776	377.87
395.155	381.04
395.534	381.94
395.913	392.33
396.292	395.95
396.671	393.69
397.05	407.48
397.429	378.78
397.808	374.71
398.186	400.92
398.565	400.24
398.944	377.42
399.323	403.63
399.701	401.6
400.08	394.37
400.458	393.24
400.837	383.07
401.215	410.64
401.594	411.32
401.972	405.22
402.351	425.78
402.729	405.67
403.107	425.1
403.486	416.97
403.864	418.1
404.242	443.18
404.62	413.8
404.999	411.54
405.377	430.75
405.755	436.85
406.133	429.17
406.511	422.16
406.889	423.52
407.267	432.79
407.645	433.24
408.023	437.76
408.401	453.35
408.779	447.7
409.156	452.67
409.534	443.18
409.912	465.78
410.29	457.19
410.667	467.81
411.045	487.25
411.422	476.17
411.8	472.78
412.178	488.15
412.555	487.02
412.933	472.56
413.31	477.76
413.687	475.5
414.065	451.32
414.442	501.48
414.819	501.48
415.197	478.21
415.574	498.32
415.951	521.14
416.328	513.91
416.705	479.56
417.082	528.6
417.46	511.43
417.837	516.62
418.214	515.49
418.591	519.56
418.967	524.76
419.344	542.39
419.721	537.19
420.098	553.46
420.475	543.06
420.852	540.8
421.228	543.74
421.605	538.09
421.982	541.93
422.358	540.8
422.735	549.17
423.111	564.99
423.488	545.55
423.864	574.25
424.241	577.64
424.617	588.71
424.994	566.79
425.37	574.48
425.746	570.86
426.123	597.3
426.499	568.83
426.875	595.04
427.251	598.66
427.627	617.41
428.003	589.62
428.379	611.54
428.756	608.37
429.132	627.13
429.507	615.61
429.883	630.29
430.259	649.05
430.635	649.05
431.011	658.54
431.387	684.98
431.763	670.75
432.138	663.06
432.514	681.37
432.89	680.69
433.265	673.91
433.641	700.8
434.016	697.41
434.392	695.6
434.767	688.82
435.143	700.57
435.518	706.22
435.894	729.95
436.269	733.79
436.644	738.99
437.02	755.49
437.395	730.63
437.77	760.91
438.145	754.81
438.52	772.44
438.895	769.05
439.271	778.76
439.646	763.4
440.021	748.71
440.395	795.71
440.77	790.74
441.145	797.07
441.52	814.7
441.895	826
442.27	802.94
442.645	836.39
443.019	850.63
443.394	812.89
443.769	841.59
444.143	808.82
444.518	831.64
444.892	810.4
445.267	851.53
445.641	821.93
446.016	858.76
446.39	864.19
446.764	852.44
447.139	867.12
447.513	867.58
447.887	846.33
448.262	875.26
448.636	897.18
449.01	884.07
449.384	876.62
449.758	896.95
450.132	910.96
450.506	908.7
450.88	909.16
451.254	893.11
451.628	915.94
452.002	940.12
452.376	934.69
452.75	943.28
453.123	936.27
453.497	980.79
453.871	960.45
454.244	998.65
454.618	995.93
454.992	992.09
455.365	1015.14
455.739	1060.79
456.112	1025.54
456.486	1027.12
456.859	1037.74
457.232	1091.52
457.606	1079.1
457.979	1068.47
458.352	1114.12
458.725	1083.62
459.099	1123.84
459.472	1131.75
459.845	1118.87
460.218	1118.64
460.591	1141.92
460.964	1177.85
461.337	1211.75
461.71	1219.21
462.083	1229.6
462.456	1217.4
462.829	1237.06
463.201	1241.35
463.574	1251.07
463.947	1278.19
464.32	1291.97
464.692	1287.23
465.065	1326.77
465.438	1305.08
465.81	1352.08
466.183	1385.08
466.555	1405.87
466.928	1395.47
467.3	1383.95
467.672	1407.22
468.045	1458.75
468.417	1479.31
468.789	1482.93
469.161	1513.66
469.534	1530.61
469.906	1566.77
470.278	1585.98
470.65	1590.95
471.022	1610.38
471.394	1689.7
471.766	1657.84
472.138	1694.67
472.51	1721.79
472.882	1743.49
473.253	1807.44
473.625	1842.01
473.997	1878.85
474.369	1884.05
474.74	1898.51
475.112	1986.64
475.484	1980.54
475.855	2063.93
476.227	2038.17
476.598	2115.9
476.97	2162.23
477.341	2196.58
477.713	2239.97
478.084	2261.21
478.455	2327.88
478.827	2398.16
479.198	2461.43
479.569	2491.26
479.94	2567.87
480.311	2586.63
480.682	2673.63
481.053	2704.14
481.424	2818.03
481.795	2856.68
482.166	2907.52
482.537	2969.44
482.908	3046.95
483.279	3131.7
483.65	3223.45
484.021	3246.72
484.391	3334.86
484.762	3361.3
485.133	3462.54
485.503	3500.05
485.874	3647.39
486.244	3671.12
486.615	3809.65
486.985	3848.29
487.356	4011.45
487.726	3986.82
488.097	4158.56
488.467	4147.94
488.837	4292.34
489.207	4368.27
489.578	4429.06
489.948	4526.24
490.318	4611.21
490.688	4678.55
491.058	4747.25
491.428	4809.17
491.798	4937.98
492.168	5064.98
492.538	5132.55
492.908	5203.73
493.278	5304.75
493.648	5335.03
494.017	5438.76
494.387	5528.47
494.757	5592.88
495.126	5749.03
495.496	5711.74
495.866	5801.68
496.235	5870.16
496.605	5972.98
496.974	6026.76
497.344	6141.56
497.713	6210.71
498.082	6177.04
498.452	6349.69
498.821	6376.58
499.19	6469.69
499.559	6511.72
499.928	6584.04
500.298	6612.06
500.667	6699.51
501.036	6753.07
501.405	6878.04
501.774	6891.82
502.143	6966.85
502.512	6995.78
502.88	7106.73
503.249	7105.38
503.618	7211.59
503.987	7260.63
504.356	7292.27
504.724	7336.11
505.093	7431.47
505.462	7405.94
505.83	7567.06
506.199	7614.29
506.567	7740.84
506.936	7708.98
507.304	7754.85
507.672	7844.34
508.041	7883.89
508.409	7973.38
508.777	8027.84
509.145	8114.84
509.514	8136.76
509.882	8253.82
510.25	8167.72
510.618	8221.28
510.986	8289.53
511.354	8370.88
511.722	8447.72
512.09	8546.7
512.458	8568.39
512.826	8628.05
513.193	8605.23
513.561	8662.4
513.929	8790.53
514.297	8804.32
514.664	8860.59
515.032	8969.51
515.4	8963.18
515.767	8973.13
516.135	8991.66
516.502	9042.05
516.869	9153.01
517.237	9171.54
517.604	9112.11
517.972	9220.35
518.339	9277.3
518.706	9331.53
519.073	9335.15
519.44	9471.87
519.808	9548.03
520.175	9511.87
520.542	9593.22
520.909	9698.53
521.276	9679.77
521.643	9813.33
522.009	9790.51
522.376	9834.35
522.743	9955.92
523.11	10008.58
523.477	10129.93
523.843	10117.05
524.21	10239.08
524.577	10270.94
524.943	10316.37
525.31	10377.83
525.676	10465.52
526.043	10531.95
526.409	10575.34
526.776	10691.72
527.142	10672.97
527.508	10694.44
527.874	10865.05
528.241	10896.69
528.607	10880.19
528.973	11040.42
529.339	11028.89
529.705	11086.06
530.071	11212.39
530.437	11195.89
530.803	11314.98
531.169	11409.45
531.535	11382.55
531.901	11372.38
532.267	11519.5
532.632	11561.53
532.998	11507.75
533.364	11702.09
533.73	11677.46
534.095	11763.11
534.461	11830.45
534.826	11859.15
535.192	11981.41
535.557	12003.33
535.923	12021.41
536.288	12027.96
536.653	12060.95
537.019	12123.33
537.384	12179.14
537.749	12309.76
538.114	12260.5
538.479	12236.54
538.845	12385.24
539.21	12399.02
539.575	12427.05
539.94	12467.27
540.305	12621.17
540.67	12534.61
541.034	12679.47
541.399	12654.84
541.764	12783.42
542.129	12738.45
542.494	12795.85
542.858	12880.37
543.223	12808.51
543.587	13003.53
543.952	13006.92
544.316	13039.46
544.681	13037.88
545.045	13138.67
545.41	13224.99
545.774	13250.75
546.138	13281.49
546.503	13335.95
546.867	13356.74
547.231	13561.71
547.595	13584.3
547.959	13629.05
548.324	13627.24
548.688	13617.98
549.052	13704.53
549.416	13777.75
549.779	13729.38
550.143	13709.05
550.507	13853.9
550.871	13917.4
551.235	13916.27
551.599	14035.82
551.962	14118.3
552.326	14078.98
552.689	14234.46
553.053	14236.04
553.417	14238.75
553.78	14380.89
554.143	14409.37
554.507	14392.42
554.87	14404.17
555.234	14552.19
555.597	14497.73
555.96	14543.37
556.323	14650.72
556.686	14705.63
557.05	14691.39
557.413	14810.26
557.776	14780.2
558.139	14899.75
558.502	14958.73
558.865	14892.07
559.228	15088.45
559.59	15121.44
559.953	15161.21
560.316	15257.71
560.679	15236.24
561.041	15380.41
561.404	15438.72
561.767	15466.51
562.129	15429.23
562.492	15579.51
562.854	15587.87
563.217	15596.68
563.579	15668.09
563.941	15741.76
564.304	15830.8
564.666	15890.46
565.028	15948.08
565.39	15979.5
565.753	16065.82
566.115	16113.28
566.477	16254.52
566.839	16165.03
567.201	16274.4
567.563	16396.66
567.925	16540.61
568.287	16479.14
568.648	16490.67
569.01	16621.74
569.372	16806.82
569.734	16677.56
570.095	16826.03
570.457	16906.25
570.819	16800.94
571.18	16918.45
571.542	17039.81
571.903	16986.25
572.265	17114.83
572.626	17293.81
572.987	17182.4
573.349	17396.86
573.71	17551.43
574.071	17553.92
574.432	17610.86
574.794	17835.49
575.155	17815.61
575.516	17847.69
575.877	18042.27
576.238	18126.33
576.599	18171.98
576.96	18293.33
577.32	18425.53
577.681	18562.7
578.042	18674.57
578.403	18882.02
578.763	18908.23
579.124	19030.94
579.485	19187.32
579.845	19447.88
580.206	19450.82
580.566	19685.16
580.927	19757.47
581.287	20110.01
581.648	20148.88
582.008	20364.46
582.368	20418.47
582.728	20638.58
583.089	20839.93
583.449	21011.68
583.809	21183.65
584.169	21380.71
584.529	21567.37
584.889	22015.27
585.249	21942.28
585.609	22220.46
585.969	22450.51
586.329	22669.04
586.688	22888.01
587.048	23154.22
587.408	23348.57
587.768	23562.12
588.127	23779.97
588.487	24020.64
588.846	24363
589.206	24491.14
589.565	24670.34
589.925	25144.9
590.284	25259.48
590.643	25465.12
591.003	25793.93
591.362	26083.41
591.721	26418.09
592.08	26620.35
592.44	26907.8
592.799	27199.09
593.158	27298.75
593.517	27708.45
593.876	28033.87
594.235	28122
594.593	28429.79
594.952	28752.94
595.311	28886.05
595.67	29294.17
596.029	29706.82
596.387	29896.42
596.746	30145.45
597.104	30306.58
597.463	30568.72
597.822	30953.11
598.18	30982.49
598.538	31269.26
598.897	31635.58
599.255	31637.84
599.613	32330.03
599.972	32347.65
600.33	32663.35
600.688	32734.31
601.046	33059.27
601.404	33265.14
601.762	33481.41
602.12	33901.51
602.478	34063.99
602.836	34196.87
603.194	34248.62
603.552	34463.75
603.91	34606.12
604.268	35092.44
604.625	35108.26
604.983	35371.98
605.341	35454.46
605.698	35838.86
606.056	36020.78
606.413	36100.1
606.771	36496.47
607.128	36638.39
607.485	36638.84
607.843	36786.86
608.2	37213.74
608.557	37315.21
608.914	37456.67
609.272	37775.31
609.629	37942.31
609.986	38126.94
610.343	38115.64
610.7	38683.08
611.057	38639.69
611.414	38802.62
611.771	38998.32
612.127	39115.61
612.484	39168.94
612.841	39432.66
613.198	39483.51
613.554	39629.72
613.911	39886.44
614.267	40064.96
614.624	40014.12
614.98	40230.83
615.337	40369.81
615.693	40471.28
616.05	40511.73
616.406	40901.55
616.762	40752.63
617.118	40832.85
617.475	41090.47
617.831	41106.07
618.187	41375.89
618.543	41383.57
618.899	41711.47
619.255	41688.65
619.611	41701.08
619.967	41827.4
620.323	42139.94
620.678	42102.2
621.034	42063.78
621.39	42112.37
621.746	42118.02
622.101	42698.11
622.457	42477.1
622.812	42631.45
623.168	42727.49
623.523	42743.76
623.879	43003.64
624.234	42821.95
624.589	42896.08
624.945	43095.39
625.3	43019.24
625.655	43135.84
626.01	43226.91
626.365	43224.2
626.72	43210.64
627.075	43266.46
627.43	43318.21
627.785	43174.49
628.14	43369.74
628.495	43486.79
628.85	43497.42
629.205	43383.07
629.559	43710.74
629.914	43386.46
630.269	43467.13
630.623	43431.43
630.978	43487.47
631.332	43673.68
631.687	43719.56
632.041	43503.29
632.396	43522.73
632.75	43525.44
633.104	43610.18
633.459	43409.06
633.813	43508.71
634.167	43684.3
634.521	43550.52
634.875	43665.32
635.229	43573.8
635.583	43477.98
635.937	43569.96
636.291	43557.08
636.645	43569.96
636.999	43409.51
637.352	43706.9
637.706	43449.28
638.06	43631.2
638.413	43513.23
638.767	43374.71
639.121	43571.99
639.474	43186.24
639.828	43396.18
640.181	43414.71
640.534	43451.99
640.888	43292
641.241	43124.32
641.594	43200.93
641.947	43336.52
642.301	43313.01
642.654	43258.55
643.007	43315.5
643.36	43198.89
643.713	43113.7
644.066	43389.4
644.419	42997.77
644.771	42808.62
645.124	42582.86
645.477	42471.91
645.83	42290.44
646.182	42046.83
646.535	42022.2
646.888	42160.05
647.24	41857.91
647.593	42089.32
647.945	41896.1
648.298	41883.45
648.65	41824.01
649.002	41764.35
649.355	41800.51
649.707	41848.87
650.059	41980.39
650.411	42569.3
650.763	42500.15
651.115	42758.68
651.467	42680.49
651.819	42679.58
652.171	42638.23
652.523	42667.61
652.875	42586.93
653.227	42486.14
653.578	42765.01
653.93	42697.44
654.282	42442.98
654.633	42429.2
654.985	42665.8
655.337	42600.49
655.688	42551.9
656.039	42665.12
656.391	42439.82
656.742	42442.75
657.094	42494.73
657.445	42621.05
657.796	42514.39
658.147	42364.34
658.498	42472.81
658.849	42330.89
659.2	42389.2
659.551	42220.61
659.902	42379.93
660.253	42365.02
660.604	42356.2
660.955	42069.88
661.306	42267.84
661.656	42349.65
662.007	42219.48
662.358	42304.68
662.708	42264.91
663.059	42250.22
663.409	41979.94
663.76	42347.39
664.11	42285.02
664.461	42366.37
664.811	42306.94
665.161	42194.85
665.511	42200.5
665.862	42132.25
666.212	42404.56
666.562	42237.79
666.912	42197.56
667.262	42245.02
667.612	42156.21
667.962	42260.61
668.312	42083.22
668.662	42336.77
669.011	42108.07
669.361	42296.32
669.711	42187.17
670.06	42113.27
670.41	42037.79
670.76	42024.91
671.109	42185.13
671.459	42123.67
671.808	41998.25
672.157	42110.33
672.507	41772.49
672.856	41843
673.205	41860.85
673.554	42107.85
673.904	41935.87
674.253	42101.97
674.602	41935.2
674.951	41394.87
675.3	41258.15
675.649	41970.9
675.998	41776.78
676.346	41787.4
676.695	42066.27
677.044	41660.85
677.393	41789.89
677.741	41837.57
678.09	41592.38
678.438	41724.35
678.787	41649.33
679.135	41657.46
679.484	41356.91
679.832	41444.81
680.181	41387.19
680.529	41458.83
680.877	41258.38
681.225	41365.95
681.573	41555.09
681.922	41216.12
682.27	41220.87
682.618	41184.71
682.966	40984.49
683.314	41125.5
683.661	41005.73
684.009	40815
684.357	40823.59
684.705	40685.96
685.053	40810.71
685.4	40626.08
685.748	40421.11
686.095	40597.15
686.443	40418.85
686.79	40389.7
687.138	40457.5
687.485	40370.94
687.832	40322.81
688.18	40258.86
688.527	40075.81
688.874	40078.75
689.221	39849.6
689.568	39876.04
689.915	39861.8
690.262	39717.85
690.609	39528.03
690.956	39427.47
691.303	39450.52
691.65	39216.85
691.997	39296.4
692.344	39092.33
692.69	39057.08
693.037	39109.73
693.383	38841.72
693.73	38947.7
694.077	38647.6
694.423	38855.5
694.769	38566.47
695.116	38494.16
695.462	38532.57
695.808	38452.8
696.155	38498.68
696.501	38114.05
696.847	38144.11
697.193	37870.44
697.539	38092.36
697.885	37947.51
698.231	37692.37
698.577	37714.97
698.923	37708.87
699.269	37500.51
699.614	37391.36
699.96	37243.79
700.306	37208.09
700.651	37216.9
700.997	37085.15
701.342	36913.63
701.688	36911.6
702.033	36785.95
702.379	36750.7
702.724	36716.8
703.069	36656.69
703.415	36217.38
703.76	36331.95
704.105	36218.06
704.45	36284.95
704.795	36023.71
705.14	35951.4
705.485	35790.95
705.83	35761.57
706.175	35744.85
706.52	35650.84
706.865	35587.34
707.209	35420.34
707.554	35400.45
707.899	35359.32
708.243	35157.3
708.588	35242.72
708.932	34979.9
709.277	34989.84
709.621	35098.99
709.966	34800.47
710.31	34942.61
710.654	34606.8
710.998	34651.55
711.342	34670.3
711.687	34644.54
712.031	34564.09
712.375	34330.2
712.719	34413.81
713.063	34278.22
713.407	34420.59
713.75	34115.06
714.094	34092.47
714.438	34084.1
714.782	34093.37
715.125	33856.99
715.469	33949.42
715.812	33740.84
716.156	33702.42
716.499	33653.83
716.843	33578.35
717.186	33322.32
717.53	33550.56
717.873	33606.83
718.216	33397.79
718.559	33145.82
718.902	33072.15
719.246	33215.88
719.589	33068.54
719.932	32886.85
720.275	32913.51
720.617	32871.03
720.96	32856.79
721.303	32857.7
721.646	32853.18
721.989	32643.24
722.331	32706.74
722.674	32614.09
723.016	32618.15
723.359	32653.86
723.701	32587.87
724.044	32413.41
724.386	32184.94
724.729	32474.88
725.071	32289.35
725.413	32194.66
725.755	32130.93
726.097	32057.49
726.439	31891.85
726.782	32031.28
727.124	32172.06
727.465	31835.35
727.807	31815.91
728.149	31729.59
728.491	31835.12
728.833	31777.27
729.175	31621.8
729.516	31619.99
729.858	31471.52
730.199	31516.71
730.541	31489.37
730.882	31473.32
731.224	31550.16
731.565	31263.61
731.906	31406.66
732.248	31357.62
732.589	31132.77
732.93	31106.55
733.271	31156.95
733.612	31067.91
733.953	31087.8
734.294	31046.44
734.635	30962.38
734.976	30987.91
735.317	30870.18
735.658	30814.81
735.999	30877.86
736.339	30700.69
736.68	30752.21
737.021	30620.92
737.361	30588.15
737.702	30706.11
738.042	30587.47
738.383	30562.61
738.723	30448.72
739.063	30508.6
739.404	30523.07
739.744	30430.19
740.084	30361.26
740.424	30290.08
740.764	30258.89
741.104	30356.74
741.444	30108.16
741.784	29957.21
742.124	30109.52
742.464	30080.37
742.804	30120.14
743.143	29987.04
743.483	29912.46
743.823	29698.91
744.162	29775.97
744.502	29803.09
744.841	29699.81
745.181	29733.71
745.52	29641.06
745.86	29691
746.199	29661.62
746.538	29598.8
746.877	29549.99
747.216	29511.34
747.556	29546.14
747.895	29570.78
748.234	29414.17
748.573	29278.13
748.911	29353.38
749.25	29338.92
749.589	29146.61
749.928	29223.67
750.267	29291.91
750.605	29064.35
750.944	29060.51
751.283	28942.77
751.621	29061.19
751.96	28855.09
752.298	28801.3
752.636	28929.89
752.975	28649.22
753.313	28656.9
753.651	28676.79
753.989	28499.62
754.327	28489
754.666	28284.03
755.004	28439.96
755.342	28305.95
755.679	28317.25
756.017	28199.29
756.355	28314.54
756.693	28165.62
757.031	28097.14
757.368	28037.94
