Data from hue_190_FLMS001491_00084.txt Node
Date: Tue Feb 07 16:45:54 GMT 2017
User: dcchb
Spectrometer: FLMS00149
Trigger mode: 0
Integration Time (sec): 2.000000E-2
Scans to average: 10
Electric dark correction enabled: true
Nonlinearity correction enabled: false
Boxcar width: 0
XAxis mode: Wavelengths
Number of Pixels in Spectrum: 2048
>>>>>Begin Spectral Data<<<<<
341.393	-15.71
341.776	-15.71
342.16	-15.71
342.543	-63.61
342.927	-65.2
343.31	-62.03
343.693	-66.55
344.077	-62.48
344.46	-61.58
344.843	-65.65
345.226	-35.14
345.61	-40.56
345.993	3.28
346.376	-10.28
346.759	9.38
347.142	7.34
347.525	45.08
347.908	74.69
348.291	69.49
348.674	73.56
349.057	121.47
349.44	122.6
349.823	152.43
350.206	162.14
350.588	189.49
350.971	198.07
351.354	210.95
351.737	242.59
352.119	261.58
352.502	248.69
352.884	265.42
353.267	282.59
353.65	292.31
354.032	296.38
354.414	299.09
354.797	305.64
355.179	319.88
355.562	320.56
355.944	328.01
356.326	326.66
356.709	347.45
357.091	336.38
357.473	351.06
357.855	342.48
358.238	352.42
358.62	344.96
359.002	327.79
359.384	337.73
359.766	352.65
360.148	335.7
360.53	345.19
360.912	324.85
361.294	344.74
361.676	336.15
362.057	332.53
362.439	328.47
362.821	324.4
363.203	324.4
363.584	321.46
363.966	307.68
364.348	320.78
364.729	317.84
365.111	322.14
365.493	305.87
365.874	316.49
366.256	307
366.637	305.87
367.019	319.43
367.4	312.65
367.781	322.59
368.163	322.36
368.544	297.73
368.925	320.78
369.306	337.05
369.688	320.1
370.069	313.78
370.45	323.72
370.831	303.38
371.212	311.07
371.593	293.89
371.974	303.16
372.355	306.09
372.736	329.14
373.117	314.68
373.498	299.77
373.879	312.87
374.26	326.88
374.641	307.68
375.021	321.91
375.402	297.73
375.783	330.73
376.163	314.23
376.544	338.41
376.925	311.07
377.305	328.69
377.686	323.04
378.066	314.46
378.447	318.52
378.827	328.92
379.208	306.55
379.588	349.03
379.968	333.66
380.349	340.67
380.729	338.18
381.109	343.61
381.489	355.58
381.87	324.17
382.25	343.61
382.63	333.21
383.01	341.57
383.39	327.34
383.77	324.85
384.15	339.09
384.53	332.76
384.91	342.7
385.29	370.5
385.67	335.92
386.049	356.26
386.429	354.23
386.809	366.43
387.189	356.71
387.568	336.15
387.948	372.76
388.328	340.67
388.707	347
389.087	366.66
389.466	359.88
389.846	362.14
390.225	364.85
390.605	379.76
390.984	384.96
391.363	357.84
391.743	364.85
392.122	372.76
392.501	376.37
392.881	381.57
393.26	362.36
393.639	361.46
394.018	396.03
394.397	374.34
394.776	389.71
395.155	414.79
395.534	387
395.913	414.57
396.292	394.68
396.671	369.59
397.05	388.35
397.429	405.3
397.808	398.97
398.186	407.56
398.565	406.88
398.944	415.02
399.323	408.46
399.701	397.16
400.08	429.03
400.458	420.44
400.837	403.27
401.215	398.29
401.594	419.99
401.972	403.72
402.351	419.54
402.729	432.87
403.107	429.71
403.486	432.87
403.864	419.54
404.242	435.81
404.62	445.07
404.999	434.23
405.377	423.15
405.755	459.08
406.133	460.67
406.511	457.73
406.889	460.44
407.267	453.21
407.645	482.81
408.023	472.64
408.401	466.99
408.779	496.15
409.156	487.56
409.534	495.92
409.912	509.03
410.29	511.29
410.667	505.41
411.045	516.94
411.422	536.37
411.8	553.09
412.178	558.97
412.555	550.38
412.933	553.77
413.31	566.65
413.687	589.48
414.065	567.33
414.442	591.96
414.819	607.78
415.197	589.93
415.574	610.04
415.951	604.62
416.328	640.55
416.705	645.75
417.082	629.93
417.46	645.97
417.837	653.2
418.214	661.11
418.591	678.74
418.967	691.17
419.344	701.79
419.721	709.92
420.098	693.2
420.475	721
420.852	728.68
421.228	770.94
421.605	763.03
421.982	770.04
422.358	768.45
422.735	796.48
423.111	789.92
423.488	816.81
423.864	836.7
424.241	841.22
424.617	854.33
424.994	856.59
425.37	885.97
425.746	891.84
426.123	903.37
426.499	921.67
426.875	933.65
427.251	942.01
427.627	971.84
428.003	965.06
428.379	978.84
428.756	975.68
429.132	1017.26
429.507	1011.61
429.883	1015.68
430.259	1040.31
430.635	1056.58
431.011	1039.63
431.387	1095.23
431.763	1118.28
432.138	1083.93
432.514	1133.87
432.89	1141.33
433.265	1165.73
433.641	1184.26
434.016	1184.26
434.392	1209.8
434.767	1239.4
435.143	1258.61
435.518	1259.51
435.894	1290.02
436.269	1311.04
436.644	1355.78
437.02	1358.5
437.395	1393.75
437.77	1413.18
438.145	1418.61
438.52	1440.98
438.895	1437.59
439.271	1469.9
439.646	1517.14
440.021	1519.4
440.395	1558.04
440.77	1546.06
441.145	1591.94
441.52	1622.22
441.895	1614.76
442.27	1668.77
442.645	1634.65
443.019	1690.01
443.394	1686.62
443.769	1707.19
444.143	1731.59
444.518	1765.94
444.892	1727.07
445.267	1753.06
445.641	1804.36
446.016	1813.4
446.39	1813.85
446.764	1827.18
447.139	1838.71
447.513	1838.48
447.887	1881.87
448.262	1887.52
448.636	1887.52
449.01	1930.91
449.384	1943.34
449.758	2006.84
450.132	2032.15
450.506	2015.43
450.88	2031.47
451.254	2045.03
451.628	2024.69
452.002	2082.09
452.376	2080.06
452.75	2134.97
453.123	2146.05
453.497	2127.29
453.871	2195.76
454.244	2213.39
454.618	2267.85
454.992	2240.28
455.365	2290.67
455.739	2351.01
456.112	2370.67
456.486	2386.49
456.859	2391.24
457.232	2449.54
457.606	2459.48
457.979	2500.39
458.352	2522.98
458.725	2544.45
459.099	2591.01
459.472	2644.34
459.845	2663.32
460.218	2704.67
460.591	2722.53
460.964	2732.7
461.337	2780.38
461.71	2813.37
462.083	2903.77
462.456	2893.14
462.829	2891.34
463.201	2954.39
463.574	2981.73
463.947	2994.38
464.32	3074.16
464.692	3108.28
465.065	3177.88
465.438	3177.2
465.81	3233.25
466.183	3268.05
466.555	3339.01
466.928	3388.05
467.3	3370.65
467.672	3390.53
468.045	3535.39
468.417	3528.83
468.789	3557.99
469.161	3602.5
469.534	3633.69
469.906	3717.98
470.278	3772.44
470.65	3808.15
471.022	3859.67
471.394	3994.58
471.766	4026.67
472.138	4064.64
472.51	4152.77
472.882	4208.82
473.253	4268.93
473.625	4332.65
473.997	4456.27
474.369	4430.05
474.74	4505.76
475.112	4615.36
475.484	4696.94
475.855	4757.5
476.227	4797.27
476.598	4904.84
476.97	4993.2
477.341	5098.96
477.713	5127.21
478.084	5172.41
478.455	5377.15
478.827	5428.67
479.198	5552.28
479.569	5512.96
479.94	5679.29
480.311	5794.54
480.682	5872.05
481.053	6046.51
481.424	6131.93
481.795	6182.55
482.166	6279.95
482.537	6420.51
482.908	6512.48
483.279	6572.6
483.65	6723.78
484.021	6770.1
484.391	6929.87
484.762	6945.47
485.133	7032.92
485.503	7157.21
485.874	7309.3
486.244	7396.3
486.615	7511.55
486.985	7630.65
487.356	7765.11
487.726	7795.84
488.097	7971.2
488.467	8007.13
488.837	8152.44
489.207	8221.14
489.578	8377.97
489.948	8400.34
490.318	8580
490.688	8607.12
491.058	8717.17
491.428	8792.88
491.798	8845.98
492.168	9097.73
492.538	9111.06
492.908	9231.28
493.278	9302.24
493.648	9348.12
494.017	9493.2
494.387	9501.78
494.757	9531.16
495.126	9667.2
495.496	9712.85
495.866	9794.21
496.235	9771.38
496.605	10014.09
496.974	9980.87
497.344	10036.01
497.713	10067.42
498.082	10130.24
498.452	10195.55
498.821	10245.27
499.19	10274.65
499.559	10387.18
499.928	10372.95
500.298	10476.22
500.667	10494.75
501.036	10556.9
501.405	10612.04
501.774	10595.31
502.143	10628.76
502.512	10709.66
502.88	10683.67
503.249	10733.84
503.618	10779.04
503.987	10856.78
504.356	10917.57
504.724	10976.77
505.093	10899.71
505.462	10989.88
505.83	11062.87
506.199	11100.61
506.567	11201.63
506.936	11147.62
507.304	11278.23
507.672	11279.36
508.041	11244.79
508.409	11364.79
508.777	11390.55
509.145	11455.63
509.514	11411.11
509.882	11416.08
510.25	11422.64
510.618	11444.33
510.986	11517.32
511.354	11539.92
511.722	11559.81
512.09	11645.91
512.458	11592.8
512.826	11712.57
513.193	11692.46
513.561	11662.63
513.929	11739.24
514.297	11816.07
514.664	11800.71
515.032	11774.49
515.4	11851.1
515.767	11878.22
516.135	11807.71
516.502	11766.36
516.869	11940.14
517.237	11895.62
517.604	11869.41
517.972	12004.09
518.339	11931.55
518.706	11892.91
519.073	11967.71
519.44	12026.24
519.808	12089.51
520.175	11963.87
520.542	12076.63
520.909	12157.08
521.276	12048.61
521.643	12133.81
522.009	12106.01
522.376	12126.12
522.743	12133.35
523.11	12172.45
523.477	12228.27
523.843	12231.88
524.21	12294.7
524.577	12265.33
524.943	12279.56
525.31	12304.65
525.676	12362.73
526.043	12316.85
526.409	12278.43
526.776	12389.39
527.142	12343.52
527.508	12325.44
527.874	12363.63
528.241	12330.41
528.607	12343.97
528.973	12344.42
529.339	12319.56
529.705	12333.57
530.071	12296.29
530.437	12339.45
530.803	12312.11
531.169	12318.43
531.535	12189.17
531.901	12177.87
532.267	12264.42
532.632	12210.41
532.998	12116.63
533.364	12163.86
533.73	12076.86
534.095	12094.48
534.461	12081.6
534.826	12103.75
535.192	12049.51
535.557	12049.06
535.923	11938.78
536.288	11894.04
536.653	11870.08
537.019	11774.94
537.384	11827.15
537.749	11793.25
538.114	11739.24
538.479	11659.02
538.845	11661.05
539.21	11562.75
539.575	11514.61
539.94	11477.33
540.305	11477.1
540.67	11361.62
541.034	11449.98
541.399	11436.42
541.764	11360.04
542.129	11293.83
542.494	11211.12
542.858	11146.71
543.223	11161.18
543.587	11121.18
543.952	11099.03
544.316	11017.22
544.681	10938.13
545.045	10981.75
545.41	10936.77
545.774	10888.87
546.138	10788.08
546.503	10777.68
546.867	10670.34
547.231	10716.89
547.595	10650
547.959	10606.61
548.324	10498.59
548.688	10528.88
549.052	10450.69
549.416	10404.81
549.779	10397.81
550.143	10328.65
550.507	10309.22
550.871	10281.42
551.235	10217.02
551.599	10227.19
551.962	10221.09
552.326	10139.28
552.689	10120.98
553.053	10066.97
553.417	10036.46
553.78	10059.51
554.143	9881.66
554.507	9945.61
554.87	9861.77
555.234	9976.57
555.597	9797.6
555.96	9781.55
556.323	9809.57
556.686	9678.5
557.05	9784.71
557.413	9758.73
557.776	9679.41
558.139	9664.94
558.502	9619.97
558.865	9630.82
559.228	9672.63
559.59	9648.45
559.953	9591.5
560.316	9598.5
560.679	9629.24
561.041	9592.18
561.404	9580.2
561.767	9582.23
562.129	9475.12
562.492	9614.32
562.854	9538.17
563.217	9504.95
563.579	9486.19
563.941	9502.01
564.304	9501.11
564.666	9544.49
565.028	9515.79
565.39	9481.67
565.753	9538.39
566.115	9528.9
566.477	9489.13
566.839	9586.53
567.201	9565.96
567.563	9538.39
567.925	9583.14
568.287	9532.97
568.648	9578.39
569.01	9581.1
569.372	9603.25
569.734	9511.73
570.095	9511.28
570.457	9568.45
570.819	9592.86
571.18	9532.97
571.542	9576.13
571.903	9589.47
572.265	9585.17
572.626	9625.17
572.987	9563.48
573.349	9499.98
573.71	9563.93
574.071	9582.23
574.432	9558.51
574.794	9592.86
575.155	9571.39
575.516	9565.96
575.877	9551.27
576.238	9542.46
576.599	9625.85
576.96	9535.46
577.32	9568.45
577.681	9612.74
578.042	9600.54
578.403	9573.65
578.763	9535
579.124	9565.06
579.485	9571.84
579.845	9553.08
580.206	9505.63
580.566	9544.49
580.927	9544.95
581.287	9660.65
581.648	9519.18
582.008	9617.71
582.368	9563.93
582.728	9496.81
583.089	9533.42
583.449	9466.3
583.809	9546.53
584.169	9533.42
584.529	9449.58
584.889	9579.07
585.249	9479.86
585.609	9416.81
585.969	9459.75
586.329	9435.12
586.688	9409.58
587.048	9393.99
587.408	9429.02
587.768	9466.98
588.127	9390.83
588.487	9413.88
588.846	9453.42
589.206	9377.04
589.565	9355.35
589.925	9430.83
590.284	9285.74
590.643	9390.83
591.003	9354.67
591.362	9386.53
591.721	9342.24
592.08	9358.51
592.44	9429.02
592.799	9353.54
593.158	9414.78
593.517	9321.22
593.876	9379.3
594.235	9364.84
594.593	9273.09
594.952	9265.18
595.311	9282.81
595.67	9306.99
596.029	9335.91
596.387	9289.13
596.746	9226.09
597.104	9326.2
597.463	9249.81
597.822	9261.34
598.18	9277.61
598.538	9172.53
598.897	9230.38
599.255	9166.88
599.613	9384.5
599.972	9251.62
600.33	9231.96
600.688	9216.59
601.046	9228.57
601.404	9317.16
601.762	9222.02
602.12	9270.15
602.478	9201.45
602.836	9271.96
603.194	9215.92
603.552	9212.98
603.91	9201
604.268	9253.65
604.625	9199.42
604.983	9193.77
605.341	9170.04
605.698	9247.78
606.056	9258.4
606.413	9124.84
606.771	9225.86
607.128	9273.09
607.485	9219.76
607.843	9228.8
608.2	9241.9
608.557	9233.99
608.914	9241.9
609.272	9287.78
609.629	9269.02
609.986	9320.09
610.343	9282.13
610.7	9310.83
611.057	9350.38
611.414	9323.94
611.771	9350.38
612.127	9271.96
612.484	9407.32
612.841	9358.96
613.198	9331.85
613.554	9272.64
613.911	9362.58
614.267	9383.37
614.624	9362.35
614.98	9346.99
615.337	9346.76
615.693	9318.06
616.05	9387.89
616.406	9358.29
616.762	9350.83
617.118	9393.54
617.475	9379.08
617.831	9351.73
618.187	9427.89
618.543	9464.04
618.899	9452.52
619.255	9445.97
619.611	9422.46
619.967	9482.12
620.323	9494.33
620.678	9411.84
621.034	9489.36
621.39	9388.34
621.746	9398.28
622.101	9527.09
622.457	9413.88
622.812	9442.35
623.168	9509.47
623.523	9483.25
623.879	9481.22
624.234	9415.68
624.589	9428.79
624.945	9444.16
625.3	9448.9
625.655	9482.35
626.01	9456.14
626.365	9426.31
626.72	9401.9
627.075	9409.58
627.43	9416.81
627.785	9456.81
628.14	9492.74
628.495	9427.44
628.85	9416.36
629.205	9373.2
629.559	9410.94
629.914	9388.57
630.269	9374.1
630.623	9341.56
630.978	9370.26
631.332	9376.82
631.687	9396.48
632.041	9340.66
632.396	9301.34
632.75	9367.55
633.104	9329.36
633.459	9234.9
633.813	9209.59
634.167	9242.36
634.521	9199.87
634.875	9277.61
635.229	9231.96
635.583	9207.78
635.937	9151.51
636.291	9138.18
636.645	9175.24
636.999	9204.16
637.352	9238.51
637.706	9084.85
638.06	9187.22
638.413	9137.73
638.767	9152.19
639.121	9189.93
639.474	9030.16
639.828	9110.61
640.181	9085.07
640.534	9117.16
640.888	9056.6
641.241	9062.47
641.594	9049.14
641.947	9117.39
642.301	9042.36
642.654	9051.85
643.007	9072.87
643.36	9041.46
643.713	8969.37
644.066	8985.87
644.419	8934.57
644.771	8964.62
645.124	8806.66
645.477	8885.3
645.83	8761.24
646.182	8736.61
646.535	8647.12
646.888	8760.11
647.24	8637.63
647.593	8663.84
647.945	8747.91
648.298	8661.35
648.65	8595.82
649.002	8635.37
649.355	8705.19
649.707	8672.2
650.059	8658.19
650.411	8808.92
650.763	8801.46
651.115	8888.01
651.467	8909.03
651.819	8850.73
652.171	8837.62
652.523	8801.92
652.875	8818.64
653.227	8788.13
653.578	8852.31
653.93	8845.98
654.282	8828.81
654.633	8821.8
654.985	8821.12
655.337	8855.47
655.688	8791.75
656.039	8861.12
656.391	8785.64
656.742	8838.75
657.094	8812.54
657.445	8853.67
657.796	8829.94
658.147	8826.77
658.498	8834.68
658.849	8821.8
659.2	8856.6
659.551	8783.61
659.902	8856.15
660.253	8900.22
660.604	8805.76
660.955	8793.33
661.306	8888.24
661.656	8822.71
662.007	8866.77
662.358	8910.39
662.708	8886.21
663.059	8925.98
663.409	8787.45
663.76	8893.66
664.11	8851.18
664.461	8918.3
664.811	8886.43
665.161	8855.7
665.511	8859.32
665.862	8894.57
666.212	8928.24
666.562	8834.68
666.912	8926.88
667.262	8914.68
667.612	8852.76
667.962	8918.52
668.312	8877.62
668.662	8874.91
669.011	8850.73
669.361	8895.92
669.711	8871.07
670.06	8841.46
670.41	8817.28
670.76	8845.08
671.109	8868.58
671.459	8895.02
671.808	8813.21
672.157	8835.36
672.507	8771.86
672.856	8796.27
673.205	8875.13
673.554	8788.58
673.904	8854.8
674.253	8853.44
674.602	8788.81
674.951	8647.12
675.3	8563.5
675.649	8769.83
675.998	8778.19
676.346	8777.74
676.695	8756.94
677.044	8711.52
677.393	8758.53
677.741	8719.21
678.09	8661.13
678.438	8674.46
678.787	8736.15
679.135	8663.84
679.484	8666.33
679.832	8658.19
680.181	8575.93
680.529	8616.61
680.877	8598.76
681.225	8595.14
681.573	8586.78
681.922	8565.76
682.27	8532.54
682.618	8576.38
682.966	8461.13
683.314	8513.34
683.661	8474.01
684.009	8453.22
684.357	8415.48
684.705	8408.71
685.053	8435.82
685.4	8423.62
685.748	8327.8
686.095	8316.28
686.443	8336.39
686.79	8278.31
687.138	8281.03
687.485	8278.09
687.832	8305.21
688.18	8281.48
688.527	8255.49
688.874	8199.45
689.221	8159.45
689.568	8093.46
689.915	8173.68
690.262	8160.35
690.609	8093.23
690.956	8067.02
691.303	8020.02
691.65	8014.59
691.997	8033.57
692.344	7895.72
692.69	7926.91
693.037	7895.5
693.383	7887.36
693.73	7849.17
694.077	7785.67
694.423	7818.89
694.769	7787.03
695.116	7824.99
695.462	7716.29
695.808	7711.55
696.155	7752.23
696.501	7678.1
696.847	7627.03
697.193	7585.22
697.539	7571.89
697.885	7582.74
698.231	7490.76
698.577	7500.03
698.923	7509.29
699.269	7442.63
699.614	7383.42
699.96	7347.26
700.306	7401.5
700.651	7310.43
700.997	7336.19
701.342	7276.76
701.688	7245.12
702.033	7230.43
702.379	7246.25
702.724	7236.53
703.069	7208.96
703.415	7102.3
703.76	7151.56
704.105	7131
704.45	7114.5
704.795	7018.46
705.14	6936.43
705.485	7008.74
705.83	7015.07
706.175	6976.65
706.52	6959.25
706.865	6870.67
707.209	6962.64
707.554	6839.93
707.899	6921.96
708.243	6834.06
708.588	6875.64
708.932	6796.77
709.277	6773.04
709.621	6763.32
709.966	6776.66
710.31	6781.4
710.654	6689.88
710.998	6687.17
711.342	6644.46
711.687	6698.02
712.031	6592.48
712.375	6629.77
712.719	6610.33
713.063	6627.74
713.407	6658.24
713.75	6568.53
714.094	6582.31
714.438	6523.56
714.782	6566.72
715.125	6509.32
715.469	6514.52
715.812	6481.52
716.156	6422.09
716.499	6526.95
716.843	6457.34
717.186	6395.2
717.53	6435.88
717.873	6436.33
718.216	6429.1
718.559	6420.28
718.902	6380.51
719.246	6400.4
719.589	6365.37
719.932	6332.38
720.275	6333.05
720.617	6360.17
720.96	6313.17
721.303	6327.86
721.646	6328.76
721.989	6305.94
722.331	6324.47
722.674	6319.27
723.016	6318.59
723.359	6361.75
723.701	6329.44
724.044	6300.29
724.386	6251.02
724.729	6238.82
725.071	6281.3
725.413	6286.28
725.755	6268.42
726.097	6252.38
726.439	6268.65
726.782	6210.35
727.124	6257.8
727.465	6218.48
727.807	6254.41
728.149	6193.17
728.491	6223
728.833	6224.81
729.175	6218.48
729.516	6195.66
729.858	6194.98
730.199	6238.59
730.541	6231.36
730.882	6183.23
731.224	6190.01
731.565	6146.17
731.906	6237.69
732.248	6255.99
732.589	6235.43
732.93	6223.23
733.271	6191.36
733.612	6210.12
733.953	6188.42
734.294	6202.66
734.635	6223.23
734.976	6216.9
735.317	6190.46
735.658	6193.4
735.999	6187.52
736.339	6202.66
736.68	6201.98
737.021	6204.47
737.361	6231.81
737.702	6239.27
738.042	6184.81
738.383	6250.8
738.723	6277.69
739.063	6263.23
739.404	6316.11
739.744	6277.46
740.084	6251.02
740.424	6278.37
740.764	6281.53
741.104	6312.72
741.444	6282.89
741.784	6303.22
742.124	6339.83
742.464	6363.79
742.804	6320.4
743.143	6366.95
743.483	6354.3
743.823	6390
744.162	6410.34
744.502	6437.68
744.841	6462.99
745.181	6504.12
745.52	6514.52
745.86	6545.48
746.199	6625.02
746.538	6646.04
746.877	6690.78
747.216	6741.4
747.556	6740.73
747.895	6752.7
748.234	6850.55
748.573	6874.28
748.911	6940.04
749.25	6992.92
749.589	6951.79
749.928	7029.08
750.267	7141.17
750.605	7203.54
750.944	7255.06
751.283	7312.92
751.621	7442.18
751.96	7475.4
752.298	7577.09
752.636	7652.12
752.975	7792
753.313	7826.57
753.651	7930.07
753.989	7981.82
754.327	8197.19
754.666	8222.5
755.004	8367.58
755.342	8437.41
755.679	8611.19
756.017	8681.69
756.355	8841.69
756.693	8886.21
757.031	9119.65
757.368	9181.34
757.706	9438.96
758.044	9485.06
758.381	9690.25
758.719	9786.52
759.056	10025.16
759.394	10115.78
759.731	10215.21
760.068	10439.84
760.405	10637.35
760.743	10720.28
761.08	10902.43
761.417	11030.33
761.754	11174.51
762.091	11349.42
762.428	11461.73
762.765	11680.94
763.102	11944.66
763.438	12033.24
763.775	12154.14
764.112	12373.35
764.449	12636.16
764.785	12790.51
765.122	12857.63
765.458	13040.9
765.795	13177.62
