Data from hue_320_FLMS001491_97.txt Node
Date: Mon Feb 06 15:48:00 GMT 2017
User: dcchb
Spectrometer: FLMS00149
Trigger mode: 0
Integration Time (sec): 2.000000E-2
Scans to average: 10
Electric dark correction enabled: true
Nonlinearity correction enabled: false
Boxcar width: 0
XAxis mode: Wavelengths
Number of Pixels in Spectrum: 2048
>>>>>Begin Spectral Data<<<<<
341.393	4.69
341.776	4.69
342.16	4.69
342.543	-59.72
342.927	-64.69
343.31	-55.87
343.693	-82.77
344.077	-54.07
344.46	-53.84
344.843	-59.49
345.226	-55.2
345.61	-30.56
345.993	-36.67
346.376	13.73
346.759	8.08
347.142	32.49
347.525	46.72
347.908	51.47
348.291	88.98
348.674	78.13
349.057	108.87
349.44	143.89
349.823	146.61
350.206	167.62
350.588	199.49
350.971	201.97
351.354	212.37
351.737	239.49
352.119	232.93
352.502	256.66
352.884	274.29
353.267	277.9
353.65	289.2
354.032	300.05
354.414	286.04
354.797	315.87
355.179	305.47
355.562	312.93
355.944	313.83
356.326	336.43
356.709	335.53
357.091	347.5
357.473	335.08
357.855	352.02
358.238	338.92
358.62	335.08
359.002	338.69
359.384	355.64
359.766	342.31
360.148	333.49
360.53	334.85
360.912	331.91
361.294	341.4
361.676	345.7
362.057	335.08
362.439	335.53
362.821	337.79
363.203	326.04
363.584	322.42
363.966	313.16
364.348	347.5
364.729	317.22
365.111	309.77
365.493	316.77
365.874	308.41
366.256	334.4
366.637	303.89
367.019	299.37
367.4	323.55
367.781	308.41
368.163	300.27
368.544	318.58
368.925	306.15
369.306	317.45
369.688	302.76
370.069	309.31
370.45	317.45
370.831	319.71
371.212	321.74
371.593	312.48
371.974	328.3
372.355	311.8
372.736	317.22
373.117	302.31
373.498	334.4
373.879	312.48
374.26	294.17
374.641	317.68
375.021	290.56
375.402	326.49
375.783	324.68
376.163	329.2
376.544	324.68
376.925	325.58
377.305	335.53
377.686	318.81
378.066	313.38
378.447	321.07
378.827	335.08
379.208	327.17
379.588	313.16
379.968	338.24
380.349	340.05
380.729	338.69
381.109	331.69
381.489	352.02
381.87	327.84
382.25	331.69
382.63	332.82
383.01	326.49
383.39	338.01
383.77	311.8
384.15	335.3
384.53	315.42
384.91	328.75
385.29	337.34
385.67	340.5
386.049	360.84
386.429	341.86
386.809	339.14
387.189	348.18
387.568	324.45
387.948	353.83
388.328	342.76
388.707	346.15
389.087	328.52
389.466	333.95
389.846	333.95
390.225	368.07
390.605	370.78
390.984	365.13
391.363	345.02
391.743	349.09
392.122	339.37
392.501	351.12
392.881	372.59
393.26	376.43
393.639	369.65
394.018	366.94
394.397	353.15
394.776	373.49
395.155	369.43
395.534	377.11
395.913	363.32
396.292	368.3
396.671	382.08
397.05	380.72
397.429	386.6
397.808	375.53
398.186	401.97
398.565	408.52
398.944	410.78
399.323	393.38
399.701	392.02
400.08	390.22
400.458	386.15
400.837	395.87
401.215	388.41
401.594	387.96
401.972	399.71
402.351	401.29
402.729	404.45
403.107	410.33
403.486	399.03
403.864	400.16
404.242	414.85
404.62	426.6
404.999	439.48
405.377	420.27
405.755	426.15
406.133	443.32
406.511	411.46
406.889	431.12
407.267	414.17
407.645	415.07
408.023	452.81
408.401	448.29
408.779	449.88
409.156	449.2
409.534	463.43
409.912	473.38
410.29	475.86
410.667	450.1
411.045	488.97
411.422	476.77
411.8	493.72
412.178	484.45
412.555	508.18
412.933	514.51
413.31	504.56
413.687	500.5
414.065	524.9
414.442	524.68
414.819	532.36
415.197	548.86
415.574	551.79
415.951	563.77
416.328	559.25
416.705	569.87
417.082	577.33
417.46	571.91
417.837	576.2
418.214	575.52
418.591	610.77
418.967	612.36
419.344	579.36
419.721	594.05
420.098	636.76
420.475	602.19
420.852	625.92
421.228	641.06
421.605	638.12
421.982	674.95
422.358	671.79
422.735	645.8
423.111	641.28
423.488	660.04
423.864	658.23
424.241	702.3
424.617	686.25
424.994	710.21
425.37	698.91
425.746	706.59
426.123	691.22
426.499	727.83
426.875	716.99
427.251	744.56
427.627	744.78
428.003	753.14
428.379	757.21
428.756	751.11
429.132	778.68
429.507	768.74
429.883	793.14
430.259	791.34
430.635	820.49
431.011	781.17
431.387	835.18
431.763	852.12
432.138	846.47
432.514	865.23
432.89	857.55
433.265	853.93
433.641	867.72
434.016	876.53
434.392	907.26
434.767	906.81
435.143	918.11
435.518	915.85
435.894	905.68
436.269	933.03
436.644	934.83
437.02	952.91
437.395	967.15
437.77	971.67
438.145	989.52
438.52	964.21
438.895	997.43
439.271	997.88
439.646	1004.44
440.021	1020.26
440.395	1025.45
440.77	992.01
441.145	1019.8
441.52	1051.22
441.895	1030.42
442.27	1036.07
442.645	1038.79
443.019	1055.73
443.394	1066.81
443.769	1056.41
444.143	1053.02
444.518	1090.31
444.892	1076.75
445.267	1077.43
445.641	1091.89
446.016	1100.03
446.39	1059.58
446.764	1079.69
447.139	1093.47
447.513	1081.05
447.887	1093.93
448.262	1100.48
448.636	1097.54
449.01	1107.26
449.384	1129.18
449.758	1161.27
450.132	1155.39
450.506	1144.55
450.88	1141.16
451.254	1155.85
451.628	1166.69
452.002	1157.65
452.376	1185.68
452.75	1163.98
453.123	1173.02
453.497	1225
453.871	1190.42
454.244	1201.27
454.618	1207.6
454.992	1226.35
455.365	1250.08
455.739	1247.37
456.112	1237.43
456.486	1249.63
456.859	1238.33
457.232	1273.13
457.606	1289.85
457.979	1300.93
458.352	1328.72
458.725	1329.4
459.099	1323.3
459.472	1354.71
459.845	1333.47
460.218	1356.74
460.591	1362.85
460.964	1371.88
461.337	1394.03
461.71	1407.14
462.083	1446.23
462.456	1414.6
462.829	1443.52
463.201	1446.69
463.574	1460.47
463.947	1441.94
464.32	1485.55
464.692	1496.63
465.065	1523.75
465.438	1488.49
465.81	1501.15
466.183	1541.15
466.555	1577.98
466.928	1550.64
467.3	1567.81
467.672	1578.21
468.045	1583.4
468.417	1626.34
468.789	1581.14
469.161	1643.52
469.534	1646.45
469.906	1677.41
470.278	1702.95
470.65	1690.75
471.022	1742.27
471.394	1728.94
471.766	1753.57
472.138	1796.05
472.51	1791.76
472.882	1825.21
473.253	1846
473.625	1816.84
473.997	1887.58
474.369	1862.49
474.74	1908.37
475.112	1955.6
475.484	1930.97
475.855	1951.98
476.227	1979.1
476.598	1989.5
476.97	1980.91
477.341	2048.03
477.713	2083.5
478.084	2067.01
478.455	2154.92
478.827	2143.39
479.198	2170.28
479.569	2192.43
479.94	2236.49
480.311	2257.74
480.682	2271.3
481.053	2339.77
481.424	2336.15
481.795	2364.18
482.166	2372.99
482.537	2407.56
482.908	2436.04
483.279	2471.74
483.65	2491.63
484.021	2536.83
484.391	2537.96
484.762	2572.98
485.133	2562.36
485.503	2604.62
485.874	2680.78
486.244	2624.06
486.615	2708.57
486.985	2724.39
487.356	2792.19
487.726	2793.32
488.097	2845.29
488.467	2824.73
488.837	2878.51
489.207	2917.38
489.578	2934.56
489.948	2971.16
490.318	2988.34
490.688	3000.32
491.058	3040.09
491.428	3062.46
491.798	3097.04
492.168	3122.8
492.538	3137.94
492.908	3159.86
493.278	3224.72
493.648	3175
494.017	3242.34
494.387	3272.63
494.757	3305.85
495.126	3313.75
495.496	3327.99
495.866	3313.3
496.235	3353.53
496.605	3347.88
496.974	3392.4
497.344	3423.58
497.713	3409.35
498.082	3443.69
498.452	3487.99
498.821	3525.73
499.19	3438.95
499.559	3517.37
499.928	3545.39
500.298	3568.89
500.667	3594.2
501.036	3590.13
501.405	3629.68
501.774	3612.73
502.143	3652.73
502.512	3667.42
502.88	3696.57
503.249	3739.28
503.618	3683.91
503.987	3711.48
504.356	3737.47
504.724	3685.5
505.093	3707.64
505.462	3751.03
505.83	3815.21
506.199	3787.41
506.567	3795.55
506.936	3795.1
507.304	3874.19
507.672	3852.72
508.041	3831.71
508.409	3904.02
508.777	3871.25
509.145	3903.8
509.514	3899.95
509.882	3934.98
510.25	3980.4
510.618	3983.12
510.986	3979.5
511.354	3987.64
511.722	3988.09
512.09	4030.8
512.458	3972.95
512.826	4025.15
513.193	4069.44
513.561	4074.64
513.929	4086.84
514.297	4071.25
514.664	4070.34
515.032	4118.71
515.4	4163.68
515.767	4117.8
516.135	4124.35
516.502	4127.97
516.869	4170
517.237	4221.3
517.604	4200.29
517.972	4163.22
518.339	4201.87
518.706	4210.68
519.073	4230.79
519.44	4203.9
519.808	4285.71
520.175	4220.85
520.542	4281.86
520.909	4311.47
521.276	4291.36
521.643	4338.59
522.009	4343.78
522.376	4336.33
522.743	4393.95
523.11	4429.21
523.477	4407.96
523.843	4476.89
524.21	4490.67
524.577	4505.36
524.943	4527.73
525.31	4538.13
525.676	4508.53
526.043	4541.07
526.409	4626.49
526.776	4654.51
527.142	4652.02
527.508	4698.13
527.874	4700.61
528.241	4708.29
528.607	4717.56
528.973	4768.41
529.339	4717.79
529.705	4797.11
530.071	4809.76
530.437	4885.24
530.803	4829.65
531.169	4842.98
531.535	4841.4
531.901	4887.5
532.267	4880.95
532.632	4975.18
532.998	4952.13
533.364	4991.22
533.73	4990.32
534.095	4996.42
534.461	5043.43
534.826	5108.28
535.192	5094.5
535.557	5141.05
535.923	5107.38
536.288	5091.34
536.653	5135.4
537.019	5162.07
537.384	5210.43
537.749	5165.68
538.114	5197.55
538.479	5266.25
538.845	5295.85
539.21	5270.77
539.575	5294.04
539.94	5322.06
540.305	5300.82
540.67	5400.71
541.034	5381.72
541.399	5414.26
541.764	5472.34
542.129	5417.88
542.494	5454.26
542.858	5514.15
543.223	5508.73
543.587	5600.93
543.952	5563.41
544.316	5600.02
544.681	5596.18
545.045	5688.16
545.41	5669.4
545.774	5679.12
546.138	5670.75
546.503	5700.58
546.867	5757.76
547.231	5793.46
547.595	5805.44
547.959	5788.04
548.324	5781.49
548.688	5819.23
549.052	5839.56
549.416	5842.73
549.779	5867.36
550.143	5879.34
550.507	5921.14
550.871	5977.19
551.235	5987.81
551.599	6072.1
551.962	6035.72
552.326	6023.51
552.689	6074.36
553.053	6070.97
553.417	6063.96
553.78	6158.43
554.143	6112.78
554.507	6139.67
554.87	6149.61
555.234	6206.79
555.597	6198.88
555.96	6236.39
556.323	6237.52
556.686	6270.06
557.05	6295.15
557.413	6294.92
557.776	6307.57
558.139	6357.52
558.502	6357.29
558.865	6356.61
559.228	6405.42
559.59	6408.14
559.953	6388.48
560.316	6483.16
560.679	6428.02
561.041	6559.55
561.404	6469.83
561.767	6523.39
562.129	6597.28
562.492	6606.32
562.854	6564.29
563.217	6638.64
563.579	6628.24
563.941	6700.11
564.304	6671.63
564.666	6700.33
565.028	6717.73
565.39	6740.33
565.753	6729.48
566.115	6766.09
566.477	6766.55
566.839	6829.59
567.201	6834.79
567.563	6842.25
567.925	6886.99
568.287	6951.85
568.648	6878.63
569.01	6940.33
569.372	6995.01
569.734	6936.94
570.095	7018.97
570.457	7068.46
570.819	7156.82
571.18	7093.99
571.542	7131.06
571.903	7186.65
572.265	7263.71
572.626	7279.3
572.987	7322.91
573.349	7420.09
573.71	7390.48
574.071	7411.95
574.432	7521.33
574.794	7625.05
575.155	7621.21
575.516	7700.53
575.877	7722.45
576.238	7788.44
576.599	7800.87
576.96	7905.95
577.32	7996.12
577.681	8000.86
578.042	8163.12
578.403	8201.31
578.763	8246.51
579.124	8297.35
579.485	8482.43
579.845	8536.89
580.206	8637
580.566	8716.32
580.927	8844.46
581.287	9000.16
581.648	9077.44
582.008	9214.39
582.368	9346.82
582.728	9458
583.089	9566.47
583.449	9777.31
583.809	9964.43
584.169	10105.21
584.529	10266.11
584.889	10523.28
585.249	10630.62
585.609	10786.55
585.969	11011.41
586.329	11156.03
586.688	11373.2
587.048	11597.15
587.408	11824.04
587.768	12040.76
588.127	12223.8
588.487	12464.25
588.846	12715.54
589.206	12910.79
589.565	13196.21
589.925	13491.57
590.284	13711.45
590.643	13923.42
591.003	14264.2
591.362	14459.22
591.721	14699.67
592.08	15032.99
592.44	15287.23
592.799	15543.49
593.158	15781.22
593.517	16048.34
593.876	16409.23
594.235	16553.18
594.593	16998.59
594.952	17281.52
595.311	17415.76
595.67	17733.94
596.029	18168.96
596.387	18536.86
596.746	18692.11
597.104	18971.87
597.463	19246.44
597.822	19678.75
598.18	19830.38
598.538	20141.11
598.897	20435.56
599.255	20431.5
599.613	21119.39
599.972	21264.24
600.33	21646.61
600.688	21788.07
601.046	22099.7
601.404	22522.97
601.762	22625.79
602.12	23114.59
602.478	23263.96
602.836	23515.48
603.194	23722.26
603.552	23915.02
603.91	24093.32
604.268	24607.66
604.625	24767.43
604.983	24986.41
605.341	25060.75
605.698	25602.66
606.056	25720.4
606.413	25899.38
606.771	26268.18
607.128	26510.21
607.485	26523.99
607.843	26815.06
608.2	27192.45
608.557	27511.54
608.914	27526.9
609.272	27840.34
609.629	28109.49
609.986	28465.18
610.343	28392.87
610.7	28869.69
611.057	28885.06
611.414	29148.56
611.771	29326.63
612.127	29526.17
612.484	29728.2
612.841	29895.43
613.198	29990.12
613.554	30152.15
613.911	30503.32
614.267	30645.47
614.624	30792.35
614.98	30970.43
615.337	31275.28
615.693	31357.99
616.05	31471.66
616.406	31661.71
616.762	31750.75
617.118	31810.18
617.475	32050.85
617.831	32139.89
618.187	32354.8
618.543	32553.44
618.899	32769.48
619.255	32726.99
619.611	32977.38
619.967	33289.01
620.323	33166.98
620.678	33225.74
621.034	33245.62
621.39	33368.33
621.746	33558.61
622.101	33840.64
622.457	33663.24
622.812	33852.16
623.168	34176.67
623.523	34196.11
623.879	34336.44
624.234	34113.17
624.589	34378.02
624.945	34534.85
625.3	34561.52
625.655	34528.53
626.01	34791.12
626.365	34897.78
626.72	34767.16
627.075	34811.68
627.43	35006.25
627.785	34904.79
628.14	35062.07
628.495	35185.46
628.85	35146.82
629.205	35247.83
629.559	35260.03
629.914	35264.1
630.269	35413.25
630.623	35301.61
630.978	35255.06
631.332	35485.34
631.687	35647.37
632.041	35339.58
632.396	35567.37
632.75	35484.43
633.104	35577.54
633.459	35346.58
633.813	35631.77
634.167	35499.8
634.521	35554.04
634.875	35698.44
635.229	35576.64
635.583	35585.45
635.937	35554.04
636.291	35472.01
636.645	35690.3
636.999	35656.63
637.352	35687.82
637.706	35551.55
638.06	35737.99
638.413	35512
638.767	35390.88
639.121	35649.18
639.474	35390.43
639.828	35477.65
640.181	35610.31
640.534	35535.28
640.888	35498.67
641.241	35418.22
641.594	35473.14
641.947	35471.78
642.301	35373.7
642.654	35492.34
643.007	35513.36
643.36	35392.01
643.713	35477.43
644.066	35566.01
644.419	35443.31
644.771	34991.34
645.124	34935.07
645.477	34733.27
645.83	34650.56
646.182	34483.78
646.535	34368.31
646.888	34540.5
647.24	34384.8
647.593	34533.95
647.945	34432.71
648.298	34195.65
648.65	34327.63
649.002	34179.61
649.355	34279.72
649.707	34239.95
650.059	34387.29
650.411	34794.51
650.763	34962.87
651.115	35265.91
651.467	35189.3
651.819	35083.77
652.171	35000.15
652.523	35074.28
652.875	34932.13
653.227	34947.5
653.578	35191.56
653.93	35118.57
654.282	34911.57
654.633	34869.08
654.985	35004.45
655.337	34956.31
655.688	34874.05
656.039	34926.93
656.391	34816.2
656.742	34763.55
657.094	34853.49
657.445	34866.6
657.796	34906.6
658.147	34775.75
658.498	34774.17
658.849	34867.05
659.2	34745.7
659.551	34747.5
659.902	34730.1
660.253	34782.31
660.604	34871.79
660.955	34644
661.306	34902.53
661.656	34752.48
662.007	34734.85
662.358	34806.26
662.708	34651.24
663.059	34729.2
663.409	34524.46
663.76	34899.82
664.11	34662.31
664.461	34740.72
664.811	34834.28
665.161	34690.56
665.511	34575.76
665.862	34712.93
666.212	34769.2
666.562	34792.25
666.912	34655.76
667.262	34617.56
667.612	34566.94
667.962	34565.59
668.312	34580.05
668.662	34579.83
669.011	34659.15
669.361	34620.28
669.711	34462.99
670.06	34528.08
670.41	34334.18
670.76	34479.49
671.109	34581.63
671.459	34526.27
671.808	34479.71
672.157	34474.52
672.507	34401.52
672.856	34344.8
673.205	34447.17
673.554	34442.88
673.904	34316.1
674.253	34589.09
674.602	34413.5
674.951	33895.55
675.3	33834.53
675.649	34301.41
675.998	34332.83
676.346	34244.01
676.695	34324.24
677.044	34046.73
677.393	34230.46
677.741	34255.54
678.09	34206.28
678.438	34034.3
678.787	34152.72
679.135	34210.8
679.484	34057.35
679.832	34057.58
680.181	33832.05
680.529	34020.74
680.877	34008.99
681.225	33825.49
681.573	34033.4
681.922	33833.86
682.27	33736.23
682.618	33692.16
682.966	33641.54
683.314	33728.1
683.661	33598.61
684.009	33497.14
684.357	33507.76
684.705	33323.14
685.053	33463.24
685.4	33351.16
685.748	33131.05
686.095	33135.57
686.443	33072.97
686.79	33114.78
687.138	33145.51
687.485	33050.37
687.832	32832.75
688.18	32945.29
688.527	32897.61
688.874	32903.03
689.221	32677.28
689.568	32539.65
689.915	32633.21
690.262	32535.81
690.609	32497.62
690.956	32294.01
691.303	32299.43
691.65	32157.74
691.997	32241.36
692.344	31977.41
692.69	31955.49
693.037	31917.3
693.383	31734.93
693.73	31771.99
694.077	31763.63
694.423	31639.11
694.769	31565.89
695.116	31425.78
695.462	31482.28
695.808	31465.1
696.155	31350.31
696.501	31106.02
696.847	31072.8
697.193	30976.08
697.539	31170.88
697.885	30852.69
698.231	30850.88
698.577	30775.18
698.923	30766.82
699.269	30542.19
699.614	30358.47
699.96	30508.97
700.306	30335.42
700.651	30267.4
700.997	30150.11
701.342	30205.03
701.688	30100.62
702.033	29954.18
702.379	29966.84
702.724	29838.25
703.069	29908.08
703.415	29625.15
703.76	29686.62
704.105	29627.19
704.45	29509
704.795	29278.5
705.14	29342
705.485	29376.57
705.83	29268.55
706.175	29237.14
706.52	29164.15
706.865	28991.05
707.209	28992.85
707.554	28862.01
707.899	28871.95
708.243	28766.64
708.588	28788.11
708.932	28583.15
709.277	28525.07
709.621	28425.41
709.966	28370.95
710.31	28410.5
710.654	28306.77
710.998	28287.79
711.342	28200.33
711.687	28165.08
712.031	28042.82
712.375	27983.16
712.719	28063.16
713.063	27982.71
713.407	28028.36
713.75	27890.06
714.094	27838.08
714.438	27723.28
714.782	27807.12
715.125	27831.08
715.469	27655.26
715.812	27438.32
716.156	27385.44
716.499	27355.83
716.843	27442.84
717.186	27229.96
717.53	27267.48
717.873	27219.57
718.216	27226.35
718.559	27054.83
718.902	26865.45
719.246	27036.07
719.589	26929.63
719.932	26810.09
720.275	26875.62
720.617	26870.42
720.96	26715.4
721.303	26824.77
721.646	26710.43
721.989	26662.52
722.331	26617.55
722.674	26543.88
723.016	26616.64
723.359	26543.2
723.701	26502.98
724.044	26382.98
724.386	26254.39
724.729	26373.26
725.071	26333.26
725.413	26237.67
725.755	26219.14
726.097	26207.62
726.439	26029.09
726.782	25950.22
727.124	26144.57
727.465	25986.6
727.807	25889.66
728.149	25849.43
728.491	25812.6
728.833	25959.49
729.175	25839.49
729.516	25729.21
729.858	25652.15
730.199	25750.23
730.541	25605.15
730.882	25603.34
731.224	25711.81
731.565	25477.01
731.906	25426.39
732.248	25553.85
732.589	25360.86
732.93	25289
733.271	25308.88
733.612	25332.84
733.953	25390.46
734.294	25131.26
734.635	25106.63
734.976	25210.35
735.317	25033.18
735.658	25071.15
735.999	25080.19
736.339	24961.1
736.68	25019.17
737.021	25034.31
737.361	24892.62
737.702	24981.43
738.042	24901.89
738.383	24799.07
738.723	24799.07
739.063	24704.38
739.404	24752.74
739.744	24658.73
740.084	24566.76
740.424	24581.67
740.764	24584.83
741.104	24618.73
741.444	24451.73
741.784	24389.13
742.124	24472.97
742.464	24351.85
742.804	24328.12
743.143	24389.36
743.483	24334.9
743.823	24193.66
744.162	24132.42
744.502	24277.27
744.841	24119.08
745.181	24109.59
745.52	24037.05
745.86	24152.75
746.199	24054.9
746.538	24085.41
746.877	24014.68
747.216	23884.51
747.556	23989.82
747.895	23945.98
748.234	23790.05
748.573	23847.23
748.911	23757.96
749.25	23729.26
749.589	23660.34
749.928	23641.13
750.267	23677.29
750.605	23588.25
750.944	23558.19
751.283	23442.49
751.621	23511.19
751.96	23362.04
752.298	23347.35
752.636	23315.04
752.975	23244.53
753.313	23246.79
753.651	23285.88
753.989	23060.81
754.327	23083.63
754.666	22981.71
755.004	22989.62
755.342	22942.84
755.679	22941.04
756.017	22778.55
756.355	22803.19
756.693	22669.18
757.031	22726.58
757.368	22553.47
757.706	22448.39
758.044	22463.99
758.381	22396.64
758.719	22333.37
759.056	22391.67
759.394	22356.19
759.731	22140.83
760.068	22076.43
