Data from hue_150_FLMS001491_00087.txt Node
Date: Tue Feb 07 16:54:39 GMT 2017
User: dcchb
Spectrometer: FLMS00149
Trigger mode: 0
Integration Time (sec): 2.000000E-2
Scans to average: 10
Electric dark correction enabled: true
Nonlinearity correction enabled: false
Boxcar width: 0
XAxis mode: Wavelengths
Number of Pixels in Spectrum: 2048
>>>>>Begin Spectral Data<<<<<
341.393	-18.21
341.776	-18.21
342.16	-18.21
342.543	-62.5
342.927	-63.18
343.31	-72.22
343.693	-69.96
344.077	-62.05
344.46	-59.11
344.843	-69.05
345.226	-62.05
345.61	-21.6
345.993	-5.78
346.376	-21.82
346.759	12.08
347.142	45.75
347.525	59.53
347.908	51.62
348.291	75.35
348.674	89.59
349.057	109.7
349.44	115.8
349.823	141.34
350.206	159.42
350.588	200.32
350.971	218.85
351.354	247.1
351.737	245.06
352.119	255.23
352.502	249.81
352.884	261.79
353.267	291.62
353.65	291.16
354.032	301.56
354.414	308.79
354.797	312.86
355.179	330.26
355.562	330.49
355.944	311.96
356.326	338.85
356.709	328.9
357.091	326.19
357.473	355.12
357.855	342.91
358.238	331.16
358.62	352.18
359.002	348.11
359.384	335.68
359.766	340.88
360.148	350.82
360.53	342.01
360.912	344.5
361.294	331.39
361.676	331.62
362.057	342.01
362.439	326.87
362.821	335.46
363.203	323.25
363.584	325.29
363.966	338.62
364.348	298.4
364.729	298.85
365.111	311.73
365.493	326.64
365.874	328.68
366.256	320.99
366.637	328.68
367.019	321.67
367.4	326.64
367.781	314.67
368.163	320.54
368.544	301.11
368.925	324.61
369.306	348.56
369.688	304.72
370.069	333.65
370.45	331.16
370.831	303.37
371.212	312.18
371.593	306.76
371.974	322.58
372.355	323.71
372.736	324.16
373.117	314.44
373.498	322.58
373.879	328.45
374.26	334.55
374.641	323.93
375.021	309.92
375.402	316.7
375.783	323.03
376.163	316.02
376.544	328.45
376.925	331.16
377.305	349.47
377.686	331.84
378.066	336.81
378.447	334.1
378.827	313.99
379.208	344.5
379.588	331.16
379.968	334.1
380.349	331.62
380.729	317.6
381.109	334.78
381.489	337.72
381.87	322.58
382.25	323.48
382.63	342.01
383.01	331.84
383.39	337.27
383.77	366.87
384.15	345.4
384.53	341.11
384.91	351.73
385.29	359.41
385.67	353.54
386.049	340.65
386.429	363.25
386.809	353.08
387.189	345.63
387.568	352.18
387.948	354.21
388.328	382.69
388.707	377.26
389.087	365.74
389.466	363.71
389.846	395.79
390.225	381.56
390.605	375.68
390.984	367.77
391.363	371.39
391.743	361.9
392.122	397.83
392.501	390.6
392.881	372.29
393.26	361.45
393.639	397.38
394.018	380.43
394.397	385.4
394.776	377.26
395.155	377.49
395.534	401.9
395.913	379.52
396.292	404.83
396.671	374.33
397.05	404.83
397.429	411.61
397.808	413.65
398.186	400.09
398.565	407.77
398.944	420.65
399.323	395.57
399.701	405.29
400.08	409.35
400.458	406.64
400.837	427.88
401.215	406.87
401.594	424.72
401.972	416.81
402.351	430.37
402.729	427.66
403.107	438.28
403.486	409.35
403.864	403.93
404.242	434.44
404.62	420.2
404.999	405.51
405.377	424.49
405.755	445.74
406.133	454.32
406.511	431.5
406.889	453.65
407.267	447.77
407.645	461.1
408.023	453.19
408.401	469.69
408.779	462.69
409.156	449.8
409.534	468.11
409.912	488.67
410.29	464.49
410.667	465.62
411.045	459.52
411.422	475.79
411.8	473.08
412.178	483.48
412.555	489.35
412.933	489.13
413.31	487.09
413.687	466.53
414.065	488.45
414.442	517.15
414.819	517.37
415.197	478.05
415.574	517.83
415.951	531.84
416.328	537.03
416.705	524.15
417.082	528.67
417.46	523.25
417.837	538.62
418.214	535.9
418.591	532.29
418.967	545.4
419.344	546.75
419.721	542.46
420.098	559.41
420.475	537.94
420.852	568.67
421.228	571.61
421.605	566.41
421.982	575.68
422.358	587.88
422.735	565.73
423.111	594.21
423.488	584.04
423.864	613.64
424.241	612.06
424.617	621.78
424.994	603.47
425.37	597.6
425.746	611.38
426.123	600.31
426.499	598.95
426.875	624.72
427.251	617.03
427.627	645.51
428.003	657.93
428.379	631.49
428.756	645.73
429.132	665.84
429.507	651.38
429.883	673.08
430.259	688.67
430.635	704.26
431.011	676.47
431.387	695.67
431.763	729.35
432.138	702
432.514	716.24
432.89	734.32
433.265	746.97
433.641	709.23
434.016	733.64
434.392	744.03
434.767	763.02
435.143	758.72
435.518	774.77
435.894	808.21
436.269	777.25
436.644	784.71
437.02	796.24
437.395	807.99
437.77	820.87
438.145	843.69
438.52	821.09
438.895	839.4
439.271	817.93
439.646	856.35
440.021	833.75
440.395	850.02
440.77	869.91
441.145	835.33
441.52	883.92
441.895	879.4
442.27	861.32
442.645	882.11
443.019	875.56
443.394	919.17
443.769	876.01
444.143	917.59
444.518	923.46
444.892	891.37
445.267	924.14
445.641	932.05
446.016	932.05
446.39	963.24
446.764	953.75
447.139	936.12
447.513	957.36
447.887	959.62
448.262	990.13
448.636	978.6
449.01	1011.15
449.384	960.75
449.758	1003.01
450.132	994.87
450.506	1040.75
450.88	1021.09
451.254	1010.02
451.628	1064.48
452.002	1068.32
452.376	1056.79
452.75	1054.76
453.123	1080.75
453.497	1090.92
453.871	1093.4
454.244	1083.46
454.618	1138.37
454.992	1134.08
455.365	1159.84
455.739	1169.33
456.112	1167.53
456.486	1184.47
456.859	1194.64
457.232	1191.48
457.606	1206.39
457.979	1231.7
458.352	1230.35
458.725	1254.76
459.099	1280.07
459.472	1281.65
459.845	1305.6
460.218	1319.16
460.591	1381.98
460.964	1354.41
461.337	1385.6
461.71	1395.99
462.083	1400.51
462.456	1411.14
462.829	1455.88
463.201	1466.73
463.574	1459.5
463.947	1488.65
464.32	1518.7
464.692	1515.77
465.065	1551.24
465.438	1567.52
465.81	1595.31
466.183	1609.55
466.555	1646.16
466.928	1674.63
467.3	1666.5
467.672	1690.68
468.045	1739.04
468.417	1761.63
468.789	1774.06
469.161	1828.3
469.534	1829.66
469.906	1889.77
470.278	1899.26
470.65	1937.9
471.022	1978.58
471.394	2025.13
471.766	2052.93
472.138	2073.49
472.51	2157.33
472.882	2156.65
473.253	2153.94
473.625	2230.55
473.997	2295.63
474.369	2322.75
474.74	2370.66
475.112	2441.84
475.484	2490.88
475.855	2525.91
476.227	2582.4
476.598	2667.83
476.97	2715.73
477.341	2774.94
477.713	2838.22
478.084	2895.39
478.455	3016.06
478.827	3033.92
479.198	3126.57
479.569	3212.9
479.94	3312.33
480.311	3349.16
480.682	3468.71
481.053	3579.44
481.424	3678.19
481.795	3741.47
482.166	3827.12
482.537	3949.15
482.908	4037.96
483.279	4110.95
483.65	4243.6
484.021	4361.79
484.391	4432.52
484.762	4534.44
485.133	4597.04
485.503	4718.17
485.874	4887.65
486.244	4997.26
486.615	5098.5
486.985	5212.17
487.356	5348.88
487.726	5466.85
488.097	5615.77
488.467	5752.49
488.837	5855.76
489.207	6024.35
489.578	6148.64
489.948	6245.58
490.318	6380.04
490.688	6520.38
491.058	6615.97
491.428	6810.32
491.798	6938.45
492.168	7123.75
492.538	7199.23
492.908	7290.98
493.278	7491.2
493.648	7519
494.017	7687.35
494.387	7833.34
494.757	7961.25
495.126	8086.21
495.496	8219.54
495.866	8244.85
496.235	8408.01
496.605	8509.71
496.974	8646.43
497.344	8813.43
497.713	8858.4
498.082	9012.07
498.452	9150.14
498.821	9227.65
499.19	9266.52
499.559	9414.09
499.928	9542.9
500.298	9599.62
500.667	9777.69
501.036	9813.63
501.405	9853.85
501.774	9954.41
502.143	10102.43
502.512	10146.27
502.88	10224.24
503.249	10268.08
503.618	10362.54
503.987	10408.19
504.356	10558.92
504.724	10651.57
505.093	10701.51
505.462	10781.74
505.83	10823.54
506.199	10908.74
506.567	11085.01
506.936	11066.93
507.304	11174.95
507.672	11273.02
508.041	11270.99
508.409	11352.57
508.777	11488.84
509.145	11548.27
509.514	11595.05
509.882	11620.58
510.25	11646.8
510.618	11744.42
510.986	11774.7
511.354	11846.79
511.722	11943.97
512.09	12030.07
512.458	11981.03
512.826	12155.94
513.193	12170.63
513.561	12211.3
513.929	12207.01
514.297	12437.51
514.664	12457.17
515.032	12394.58
515.4	12477.96
515.767	12493.78
516.135	12667.11
516.502	12465.31
516.869	12715.47
517.237	12625.98
517.604	12646.77
517.972	12754.79
518.339	12754.57
518.706	12864.62
519.073	12895.58
519.44	12891.74
519.808	12967.67
520.175	12870.27
520.542	13035.69
520.909	13102.13
521.276	13050.6
521.643	13147.1
522.009	13148.23
522.376	13219.41
522.743	13323.14
523.11	13346.19
523.477	13437.71
523.843	13444.27
524.21	13597.93
524.577	13545.51
524.943	13515.45
525.31	13597.03
525.676	13685.39
526.043	13625.96
526.409	13689.46
526.776	13686.07
527.142	13714.31
527.508	13786.18
527.874	13763.35
528.241	13835.22
528.607	13803.8
528.973	13870.24
529.339	13855.1
529.705	13883.35
530.071	13954.99
530.437	13877.02
530.803	13862.11
531.169	13893.52
531.535	13921.09
531.901	13814.42
532.267	13983.01
532.632	14010.35
532.998	13918.15
533.364	13996.12
533.73	13901.43
534.095	14021.65
534.461	13919.96
534.826	13962.9
535.192	13940.3
535.557	13945.95
535.923	13811.26
536.288	13946.17
536.653	13924.7
537.019	13850.36
537.384	13840.19
537.749	13808.55
538.114	13897.81
538.479	13791.15
538.845	13818.49
539.21	13673.86
539.575	13736.46
539.94	13665.95
540.305	13765.16
540.67	13651.04
541.034	13663.24
541.399	13630.47
541.764	13664.82
542.129	13616.01
542.494	13564.26
542.858	13582.57
543.223	13519.74
543.587	13569.69
543.952	13422.34
544.316	13454.21
544.681	13418.96
545.045	13402.01
545.41	13303.48
545.774	13379.18
546.138	13287.89
546.503	13321.56
546.867	13194.33
547.231	13257.38
547.595	13212.41
547.959	13118.62
548.324	13044.73
548.688	13126.53
549.052	13135.57
549.416	13067.33
549.779	12985.75
550.143	13032.75
550.507	13047.67
550.871	13060.09
551.235	12975.12
551.599	13014.9
551.962	13023.26
552.326	12969.25
552.689	13011.96
553.053	12924.96
553.417	12906.65
553.78	12971.51
554.143	12862.36
554.507	12902.36
554.87	12872.53
555.234	12936.03
555.597	12845.18
555.96	12821.23
556.323	12806.77
556.686	12746.88
557.05	12816.26
557.413	12835.92
557.776	12733.1
558.139	12811.29
558.502	12740.78
558.865	12741.23
559.228	12766.09
559.59	12801.34
559.953	12782.81
560.316	12833.66
560.679	12775.13
561.041	12851.06
561.404	12789.14
561.767	12873.66
562.129	12773.77
562.492	12890.83
562.854	12866.65
563.217	12808.35
563.579	12755.24
563.941	12889.93
564.304	12924.5
564.666	12937.84
565.028	12924.96
565.39	12904.84
565.753	12999.76
566.115	12976.48
566.477	12947.78
566.839	12938.97
567.201	13016.25
567.563	13009.02
567.925	13034.33
568.287	13038.63
568.648	13081.79
569.01	13176.7
569.372	13222.58
569.734	13070.04
570.095	13202.46
570.457	13234.55
570.819	13161.11
571.18	13156.14
571.542	13146.42
571.903	13251.95
572.265	13277.49
572.626	13259.41
572.987	13289.47
573.349	13238.85
573.71	13319.07
574.071	13327.66
574.432	13352.52
574.794	13478.39
575.155	13391.39
575.516	13349.13
575.877	13385.06
576.238	13285.4
576.599	13443.36
576.96	13390.03
577.32	13426.64
577.681	13435.68
578.042	13428.45
578.403	13398.84
578.763	13458.5
579.124	13478.39
579.485	13509.8
579.845	13554.54
580.206	13442.23
580.566	13479.97
580.927	13450.14
581.287	13589.57
581.648	13419.41
582.008	13464.83
582.368	13439.07
582.728	13483.81
583.089	13437.49
583.449	13373.98
583.809	13489.69
584.169	13553.41
584.529	13434.55
584.889	13492.17
585.249	13400.2
585.609	13365.17
585.969	13401.33
586.329	13352.74
586.688	13374.44
587.048	13271.84
587.408	13327.43
587.768	13343.25
588.127	13318.62
588.487	13296.47
588.846	13431.61
589.206	13284.27
589.565	13261.22
589.925	13272.74
590.284	13342.12
590.643	13301.22
591.003	13309.81
591.362	13329.92
591.721	13282.01
592.08	13236.59
592.44	13301.9
592.799	13266.42
593.158	13194.33
593.517	13280.43
593.876	13183.93
594.235	13238.62
594.593	13259.64
594.952	13293.53
595.311	13201.11
595.67	13292.4
596.029	13348.67
596.387	13316.58
596.746	13384.83
597.104	13202.01
597.463	13280.2
597.822	13278.62
598.18	13167.66
598.538	13138.06
598.897	13284.72
599.255	13173.09
599.613	13250.15
599.972	13160.43
600.33	13230.94
600.688	13166.53
601.046	13165.18
601.404	13244.72
601.762	13202.24
602.12	13277.04
602.478	13205.63
602.836	13308.45
603.194	13178.96
603.552	13133.09
603.91	13094.9
604.268	13193.65
604.625	13213.99
604.983	13194.1
605.341	13122.24
605.698	13217.38
606.056	13310.48
606.413	13205.4
606.771	13255.12
607.128	13370.14
607.485	13204.27
607.843	13261.22
608.2	13295.57
608.557	13276.59
608.914	13199.53
609.272	13357.71
609.629	13359.75
609.986	13416.92
610.343	13278.17
610.7	13399.07
611.057	13372.4
611.414	13337.38
611.771	13428.67
612.127	13380.31
612.484	13394.55
612.841	13402.01
613.198	13400.42
613.554	13388.45
613.911	13505.05
614.267	13503.47
614.624	13434.1
614.98	13444.72
615.337	13500.99
615.693	13568.33
616.05	13533.75
616.406	13553.19
616.762	13510.93
617.118	13574.66
617.475	13489.46
617.831	13602
618.187	13594.77
618.543	13627.76
618.899	13651.04
619.255	13574.88
619.611	13606.29
619.967	13712.51
620.323	13647.88
620.678	13613.75
621.034	13622.57
621.39	13618.5
621.746	13564.94
622.101	13710.92
622.457	13569.46
622.812	13634.32
623.168	13665.5
623.523	13687.87
623.879	13676.58
624.234	13660.53
624.589	13693.75
624.945	13716.57
625.3	13663.02
625.655	13618.95
626.01	13698.95
626.365	13609.23
626.72	13620.31
627.075	13625.05
627.43	13534.88
627.785	13530.14
628.14	13636.12
628.495	13593.64
628.85	13644.94
629.205	13585.73
629.559	13681.55
629.914	13570.59
630.269	13614.43
630.623	13591.83
630.978	13471.61
631.332	13596.13
631.687	13668.67
632.041	13517.94
632.396	13514.77
632.75	13452.17
633.104	13455.34
633.459	13369.01
633.813	13484.49
634.167	13439.29
634.521	13455.11
634.875	13423.25
635.229	13362.23
635.583	13274.55
635.937	13332.86
636.291	13251.28
636.645	13381.44
636.999	13292.63
637.352	13313.87
637.706	13251.05
638.06	13287.66
638.413	13244.27
638.767	13282.46
639.121	13166.53
639.474	13201.11
639.828	13092.41
640.181	13084.05
640.534	13157.72
640.888	13081.11
641.241	13079.75
641.594	13096.48
641.947	13154.33
642.301	13114.1
642.654	13160.2
643.007	13079.75
643.36	13096.48
643.713	13117.49
644.066	13132.18
644.419	12994.33
644.771	12975.58
645.124	12903.94
645.477	12762.48
645.83	12729.71
646.182	12656.04
646.535	12631.86
646.888	12691.74
647.24	12584.4
647.593	12614.23
647.945	12649.94
648.298	12616.72
648.65	12604.06
649.002	12584.85
649.355	12576.72
649.707	12627.11
650.059	12667.34
650.411	12800.21
650.763	12751.4
651.115	12929.02
651.467	12895.35
651.819	12937.61
652.171	12810.61
652.523	12820.55
652.875	12841.34
653.227	12817.84
653.578	12884.28
653.93	12852.87
654.282	12788.46
654.633	12803.83
654.985	12795.92
655.337	12779.88
655.688	12756.6
656.039	12831.17
656.391	12783.27
656.742	12736.49
657.094	12823.49
657.445	12783.04
657.796	12772.42
658.147	12860.55
658.498	12795.24
658.849	12814.68
659.2	12846.09
659.551	12757.73
659.902	12814.68
660.253	12843.38
660.604	12873.43
660.955	12879.31
661.306	12867.11
661.656	12819.87
662.007	12925.41
662.358	12900.1
662.708	12840.44
663.059	12800.21
663.409	12797.28
663.76	12919.08
664.11	12918.4
664.461	12887.22
664.811	12909.14
665.161	12914.79
665.511	12799.54
665.862	12873.43
666.212	12866.65
666.562	12827.11
666.912	12850.83
667.262	12849.48
667.612	12806.99
667.962	12873.88
668.312	12853.09
668.662	12883.83
669.011	12833.43
669.361	12805.86
669.711	12820.55
670.06	12822.81
670.41	12751.63
670.76	12707.56
671.109	12813.55
671.459	12890.16
671.808	12747.56
672.157	12822.81
672.507	12755.02
672.856	12710.73
673.205	12744.62
673.554	12801.57
673.904	12733.55
674.253	12819.65
674.602	12752.31
674.951	12605.42
675.3	12506.66
675.649	12733.78
675.998	12577.4
676.346	12715.7
676.695	12714.11
677.044	12547.34
677.393	12670.5
677.741	12542.37
678.09	12579.66
678.438	12601.35
678.787	12557.28
679.135	12621.46
679.484	12501.69
679.832	12512.09
680.181	12508.24
680.529	12526.55
680.877	12426.44
681.225	12473.9
681.573	12494.46
681.922	12447.68
682.27	12391.19
682.618	12374.69
682.966	12368.81
683.314	12284.52
683.661	12302.15
684.009	12324.52
684.357	12207.01
684.705	12253.11
685.053	12212.66
685.4	12214.47
685.748	12097.63
686.095	12080.23
686.443	12126.79
686.79	12050.18
687.138	12115.71
687.485	12036.84
687.832	11956.62
688.18	12031.87
688.527	11985.55
688.874	11939.22
689.221	11897.19
689.568	11929.73
689.915	11791.88
690.262	11799.56
690.609	11796.17
690.956	11693.8
691.303	11633.92
691.65	11617.87
691.997	11647.93
692.344	11535.84
692.69	11525.45
693.037	11537.2
693.383	11472.79
693.73	11490.42
694.077	11411.78
694.423	11415.39
694.769	11359.57
695.116	11254.94
695.462	11315.06
695.808	11215.85
696.155	11260.14
696.501	11136.76
696.847	11133.37
697.193	11049.98
697.539	11076.42
697.885	10987.38
698.231	10965.91
698.577	10987.83
698.923	10925.24
699.269	10913.94
699.614	10752.13
699.96	10766.37
700.306	10740.38
700.651	10783.54
700.997	10625.13
701.342	10704.22
701.688	10636.43
702.033	10598.69
702.379	10574.96
702.724	10522.76
703.069	10621.29
703.415	10484.34
703.76	10431.24
704.105	10419.03
704.45	10379.71
704.795	10305.36
705.14	10292.94
705.485	10201.86
705.83	10266.95
706.175	10205.48
706.52	10155.09
706.865	10096.1
707.209	10085.94
707.554	10096.78
707.899	10051.36
708.243	10058.37
708.588	10084.58
708.932	9923.91
709.277	9937.69
709.621	9966.16
709.966	9864.25
710.31	9934.53
710.654	9845.72
710.998	9798.49
711.342	9809.33
711.687	9806.62
712.031	9696.34
712.375	9699.5
712.719	9719.17
713.063	9678.71
713.407	9744.02
713.75	9639.85
714.094	9704.48
714.438	9587.64
714.782	9584.25
715.125	9521.66
715.469	9557.36
715.812	9504.03
716.156	9509.91
716.499	9513.52
716.843	9481.88
717.186	9423.58
717.53	9470.58
717.873	9440.3
718.216	9439.62
718.559	9411.6
718.902	9335.9
719.246	9349.68
719.589	9345.84
719.932	9269.01
720.275	9256.58
720.617	9324.6
720.96	9266.52
721.303	9332.51
721.646	9248.22
721.989	9186.75
722.331	9290.25
722.674	9247.54
723.016	9199.41
723.359	9228.56
723.701	9122.57
724.044	9228.33
724.386	9135.68
724.729	9177.71
725.071	9166.86
725.413	9135.23
725.755	9111.95
726.097	9083.02
726.439	9025.4
726.782	9062.91
727.124	9078.96
727.465	9059.75
727.807	9021.33
728.149	9071.5
728.491	9057.71
728.833	9056.13
729.175	8972.97
729.516	9058.62
729.858	9046.41
730.199	9012.07
730.541	8944.5
730.882	8974.1
731.224	9025.62
731.565	9000.54
731.906	8961.9
732.248	8950.37
732.589	8943.59
732.93	8941.78
733.271	8932.07
733.612	8958.28
733.953	8979.3
734.294	8905.4
734.635	8957.6
734.976	8967.09
735.317	8978.39
735.658	9016.13
735.999	8864.27
736.339	8902.92
736.68	8994.21
737.021	9006.42
737.361	8895.46
737.702	8974.55
738.042	8930.26
738.383	8984.72
738.723	8988.34
739.063	8960.32
739.404	9020.88
739.744	8971.39
740.084	8966.64
740.424	8986.76
740.764	9015.68
741.104	9018.39
741.444	9006.42
741.784	9010.94
742.124	9059.97
742.464	9103.14
742.804	9129.12
743.143	9145.4
743.483	9148.11
743.823	9114.89
744.162	9102.91
744.502	9189.69
744.841	9186.07
745.181	9233.53
745.52	9207.77
745.86	9295.9
746.199	9284.6
746.538	9325.28
746.877	9397.82
747.216	9464.03
747.556	9418.16
747.895	9452.73
748.234	9506.74
748.573	9543.58
748.911	9631.71
749.25	9632.61
749.589	9710.58
749.928	9787.41
750.267	9824.25
750.605	9924.81
750.944	9941.76
751.283	10046.61
751.621	10128.65
751.96	10155.31
752.298	10259.49
752.636	10360.5
752.975	10442.76
753.313	10491.12
753.651	10639.82
753.989	10633.49
754.327	10757.1
754.666	10885.69
755.004	11066.25
755.342	11078
755.679	11235.74
756.017	11289.07
756.355	11435.73
756.693	11477.54
757.031	11671.43
757.368	11778.09
757.706	11911.2
758.044	12082.95
