Data from hue_32_FLMS001491_00063.txt Node
Date: Tue Feb 07 17:23:44 GMT 2017
User: dcchb
Spectrometer: FLMS00149
Trigger mode: 0
Integration Time (sec): 2.000000E-2
Scans to average: 10
Electric dark correction enabled: true
Nonlinearity correction enabled: false
Boxcar width: 0
XAxis mode: Wavelengths
Number of Pixels in Spectrum: 2048
>>>>>Begin Spectral Data<<<<<
341.393	-15.85
341.776	-15.85
342.16	-15.85
342.543	-65.56
342.927	-94.04
343.31	-87.26
343.693	-60.82
344.077	-36.86
344.46	-83.64
344.843	-47.03
345.226	-52
345.61	-31.67
345.993	-6.13
346.376	-3.87
346.759	6.07
347.142	27.77
347.525	49.01
347.908	65.73
348.291	54.66
348.674	106.18
349.057	99.86
349.44	118.84
349.823	133.98
350.206	166.52
350.588	205.16
350.971	223.47
351.354	230.02
351.737	231.6
352.119	246.74
352.502	267.54
352.884	289.46
353.267	303.69
353.65	283.81
354.032	305.73
354.414	294.2
354.797	321.77
355.179	314.99
355.562	347.76
355.944	326.97
356.326	340.98
356.709	337.59
357.091	330.36
357.473	337.14
357.855	340.98
358.238	339.4
358.62	346.63
359.002	347.76
359.384	355.89
359.766	350.7
360.148	344.82
360.53	336.23
360.912	341.43
361.294	351.37
361.676	313.41
362.057	333.75
362.439	326.06
362.821	310.7
363.203	326.06
363.584	320.42
363.966	349.34
364.348	338.49
364.729	313.64
365.111	336.69
365.493	348.89
365.874	320.87
366.256	330.36
366.637	312.05
367.019	324.71
367.4	299.85
367.781	295.56
368.163	301.66
368.544	309.57
368.925	312.28
369.306	339.4
369.688	291.49
370.069	324.48
370.45	338.27
370.831	314.31
371.212	312.51
371.593	299.85
371.974	325.84
372.355	332.62
372.736	321.77
373.117	315.22
373.498	311.6
373.879	335.56
374.26	325.16
374.641	313.86
375.021	310.47
375.402	320.87
375.783	326.29
376.163	344.82
376.544	321.55
376.925	335.33
377.305	317.48
377.686	340.75
378.066	320.64
378.447	335.56
378.827	324.03
379.208	340.3
379.588	336.69
379.968	348.66
380.349	334.43
380.729	326.74
381.109	328.55
381.489	338.49
381.87	324.93
382.25	340.3
382.63	339.62
383.01	352.28
383.39	337.14
383.77	346.18
384.15	349.79
384.53	327.87
384.91	349.34
385.29	338.72
385.67	355.67
386.049	378.27
386.429	360.19
386.809	361.32
387.189	362.22
387.568	357.48
387.948	359.28
388.328	349.34
388.707	362.67
389.087	360.41
389.466	370.13
389.846	380.75
390.225	369.45
390.605	350.02
390.984	352.05
391.363	376.91
391.743	370.36
392.122	377.81
392.501	362.9
392.881	376.91
393.26	368.1
393.639	387.31
394.018	373.75
394.397	392.5
394.776	372.39
395.155	376.46
395.534	382.79
395.913	387.08
396.292	367.87
396.671	389.57
397.05	376.91
397.429	397.25
397.808	383.46
398.186	377.14
398.565	398.83
398.944	401.77
399.323	399.06
399.701	387.31
400.08	403.8
400.458	394.31
400.837	386.18
401.215	428.89
401.594	421.2
401.972	429.11
402.351	413.29
402.729	405.16
403.107	418.72
403.486	404.25
403.864	402.22
404.242	414.42
404.62	422.33
404.999	406.51
405.377	422.11
405.755	436.34
406.133	441.09
406.511	443.35
406.889	431.15
407.267	418.04
407.645	441.54
408.023	427.98
408.401	449.23
408.779	446.51
409.156	420.75
409.534	441.99
409.912	460.52
410.29	452.16
410.667	459.17
411.045	463.69
411.422	465.72
411.8	469.79
412.178	487.19
412.555	458.72
412.933	474.31
413.31	474.99
413.687	476.12
414.065	482.44
414.442	482.67
414.819	490.13
415.197	498.94
415.574	490.13
415.951	511.37
416.328	512.73
416.705	487.42
417.082	501.43
417.46	522.67
417.837	524.48
418.214	526.74
418.591	521.09
418.967	506.4
419.344	524.03
419.721	522.22
420.098	557.25
420.475	549.79
420.852	532.39
421.228	529.45
421.605	546.62
421.982	538.71
422.358	554.76
422.735	553.4
423.111	581.88
423.488	570.35
423.864	564.48
424.241	571.48
424.617	596.11
424.994	582.78
425.37	575.55
425.746	595.89
426.123	578.71
426.499	585.49
426.875	593.85
427.251	619.39
427.627	584.59
428.003	595.66
428.379	627.3
428.756	627.53
429.132	635.44
429.507	634.98
429.883	630.69
430.259	651.93
430.635	639.73
431.011	651.03
431.387	662.55
431.763	647.64
432.138	677.02
432.514	668.2
432.89	678.6
433.265	664.36
433.641	684.47
434.016	698.71
434.392	708.88
434.767	709.78
435.143	701.42
435.518	703.46
435.894	728.31
436.269	739.61
436.644	761.08
437.02	732.83
437.395	758.6
437.77	746.39
438.145	741.42
438.52	773.74
438.895	742.55
439.271	755.88
439.646	794.08
440.021	776.45
440.395	788.2
440.77	769.67
441.145	775.09
441.52	806.5
441.895	792.49
442.27	824.36
442.645	789.56
443.019	824.13
443.394	838.14
443.769	799.27
444.143	829.1
444.518	841.08
444.892	818.03
445.267	821.87
445.641	858.93
446.016	844.7
446.39	855.77
446.764	851.02
447.139	856.45
447.513	866.16
447.887	840.4
448.262	876.56
448.636	893.06
449.01	885.6
449.384	896.45
449.758	885.37
450.132	891.7
450.506	916.78
450.88	926.05
451.254	921.76
451.628	915.2
452.002	935.99
452.376	930.79
452.75	926.5
453.123	951.81
453.497	954.75
453.871	959.04
454.244	975.09
454.618	972.38
454.992	986.16
455.365	992.26
455.739	1000.85
456.112	1033.16
456.486	1026.84
456.859	1039.94
457.232	1051.92
457.606	1079.49
457.979	1059.15
458.352	1107.74
458.725	1113.39
459.099	1117
459.472	1131.69
459.845	1136.21
460.218	1152.26
460.591	1142.77
460.964	1185.7
461.337	1197
461.71	1207.4
462.083	1222.76
462.456	1210.79
462.829	1245.36
463.201	1260.73
463.574	1245.36
463.947	1248.98
464.32	1304.12
464.692	1328.3
465.065	1352.25
465.438	1326.94
465.81	1348.18
466.183	1341.86
466.555	1402.87
466.928	1415.3
467.3	1403.55
467.672	1435.64
468.045	1451.23
468.417	1485.81
468.789	1463.89
469.161	1505.02
469.534	1538.69
469.906	1538.24
470.278	1586.6
470.65	1593.6
471.022	1634.51
471.394	1670.66
471.766	1693.94
472.138	1710.44
472.51	1742.52
472.882	1761.28
473.253	1787.95
473.625	1795.18
473.997	1867.72
474.369	1903.42
474.74	1936.87
475.112	1953.37
475.484	2008.05
475.855	2047.38
476.227	2074.95
476.598	2119.46
476.97	2117.88
477.341	2207.15
477.713	2236.07
478.084	2273.36
478.455	2329.4
478.827	2410.76
479.198	2468.38
479.569	2479.68
479.94	2560.58
480.311	2612.11
480.682	2679.9
481.053	2749.96
481.424	2791.76
481.795	2861.82
482.166	2959.89
482.537	2997.86
482.908	3061.13
483.279	3129.83
483.65	3189.49
484.021	3269.04
484.391	3354.23
484.762	3440.33
485.133	3484.85
485.503	3547.45
485.874	3639.42
486.244	3719.87
486.615	3818.63
486.985	3821.79
487.356	4010.71
487.726	4035.57
488.097	4176.13
488.467	4240.09
488.837	4342.68
489.207	4386.98
489.578	4499.29
489.948	4551.26
490.318	4644.82
490.688	4706.97
491.058	4834.87
491.428	4926.17
491.798	5007.52
492.168	5107.86
492.538	5158.71
492.908	5273.28
493.278	5362.54
493.648	5370.23
494.017	5494.06
494.387	5601.41
494.757	5635.3
495.126	5788.75
495.496	5791.46
495.866	5905.13
496.235	6006.82
496.605	6079.81
496.974	6116.42
497.344	6219.92
497.713	6319.81
498.082	6341.95
498.452	6451.78
498.821	6518.22
499.19	6509.18
499.559	6640.7
499.928	6706.01
500.298	6802.28
500.667	6861.71
501.036	6885.44
501.405	7004.53
501.774	6997.53
502.143	7085.89
502.512	7141.48
502.88	7292.44
503.249	7278.65
503.618	7352.09
503.987	7427.35
504.356	7460.11
504.724	7548.47
505.093	7596.16
505.462	7640
505.83	7711.18
506.199	7741.01
506.567	7939.42
506.936	7925.41
507.304	7959.31
507.672	8060.1
508.041	8119.53
508.409	8229.36
508.777	8216.48
509.145	8319.08
509.514	8281.79
509.882	8326.08
510.25	8411.5
510.618	8479.07
510.986	8530.37
511.354	8598.16
511.722	8668.44
512.09	8717.93
512.458	8740.98
512.826	8794.32
513.193	8929
513.561	8873.64
513.929	9016.46
514.297	9052.39
514.664	9089.9
515.032	9079.28
515.4	9274.08
515.767	9205.38
516.135	9340.74
516.502	9274.76
516.869	9401.98
517.237	9473.17
517.604	9416.9
517.972	9545.48
518.339	9658.47
518.706	9549.1
519.073	9635.2
519.44	9703.9
519.808	9738.25
520.175	9795.19
520.542	9934.85
520.909	9996.55
521.276	10006.26
521.643	9973.95
522.009	10119.93
522.376	10224.56
522.743	10209.87
523.11	10319.02
523.477	10408.74
523.843	10456.19
524.21	10534.38
524.577	10640.6
524.943	10648.05
525.31	10689.18
525.676	10801.95
526.043	10794.26
526.409	10960.36
526.776	11006.24
527.142	10925.33
527.508	11101.6
527.874	11110.19
528.241	11125.78
528.607	11212.11
528.973	11251.2
529.339	11344.53
529.705	11417.52
530.071	11511.31
530.437	11584.53
530.803	11662.72
531.169	11639.89
531.535	11661.13
531.901	11705.2
532.267	11855.93
532.632	11932.54
532.998	11924.63
533.364	11927.79
533.73	12003.05
534.095	12154.68
534.461	12108.35
534.826	12179.31
535.192	12335.24
535.557	12414.11
535.923	12318.52
536.288	12405.52
536.653	12412.3
537.019	12524.61
537.384	12507.89
537.749	12643.71
538.114	12628.79
538.479	12645.29
538.845	12729.58
539.21	12661.33
539.575	12765.29
539.94	12865.4
540.305	12850.93
540.67	12963.25
541.034	13022.45
541.399	13044.37
541.764	13042.57
542.129	13240.53
542.494	13206.4
542.858	13235.1
543.223	13286.4
543.587	13328.89
543.952	13352.16
544.316	13415.21
544.681	13440.75
545.045	13554.64
545.41	13617.24
545.774	13620.18
546.138	13705.37
546.503	13734.07
546.867	13701.98
547.231	13924.8
547.595	13908.31
547.959	13951.7
548.324	13912.37
548.688	13988.53
549.052	14105.82
549.416	14092.93
549.779	14187.62
550.143	14168.19
550.507	14274.85
550.871	14322.53
551.235	14378.35
551.599	14432.36
551.962	14389.88
552.326	14440.5
552.689	14616.99
553.053	14567.5
553.417	14601.4
553.78	14773.59
554.143	14774.27
554.507	14797.77
554.87	14813.82
555.234	14961.84
555.597	14920.71
555.96	14971.78
556.323	15129.97
556.686	15070.31
557.05	15142.85
557.413	15160.25
557.776	15180.14
558.139	15320.47
558.502	15332.45
558.865	15447.25
559.228	15492.22
559.59	15565.66
559.953	15446.12
560.316	15661.93
560.679	15684.08
561.041	15695.6
561.404	15846.11
561.767	15891.98
562.129	15905.99
562.492	16042.94
562.854	16017.86
563.217	16084.29
563.579	15982.6
563.941	16231.41
564.304	16289.49
564.666	16354.12
565.028	16366.55
565.39	16409.26
565.753	16573.32
566.115	16557.95
566.477	16581.91
566.839	16641.57
567.201	16782.58
567.563	16778.97
567.925	16820.32
568.287	16895.35
568.648	16936.25
569.01	16989.13
569.372	17166.98
569.734	17112.52
570.095	17179.18
570.457	17270.93
570.819	17375.33
571.18	17363.58
571.542	17458.5
571.903	17505.95
572.265	17653.97
572.626	17762.44
572.987	17734.42
573.349	17910.69
573.71	18067.97
574.071	17947.07
574.432	18074.75
574.794	18240.62
575.155	18235.65
575.516	18288.08
575.877	18455.98
576.238	18465.93
576.599	18609.88
576.96	18807.61
577.32	18873.37
577.681	18982.3
578.042	19215.29
578.403	19188.39
578.763	19393.36
579.124	19507.93
579.485	19704.54
579.845	19905.66
580.206	19937.53
580.566	20020.24
580.927	20306.33
581.287	20406.89
581.648	20651.41
582.008	20803.94
582.368	20992.19
582.728	21310.82
583.089	21267.21
583.449	21568.44
583.809	21640.53
584.169	21960.52
584.529	22057.47
584.889	22415.43
585.249	22481.19
585.609	22652.71
585.969	23020.16
586.329	23183.32
586.688	23362.52
587.048	23641.38
587.408	23810.19
587.768	23986.23
588.127	24248.37
588.487	24515.94
588.846	24956.15
589.206	24961.12
589.565	25182.59
589.925	25503.71
590.284	25724.27
590.643	26018.5
591.003	26237.25
591.362	26663.9
591.721	26863.45
592.08	27114.06
592.44	27410.1
592.799	27715.85
593.158	27989.52
593.517	28173.02
593.876	28444.2
594.235	28641.48
594.593	28960.57
594.952	29162.14
595.311	29451.63
595.67	29717.38
596.029	30009.35
596.387	30376.12
596.746	30574.31
597.104	30770.91
597.463	30992.83
597.822	31393.95
598.18	31454.51
598.538	31661.51
598.897	32199.13
599.255	32078
599.613	32703.74
599.972	32787.13
600.33	33048.82
600.688	33160.46
601.046	33549.6
601.404	33768.8
601.762	33907.78
602.12	34380.99
602.478	34448.33
602.836	34619.63
603.194	34726.74
603.552	34950.92
603.91	35078.37
604.268	35403.33
604.625	35549.09
604.983	35904.34
605.341	35911.34
605.698	36305.91
606.056	36440.6
606.413	36607.82
606.771	36807.14
607.128	37097.3
607.485	37133.23
607.843	37308.6
608.2	37684.63
608.557	37900.9
608.914	37769.15
609.272	38048.01
609.629	38269.7
609.986	38549.01
610.343	38479.41
610.7	39032.84
611.057	38993.07
611.414	39006.18
611.771	39245.72
612.127	39432.38
612.484	39572.26
612.841	39827.63
613.198	39888.87
613.554	39887.74
613.911	40240.27
614.267	40463.31
614.624	40374.73
614.98	40506.25
615.337	40742.86
615.693	40903.75
616.05	40788.96
616.406	41179.91
616.762	41144.88
617.118	41308.49
617.475	41432.78
617.831	41483.63
618.187	41581.7
618.543	41723.62
618.899	42090.62
619.255	41955.03
619.611	42034.8
619.967	42156.38
620.323	42288.58
620.678	42299.88
621.034	42303.27
621.39	42389.14
621.746	42248.13
622.101	42884.49
622.457	42558.85
622.812	42813.76
623.168	42833.2
623.523	42990.48
623.879	43149.57
624.234	43025.51
624.589	43187.54
624.945	43217.82
625.3	43413.07
625.655	43407.64
626.01	43450.13
626.365	43467.76
626.72	43429.11
627.075	43505.95
627.43	43495.78
627.785	43458.72
628.14	43602.67
628.495	43671.14
628.85	43643.8
629.205	43456.46
629.559	43707.75
629.914	43516.79
630.269	43841.98
630.623	43699.16
630.978	43601.09
631.332	43697.13
631.687	43806.5
632.041	43823.45
632.396	43929.44
632.75	43628.88
633.104	43743.45
633.459	43736.45
633.813	43604.93
634.167	43831.36
634.521	43728.09
634.875	43855.54
635.229	43704.81
635.583	43659.84
635.937	43591.37
636.291	43615.77
636.645	43705.49
636.999	43652.16
637.352	43758.6
637.706	43457.13
638.06	43789.78
638.413	43514.53
638.767	43452.39
639.121	43512.95
639.474	43373.75
639.828	43467.08
640.181	43533.52
640.534	43329.23
640.888	43358.15
641.241	43197.71
641.594	43301.66
641.947	43496.23
642.301	43221.43
642.654	43300.98
643.007	43365.39
643.36	43192.73
643.713	43256.69
644.066	43433.18
644.419	43182.79
644.771	42931.27
645.124	42757.49
645.477	42479.76
645.83	42260.1
646.182	42192.99
646.535	42190.95
646.888	42151.18
647.24	41943.28
647.593	42223.49
647.945	42099.2
648.298	42007
648.65	41817.4
649.002	41802.49
649.355	42011.75
649.707	41967.68
650.059	42126.32
650.411	42543.03
650.763	42495.13
651.115	42927.2
651.467	42905.74
651.819	42691.5
652.171	42701.9
652.523	42563.6
652.875	42584.84
653.227	42453.54
653.578	42886.3
653.93	42670.26
654.282	42521.11
654.633	42445.18
654.985	42608.12
655.337	42519.76
655.688	42710.04
656.039	42807.66
656.391	42404.28
656.742	42573.77
657.094	42418.74
657.445	42766.76
657.796	42531.28
658.147	42512.3
658.498	42451.51
658.849	42627.33
659.2	42440.89
659.551	42397.5
659.902	42417.84
660.253	42446.54
660.604	42451.96
660.955	42209.03
661.306	42362.02
661.656	42299.65
662.007	42228.92
662.358	42419.42
662.708	42396.15
663.059	42343.04
663.409	41985.08
663.76	42364.06
664.11	42252.87
664.461	42237.05
664.811	42144.4
665.161	42206.09
665.511	42207.45
665.862	42349.37
666.212	42355.47
666.562	42318.86
666.912	42140.11
667.262	42030.05
667.612	42053.1
667.962	42127.68
668.312	42166.09
668.662	42301.01
669.011	42150.95
669.361	42112.08
669.711	42051.52
670.06	42127.45
670.41	42006.1
670.76	42046.78
671.109	42166.77
671.459	41938.08
671.808	41947.34
672.157	42084.29
672.507	41789.38
672.856	41842.49
673.205	41913.9
673.554	42049.04
673.904	41944.63
674.253	41965.87
674.602	42000.45
674.951	41370.41
675.3	41207.25
675.649	41854.24
675.998	41673.23
676.346	41822.15
676.695	41986.21
677.044	41710.06
677.393	41804.3
677.741	41748.7
678.09	41581.7
678.438	41558.65
678.787	41683.62
679.135	41618.76
679.484	41266.01
679.832	41493.12
680.181	41267.36
680.529	41336.51
680.877	41237.08
681.225	41205.22
681.573	41493.34
681.922	41174.71
682.27	40994.6
682.618	41070.98
682.966	40852.68
683.314	41030.76
683.661	40974.49
684.009	40776.3
684.357	40750.31
684.705	40683.2
685.053	40669.18
685.4	40541.73
685.748	40618.34
686.095	40377.22
686.443	40323.66
686.79	40213.38
687.138	40378.12
687.485	40336.99
687.832	40107.39
688.18	40273.04
688.527	40002.54
688.874	40016.09
689.221	39869.43
689.568	39777.68
689.915	39700.85
690.262	39757.57
690.609	39611.13
690.956	39517.8
691.303	39393.74
691.65	39272.84
691.997	39169.11
692.344	39045.72
692.69	38900.42
693.037	38910.59
693.383	38790.82
693.73	38890.02
694.077	38565.29
694.423	38604.38
694.769	38392.86
695.116	38435.12
695.462	38299.08
695.808	38261.56
696.155	38415.91
696.501	38142.92
696.847	38014.11
697.193	37713.78
697.539	37860.22
697.885	37691.18
698.231	37679.88
698.577	37690.96
698.923	37625.42
699.269	37342.72
699.614	37301.14
699.96	37079
700.306	37142.72
700.651	36930.3
700.997	36809.63
701.342	36777.08
701.688	36790.64
702.033	36610.08
702.379	36539.8
702.724	36486.02
703.069	36591.1
703.415	36049.19
703.76	36157.21
704.105	36147.27
704.45	36098.01
704.795	35867.05
705.14	35794.74
705.485	35763.1
705.83	35661.18
706.175	35656.44
706.52	35505.93
706.865	35520.62
707.209	35417.35
707.554	35331.25
707.899	35410.11
708.243	35289.89
708.588	35073.17
708.932	34870.24
709.277	34931.26
709.621	34935.1
709.966	34765.39
710.31	34791.6
710.654	34452.17
710.998	34590.7
711.342	34532.85
711.687	34411.5
712.031	34231.61
712.375	34077.49
712.719	34192.29
713.063	34031.39
713.407	34237.26
713.75	34018.29
714.094	33890.38
714.438	33692.87
714.782	33878.63
715.125	33682.7
715.469	33777.16
715.812	33583.04
716.156	33380.56
716.499	33416.04
716.843	33398.42
717.186	33274.58
717.53	33505.76
717.873	33342.15
718.216	33272.77
718.559	33124.98
718.902	33000.23
719.246	33036.17
719.589	32938.31
719.932	32874.59
720.275	32785.32
720.617	32820.58
720.96	32668.04
721.303	32741.94
721.646	32682.73
721.989	32541.94
722.331	32711.2
722.674	32539.68
723.016	32428.95
723.359	32341.04
723.701	32427.59
724.044	32107.38
724.386	32084.55
724.729	32303.3
725.071	32083.65
725.413	32094.95
725.755	32029.19
726.097	32021.73
726.439	31806.59
726.782	31844.56
727.124	31844.78
727.465	31772.47
727.807	31703.32
728.149	31629.42
728.491	31455.19
728.833	31660.83
729.175	31502.19
729.516	31425.81
729.858	31399.6
730.199	31384.91
730.541	31372.03
730.882	31315.53
731.224	31344.46
731.565	31226.27
731.906	31266.04
732.248	31159.6
732.589	31027.4
732.93	30874.41
733.271	30986.28
733.612	30850.91
733.953	31041.64
734.294	30833.51
734.635	30781.99
734.976	30807.75
735.317	30609.34
735.658	30602.56
735.999	30577.47
736.339	30455.89
736.68	30576.34
737.021	30487.98
737.361	30340.19
737.702	30520.3
738.042	30506.51
738.383	30334.32
738.723	30308.78
739.063	30262.23
739.404	30286.63
739.744	30270.14
740.084	30153.08
740.424	30299.29
740.764	30171.38
741.104	30109.46
741.444	29904.5
741.784	29878.73
742.124	29971.61
742.464	29908.79
742.804	29916.7
743.143	29841.22
743.483	29801.22
743.823	29513.32
744.162	29697.04
744.502	29755.8
744.841	29556.48
745.181	29616.59
745.52	29570.04
745.86	29480.1
746.199	29533.43
746.538	29535.01
746.877	29555.8
747.216	29419.76
747.556	29335.25
747.895	29305.19
748.234	29123.27
748.573	29183.84
748.911	29116.49
749.25	29181.13
749.589	29016.84
749.928	29067.68
750.267	29088.25
750.605	28953.79
750.944	28800.34
751.283	28636.51
751.621	28890.74
751.96	28593.57
752.298	28737.3
752.636	28610.07
752.975	28541.37
753.313	28363.29
753.651	28511.99
753.989	28351.77
754.327	28232
754.666	28278.55
755.004	28274.71
755.342	28353.58
755.679	28182.51
756.017	28055.51
756.355	28140.7
756.693	27904.55
757.031	28062.06
757.368	27803.76
757.706	27895.28
