Data from hue_22_FLMS001491_00054.txt Node
Date: Tue Feb 07 17:10:19 GMT 2017
User: dcchb
Spectrometer: FLMS00149
Trigger mode: 0
Integration Time (sec): 2.000000E-2
Scans to average: 10
Electric dark correction enabled: true
Nonlinearity correction enabled: false
Boxcar width: 0
XAxis mode: Wavelengths
Number of Pixels in Spectrum: 2048
>>>>>Begin Spectral Data<<<<<
341.393	-4.65
341.776	-4.65
342.16	-4.65
342.543	-48.49
342.927	-67.02
343.31	-83.51
343.693	-74.48
344.077	-69.05
344.46	-59.11
344.843	-50.75
345.226	-46.68
345.61	-45.32
345.993	-8.94
346.376	5.52
346.759	11.62
347.142	21.79
347.525	44.84
347.908	75.13
348.291	90.94
348.674	86.2
349.057	101.79
349.44	142.47
349.823	111.73
350.206	176.59
350.588	200.32
350.971	193.99
351.354	237.38
351.737	232.41
352.119	248.45
352.502	264.72
352.884	294.33
353.267	281
353.65	284.61
354.032	266.98
354.414	299.98
354.797	312.18
355.179	323.71
355.562	319.64
355.944	325.97
356.326	323.48
356.709	356.25
357.091	340.2
357.473	339.07
357.855	330.49
358.238	331.62
358.62	328.9
359.002	331.39
359.384	325.06
359.766	346.98
360.148	337.72
360.53	355.57
360.912	334.33
361.294	317.83
361.676	338.62
362.057	329.13
362.439	332.52
362.821	311.96
363.203	326.87
363.584	360.99
363.966	298.62
364.348	303.14
364.729	293.65
365.111	334.55
365.493	324.38
365.874	306.76
366.256	328.68
366.637	319.19
367.019	317.6
367.4	340.88
367.781	323.48
368.163	328.68
368.544	307.89
368.925	321.22
369.306	326.87
369.688	332.75
370.069	313.99
370.45	313.99
370.831	309.02
371.212	337.27
371.593	300.66
371.974	316.02
372.355	337.94
372.736	332.97
373.117	302.92
373.498	330.71
373.879	304.72
374.26	312.41
374.641	306.08
375.021	306.31
375.402	309.24
375.783	332.75
376.163	338.4
376.544	327.55
376.925	358.51
377.305	304.72
377.686	339.98
378.066	326.87
378.447	349.02
378.827	336.59
379.208	342.01
379.588	316.7
379.968	332.07
380.349	347.43
380.729	351.05
381.109	341.11
381.489	343.59
381.87	328.23
382.25	343.82
382.63	344.04
383.01	333.88
383.39	335.68
383.77	339.98
384.15	343.14
384.53	335.91
384.91	354.21
385.29	338.17
385.67	354.21
386.049	360.54
386.429	360.32
386.809	353.54
387.189	380.43
387.568	352.41
387.948	381.78
388.328	363.48
388.707	350.37
389.087	377.49
389.466	383.37
389.846	359.19
390.225	345.63
390.605	372.97
390.984	367.09
391.363	383.14
391.743	357.6
392.122	369.81
392.501	345.63
392.881	382.69
393.26	377.26
393.639	398.28
394.018	398.05
394.397	384.72
394.776	374.78
395.155	387.21
395.534	388.34
395.913	370.94
396.292	386.76
396.671	393.53
397.05	392.63
397.429	383.14
397.808	397.83
398.186	392.18
398.565	374.1
398.944	398.73
399.323	386.3
399.701	409.58
400.08	396.02
400.458	409.58
400.837	395.12
401.215	404.83
401.594	428.79
401.972	429.24
402.351	405.96
402.729	422.91
403.107	393.76
403.486	426.75
403.864	436.7
404.242	439.18
404.62	414.1
404.999	420.2
405.377	428.11
405.755	428.56
406.133	431.05
406.511	449.8
406.889	428.11
407.267	438.05
407.645	448.9
408.023	426.08
408.401	434.89
408.779	438.28
409.156	433.99
409.534	440.54
409.912	445.06
410.29	434.66
410.667	470.37
411.045	460.65
411.422	461.78
411.8	471.5
412.178	485.74
412.555	448.22
412.933	483.7
413.31	473.98
413.687	483.48
414.065	481.44
414.442	485.06
414.819	487.32
415.197	488.22
415.574	511.95
415.951	481.89
416.328	495.68
416.705	476.47
417.082	502.91
417.46	488.9
417.837	497.03
418.214	522.12
418.591	502.46
418.967	527.09
419.344	508.33
419.721	536.13
420.098	529.12
420.475	541.33
420.852	536.58
421.228	546.53
421.605	539.29
421.982	539.29
422.358	539.29
422.735	525.51
423.111	540.42
423.488	556.92
423.864	544.49
424.241	565.06
424.617	554.43
424.994	557.15
425.37	564.83
425.746	571.38
426.123	571.16
426.499	568.45
426.875	574.1
427.251	589.24
427.627	602.34
428.003	596.92
428.379	599.18
428.756	602.12
429.132	602.57
429.507	616.81
429.883	588.33
430.259	627.43
430.635	630.14
431.011	652.06
431.387	646.18
431.763	645.05
432.138	637.37
432.514	669.69
432.89	633.08
433.265	638.73
433.641	664.71
434.016	674.21
434.392	669.91
434.767	693.87
435.143	692.96
435.518	702
435.894	690.25
436.269	726.18
436.644	711.94
437.02	716.24
437.395	703.13
437.77	729.57
438.145	751.94
438.52	716.46
438.895	740.19
439.271	733.64
439.646	726.18
440.021	767.08
440.395	743.81
440.77	755.79
441.145	762.79
441.52	758.5
441.895	776.58
442.27	777.93
442.645	790.13
443.019	788.55
443.394	775.45
443.769	791.49
444.143	782.9
444.518	808.89
444.892	795.11
445.267	793.52
445.641	818.16
446.016	812.28
446.39	805.5
446.764	819.74
447.139	817.93
447.513	828.33
447.887	840.98
448.262	851.83
448.636	828.78
449.01	852.28
449.384	820.19
449.758	872.17
450.132	854.77
450.506	874.43
450.88	878.27
451.254	883.01
451.628	906.52
452.002	886.4
452.376	909.23
452.75	913.97
453.123	950.13
453.497	925.05
453.871	948.1
454.244	967.31
454.618	932.28
454.992	956.68
455.365	976.57
455.739	982.45
456.112	992.16
456.486	1003.91
456.859	1018.83
457.232	1006.63
457.606	1061.31
457.979	1023.35
458.352	1032.61
458.725	1037.81
459.099	1069.22
459.472	1066.51
459.845	1103.35
460.218	1092.95
460.591	1112.39
460.964	1100.41
461.337	1151.26
461.71	1141.76
462.083	1167.3
462.456	1156.68
462.829	1191.48
463.201	1185.6
463.574	1215.66
463.947	1207.3
464.32	1213.4
464.692	1229.22
465.065	1200.75
465.438	1247.52
465.81	1292.27
466.183	1282.78
466.555	1298.37
466.928	1327.97
467.3	1318.71
467.672	1355.54
468.045	1375.43
468.417	1381.98
468.789	1399.16
469.161	1402.77
469.534	1441.87
469.906	1455.43
470.278	1462.21
470.65	1488.42
471.022	1503.79
471.394	1523.45
471.766	1538.82
472.138	1540.4
472.51	1589.44
472.882	1631.69
473.253	1625.59
473.625	1676.21
473.997	1712.82
474.369	1692.94
474.74	1744.01
475.112	1766.83
475.484	1805.02
475.855	1853.84
476.227	1850.9
476.598	1899.26
476.97	1908.98
477.341	1962.31
477.713	1969.99
478.084	1992.14
478.455	2031.46
478.827	2068.29
479.198	2136.99
479.569	2155.75
479.94	2186.93
480.311	2199.82
480.682	2270.32
481.053	2305.8
481.424	2369.53
481.795	2419.47
482.166	2426.02
482.537	2478.68
482.908	2502.18
483.279	2563.42
483.65	2622.4
484.021	2704.21
484.391	2720.48
484.762	2744.21
485.133	2768.84
485.503	2833.7
485.874	2873.47
486.244	2898.55
486.615	2978.55
486.985	3046.12
487.356	3099.9
487.726	3172.44
488.097	3207.02
488.467	3235.72
488.837	3297.87
489.207	3364.53
489.578	3400.91
489.948	3386.68
490.318	3478.43
490.688	3494.47
491.058	3564.75
491.428	3606.33
491.798	3661.02
492.168	3725.2
492.538	3748.47
492.908	3795.48
493.278	3885.65
493.648	3863.27
494.017	3929.94
494.387	3977.85
494.757	3997.96
495.126	4039.31
495.496	4063.95
495.866	4096.71
496.235	4151.85
496.605	4223.49
496.974	4201.34
497.344	4280.44
497.713	4283.15
498.082	4313.43
498.452	4348.01
498.821	4396.37
499.19	4418.97
499.559	4483.6
499.928	4496.93
500.298	4514.33
500.667	4568.34
501.036	4587.32
501.405	4647.66
501.774	4609.24
502.143	4717.49
502.512	4686.98
502.88	4752.52
503.249	4721.33
503.618	4749.58
503.987	4794.78
504.356	4898.05
504.724	4828.9
505.093	4875.22
505.462	4911.83
505.83	4928.78
506.199	4917.94
506.567	5010.36
506.936	5011.27
507.304	5076.35
507.672	5116.35
508.041	5164.93
508.409	5165.16
508.777	5200.64
509.145	5199.51
509.514	5249.23
509.882	5267.98
510.25	5262.33
510.618	5289.45
510.986	5308.89
511.354	5362.44
511.722	5443.8
512.09	5417.58
512.458	5381.65
512.826	5484.93
513.193	5514.08
513.561	5497.58
513.929	5542.55
514.297	5572.61
514.664	5544.36
515.032	5667.52
515.4	5651.7
515.767	5658.03
516.135	5672.72
516.502	5648.09
516.869	5758.82
517.237	5810.79
517.604	5754.52
517.972	5792.94
518.339	5863
518.706	5815.99
519.073	5853.73
519.44	5858.7
519.808	5934.18
520.175	5974.86
520.542	6009.21
520.909	6006.27
521.276	6036.78
521.643	6091.46
522.009	6106.38
522.376	6146.15
522.743	6171.01
523.11	6261.4
523.477	6236.32
523.843	6257.34
524.21	6332.81
524.577	6370.1
524.943	6382.76
525.31	6396.09
525.676	6463.43
526.043	6464.79
526.409	6548.4
526.776	6568.06
527.142	6621.17
527.508	6574.62
527.874	6627.5
528.241	6684.67
528.607	6741.62
528.973	6758.57
529.339	6775.51
529.705	6856.87
530.071	6820.94
530.437	6936.87
530.803	6977.09
531.169	7023.64
531.535	7025.22
531.901	7055.28
532.267	7109.97
532.632	7154.26
532.998	7164.43
533.364	7161.49
533.73	7130.98
534.095	7243.98
534.461	7238.78
534.826	7279.23
535.192	7340.02
535.557	7367.59
535.923	7384.99
536.288	7396.74
536.653	7377.76
537.019	7488.72
537.384	7493.69
537.749	7611.65
538.114	7559.22
538.479	7603.06
538.845	7629.28
539.21	7600.13
539.575	7619.11
539.94	7664.08
540.305	7725.09
540.67	7701.82
541.034	7755.6
541.399	7852.55
541.764	7788.59
542.129	7914.47
542.494	7920.34
542.858	7963.28
543.223	7938.65
543.587	7974.58
543.952	7969.61
544.316	8065.65
544.681	8115.37
545.045	8111.3
545.41	8179.09
545.774	8184.06
546.138	8227.23
546.503	8201.92
546.867	8267
547.231	8233.78
547.595	8329.6
547.959	8326.66
548.324	8382.93
548.688	8445.53
549.052	8468.35
549.416	8474.45
549.779	8461.35
550.143	8491.4
550.507	8538.18
550.871	8584.05
551.235	8609.82
551.599	8662.92
551.962	8624.96
552.326	8703.15
552.689	8744.95
553.053	8668.57
553.417	8713.09
553.78	8813.43
554.143	8801
554.507	8847.1
554.87	8909.47
555.234	8992.63
555.597	8960.54
555.96	8970.71
556.323	9052.52
556.686	9007.09
557.05	9120.09
557.413	9106.98
557.776	9119.41
558.139	9154.66
558.502	9222
558.865	9238.5
559.228	9292.06
559.59	9339.97
559.953	9342.9
560.316	9383.13
560.679	9409.79
561.041	9520.98
561.404	9489.57
561.767	9561.2
562.129	9521.66
562.492	9604.59
562.854	9588.77
563.217	9584.03
563.579	9679.39
563.941	9709.9
564.304	9751.03
564.666	9818.15
565.028	9804.36
565.39	9854.98
565.753	9890.23
566.115	9940.85
566.477	9958.48
566.839	9959.84
567.201	10035.99
567.563	10075.77
567.925	10158.93
568.287	10157.35
568.648	10135.2
569.01	10206.38
569.372	10292.94
569.734	10271.02
570.095	10322.77
570.457	10403.22
570.819	10363.22
571.18	10422.88
571.542	10556.88
571.903	10588.3
572.265	10573.61
572.626	10586.49
572.987	10648.41
573.349	10795.3
573.71	10769.76
574.071	10815.18
574.432	10846.82
574.794	10949.42
575.155	11040.03
575.516	11059.02
575.877	11147.6
576.238	11209.52
576.599	11275.06
576.96	11375.17
577.32	11384.66
577.681	11577.87
578.042	11653.8
578.403	11661.26
578.763	11757.53
579.124	11924.08
579.485	11998.88
579.845	12091.08
580.206	12176.73
580.566	12343.5
580.927	12423.73
581.287	12574.01
581.648	12660.33
582.008	12902.81
582.368	12912.3
582.728	13077.95
583.089	13317.49
583.449	13425.06
583.809	13630.7
584.169	13714.09
584.529	13866.4
584.889	14128.31
585.249	14340.74
585.609	14432.71
585.969	14774.63
586.329	14952.02
586.688	15151.11
587.048	15318.11
587.408	15461.84
587.768	15822.06
588.127	16142.5
588.487	16196.96
588.846	16587.69
589.206	16713.78
589.565	17018.41
589.925	17389.02
590.284	17589.92
590.643	17914.2
591.003	18212.73
591.362	18434.64
591.721	18662.21
592.08	18923.22
592.44	19259.48
592.799	19520.04
593.158	19755.29
593.517	20104.88
593.876	20446.57
594.235	20783.06
594.593	21063.73
594.952	21400.44
595.311	21645.18
595.67	21903.03
596.029	22467.76
596.387	22722.89
596.746	23077.91
597.104	23406.04
597.463	23627.73
597.822	24031.56
598.18	24178.67
598.538	24494.37
598.897	24991.76
599.255	25023.17
599.613	25639.65
599.972	25844.84
600.33	26151.28
600.688	26493.87
601.046	26794.87
601.404	27161.19
601.762	27399.15
602.12	27806.37
602.478	28166.36
602.836	28385.12
603.194	28599.8
603.552	28901.49
603.91	29182.38
604.268	29422.83
604.625	29619.89
604.983	30060.33
605.341	30265.52
605.698	30547.54
606.056	30964.48
606.413	31173.29
606.771	31575.99
607.128	31904.12
607.485	31883.1
607.843	32234.51
608.2	32505.46
608.557	32833.59
608.914	32906.8
609.272	33415.49
609.629	33751.98
609.986	33932.77
610.343	34114.91
610.7	34445.07
611.057	34533.2
611.414	34658.4
611.771	34968.67
612.127	35280.08
612.484	35319.62
612.841	35849.78
613.198	35840.74
613.554	35935.65
613.911	36373.61
614.267	36440.04
614.624	36590.55
614.98	36998
615.337	37220.14
615.693	37326.58
616.05	37390.53
616.406	37739.67
616.762	37753.91
617.118	37950.97
617.475	38207
617.831	38323.61
618.187	38579.65
618.543	38585.52
618.899	39098.96
619.255	38948
619.611	39099.86
619.967	39493.52
620.323	39638.38
620.678	39432.96
621.034	39514.31
621.39	39651.03
621.746	39722.9
622.101	40299.6
622.457	40031.59
622.812	40147.52
623.168	40492.59
623.523	40410.56
623.879	40759.03
624.234	40497.34
624.589	40760.38
624.945	40966.71
625.3	41024.56
625.655	41071.34
626.01	41066.14
626.365	41335.74
626.72	41356.07
627.075	41329.18
627.43	41396.98
627.785	41507.26
628.14	41615.95
628.495	41647.37
628.85	41575.95
629.205	41482.4
629.559	41827.02
629.914	41583.41
630.269	41778.44
630.623	41733.46
630.978	41724.65
631.332	42193.11
631.687	42122.83
632.041	41919.67
632.396	41999.45
632.75	41864.53
633.104	42107.24
633.459	41963.29
633.813	42020.24
634.167	42151.08
634.521	42164.87
634.875	42233.11
635.229	42185.43
635.583	41980.24
635.937	42062.5
636.291	42173.91
636.645	42117.86
636.999	42009.62
637.352	42170.97
637.706	42004.19
638.06	42180.68
638.413	42112.89
638.767	42094.59
639.121	42122.61
639.474	42116.73
639.828	42029.95
640.181	42060.69
640.534	42130.74
640.888	42089.39
641.241	42001.71
641.594	42010.52
641.947	42191.08
642.301	41932.56
642.654	42101.14
643.007	42111.53
643.36	42175.94
643.713	41954.02
644.066	42176.39
644.419	41771.88
644.771	41582.73
645.124	41351.1
645.477	41278.79
645.83	40947.95
646.182	40853.49
646.535	40785.47
646.888	41011.68
647.24	40754.06
647.593	41057.1
647.945	40898.01
648.298	40645.36
648.65	40637
649.002	40562.42
649.355	40779.14
649.707	40687.84
650.059	40942.3
650.411	41372.8
650.763	41383.42
651.115	41790.86
651.467	41602.85
651.819	41600.13
652.171	41610.76
652.523	41389.07
652.875	41565.11
653.227	41324.66
653.578	41748.38
653.93	41639.68
654.282	41372.8
654.633	41366.69
654.985	41570.53
655.337	41443.98
655.688	41436.07
656.039	41559.46
656.391	41201.05
656.742	41270.2
657.094	41367.15
657.445	41515.17
657.796	41299.58
658.147	41247.15
658.498	41416.86
658.849	41304.1
659.2	41363.53
659.551	41296.41
659.902	41453.25
660.253	41330.09
660.604	41355.62
660.955	41144.78
661.306	41326.02
661.656	41205.34
662.007	41324.89
662.358	41375.96
662.708	41227.49
663.059	41246.7
663.409	41039.7
663.76	41299.58
664.11	41316.3
664.461	41386.13
664.811	41286.47
665.161	41290.31
665.511	41124.44
665.862	41156.3
666.212	41172.12
666.562	41211.67
666.912	41123.76
667.262	41108.4
667.612	41186.81
667.962	41153.37
668.312	41149.75
668.662	41155.4
669.011	41104.1
669.361	41061.39
669.711	41104.33
670.06	41022.98
670.41	40989.76
670.76	41018.68
671.109	41192.69
671.459	41027.49
671.808	41021.85
672.157	41021.62
672.507	40832.47
672.856	40868.4
673.205	40829.31
673.554	40971.22
673.904	41030.21
674.253	41194.5
674.602	40814.39
674.951	40526.04
675.3	40325.82
675.649	40873.37
675.998	40854.84
676.346	40839.48
676.695	40851
677.044	40599.03
677.393	40773.72
677.741	40761.29
678.09	40617.11
678.438	40475.64
678.787	40694.4
679.135	40720.16
679.484	40516.55
679.832	40684.9
680.181	40298.02
680.529	40456.66
680.877	40205.82
681.225	40292.82
681.573	40537.79
681.922	40210.12
682.27	40102.55
682.618	40161.53
682.966	40093.51
683.314	40143.9
683.661	40035.88
684.009	39729.45
684.357	39809.45
684.705	39726.06
685.053	39811.26
685.4	39654.42
685.748	39632.96
686.095	39667.08
686.443	39452.62
686.79	39404.71
687.138	39516.12
687.485	39422.34
687.832	39364.94
688.18	39339.4
688.527	39038.62
688.874	39219.63
689.221	38984.61
689.568	38821.45
689.915	38756.14
690.262	38884.27
690.609	38795.01
690.956	38669.14
691.303	38587.11
691.65	38362.71
691.997	38411.29
692.344	38253.33
692.69	38268.92
693.037	38251.75
693.383	37884.3
693.73	38048.36
694.077	37635.49
694.423	37733.8
694.769	37711.2
695.116	37575.16
695.462	37496.06
695.808	37306.24
696.155	37547.13
696.501	37321.38
696.847	37198.67
697.193	36968.84
697.539	37071.89
697.885	36836.64
698.231	36811.56
698.577	36899.24
698.923	36733.82
699.269	36542.19
699.614	36362.31
699.96	36401.63
700.306	36422.87
700.651	36031.69
700.997	36158.92
701.342	36075.99
701.688	36065.37
702.033	35721.19
702.379	35826.95
702.724	35661.31
703.069	35729.33
703.415	35407.53
703.76	35514.19
704.105	35454.31
704.45	35378.6
704.795	35224.26
705.14	35052.74
705.485	35040.08
705.83	34964.15
706.175	34972.29
706.52	34840.99
706.865	34737.72
707.209	34797.83
707.554	34529.36
707.899	34579.53
708.243	34503.82
708.588	34506.31
708.932	34162.14
709.277	34155.36
709.621	34273.77
709.966	34065.19
710.31	33978.41
710.654	33789.04
710.998	33829.27
711.342	33758.53
711.687	33750.4
712.031	33672.89
712.375	33514.02
712.719	33553.79
713.063	33656.62
713.407	33449.84
713.75	33271.54
714.094	33292.56
714.438	33149.51
714.782	33229.06
715.125	33192.67
715.469	33202.84
715.812	32966.69
716.156	32820.93
716.499	32824.77
716.843	32897.76
717.186	32616.42
717.53	32719.01
717.873	32732.12
718.216	32659.81
718.559	32423.65
718.902	32285.58
719.246	32335.75
719.589	32313.83
719.932	32029.99
720.275	32131.68
720.617	32110.44
720.96	31971.69
721.303	31930.78
721.646	32053.27
721.989	31756.78
722.331	31954.96
722.674	31813.5
723.016	31816.21
723.359	31758.59
723.701	31875.19
724.044	31528.99
724.386	31371.7
724.729	31684.92
725.071	31468.65
725.413	31413.28
725.755	31444.24
726.097	31263.23
726.439	31248.09
726.782	31179.84
727.124	31321.31
727.465	31018.72
727.807	31065.27
728.149	30986.4
728.491	30943.92
728.833	31096
729.175	30859.17
729.516	30801.32
729.858	30781.44
730.199	30868.21
730.541	30758.84
730.882	30603.36
731.224	30936.46
731.565	30550.93
731.906	30541.67
732.248	30566.53
732.589	30490.82
732.93	30303.93
733.271	30352.07
733.612	30373.31
733.953	30356.14
734.294	30211.28
734.635	30282.47
734.976	30196.59
735.317	30135.13
735.658	30115.47
735.999	30180.77
736.339	29941.91
736.68	30093.09
737.021	30041.12
737.361	29809.03
737.702	29931.06
738.042	29812.2
738.383	29786.89
738.723	29785.53
739.063	29673.89
739.404	29606.33
739.744	29722.93
740.084	29555.03
740.424	29630.05
740.764	29612.2
741.104	29675.7
741.444	29511.87
741.784	29370.4
742.124	29343.06
742.464	29360.68
742.804	29247.01
743.143	29374.47
743.483	29277.07
743.823	29077.07
744.162	29134.93
744.502	29159.56
744.841	29004.99
745.181	29230.29
745.52	29130.41
745.86	28971.09
746.199	28986.46
746.538	28877.53
746.877	28971.77
747.216	28924.76
747.556	28903.29
747.895	28907.59
748.234	28679.12
748.573	28696.29
748.911	28602.51
749.25	28539.91
749.589	28437.77
749.928	28500.82
750.267	28593.7
750.605	28504.89
750.944	28342.4
751.283	28230.32
751.621	28260.6
751.96	28200.49
752.298	28189.87
752.636	28229.41
752.975	28153.26
753.313	27875.07
753.651	28071.45
753.989	27826.03
754.327	27942.19
754.666	27861.29
755.004	27900.83
755.342	27845.24
755.679	27736.09
756.017	27631.46
756.355	27640.95
756.693	27599.83
757.031	27542.88
757.368	27384.24
757.706	27379.72
758.044	27271.47
758.381	27470.79
758.719	27402.77
759.056	27236.67
759.394	27234.19
759.731	27067.18
760.068	26937.7
