Data from hue_34_FLMS001491_00079.txt Node
Date: Tue Feb 07 17:26:08 GMT 2017
User: dcchb
Spectrometer: FLMS00149
Trigger mode: 0
Integration Time (sec): 2.000000E-2
Scans to average: 10
Electric dark correction enabled: true
Nonlinearity correction enabled: false
Boxcar width: 0
XAxis mode: Wavelengths
Number of Pixels in Spectrum: 2048
>>>>>Begin Spectral Data<<<<<
341.393	-5.8
341.776	-5.8
342.16	-5.8
342.543	-81.51
342.927	-69.53
343.31	-59.36
343.693	-67.95
344.077	-61.4
344.46	-63.88
344.843	-51.45
345.226	-59.14
345.61	-45.13
345.993	-15.07
346.376	-4.68
346.759	10.69
347.142	25.61
347.525	36.68
347.908	68.54
348.291	88.88
348.674	81.65
349.057	116
349.44	118.71
349.823	142.21
350.206	174.76
350.588	188.54
350.971	213.4
351.354	228.54
351.737	242.78
352.119	254.75
352.502	267.86
352.884	274.19
353.267	277.58
353.65	307.63
354.032	294.75
354.414	326.39
354.797	301.08
355.179	338.14
355.562	335.66
355.944	345.82
356.326	319.38
356.709	330.68
357.091	338.14
357.473	343.34
357.855	329.33
358.238	341.08
358.62	359.16
359.002	327.29
359.384	358.03
359.766	346.5
360.148	332.04
360.53	333.62
360.912	323.9
361.294	331.81
361.676	330.46
362.057	345.15
362.439	328.2
362.821	325.26
363.203	344.47
363.584	341.98
363.966	323.23
364.348	316.22
364.729	334.98
365.111	313.06
365.493	347.86
365.874	342.43
366.256	324.81
366.637	297.46
367.019	312.15
367.4	313.73
367.781	310.57
368.163	323
368.544	321.87
368.925	324.36
369.306	322.55
369.688	330.01
370.069	323.9
370.45	314.86
370.831	316.22
371.212	334.07
371.593	323.23
371.974	320.06
372.355	338.59
372.736	334.53
373.117	326.39
373.498	336.33
373.879	326.16
374.26	330.46
374.641	322.55
375.021	306.5
375.402	326.16
375.783	324.58
376.163	330.23
376.544	327.07
376.925	326.16
377.305	342.66
377.686	330.68
378.066	347.41
378.447	339.27
378.827	323
379.208	327.29
379.588	332.27
379.968	348.54
380.349	351.25
380.729	329.78
381.109	339.72
381.489	339.72
381.87	327.52
382.25	330.46
382.63	351.02
383.01	346.28
383.39	354.86
383.77	365.71
384.15	354.41
384.53	351.25
384.91	342.43
385.29	355.32
385.67	345.37
386.049	350.12
386.429	353.73
386.809	353.51
387.189	365.03
387.568	364.35
387.948	340.85
388.328	360.74
388.707	361.42
389.087	365.71
389.466	395.54
389.846	358.93
390.225	388.53
390.605	357.58
390.984	370
391.363	377.01
391.743	368.2
392.122	373.39
392.501	377.69
392.881	376.33
393.26	384.24
393.639	393.51
394.018	393.05
394.397	397.12
394.776	399.61
395.155	374.07
395.534	391.25
395.913	380.17
396.292	390.79
396.671	395.54
397.05	404.58
397.429	378.14
397.808	385.82
398.186	390.12
398.565	408.65
398.944	418.82
399.323	398.7
399.701	396.9
400.08	384.24
400.458	386.95
400.837	408.2
401.215	440.96
401.594	417.01
401.972	417.91
402.351	403.45
402.729	411.81
403.107	420.85
403.486	407.52
403.864	419.27
404.242	430.12
404.62	417.01
404.999	425.82
405.377	426.5
405.755	449.55
406.133	425.82
406.511	428.31
406.889	444.8
407.267	422.88
407.645	429.66
408.023	437.35
408.401	455.65
408.779	434.18
409.156	466.73
409.534	435.77
409.912	467.85
410.29	471.47
410.667	455.88
411.045	467.85
411.422	473.73
411.8	494.75
412.178	475.99
412.555	474.63
412.933	464.47
413.31	501.3
413.687	479.83
414.065	503.33
414.442	483
414.819	504.24
415.197	475.99
415.574	526.61
415.951	502.88
416.328	495.42
416.705	503.11
417.082	489.78
417.46	473.05
417.837	523.67
418.214	516.67
418.591	530.68
418.967	526.61
419.344	512.83
419.721	539.49
420.098	533.62
420.475	533.62
420.852	540.85
421.228	558.93
421.605	535.42
421.982	532.49
422.358	539.94
422.735	569.55
423.111	546.72
423.488	553.73
423.864	560.51
424.241	561.19
424.617	586.5
424.994	563.45
425.37	577
425.746	580.39
426.123	602.99
426.499	597.12
426.875	602.54
427.251	600.28
427.627	598.92
428.003	612.03
428.379	620.62
428.756	610.45
429.132	625.82
429.507	631.69
429.883	631.69
430.259	642.77
430.635	639.38
431.011	656.32
431.387	640.51
431.763	649.09
432.138	651.58
432.514	673.27
432.89	661.75
433.265	679.83
433.641	693.16
434.016	697.45
434.392	694.29
434.767	701.52
435.143	688.64
435.518	709.43
435.894	712.59
436.269	727.96
436.644	718.47
437.02	720.5
437.395	747.17
437.77	740.39
438.145	730.22
438.52	756.21
438.895	748.75
439.271	759.82
439.646	785.81
440.021	771.58
440.395	781.97
440.77	791.01
441.145	777.68
441.52	776.1
441.895	806.15
442.27	796.66
442.645	819.26
443.019	809.54
443.394	792.37
443.769	805.02
444.143	813.61
444.518	834.17
444.892	810.67
445.267	821.29
445.641	838.92
446.016	826.72
446.39	833.5
446.764	855.42
447.139	857
447.513	869.65
447.887	866.04
448.262	866.94
448.636	878.01
449.01	867.84
449.384	894.96
449.758	884.34
450.132	872.36
450.506	897.9
450.88	918.46
451.254	922.08
451.628	913.49
452.002	903.1
452.376	946.26
452.75	953.72
453.123	973.6
453.497	953.94
453.871	961.85
454.244	966.82
454.618	986.03
454.992	1026.94
455.365	995.07
455.739	1007.28
456.112	999.37
456.486	1019.48
456.859	1028.29
457.232	1061.51
457.606	1057.44
457.979	1059.25
458.352	1045.69
458.725	1111.45
459.099	1098.8
459.472	1144.67
459.845	1112.36
460.218	1135.63
460.591	1131.34
460.964	1158.23
461.337	1165.92
461.71	1198.91
462.083	1234.16
462.456	1225.58
462.829	1219.25
463.201	1233.26
463.574	1247.5
463.947	1262.64
464.32	1294.27
464.692	1296.99
465.065	1294.95
465.438	1307.61
465.81	1330.43
466.183	1365.91
466.555	1387.83
466.928	1404.78
467.3	1397.1
467.672	1415.85
468.045	1456.08
468.417	1444.55
468.789	1476.64
469.161	1513.7
469.534	1512.12
469.906	1549.86
470.278	1588.96
470.65	1607.49
471.022	1616.07
471.394	1647.26
471.766	1682.74
472.138	1693.81
472.51	1769.74
472.882	1780.36
473.253	1794.37
473.625	1810.19
473.997	1870.53
474.369	1911.66
474.74	1919.57
475.112	1981.49
475.484	2042.73
475.855	2036.4
476.227	2059.23
476.598	2158.43
476.97	2183.97
477.341	2245.89
477.713	2283.85
478.084	2306.68
478.455	2381.48
478.827	2402.95
479.198	2497.18
479.569	2548.03
479.94	2600.23
480.311	2661.92
480.682	2726.55
481.053	2794.8
481.424	2862.37
481.795	2937.85
482.166	3002.93
482.537	3068.01
482.908	3143.72
483.279	3216.26
483.65	3322.7
484.021	3405.18
484.391	3452.86
484.762	3517.94
485.133	3607.21
485.503	3684.27
485.874	3778.5
486.244	3823.25
486.615	3937.37
486.985	4035.67
487.356	4159.51
487.726	4201.09
488.097	4341.2
488.467	4415.32
488.837	4521.76
489.207	4592.94
489.578	4690.12
489.948	4771.92
490.318	4888.53
490.688	4966.04
491.058	5044.01
491.428	5150.44
491.798	5232.48
492.168	5352.7
492.538	5444
492.908	5513.37
493.278	5676.98
493.648	5676.98
494.017	5814.61
494.387	5899.35
494.757	5974.38
495.126	6097.76
495.496	6133.47
495.866	6230.87
496.235	6288.49
496.605	6377.98
496.974	6488.04
497.344	6568.71
497.713	6672.21
498.082	6691.42
498.452	6826.33
498.821	6844.64
499.19	6921.7
499.559	7002.82
499.928	7054.8
500.298	7173.89
500.667	7265.42
501.036	7264.51
501.405	7418.63
501.774	7455.69
502.143	7594
502.512	7623.15
502.88	7691.39
503.249	7683.48
503.618	7734.33
503.987	7830.37
504.356	7909.69
504.724	7958.96
505.093	8030.37
505.462	8084.15
505.83	8188.1
506.199	8265.39
506.567	8332.73
506.936	8398.49
507.304	8458.15
507.672	8535.89
508.041	8525.72
508.409	8630.13
508.777	8783.34
509.145	8748.09
509.514	8824.7
509.882	8931.14
510.25	8919.84
510.618	8955.77
510.986	8973.39
511.354	9101.53
511.722	9199.15
512.09	9254.97
512.458	9250.9
512.826	9398.92
513.193	9415.87
513.561	9494.74
513.929	9497.9
514.297	9651.57
514.664	9683.66
515.032	9706.48
515.4	9778.8
515.767	9822.64
516.135	9891.79
516.502	9871
516.869	9984.44
517.237	9998.23
517.604	10023.76
517.972	10144.66
518.339	10174.49
518.706	10225.56
519.073	10252.46
519.44	10309.63
519.808	10424.2
520.175	10411.77
520.542	10553.47
520.909	10570.41
521.276	10557.31
521.643	10666.91
522.009	10762.5
522.376	10857.19
522.743	10890.41
523.11	10953
523.477	11137.86
523.843	11096.73
524.21	11234.35
524.577	11314.8
524.943	11248.81
525.31	11437.06
525.676	11414.23
526.043	11569.48
526.409	11582.36
526.776	11680.22
527.142	11724.06
527.508	11773.09
527.874	11955.46
528.241	11917.95
528.607	11962.24
528.973	12072.52
529.339	12134.67
529.705	12211.95
530.071	12283.36
530.437	12372.17
530.803	12428.67
531.169	12476.13
531.535	12455.11
531.901	12521.32
532.267	12525.39
532.632	12614.43
532.998	12681.77
533.364	12816.46
533.73	12821.65
534.095	12948.88
534.461	13035.21
534.826	13066.39
535.192	13146.17
535.557	13171.02
535.923	13184.13
536.288	13240.63
536.653	13326.27
537.019	13227.07
537.384	13369.21
537.749	13481.75
538.114	13498.02
538.479	13489.89
538.845	13573.95
539.21	13533.73
539.575	13692.37
539.94	13675.87
540.305	13850.33
540.67	13820.27
541.034	13875.19
541.399	13966.48
541.764	13949.53
542.129	14039.25
542.494	14075.86
542.858	14167.83
543.223	14217.1
543.587	14257.77
543.952	14315.63
544.316	14380.48
544.681	14381.16
545.045	14530.54
545.41	14580.93
545.774	14549.52
546.138	14709.29
546.503	14733.92
546.867	14654.37
547.231	14763.75
547.595	14771.89
547.959	14883.3
548.324	14921.71
548.688	14961.71
549.052	15031.77
549.416	14981.6
549.779	15089.17
550.143	15046.68
550.507	15216.17
550.871	15310.63
551.235	15308.14
551.599	15422.04
551.962	15479.21
552.326	15558.08
552.689	15557.4
553.053	15485.77
553.417	15635.37
553.78	15770.96
554.143	15733.44
554.507	15798.07
554.87	15827.23
555.234	16022.25
555.597	15948.8
555.96	16011.85
556.323	16017.28
556.686	16103.38
557.05	16146.99
557.413	16235.12
557.776	16230.38
558.139	16375.91
558.502	16462.24
558.865	16401.67
559.228	16628.79
559.59	16585.85
559.953	16561.22
560.316	16773.64
560.679	16727.77
561.041	16914.88
561.404	16981.09
561.767	17027.87
562.129	16929.57
562.492	17170.47
562.854	17203.69
563.217	17071.94
563.579	17272.84
563.941	17394.42
564.304	17426.73
564.666	17580.85
565.028	17582.66
565.39	17654.07
565.753	17691.58
566.115	17762.32
566.477	17793.5
566.839	17832.6
567.201	17908.75
567.563	17962.99
567.925	18048.64
568.287	18076.88
568.648	18163.43
569.01	18271.23
569.372	18412.47
569.734	18330.66
570.095	18440.26
570.457	18598.68
570.819	18601.84
571.18	18647.94
571.542	18804.55
571.903	18785.79
572.265	18920.48
572.626	18908.05
572.987	19110.53
573.349	19171.32
573.71	19325.89
574.071	19439.11
574.432	19414.25
574.794	19632.32
575.155	19710.96
575.516	19540.57
575.877	19776.95
576.238	19819.89
576.599	20036.15
576.96	20057.4
577.32	20221.01
577.681	20321.12
578.042	20520.44
578.403	20667.32
578.763	20722.92
579.124	20931.95
579.485	21097.37
579.845	21226.41
580.206	21397.7
580.566	21451.48
580.927	21580.97
581.287	21831.59
581.648	21948.42
582.008	22292.14
582.368	22292.37
582.728	22522.64
583.089	22642.19
583.449	22847.83
583.809	23077.66
584.169	23356.07
584.529	23473.8
584.889	23772.1
585.249	23823.17
585.609	24054.58
585.969	24475.36
586.329	24567.56
586.688	24646.43
587.048	24953.99
587.408	25128
587.768	25390.36
588.127	25621.09
588.487	25818.6
588.846	26262.88
589.206	26335.42
589.565	26628.97
589.925	26904.67
590.284	27002.3
590.643	27365.23
591.003	27649.97
591.362	28043.4
591.721	28167.69
592.08	28475.25
592.44	28655.81
592.799	28948.91
593.158	29211.05
593.517	29491.95
593.876	29754.09
594.235	29912.28
594.593	30055.33
594.952	30560.85
595.311	30572.6
595.67	30976.21
596.029	31326.03
596.387	31584.1
596.746	31870.42
597.104	31897.09
597.463	32125.55
597.822	32483.96
598.18	32678.99
598.538	32876.72
598.897	33236.94
599.255	33346.99
599.613	33827.88
599.972	33926.18
600.33	34196.91
600.688	34368.43
601.046	34640.29
601.404	34934.97
601.762	34992.14
602.12	35394.85
602.478	35645.24
602.836	35743.99
603.194	35834.83
603.552	36028.95
603.91	36204.99
604.268	36700.35
604.625	36562.73
604.983	36865.99
605.341	37011.3
605.698	37284.06
606.056	37456.49
606.413	37644.5
606.771	37745.74
607.128	38009.69
607.485	38044.72
607.843	38336.92
608.2	38627.3
608.557	38705.72
608.914	38778.03
609.272	39064.58
609.629	39314.52
609.986	39555.64
610.343	39514.51
610.7	39926.7
611.057	39877.89
611.414	40048.51
611.771	40169.64
612.127	40409.63
612.484	40630.64
612.841	40803.52
613.198	40783.86
613.554	40777.08
613.911	41172.77
614.267	41184.75
614.624	41345.88
614.98	41526.89
615.337	41805.53
615.693	41671.97
616.05	41866.54
616.406	42229.02
616.762	41957.16
617.118	42250.71
617.475	42382.91
617.831	42391.27
618.187	42516.01
618.543	42595.56
618.899	42872.84
619.255	42845.05
619.611	42905.16
619.967	43200.29
620.323	43263.34
620.678	43177.69
621.034	43307.63
621.39	43140.86
621.746	43291.81
622.101	43921.85
622.457	43560.96
622.812	43755.3
623.168	43786.94
623.523	43880.95
623.879	43952.81
624.234	43746.04
624.589	44045.24
624.945	44079.59
625.3	44204.56
625.655	44246.14
626.01	44198.91
626.365	44254.73
626.72	44336.98
627.075	44319.58
627.43	44388.73
627.785	44350.99
628.14	44346.93
628.495	44573.59
628.85	44531.78
629.205	44482.74
629.559	44790.76
629.914	44537.88
630.269	44495.62
630.623	44534.04
630.978	44491.1
631.332	44781.49
631.687	44771.55
632.041	44592.8
632.396	44687.71
632.75	44562.06
633.104	44565.23
633.459	44604.55
633.813	44621.95
634.167	44691.1
634.521	44576.3
634.875	44783.3
635.229	44619.01
635.583	44545.11
635.937	44629.41
636.291	44519.8
636.645	44661.27
636.999	44585.56
637.352	44683.64
637.706	44402.52
638.06	44687.71
638.413	44554.61
638.767	44499.69
639.121	44595.96
639.474	44188.74
639.828	44428.51
640.181	44545.34
640.534	44387.15
640.888	44397.77
641.241	44182.19
641.594	44269.64
641.947	44302.63
642.301	44204.56
642.654	44289.75
643.007	44353.25
643.36	44252.24
643.713	44167.5
644.066	44375.4
644.419	44050.21
644.771	43779.94
645.124	43429.89
645.477	43469.21
645.83	43100.18
646.182	43057.47
646.535	43064.02
646.888	43129.56
647.24	42850.02
647.593	43084.59
647.945	43073.51
648.298	42840.3
648.65	42649.12
649.002	42685.5
649.355	42863.35
649.707	42798.49
650.059	43083.68
650.411	43457.91
650.763	43445.93
651.115	43950.1
651.467	43624.69
651.819	43803.44
652.171	43731.12
652.523	43675.76
652.875	43709.88
653.227	43473.28
653.578	43739.26
653.93	43576.55
654.282	43494.97
654.633	43447.74
654.985	43448.65
655.337	43584.01
655.688	43547.63
656.039	43761.18
656.391	43334.07
656.742	43336.78
657.094	43444.13
657.445	43500.4
657.796	43483.9
658.147	43387.86
658.498	43368.42
658.849	43506.05
659.2	43240.29
659.551	43207.75
659.902	43468.76
660.253	43435.09
660.604	43360.96
660.955	43196.67
661.306	43395.09
661.656	43333.85
662.007	43307.63
662.358	43302.66
662.708	43191.03
663.059	43306.28
663.409	42991.26
663.76	43165.49
664.11	43174.75
664.461	43281.19
664.811	43372.49
665.161	43281.87
665.511	43203.45
665.862	43258.59
666.212	43237.58
666.562	43065.38
666.912	43039.39
667.262	43059.73
667.612	43166.85
667.962	43126.85
668.312	42918.94
668.662	43254.75
669.011	43155.09
669.361	43163
669.711	42977.02
670.06	43032.61
670.41	43062.22
670.76	43012.5
671.109	43106.51
671.459	43054.76
671.808	43063.12
672.157	43087.3
672.507	42796.46
672.856	42873.29
673.205	42800.53
673.554	42936.12
673.904	42759.85
674.253	43168.2
674.602	42837.14
674.951	42292.29
675.3	42090.26
675.649	42728.44
675.998	42749.68
676.346	42876.23
676.695	42803.46
677.044	42552.4
677.393	42756.01
677.741	42707.42
678.09	42627.88
678.438	42471.72
678.787	42638.95
679.135	42597.37
679.484	42532.06
679.832	42548.56
680.181	42290.94
680.529	42481.89
680.877	42257.04
681.225	42258.17
681.573	42602.11
681.922	42186.53
682.27	42120.77
682.618	42124.61
682.966	41872.64
683.314	42095.69
683.661	41848.24
684.009	41751.06
684.357	41771.4
684.705	41725.98
685.053	41828.35
685.4	41636.94
685.748	41395.37
686.095	41464.97
686.443	41363.05
686.79	41267.69
687.138	41444.86
687.485	41310.85
687.832	41163.06
688.18	41281.92
688.527	41059.56
688.874	41001.03
689.221	40923.06
689.568	40852.56
689.915	40751.32
690.262	40726.68
690.609	40528.27
690.956	40510.64
691.303	40541.38
691.65	40255.51
691.997	40302.74
692.344	40019.81
692.69	40043.99
693.037	40033.37
693.383	39670.89
693.73	39907.95
694.077	39551.8
694.423	39656.43
694.769	39555.64
695.116	39483.33
695.462	39375.76
695.808	39242.43
696.155	39348.87
696.501	39063.9
696.847	39144.13
697.193	38815.1
697.539	38931.48
697.885	38616.46
698.231	38492.62
698.577	38536.01
698.923	38609.9
699.269	38385.95
699.614	38197.26
699.96	38091.5
700.306	38090.59
700.651	38118.16
700.997	37850.15
701.342	37816.25
701.688	37871.17
702.033	37724.5
702.379	37549.37
702.724	37581
703.069	37614.67
703.415	37125.2
703.76	37123.61
704.105	37156.83
704.45	37162.94
704.795	36963.84
705.14	36847.69
705.485	36839.33
705.83	36530.18
706.175	36567.02
706.52	36508.49
706.865	36409.73
707.209	36344.43
707.554	36136.3
707.899	36296.52
708.243	36021.95
708.588	35979.92
708.932	35794.61
709.277	35855.85
709.621	35914.38
709.966	35715.74
710.31	35863.76
710.654	35369.31
710.998	35439.14
711.342	35497.67
711.687	35418.57
712.031	35394.39
712.375	35071.69
712.719	35226.04
713.063	35308.29
713.407	35136.32
713.75	35071.46
714.094	34972.03
714.438	34887.74
714.782	34851.13
715.125	34743.56
715.469	34730.46
715.812	34648.65
716.156	34350.13
716.499	34419.5
716.843	34498.6
717.186	34237.59
717.53	34389.67
717.873	34367.98
718.216	34239.85
718.559	34109.23
718.902	33830.37
719.246	33985.39
719.589	33888.22
719.932	33804.83
720.275	33863.36
720.617	33694.55
720.96	33787.43
721.303	33615.23
721.646	33662.24
721.989	33315.58
722.331	33544.5
722.674	33440.55
723.016	33548.79
723.359	33433.09
723.701	33273.77
724.044	33204.4
724.386	33024.51
724.729	33316.93
725.071	33112.65
725.413	33053.89
725.755	32956.27
726.097	32826.33
726.439	32837.17
726.782	32786.78
727.124	32933.67
727.465	32752.2
727.807	32707.69
728.149	32579.1
728.491	32588.59
728.833	32580.23
729.175	32278.54
729.516	32511.53
729.858	32340.01
730.199	32383.4
730.541	32223.18
730.882	32112.67
731.224	32232.22
731.565	32167.13
731.906	32174.37
732.248	32155.16
732.589	31954.26
732.93	31900.93
733.271	31755.85
733.612	31869.06
733.953	32009.62
734.294	31799.23
734.635	31671.1
734.976	31799.23
735.317	31617.54
735.658	31546.36
735.999	31626.13
736.339	31500.94
736.68	31655.51
737.021	31327.16
737.361	31271.56
737.702	31439.47
738.042	31251
738.383	31150.66
738.723	31319.47
739.063	31160.16
739.404	31269.3
739.744	31106.6
740.084	30950.9
740.424	30987.96
740.764	30884.23
741.104	30915.42
741.444	30822.76
741.784	30812.14
742.124	30893.04
742.464	30742.31
742.804	30680.17
743.143	30692.37
743.483	30739.83
743.823	30383.23
744.162	30399.72
744.502	30547.97
744.841	30482.43
745.181	30532.83
745.52	30358.14
745.86	30411.93
746.199	30218.94
746.538	30192.05
746.877	30426.39
747.216	30272.95
747.556	30272.95
747.895	30073.86
748.234	30088.09
748.573	30033.18
748.911	29950.47
749.25	29847.42
749.589	29857.82
749.928	29812.39
750.267	29857.59
750.605	29731.04
750.944	29674.32
751.283	29434.55
751.621	29635.9
751.96	29468.22
752.298	29323.14
752.636	29412.18
752.975	29336.47
753.313	29201.79
753.651	29346.19
753.989	29042.92
754.327	29016.93
754.666	28906.43
755.004	28926.99
755.342	28934.23
755.679	28967.67
756.017	28738.75
756.355	28877.28
756.693	28602.26
757.031	28851.52
757.368	28499.66
757.706	28453.56
