Data from hue_310_FLMS001491_21.txt Node
Date: Mon Feb 06 15:49:18 GMT 2017
User: dcchb
Spectrometer: FLMS00149
Trigger mode: 0
Integration Time (sec): 2.000000E-2
Scans to average: 10
Electric dark correction enabled: true
Nonlinearity correction enabled: false
Boxcar width: 0
XAxis mode: Wavelengths
Number of Pixels in Spectrum: 2048
>>>>>Begin Spectral Data<<<<<
341.393	-20.55
341.776	-20.55
342.16	-20.55
342.543	-89.25
342.927	-49.02
343.31	-68.46
343.693	-74.56
344.077	-56.26
344.46	-52.41
344.843	-49.48
345.226	-56.71
345.61	-28.46
345.993	-32.08
346.376	-5.64
346.759	0.24
347.142	22.84
347.525	49.73
347.908	61.71
348.291	66.68
348.674	102.38
349.057	120.46
349.44	97.41
349.823	141.25
350.206	149.84
350.588	187.81
350.971	209.95
351.354	220.35
351.737	245.66
352.119	241.82
352.502	273.23
352.884	264.87
353.267	272.55
353.65	281.36
354.032	300.8
354.414	309.61
354.797	313.9
355.179	316.39
355.562	321.36
355.944	309.61
356.326	335.15
356.709	316.62
357.091	334.02
357.473	367.69
357.855	331.53
358.238	328.82
358.62	332.43
359.002	345.54
359.384	333.79
359.766	353.23
360.148	337.41
360.53	324.98
360.912	309.84
361.294	316.39
361.676	317.52
362.057	350.06
362.439	329.95
362.821	339.21
363.203	303.51
363.584	320.91
363.966	318.42
364.348	327.24
364.729	321.36
365.111	340.34
365.493	314.81
365.874	318.42
366.256	311.64
366.637	304.64
367.019	334.24
367.4	319.33
367.781	324.3
368.163	322.04
368.544	327.92
368.925	305.09
369.306	322.49
369.688	296.96
370.069	309.61
370.45	325.66
370.831	313.9
371.212	306.22
371.593	305.77
371.974	308.48
372.355	299.89
372.736	314.58
373.117	314.36
373.498	297.86
373.879	314.58
374.26	319.55
374.641	311.87
375.021	310.97
375.402	297.18
375.783	327.92
376.163	332.21
376.544	322.04
376.925	302.15
377.305	342.15
377.686	326.56
378.066	333.11
378.447	336.5
378.827	345.09
379.208	316.39
379.588	333.56
379.968	339.67
380.349	335.15
380.729	331.08
381.109	334.47
381.489	332.43
381.87	318.65
382.25	347.8
382.63	342.6
383.01	325.66
383.39	340.12
383.77	356.16
384.15	337.18
384.53	345.09
384.91	326.11
385.29	350.97
385.67	343.73
386.049	349.61
386.429	330.4
386.809	352.55
387.189	353.23
387.568	339.67
387.948	361.59
388.328	365.88
388.707	344.86
389.087	359.78
389.466	355.26
389.846	364.52
390.225	369.72
390.605	375.15
390.984	366.11
391.363	355.71
391.743	357.74
392.122	366.33
392.501	368.37
392.881	380.8
393.26	360.23
393.639	376.95
394.018	367.69
394.397	366.33
394.776	371.53
395.155	405.43
395.534	377.18
395.913	367.01
396.292	383.96
396.671	379.89
397.05	379.21
397.429	393.9
397.808	387.8
398.186	423.96
398.565	379.89
398.944	418.76
399.323	391.42
399.701	378.08
400.08	394.13
400.458	388.25
400.837	406.11
401.215	407.01
401.594	418.08
401.972	397.52
402.351	421.47
402.729	393.68
403.107	409.27
403.486	408.59
403.864	418.76
404.242	421.47
404.62	427.12
404.999	448.59
405.377	447.69
405.755	449.95
406.133	434.8
406.511	435.93
406.889	439.1
407.267	457.86
407.645	454.92
408.023	469.83
408.401	484.97
408.779	490.62
409.156	474.35
409.534	487.68
409.912	475.26
410.29	495.14
410.667	487.01
411.045	496.95
411.422	500.57
411.8	507.12
412.178	531.98
412.555	524.07
412.933	528.59
413.31	529.04
413.687	534.01
414.065	566.78
414.442	577.17
414.819	558.42
415.197	566.1
415.574	572.43
415.951	580.56
416.328	607.23
416.705	587.34
417.082	601.35
417.46	604.07
417.837	614.01
418.214	623.5
418.591	645.65
418.967	608.81
419.344	635.25
419.721	666.44
420.098	643.61
420.475	651.3
420.852	688.13
421.228	661.69
421.605	674.8
421.982	682.26
422.358	715.93
422.735	696.04
423.111	703.5
423.488	703.27
423.864	748.92
424.241	740.56
424.617	754.12
424.994	739.2
425.37	748.24
425.746	765.87
426.123	777.62
426.499	794.8
426.875	815.59
427.251	803.61
427.627	782.14
428.003	822.37
428.379	823.72
428.756	832.53
429.132	844.96
429.507	863.95
429.883	858.97
430.259	871.18
430.635	879.77
431.011	889.71
431.387	891.97
431.763	931.74
432.138	922.7
432.514	946.66
432.89	938.75
433.265	963.15
433.641	952.08
434.016	985.07
434.392	1006.32
434.767	992.3
435.143	990.04
435.518	1025.52
435.894	1009.03
436.269	1053.32
436.644	1066.2
437.02	1062.13
437.395	1079.08
437.77	1070.95
438.145	1099.65
438.52	1095.8
438.895	1084.96
439.271	1093.09
439.646	1114.34
440.021	1118.4
440.395	1126.54
440.77	1115.24
441.145	1158.85
441.52	1151.17
441.895	1175.8
442.27	1163.83
442.645	1154.79
443.019	1195.69
443.394	1190.27
443.769	1189.14
444.143	1175.8
444.518	1200.66
444.892	1175.35
445.267	1200.89
445.641	1210.6
446.016	1201.34
446.39	1239.53
446.764	1224.61
447.139	1238.63
447.513	1237.95
447.887	1236.82
448.262	1251.28
448.636	1252.18
449.01	1278.85
449.384	1251.96
449.758	1287.21
450.132	1268.91
450.506	1292.86
450.88	1308.23
451.254	1277.04
451.628	1312.97
452.002	1321.34
452.376	1302.8
452.75	1343.48
453.123	1291.28
453.497	1336.02
453.871	1339.41
454.244	1348.68
454.618	1384.84
454.992	1369.7
455.365	1405.17
455.739	1398.85
456.112	1434.78
456.486	1435.23
456.859	1430.03
457.232	1468.68
457.606	1452.63
457.979	1439.98
458.352	1488.56
458.725	1510.93
459.099	1498.73
459.472	1493.53
459.845	1505.06
460.218	1513.42
460.591	1517.94
460.964	1511.39
461.337	1550.26
461.71	1545.28
462.083	1606.53
462.456	1590.71
462.829	1624.15
463.201	1612.4
463.574	1597.03
463.947	1614.66
464.32	1627.77
464.692	1673.19
465.065	1653.08
465.438	1698.27
465.81	1731.49
466.183	1716.35
466.555	1745.28
466.928	1765.17
467.3	1753.87
467.672	1742.57
468.045	1803.13
468.417	1774.88
468.789	1780.98
469.161	1827.08
469.534	1841.77
469.906	1858.04
470.278	1892.39
470.65	1899.17
471.022	1897.37
471.394	1940.53
471.766	1954.54
472.138	1969.45
472.51	1992.96
472.882	2027.53
473.253	2021.43
473.625	2055.78
473.997	2053.97
474.369	2094.65
474.74	2051.26
475.112	2135.1
475.484	2149.79
475.855	2155.21
476.227	2208.54
476.598	2224.59
476.97	2206.74
477.341	2242.89
477.713	2306.62
478.084	2292.38
478.455	2361.53
478.827	2372.16
479.198	2392.95
479.569	2416.22
479.94	2450.12
480.311	2467.29
480.682	2529.44
481.053	2540.06
481.424	2574.64
481.795	2596.78
482.166	2607.4
482.537	2648.76
482.908	2678.59
483.279	2667.51
483.65	2734.18
484.021	2738.7
484.391	2772.37
484.762	2833.84
485.133	2787.51
485.503	2856.21
485.874	2872.25
486.244	2887.62
486.615	2913.38
486.985	2973.72
487.356	2986.6
487.726	3017.11
488.097	3069.31
488.467	3020.5
488.837	3112.25
489.207	3116.09
489.578	3180.95
489.948	3176.2
490.318	3218.69
490.688	3224.56
491.058	3254.39
491.428	3260.27
491.798	3321.28
492.168	3357.44
492.538	3359.7
492.908	3429.53
493.278	3446.03
493.648	3435.4
494.017	3450.54
494.387	3459.81
494.757	3512.24
495.126	3542.52
495.496	3531.9
495.866	3574.61
496.235	3622.97
496.605	3598.79
496.974	3667.71
497.344	3652.35
497.713	3691.44
498.082	3666.81
498.452	3709.97
498.821	3704.78
499.19	3706.81
499.559	3784.55
499.928	3808.05
500.298	3815.73
500.667	3777.32
501.036	3785.68
501.405	3855.05
501.774	3844.43
502.143	3843.08
502.512	3894.15
502.88	3936.86
503.249	3916.75
503.618	3950.64
503.987	3943.19
504.356	3962.62
504.724	3930.53
505.093	3963.07
505.462	4003.75
505.83	4000.59
506.199	4011.43
506.567	4073.58
506.936	4017.99
507.304	4075.39
507.672	4107.25
508.041	4067.7
508.409	4100.02
508.777	4119
509.145	4208.72
509.514	4201.71
509.882	4182.5
510.25	4180.47
510.618	4191.09
510.986	4236.74
511.354	4235.16
511.722	4230.64
512.09	4308.38
512.458	4307.25
512.826	4308.15
513.193	4343.63
513.561	4319.67
513.929	4343.18
514.297	4377.98
514.664	4370.97
515.032	4404.87
515.4	4376.85
515.767	4411.65
516.135	4425.89
516.502	4364.19
516.869	4465.21
517.237	4460.24
517.604	4472.44
517.972	4468.6
518.339	4464.08
518.706	4496.17
519.073	4514.47
519.44	4530.29
519.808	4563.06
520.175	4569.84
520.542	4521.93
520.909	4563.06
521.276	4550.63
521.643	4626.33
522.009	4586.11
522.376	4684.86
522.743	4645.77
523.11	4704.52
523.477	4760.11
523.843	4801.92
524.21	4776.39
524.577	4803.28
524.943	4809.83
525.31	4828.14
525.676	4852.32
526.043	4849.15
526.409	4893.44
526.776	4914.24
527.142	4930.05
527.508	4910.62
527.874	4978.64
528.241	5021.8
528.607	4991.07
528.973	5030.62
529.339	5062.93
529.705	5066.32
530.071	5135.47
530.437	5113.33
530.803	5151.29
531.169	5169.82
531.535	5212.98
531.901	5225.64
532.267	5251.18
532.632	5254.57
532.998	5307.9
533.364	5312.87
533.73	5292.98
534.095	5334.34
534.461	5311.06
534.826	5406.2
535.192	5430.15
535.557	5475.8
535.923	5440.78
536.288	5497.04
536.653	5494.78
537.019	5486.2
537.384	5488.91
537.749	5553.77
538.114	5550.38
538.479	5616.14
538.845	5616.82
539.21	5560.32
539.575	5648.68
539.94	5654.55
540.305	5724.84
540.67	5676.02
541.034	5756.92
541.399	5746.3
541.764	5768.68
542.129	5823.14
542.494	5813.42
542.858	5874.66
543.223	5864.49
543.587	5912.18
543.952	5962.34
544.316	5965.73
544.681	5894.32
545.045	5999.86
545.41	6018.16
545.774	6020.65
546.138	6018.61
546.503	6038.27
546.867	6098.84
547.231	6142
547.595	6179.06
547.959	6158.95
548.324	6197.59
548.688	6141.32
549.052	6265.61
549.416	6278.27
549.779	6258.61
550.143	6280.98
550.507	6327.98
550.871	6377.25
551.235	6296.35
551.599	6418.38
551.962	6396
552.326	6403.69
552.689	6413.86
553.053	6433.07
553.417	6446.62
553.78	6501.09
554.143	6484.36
554.507	6460.86
554.87	6484.59
555.234	6663.12
555.597	6578.82
555.96	6564.14
556.323	6586.73
556.686	6639.39
557.05	6636.9
557.413	6725.26
557.776	6661.99
558.139	6660.4
558.502	6786.95
558.865	6704.02
559.228	6778.82
559.59	6780.17
559.953	6808.42
560.316	6853.62
560.679	6871.02
561.041	6894.52
561.404	6872.83
561.767	7020.62
562.129	6918.7
562.492	7030.34
562.854	7042.99
563.217	7016.33
563.579	6997.12
563.941	7091.13
564.304	7068.98
564.666	7152.14
565.028	7182.88
565.39	7123.89
565.753	7142.65
566.115	7211.8
566.477	7188.07
566.839	7216.32
567.201	7282.76
567.563	7316.21
567.925	7305.81
568.287	7341.29
568.648	7376.77
569.01	7404.57
569.372	7443.89
569.734	7431.91
570.095	7528.4
570.457	7621.06
570.819	7563.66
571.18	7593.26
571.542	7643.65
571.903	7645.91
572.265	7742.64
572.626	7736.99
572.987	7764.1
573.349	7824.89
573.71	7879.35
574.071	7912.35
574.432	7973.36
574.794	8073.7
575.155	8070.08
575.516	8129.97
575.877	8221.04
576.238	8274.6
576.599	8321.83
576.96	8385.33
577.32	8500.36
577.681	8616.06
578.042	8654.02
578.403	8710.07
578.763	8820.12
579.124	8918.2
579.485	8941.02
579.845	9125.42
580.206	9202.94
580.566	9295.14
580.927	9467.34
581.287	9548.01
581.648	9697.16
582.008	9777.16
582.368	9917.04
582.728	10131.95
583.089	10250.82
583.449	10363.58
583.809	10605.61
584.169	10760.86
584.529	10891.03
584.889	11186.16
585.249	11287.4
585.609	11434.52
585.969	11645.81
586.329	11823.66
586.688	12112.24
587.048	12354.49
587.408	12458.22
587.768	12675.84
588.127	12936.4
588.487	13151.31
588.846	13518.75
589.206	13638.07
589.565	13892.08
589.925	14268.11
590.284	14405.51
590.643	14710.81
591.003	15028.55
591.362	15244.13
591.721	15502.66
592.08	15840.05
592.44	16116.88
592.799	16297.44
593.158	16624.89
593.517	16975.39
593.876	17213.35
594.235	17486.11
594.593	17795.7
594.952	18090.61
595.311	18272.75
595.67	18618.51
596.029	19007.88
596.387	19280.41
596.746	19545.04
597.104	19797.01
597.463	19954.97
597.822	20400.16
598.18	20664.56
598.538	20957.2
598.897	21368.94
599.255	21415.5
599.613	22128.47
599.972	22164.4
600.33	22501.8
600.688	22692.75
601.046	23070.59
601.404	23435.78
601.762	23560.52
602.12	24020.63
602.478	24070.57
602.836	24440.28
603.194	24635.75
603.552	24909.64
603.91	24993.26
604.268	25448.38
604.625	25577.87
604.983	25997.75
605.341	26119.1
605.698	26437.06
606.056	26853.09
606.413	26924.96
606.771	27294.21
607.128	27519.74
607.485	27451.95
607.843	27783.01
608.2	28011.93
608.557	28443.11
608.914	28574.4
609.272	28853.04
609.629	28981.62
609.986	29473.82
610.343	29456.87
610.7	29864.99
611.057	29970.98
611.414	30201.25
611.771	30253.23
612.127	30640.79
612.484	30930.27
612.841	31046.43
613.198	31027.22
613.554	31292.98
613.911	31575.23
614.267	31749.46
614.624	31772.74
614.98	31970.47
615.337	32328.43
615.693	32378.82
616.05	32404.36
616.406	32833.28
616.762	32839.15
617.118	32941.29
617.475	33038.69
617.831	33443.43
618.187	33530.66
618.543	33612.24
618.899	33849.29
619.255	33973.13
619.611	34031.89
619.967	34406.57
620.323	34398.43
620.678	34475.72
621.034	34412.44
621.39	34583.51
621.746	34618.54
622.101	35148.69
622.457	34950.51
622.812	35040
623.168	35254.91
623.523	35405.86
623.879	35517.5
624.234	35395.47
624.589	35499.19
624.945	35670.71
625.3	35900.54
625.655	35880.88
626.01	35832.52
626.365	36052.17
626.72	36056.24
627.075	36274.54
627.43	36118.39
627.785	36043.59
628.14	36247.42
628.495	36448.55
628.85	36407.87
629.205	36321.77
629.559	36585.04
629.914	36476.12
630.269	36519.96
630.623	36510.69
630.978	36531.26
631.332	36648.99
631.687	36755.21
632.041	36732.38
632.396	36965.82
632.75	36771.25
633.104	36818.48
633.459	36749.78
633.813	36768.99
634.167	36829.33
634.521	36964.24
634.875	36934.86
635.229	36919.27
635.583	36764.47
635.937	36808.31
636.291	36809.44
636.645	36792.49
636.999	36885.82
637.352	37077.23
637.706	36780.29
638.06	36935.09
638.413	36953.17
638.767	36759.95
639.121	36937.8
639.474	36778.03
639.828	36772.15
640.181	36838.14
640.534	36872.26
640.888	36742.55
641.241	36643.34
641.594	36801.53
641.947	36873.39
642.301	36639.5
642.654	36745.04
643.007	36863.45
643.36	36716.56
643.713	36665.94
644.066	36782.1
644.419	36626.17
644.771	36378.27
645.124	36090.82
645.477	36008.78
645.83	35835.23
646.182	35899.18
646.535	35623.26
646.888	35753.88
647.24	35516.37
647.593	35839.3
647.945	35679.98
648.298	35456.71
648.65	35574.67
649.002	35414
649.355	35584.16
649.707	35389.82
650.059	35728.34
650.411	36190.47
650.763	36161.1
651.115	36428.43
651.467	36307.08
651.819	36374.42
652.171	36272.73
652.523	36340.75
652.875	36323.58
653.227	36211.72
653.578	36495.78
653.93	36352.28
654.282	36176.46
654.633	36242
654.985	36181.89
655.337	36269.12
655.688	36230.02
656.039	36262.79
656.391	36103.02
656.742	36049.69
657.094	36184.6
657.445	36222.11
657.796	36180.76
658.147	35978.28
658.498	36074.09
658.849	36244.26
659.2	35977.6
659.551	36213.07
659.902	36204.71
660.253	36131.04
660.604	36125.17
660.955	35948.22
661.306	36163.36
661.656	35976.92
662.007	35983.93
662.358	35974.21
662.708	35981.21
663.059	35933.31
663.409	35778.51
663.76	36061.21
664.11	36010.82
664.461	36046.3
664.811	35903.02
665.161	35962.91
665.511	36055.34
665.862	35964.27
666.212	35991.38
666.562	36060.99
666.912	35929.01
667.262	35894.66
667.612	35925.4
667.962	35907.77
668.312	35904.61
668.662	36029.8
669.011	35956.13
669.361	35824.38
669.711	35895.79
670.06	35797.94
670.41	35742.35
670.76	35652.18
671.109	35860.99
671.459	35832.97
671.808	35746.87
672.157	35995.9
672.507	35637.72
672.856	35696.93
673.205	35731.73
673.554	35747.32
673.904	35642.69
674.253	35718.85
674.602	35763.37
674.951	35297.39
675.3	35039.32
675.649	35539.64
675.998	35631.39
676.346	35661.22
676.695	35741.22
677.044	35464.39
677.393	35719.3
677.741	35724.95
678.09	35614.9
678.438	35457.84
678.787	35512.3
679.135	35604.5
679.484	35378.52
679.832	35576.48
680.181	35295.58
680.529	35392.53
680.877	35214
681.225	35312.08
681.573	35353.43
681.922	35124.06
682.27	35146.21
682.618	35144.63
682.966	35050.39
683.314	35069.15
683.661	34923.16
684.009	34800.68
684.357	34700.34
684.705	34661.25
685.053	34606.11
685.4	34531.76
685.748	34468.94
686.095	34447.92
686.443	34439.79
686.79	34306.68
687.138	34446.57
687.485	34402.5
687.832	34051.55
688.18	34116.86
688.527	34169.74
688.874	34160.92
689.221	34047.48
689.568	33908.5
689.915	33860.59
690.262	33883.64
690.609	33595.74
690.956	33663.76
691.303	33587.61
691.65	33583.76
691.997	33668.51
692.344	33295.41
692.69	33317.1
693.037	33261.29
693.383	33013.84
693.73	33247.73
694.077	33057.22
694.423	33033.95
694.769	32921.41
695.116	32716.89
695.462	32673.96
695.808	32676.67
696.155	32759.15
696.501	32429.22
696.847	32409.11
697.193	32220.41
697.539	32401.87
697.885	32132.5
698.231	32113.75
698.577	32030.36
698.923	31891.38
699.269	31861.32
699.614	31896.12
699.96	31573.42
700.306	31720.99
700.651	31432.18
700.997	31415.46
701.342	31374.1
701.688	31337.5
702.033	31292.3
702.379	31245.52
702.724	31062.02
703.069	31176.6
703.415	30805.98
703.76	30943.83
704.105	30932.08
704.45	30696.83
704.795	30803.5
705.14	30640.56
705.485	30585.65
705.83	30451.87
706.175	30432.89
706.52	30318.31
706.865	30335.04
707.209	30235.38
707.554	29979.34
707.899	30225.66
708.243	29986.12
708.588	29961.26
708.932	29714.04
709.277	29718.1
709.621	29638.56
709.966	29563.08
710.31	29657.09
710.654	29462.97
710.998	29454.15
711.342	29384.55
711.687	29336.87
712.031	29309.98
712.375	29098.46
712.719	29155.18
713.063	29048.97
713.407	29276.31
713.75	28962.87
714.094	28901.4
714.438	28891.91
714.782	28961.74
715.125	28712.25
715.469	28917.9
715.812	28707.96
716.156	28519.26
716.499	28568.08
716.843	28591.13
717.186	28424.35
717.53	28567.17
717.873	28554.07
718.216	28472.03
718.559	28267.07
718.902	28223.68
719.246	28300.51
719.589	28183.91
719.932	27993.18
720.275	28078.6
720.617	27942.33
720.96	27901.65
721.303	27948.21
721.646	27924.7
721.989	27742.56
722.331	27823.46
722.674	27668.89
723.016	27788.21
723.359	27701.43
723.701	27632.06
724.044	27408.33
724.386	27257.6
724.729	27484.72
725.071	27344.61
725.413	27344.15
725.755	27271.16
726.097	27304.38
726.439	27090.6
726.782	27151.84
727.124	27229.81
727.465	27029.59
727.807	27067.1
728.149	27069.58
728.491	26918.18
728.833	26910.04
729.175	26842.92
729.516	26853.32
729.858	26757.05
730.199	26831.17
730.541	26757.5
730.882	26752.53
731.224	26820.55
731.565	26591.86
731.906	26624.17
732.248	26487.68
732.589	26515.25
732.93	26346.44
733.271	26293.11
733.612	26473.22
733.953	26448.36
734.294	26350.73
734.635	26289.27
734.976	26291.98
735.317	26181.47
735.658	26203.62
735.999	26097.86
736.339	26061.7
736.68	26088.37
737.021	26043.62
737.361	26016.05
737.702	26153.22
738.042	26015.38
738.383	25858.54
738.723	26009.27
739.063	25769.73
739.404	25859
739.744	25753.01
740.084	25707.81
740.424	25691.09
740.764	25572.68
741.104	25689.06
741.444	25544.2
741.784	25530.19
742.124	25461.72
742.464	25431.89
742.804	25406.8
743.143	25366.58
743.483	25374.26
743.823	25174.72
744.162	25215.85
744.502	25261.5
744.841	25130.88
745.181	25202.06
745.52	24967.04
745.86	25117.55
746.199	25068.28
746.538	24972.46
746.877	25074.84
747.216	25035.51
747.556	25005.68
747.895	24964.33
748.234	24909.87
748.573	24853.15
748.911	24862.41
749.25	24787.84
749.589	24707.39
749.928	24657.9
750.267	24703.32
750.605	24661.51
750.944	24627.62
751.283	24446.83
751.621	24611.8
751.96	24325.25
752.298	24310.56
752.636	24371.35
752.975	24242.09
753.313	24144.01
753.651	24319.6
753.989	24148.31
754.327	24013.85
754.666	24006.61
755.004	23971.36
755.342	23937.46
755.679	23958.48
756.017	23743.12
756.355	23886.39
756.693	23685.95
757.031	23838.48
757.368	23545.16
757.706	23603.69
758.044	23540.64
758.381	23497.02
758.719	23365.73
759.056	23495.22
759.394	23386.29
759.731	23249.12
