Data from hue_180_FLMS001491_00002.txt Node
Date: Tue Feb 07 16:46:28 GMT 2017
User: dcchb
Spectrometer: FLMS00149
Trigger mode: 0
Integration Time (sec): 2.000000E-2
Scans to average: 10
Electric dark correction enabled: true
Nonlinearity correction enabled: false
Boxcar width: 0
XAxis mode: Wavelengths
Number of Pixels in Spectrum: 2048
>>>>>Begin Spectral Data<<<<<
341.393	-6.34
341.776	-6.34
342.16	-6.34
342.543	-48.15
342.927	-72.33
343.31	-86.57
343.693	-86.34
344.077	-60.35
344.46	-64.87
344.843	-37.53
345.226	-42.95
345.61	-33.91
345.993	-19.45
346.376	-16.51
346.759	15.35
347.142	28.69
347.525	45.18
347.908	77.05
348.291	70.72
348.674	110.72
349.057	100.77
349.44	135.58
349.823	138.51
350.206	184.16
350.588	194.11
350.971	206.76
351.354	222.35
351.737	236.59
352.119	260.09
352.502	263.71
352.884	276.59
353.267	282.46
353.65	304.84
354.032	306.19
354.414	338.06
354.797	321.56
355.179	325.4
355.562	346.87
355.944	324.27
356.326	319.75
356.709	347.1
357.091	340.32
357.473	359.07
357.855	349.13
358.238	334.67
358.62	341.9
359.002	332.41
359.384	353.42
359.766	350.94
360.148	351.62
360.53	361.56
360.912	341.45
361.294	349.58
361.676	322.01
362.057	336.25
362.439	337.83
362.821	335.34
363.203	315.91
363.584	341.9
363.966	326.53
364.348	315.91
364.729	308
365.111	328.34
365.493	329.69
365.874	322.69
366.256	311.62
366.637	310.26
367.019	312.75
367.4	320.88
367.781	307.1
368.163	325.4
368.544	337.38
368.925	319.53
369.306	328.11
369.688	305.74
370.069	312.97
370.45	326.53
370.831	324.05
371.212	312.97
371.593	328.11
371.974	302.8
372.355	304.84
372.736	322.69
373.117	333.99
373.498	310.49
373.879	322.46
374.26	298.51
374.641	308.23
375.021	319.53
375.402	327.66
375.783	316.14
376.163	339.41
376.544	327.66
376.925	353.65
377.305	324.27
377.686	343.93
378.066	320.43
378.447	322.92
378.827	334.21
379.208	317.04
379.588	330.82
379.968	345.51
380.349	341.22
380.729	342.12
381.109	348.9
381.489	352.07
381.87	357.72
382.25	349.13
382.63	343.71
383.01	331.28
383.39	341.9
383.77	354.1
384.15	336.47
384.53	361.11
384.91	348
385.29	358.85
385.67	351.84
386.049	338.06
386.429	343.25
386.809	371.05
387.189	358.17
387.568	361.33
387.948	345.51
388.328	370.15
388.707	356.36
389.087	368.79
389.466	351.84
389.846	369.24
390.225	358.62
390.605	379.86
390.984	369.92
391.363	392.52
391.743	384.61
392.122	399.07
392.501	368.11
392.881	387.55
393.26	381.22
393.639	392.07
394.018	419.18
394.397	381.9
394.776	392.07
395.155	384.83
395.534	396.59
395.913	381.9
396.292	411.95
396.671	411.05
397.05	424.83
397.429	397.49
397.808	409.24
398.186	419.18
398.565	386.19
398.944	410.82
399.323	415.57
399.701	424.38
400.08	409.24
400.458	416.47
400.837	431.16
401.215	433.19
401.594	419.18
401.972	425.29
402.351	441.56
402.729	453.08
403.107	460.09
403.486	447.43
403.864	464.83
404.242	466.19
404.62	463.7
404.999	452.86
405.377	460.09
405.755	449.69
406.133	464.15
406.511	463.02
406.889	485.4
407.267	478.84
407.645	480.43
408.023	490.14
408.401	491.5
408.779	503.02
409.156	512.06
409.534	512.06
409.912	502.12
410.29	536.92
410.667	546.19
411.045	559.97
411.422	553.64
411.8	564.04
412.178	565.85
412.555	547.09
412.933	580.76
413.31	581.44
413.687	590.03
414.065	603.36
414.442	622.79
414.819	599.07
415.197	625.05
415.574	656.01
415.951	642.45
416.328	664.15
416.705	663.92
417.082	657.6
417.46	695.33
417.837	703.47
418.214	681.1
418.591	683.36
418.967	701.21
419.344	753.86
419.721	744.37
420.098	733.3
420.475	733.98
420.852	754.54
421.228	746.18
421.605	799.29
421.982	780.08
422.358	785.95
422.735	821.43
423.111	817.14
423.488	840.19
423.864	834.09
424.241	885.84
424.617	872.51
424.994	899.17
425.37	883.35
425.746	922
426.123	917.7
426.499	938.72
426.875	929.9
427.251	976.68
427.627	959.96
428.003	994.31
428.379	988.89
428.756	1024.59
429.132	994.99
429.507	1048.32
429.883	1034.76
430.259	1058.72
430.635	1083.35
431.011	1072.5
431.387	1087.41
431.763	1108.66
432.138	1124.02
432.514	1132.16
432.89	1173.97
433.265	1180.97
433.641	1179.84
434.016	1212.38
434.392	1215.32
434.767	1263
435.143	1237.24
435.518	1307.3
435.894	1301.65
436.269	1307.3
436.644	1373.96
437.02	1378.48
437.395	1361.98
437.77	1418.93
438.145	1434.75
438.52	1433.17
438.895	1463.22
439.271	1465.03
439.646	1505.71
440.021	1520.4
440.395	1524.92
440.77	1558.36
441.145	1572.15
441.52	1594.07
441.895	1607.4
442.27	1624.35
442.645	1640.17
443.019	1688.98
443.394	1671.81
443.769	1684.24
444.143	1689.21
444.518	1750
444.892	1727.17
445.267	1737.34
445.641	1758.58
446.016	1759.71
446.39	1807.17
446.764	1814.85
447.139	1848.07
447.513	1825.93
447.887	1859.15
448.262	1885.36
448.636	1854.17
449.01	1885.36
449.384	1916.55
449.758	1932.59
450.132	1970.33
450.506	1987.96
450.88	2003.55
451.254	1991.57
451.628	2016.2
452.002	2031.34
452.376	2069.76
452.75	2036.54
453.123	2090.33
453.497	2136.65
453.871	2167.61
454.244	2189.76
454.618	2158.8
454.992	2240.6
455.365	2258.23
455.739	2289.87
456.112	2329.42
456.486	2322.41
456.859	2378
457.232	2402.63
457.606	2396.76
457.979	2428.62
458.352	2501.16
458.725	2503.42
459.099	2541.39
459.472	2566.7
459.845	2617.54
460.218	2651.89
460.591	2672.91
460.964	2645.34
461.337	2799.23
461.71	2757.43
462.083	2807.6
462.456	2845.11
462.829	2822.96
463.201	2943.41
463.574	2929.4
463.947	2968.5
464.32	3054.14
464.692	3075.61
465.065	3119
465.438	3088.27
465.81	3221.37
466.183	3217.08
466.555	3282.61
466.928	3335.49
467.3	3316.28
467.672	3379.78
468.045	3510.63
468.417	3481.25
468.789	3538.42
469.161	3579.33
469.534	3657.29
469.906	3739.55
470.278	3754.92
470.65	3777.74
471.022	3861.13
471.394	3950.39
471.766	4007.79
472.138	4090.73
472.51	4157.16
472.882	4198.97
473.253	4300.89
473.625	4337.72
473.997	4475.57
474.369	4485.29
474.74	4553.99
475.112	4663.59
475.484	4757.6
475.855	4803.02
476.227	4870.14
476.598	4998.27
476.97	5096.8
477.341	5187.19
477.713	5245.72
478.084	5370.69
478.455	5481.2
478.827	5540.41
479.198	5757.57
479.569	5737.46
479.94	5934.29
480.311	5915.31
480.682	6095.42
481.053	6274.62
481.424	6431.46
481.795	6453.38
482.166	6589.64
482.537	6674.16
482.908	6851.56
483.279	6943.98
483.65	7035.51
484.021	7240.93
484.391	7334.48
484.762	7421.49
485.133	7448.38
485.503	7632.1
485.874	7813.34
486.244	7941.02
486.615	8036.61
486.985	8169.71
487.356	8349.14
487.726	8409.26
488.097	8595.24
488.467	8656.93
488.837	8832.75
489.207	8953.42
489.578	9077.26
489.948	9215.11
490.318	9359.74
490.688	9431.6
491.058	9566.29
491.428	9629.11
491.798	9792.04
492.168	9999.95
492.538	10085.6
492.908	10170.57
493.278	10293.05
493.648	10309.09
494.017	10421.86
494.387	10519.03
494.757	10613.04
495.126	10775.52
495.496	10775.75
495.866	10837.44
496.235	10962.64
496.605	11100.26
496.974	11140.48
497.344	11269.52
497.713	11294.15
498.082	11424.77
498.452	11493.02
498.821	11588.38
499.19	11562.17
499.559	11659.34
499.928	11731.43
500.298	11760.81
500.667	11930.52
501.036	11833.57
501.405	12006.22
501.774	12071.76
502.143	12149.72
502.512	12100.91
502.88	12193.34
503.249	12170.29
503.618	12315.14
503.987	12302.71
504.356	12460.22
504.724	12317.85
505.093	12480.79
505.462	12486.89
505.83	12589.03
506.199	12626.55
506.567	12782.7
506.936	12802.36
507.304	12889.14
507.672	12831.29
508.041	12923.71
508.409	12921.91
508.777	13078.96
509.145	13106.53
509.514	13000.32
509.882	13112.18
510.25	13111.73
510.618	13089.13
510.986	13122.8
511.354	13250.03
511.722	13330.26
512.09	13323.03
512.458	13325.96
512.826	13410.71
513.193	13398.05
513.561	13419.29
513.929	13488.44
514.297	13514.43
514.664	13616.58
515.032	13537.71
515.4	13598.72
515.767	13591.27
516.135	13655.45
516.502	13564.15
516.869	13743.35
517.237	13734.54
517.604	13670.81
517.972	13678.04
518.339	13739.06
518.706	13760.75
519.073	13747.2
519.44	13724.37
519.808	13910.81
520.175	13805.72
520.542	13901.09
520.909	13836.46
521.276	13803.46
521.643	13998.94
522.009	13964.82
522.376	13914.42
522.743	13952.39
523.11	13915.1
523.477	14069.45
523.843	14074.19
524.21	14157.13
524.577	14084.81
524.943	14153.51
525.31	14173.17
525.676	14104.02
526.043	14139.95
526.409	14234.64
526.776	14231.93
527.142	14264.02
527.508	14142.66
527.874	14225.6
528.241	14265.6
528.607	14130.69
528.973	14259.72
529.339	14114.42
529.705	14214.98
530.071	14226.5
530.437	14129.56
530.803	14160.97
531.169	14132.95
531.535	14065.15
531.901	14046.85
532.267	13997.58
532.632	14023.57
532.998	13981.31
533.364	13951.48
533.73	13909.9
534.095	13965.72
534.461	13937.7
534.826	13890.69
535.192	13810.02
535.557	13868.77
535.923	13783.58
536.288	13788.32
536.653	13735.9
537.019	13654.99
537.384	13681.66
537.749	13585.39
538.114	13590.36
538.479	13443.93
538.845	13482.8
539.21	13384.94
539.575	13374.78
539.94	13240.54
540.305	13271.73
540.67	13282.35
541.034	13186.08
541.399	13132.3
541.764	13019.08
542.129	13002.36
542.494	12968.46
542.858	12960.32
543.223	12831.96
543.587	12879.42
543.952	12714.68
544.316	12715.13
544.681	12682.59
545.045	12646.21
545.41	12660.9
545.774	12498.19
546.138	12494.57
546.503	12435.82
546.867	12382.94
547.231	12421.58
547.595	12350.85
547.959	12334.58
548.324	12143.62
548.688	12140.46
549.052	12156.28
549.416	12039.67
549.779	11956.51
550.143	11890.52
550.507	11932.55
550.871	11867.24
551.235	11780.02
551.599	11805.33
551.962	11821.82
552.326	11731.88
552.689	11688.49
553.053	11609.85
553.417	11568.5
553.78	11623.64
554.143	11580.47
554.507	11468.16
554.87	11526.91
555.234	11499.57
555.597	11367.37
555.96	11292.8
556.323	11424.77
556.686	11321.95
557.05	11335.06
557.413	11276.98
557.776	11188.84
558.139	11188.84
558.502	11206.92
558.865	11141.16
559.228	11135.29
559.59	11099.13
559.953	11122.18
560.316	11173.7
560.679	11118.56
561.041	11099.36
561.404	11048.51
561.767	11095.06
562.129	11067.72
562.492	11087.6
562.854	11080.82
563.217	10932.13
563.579	11034.72
563.941	11001.28
564.304	11054.38
564.666	11026.36
565.028	11009.19
565.39	10978.68
565.753	10998.79
566.115	11027.27
566.477	11028.4
566.839	11011
567.201	11035.85
567.563	11009.19
567.925	11006.25
568.287	10995.4
568.648	11008.51
569.01	11044.44
569.372	11101.61
569.734	11059.58
570.095	10989.53
570.457	11010.54
570.819	11007.38
571.18	11021.17
571.542	10989.98
571.903	11086.25
572.265	11021.84
572.626	11058.9
572.987	11031.79
573.349	11024.55
573.71	11038.34
574.071	11016.19
574.432	11105.23
574.794	11105.23
575.155	11062.29
575.516	11077.89
575.877	11067.94
576.238	10992.01
576.599	11041.73
576.96	11005.12
577.32	11022.07
577.681	11080.37
578.042	10981.17
578.403	11038.57
578.763	10916.53
579.124	11019.36
579.485	11028.17
579.845	11087.83
580.206	10989.3
580.566	10954.5
580.927	10981.62
581.287	11057.32
581.648	10981.62
582.008	11063.42
582.368	11015.97
582.728	10959.7
583.089	10930.77
583.449	10973.48
583.809	10980.71
584.169	10959.47
584.529	10923.09
584.889	10957.44
585.249	10877.21
585.609	10865.91
585.969	10889.64
586.329	10817.1
586.688	10855.52
587.048	10823.88
587.408	10816.42
587.768	10855.75
588.127	10788.63
588.487	10759.48
588.846	10829.53
589.206	10749.76
589.565	10769.42
589.925	10785.69
590.284	10777.33
590.643	10766.48
591.003	10762.87
591.362	10806.03
591.721	10706.82
592.08	10729.87
592.44	10763.32
592.799	10705.92
593.158	10676.77
593.517	10645.36
593.876	10740.04
594.235	10698.91
594.593	10634.73
594.952	10636.77
595.311	10596.54
595.67	10679.71
596.029	10692.59
596.387	10613.94
596.746	10600.39
597.104	10627.96
597.463	10599.93
597.822	10651.91
598.18	10504.57
598.538	10503.44
598.897	10588.41
599.255	10541.4
599.613	10679.48
599.972	10598.13
600.33	10563.1
600.688	10539.82
601.046	10624.57
601.404	10655.52
601.762	10546.38
602.12	10586.83
602.478	10612.36
602.836	10563.1
603.194	10559.03
603.552	10524.68
603.91	10504.79
604.268	10529.65
604.625	10516.55
604.983	10466.15
605.341	10465.7
605.698	10537.56
606.056	10542.99
606.413	10509.31
606.771	10616.88
607.128	10600.16
607.485	10483.55
607.843	10456.89
608.2	10567.84
608.557	10578.24
608.914	10558.13
609.272	10609.2
609.629	10587.96
609.986	10629.08
610.343	10556.32
610.7	10667.28
611.057	10615.07
611.414	10519.03
611.771	10612.59
612.127	10633.38
612.484	10693.04
612.841	10667.5
613.198	10621.85
613.554	10623.66
613.911	10673.6
614.267	10582.08
614.624	10662.08
614.98	10665.69
615.337	10688.52
615.693	10705.24
616.05	10730.33
616.406	10674.28
616.762	10658.24
617.118	10644
617.475	10644.45
617.831	10703.89
618.187	10712.02
618.543	10716.31
618.899	10745.92
619.255	10746.6
619.611	10762.19
619.967	10754.28
620.323	10752.25
620.678	10742.08
621.034	10772.81
621.39	10728.52
621.746	10735.3
622.101	10901.39
622.457	10668.63
622.812	10717.67
623.168	10730.33
623.523	10724.9
623.879	10808.74
624.234	10741.17
624.589	10762.64
624.945	10775.3
625.3	10760.83
625.655	10765.8
626.01	10767.84
626.365	10838.12
626.72	10758.12
627.075	10744.34
627.43	10763.32
627.785	10789.08
628.14	10778.69
628.495	10765.58
628.85	10699.37
629.205	10700.04
629.559	10751.34
629.914	10691
630.269	10698.24
630.623	10645.13
630.978	10691.46
631.332	10662.53
631.687	10614.62
632.041	10652.81
632.396	10598.35
632.75	10645.58
633.104	10544.57
633.459	10553.38
633.813	10610.1
634.167	10542.53
634.521	10497.34
634.875	10558.8
635.229	10607.84
635.583	10465.47
635.937	10465.7
636.291	10509.54
636.645	10449.65
636.999	10510.44
637.352	10485.81
637.706	10355.65
638.06	10403.33
638.413	10395.19
638.767	10373.05
639.121	10390.67
639.474	10274.74
639.828	10404.01
640.181	10279.49
640.534	10327.17
640.888	10299.15
641.241	10263.9
641.594	10293.73
641.947	10253.5
642.301	10255.99
642.654	10293.27
643.007	10306.38
643.36	10262.09
643.713	10252.82
644.066	10290.11
644.419	10151.13
644.771	10138.48
645.124	10026.16
645.477	10031.36
645.83	9930.57
646.182	9998.14
646.535	9893.74
646.888	9905.26
647.24	9877.92
647.593	10079.04
647.945	9926.5
648.298	9943.68
648.65	9891.7
649.002	9841.31
649.355	9898.93
649.707	9865.49
650.059	9967.41
650.411	10105.03
650.763	10054.41
651.115	10175.76
651.467	10125.14
651.819	10125.37
652.171	10113.84
652.523	10172.37
652.875	10113.62
653.227	10091.02
653.578	10174.18
653.93	10159.27
654.282	10112.94
654.633	10165.59
654.985	10072.94
655.337	10091.02
655.688	10123.56
656.039	10122.88
656.391	10099.38
656.742	10164.01
657.094	10102.32
657.445	10210.34
657.796	10171.02
658.147	10110
658.498	10162.88
658.849	10215.31
659.2	10156.33
659.551	10158.81
659.902	10176.89
660.253	10134.63
660.604	10189.55
660.955	10136.89
661.306	10189.1
661.656	10235.65
662.007	10197.46
662.358	10208.08
662.708	10144.35
663.059	10180.74
663.409	10124.92
663.76	10261.18
664.11	10293.27
664.461	10237.23
664.811	10247.17
665.161	10276.55
665.511	10212.37
665.862	10208.98
666.212	10242.43
666.562	10243.78
666.912	10190.68
667.262	10229.77
667.612	10246.04
667.962	10245.59
668.312	10165.59
668.662	10285.14
669.011	10215.08
669.361	10185.93
669.711	10298.92
670.06	10216.21
670.41	10248.76
670.76	10179.15
671.109	10232.49
671.459	10185.71
671.808	10157.91
672.157	10273.84
672.507	10167.85
672.856	10159.27
673.205	10174.63
673.554	10147.74
673.904	10149.1
674.253	10123.79
674.602	10166.72
674.951	9999.27
675.3	9963.11
675.649	10138.7
675.998	10101.42
676.346	10129.21
676.695	10181.64
677.044	9995.2
677.393	10082.66
677.741	10020.74
678.09	10066.61
678.438	9988.42
678.787	10042.66
679.135	10044.69
679.484	9896.22
679.832	10009.89
680.181	9900.52
680.529	9932.83
680.877	9877.92
681.225	9861.65
681.573	9933.96
681.922	9846.73
682.27	9800.41
682.618	9782.1
682.966	9744.59
683.314	9825.26
683.661	9709.11
684.009	9698.49
684.357	9688.77
684.705	9675.66
685.053	9712.27
685.4	9686.51
685.748	9638.15
686.095	9590.02
686.443	9593.18
686.79	9545.72
687.138	9563.58
687.485	9513.63
687.832	9483.58
688.18	9559.96
688.527	9488.55
688.874	9488.55
689.221	9451.26
689.568	9378.27
689.915	9315.67
690.262	9440.19
690.609	9289.23
690.956	9257.14
691.303	9231.61
691.65	9159.07
691.997	9149.58
692.344	9137.37
692.69	9113.64
693.037	9126.07
693.383	9013.08
693.73	9102.35
694.077	9000.2
694.423	8906.19
694.769	8938.28
695.116	8891.5
695.462	8891.28
695.808	8825.97
696.155	8885.4
696.501	8832.3
696.847	8787.33
697.193	8664.16
697.539	8779.19
697.885	8617.84
698.231	8656.03
698.577	8632.75
698.923	8586.2
699.269	8578.74
699.614	8462.59
699.96	8431.63
700.306	8503.94
700.651	8430.05
700.997	8384.85
701.342	8374.91
701.688	8315.02
702.033	8366.55
702.379	8327.9
702.724	8254.46
703.069	8236.61
703.415	8132.88
703.76	8167.23
704.105	8150.51
704.45	8141.92
704.795	8101.69
705.14	8067.8
705.485	8029.61
705.83	7970.85
706.175	8007.46
706.52	8007.01
706.865	7948.25
707.209	7867.58
707.554	7865.54
707.899	7871.64
708.243	7811.31
708.588	7814.24
708.932	7788.03
709.277	7770.4
709.621	7771.76
709.966	7641.82
710.31	7719.1
710.654	7612.67
710.998	7651.54
711.342	7627.81
711.687	7637.53
712.031	7538.32
712.375	7553.69
712.719	7601.14
713.063	7541.26
713.407	7595.94
713.75	7545.78
714.094	7468.26
714.438	7495.38
714.782	7511.43
715.125	7437.08
715.469	7459
715.812	7443.18
716.156	7379.45
716.499	7416.29
716.843	7410.64
717.186	7320.92
717.53	7349.62
717.873	7387.59
718.216	7322.73
718.559	7346.91
718.902	7213.81
719.246	7346.23
719.589	7302.62
719.932	7254.48
720.275	7286.35
720.617	7269.17
720.96	7287.7
721.303	7255.61
721.646	7256.52
721.989	7226.69
722.331	7206.58
722.674	7215.62
723.016	7245.22
723.359	7239.57
723.701	7192.34
724.044	7253.81
724.386	7186.69
724.729	7220.36
725.071	7194.15
725.413	7173.13
725.755	7172.68
726.097	7126.58
726.439	7113.25
726.782	7117.54
727.124	7148.27
727.465	7142.4
727.807	7100.14
728.149	7129.74
728.491	7129.52
728.833	7114.83
729.175	7157.76
729.516	7170.42
729.858	7129.06
730.199	7129.52
730.541	7143.75
730.882	7072.79
731.224	7138.56
731.565	7046.58
731.906	7085.45
732.248	7150.98
732.589	7115.73
732.93	7094.94
733.271	7076.64
733.612	7127.26
733.953	7148.05
734.294	7112.57
734.635	7111.21
734.976	7111.89
735.317	7087.48
735.658	7089.52
735.999	7161.61
736.339	7161.15
736.68	7183.07
737.021	7149.4
737.361	7130.42
737.702	7145.33
738.042	7155.5
738.383	7151.21
738.723	7182.62
739.063	7209.74
739.404	7199.8
739.744	7195.05
740.084	7191.21
740.424	7264.88
740.764	7195.5
741.104	7258.33
741.444	7308.49
741.784	7310.75
742.124	7302.17
742.464	7325.89
742.804	7275.95
743.143	7335.39
743.483	7419
743.823	7360.7
744.162	7362.05
744.502	7445.21
744.841	7497.64
745.181	7528.15
745.52	7564.31
745.86	7600.69
746.199	7626.68
746.538	7673
746.877	7720.23
747.216	7831.42
747.556	7835.71
747.895	7867.8
748.234	7922.04
748.573	7977.86
748.911	8031.64
749.25	8152.54
749.589	8136.27
749.928	8210.17
750.267	8319.32
750.605	8420.78
750.944	8497.39
751.283	8549.14
751.621	8650.15
751.96	8744.16
752.298	8853.99
752.636	8964.95
752.975	9113.64
753.313	9094.89
753.651	9339.85
753.989	9396.12
754.327	9536.23
754.666	9622.78
755.004	9809.45
755.342	9904.13
755.679	10109.78
756.017	10207.4
756.355	10408.07
756.693	10513.61
757.031	10715.86
757.368	10753.15
757.706	11002.63
758.044	11136.64
758.381	11364.88
758.719	11505.9
759.056	11667.7
759.394	11874.93
