Data from hue_40_FLMS001491_58.txt Node
Date: Mon Feb 06 15:08:07 GMT 2017
User: dcchb
Spectrometer: FLMS00149
Trigger mode: 0
Integration Time (sec): 2.000000E-2
Scans to average: 10
Electric dark correction enabled: true
Nonlinearity correction enabled: false
Boxcar width: 0
XAxis mode: Wavelengths
Number of Pixels in Spectrum: 2048
>>>>>Begin Spectral Data<<<<<
341.393	6.58
341.776	6.58
342.16	6.58
342.543	-53.76
342.927	-91.04
343.31	-71.61
343.693	-47.65
344.077	-56.92
344.46	-57.15
344.843	-65.96
345.226	-38.39
345.61	-28.9
345.993	-44.04
346.376	-17.82
346.759	6.81
347.142	30.08
347.525	31.44
347.908	70.76
348.291	81.16
348.674	88.84
349.057	119.35
349.44	113.7
349.823	138.78
350.206	153.02
350.588	187.82
350.971	213.58
351.354	208.16
351.737	226.24
352.119	264.2
352.502	280.02
352.884	273.47
353.267	272.79
353.65	295.16
354.032	330.64
354.414	275.5
354.797	320.7
355.179	318.21
355.562	298.78
355.944	326.8
356.326	318.44
356.709	342.17
357.091	330.42
357.473	351.43
357.855	339
358.238	338.32
358.62	352.34
359.002	345.33
359.384	351.43
359.766	346.69
360.148	328.61
360.53	346.69
360.912	339
361.294	329.29
361.676	322.73
362.057	342.39
362.439	327.03
362.821	330.87
363.203	325.22
363.584	308.95
363.966	330.19
364.348	318.89
364.729	329.29
365.111	335.39
365.493	324.99
365.874	299.23
366.256	331.32
366.637	316.18
367.019	312.79
367.4	319.12
367.781	305.56
368.163	303.52
368.544	303.75
368.925	310.75
369.306	319.57
369.688	311.21
370.069	320.92
370.45	332.9
370.831	334.93
371.212	325.44
371.593	315.05
371.974	312.79
372.355	327.03
372.736	327.7
373.117	316.86
373.498	316.18
373.879	297.2
374.26	313.01
374.641	315.5
375.021	296.29
375.402	322.28
375.783	331.77
376.163	334.71
376.544	341.94
376.925	339
377.305	337.42
377.686	316.18
378.066	336.52
378.447	323.86
378.827	340.13
379.208	334.71
379.588	341.71
379.968	346.46
380.349	340.36
380.729	347.82
381.109	324.99
381.489	327.7
381.87	338.1
382.25	354.14
382.63	347.36
383.01	341.49
383.39	317.31
383.77	364.09
384.15	333.13
384.53	367.02
384.91	350.08
385.29	349.85
385.67	332.22
386.049	360.7
386.429	346.01
386.809	387.36
387.189	354.37
387.568	355.73
387.948	353.24
388.328	353.01
388.707	362.28
389.087	377.65
389.466	348.27
389.846	351.21
390.225	367.7
390.605	367.7
390.984	361.83
391.363	390.75
391.743	379.45
392.122	391.43
392.501	379.91
392.881	374.71
393.26	379.23
393.639	362.96
394.018	389.17
394.397	381.71
394.776	388.94
395.155	389.17
395.534	376.06
395.913	378.55
396.292	379.45
396.671	405.44
397.05	386.23
397.429	400.92
397.808	386.23
398.186	426.46
398.565	381.94
398.944	400.02
399.323	391.66
399.701	393.24
400.08	392.79
400.458	398.44
400.837	419.45
401.215	410.19
401.594	429.4
401.972	419.68
402.351	400.47
402.729	423.75
403.107	420.58
403.486	424.42
403.864	410.19
404.242	423.97
404.62	426.46
404.999	404.99
405.377	438.43
405.755	449.96
406.133	405.22
406.511	428.94
406.889	431.66
407.267	440.02
407.645	424.42
408.023	445.67
408.401	443.41
408.779	457.42
409.156	457.87
409.534	434.14
409.912	465.33
410.29	463.52
410.667	478.43
411.045	449.51
411.422	448.83
411.8	466.46
412.178	455.61
412.555	443.63
412.933	482.05
413.31	471.2
413.687	496.74
414.065	507.13
414.442	490.18
414.819	476.85
415.197	500.13
415.574	499
415.951	465.1
416.328	507.13
416.705	482.05
417.082	494.93
417.46	500.35
417.837	510.98
418.214	504.65
418.591	515.04
418.967	527.47
419.344	533.35
419.721	517.75
420.098	546.68
420.475	524.53
420.852	542.16
421.228	531.77
421.605	543.97
421.982	564.31
422.358	528.6
422.735	567.24
423.111	556.85
423.488	561.14
423.864	564.76
424.241	542.84
424.617	556.17
424.994	563.4
425.37	588.04
425.746	580.8
426.123	587.13
426.499	569.28
426.875	592.78
427.251	617.64
427.627	600.46
428.003	597.98
428.379	604.53
428.756	623.06
429.132	616.96
429.507	617.87
429.883	620.58
430.259	621.03
430.635	623.74
431.011	640.24
431.387	659.67
431.763	643.18
432.138	661.93
432.514	663.51
432.89	689.73
433.265	687.47
433.641	696.96
434.016	697.19
434.392	693.57
434.767	697.19
435.143	704.87
435.518	712.55
435.894	727.69
436.269	722.5
436.644	722.27
437.02	723.63
437.395	737.18
437.77	741.48
438.145	761.36
438.52	763.85
438.895	748.48
439.271	739.67
439.646	782.15
440.021	777.86
440.395	768.82
440.77	762.72
441.145	792.78
441.52	797.52
441.895	787.8
442.27	774.47
442.645	765.43
443.019	794.81
443.394	826.22
443.769	804.53
444.143	803.4
444.518	797.3
444.892	821.02
445.267	837.52
445.641	837.75
446.016	837.29
446.39	830.06
446.764	850.63
447.139	858.08
447.513	838.88
447.887	841.81
448.262	848.37
448.636	846.33
449.01	883.62
449.384	884.07
449.758	879.33
450.132	906.9
450.506	919.1
450.88	889.04
451.254	907.8
451.628	923.62
452.002	938.99
452.376	936.5
452.75	927.46
453.123	957.07
453.497	959.78
453.871	948.93
454.244	963.17
454.618	985.54
454.992	978.76
455.365	991.19
455.739	1014.46
456.112	1027.57
456.486	1006.33
456.859	1027.57
457.232	1010.4
457.606	1056.72
457.979	1096.04
458.352	1077.29
458.725	1077.29
459.099	1134.69
459.472	1089.72
459.845	1124.52
460.218	1106.67
460.591	1127.91
460.964	1132.88
461.337	1145.76
461.71	1155.48
462.083	1192.99
462.456	1210.17
462.829	1191.41
463.201	1241.58
463.574	1265.98
463.947	1253.33
464.32	1269.15
464.692	1274.8
465.065	1292.65
465.438	1319.77
465.81	1348.47
466.183	1372.42
466.555	1399.77
466.928	1394.57
467.3	1415.81
467.672	1451.06
468.045	1440.67
468.417	1476.15
468.789	1467.33
469.161	1493.55
469.534	1530.16
469.906	1524.96
470.278	1572.42
470.65	1591.62
471.022	1638.63
471.394	1678.85
471.766	1721.34
472.138	1690.38
472.51	1753.65
472.882	1792.3
473.253	1811.05
473.625	1852.18
473.997	1880.66
474.369	1909.81
474.74	1970.6
475.112	2011.73
475.484	2041.1
475.855	2076.13
476.227	2100.76
476.598	2173.3
476.97	2203.81
477.341	2266.18
477.713	2345.96
478.084	2387.08
478.455	2446.74
478.827	2498.49
479.198	2559.73
479.569	2595.89
479.94	2677.02
480.311	2762.67
480.682	2816.45
481.053	2921.53
481.424	2996.56
481.795	3059.83
482.166	3126.95
482.537	3196.1
482.908	3272.26
483.279	3373.95
483.65	3453.27
484.021	3546.38
484.391	3655.07
484.762	3697.33
485.133	3780.49
485.503	3843.99
485.874	3988.62
486.244	4112.69
486.615	4152.91
486.985	4258.22
487.356	4386.35
487.726	4480.81
488.097	4643.97
488.467	4705.44
488.837	4815.27
489.207	4883.97
489.578	5045.09
489.948	5114.7
490.318	5233.56
490.688	5318.98
491.058	5480.11
491.428	5612.76
491.798	5677.62
492.168	5793.55
492.538	5890.95
492.908	6089.81
493.278	6162.13
493.648	6298.17
494.017	6340.43
494.387	6488.9
494.757	6565.05
495.126	6725.05
495.496	6737.25
495.866	6876.91
496.235	6976.34
496.605	7139.73
496.974	7200.74
497.344	7267.18
497.713	7430.57
498.082	7511.02
498.452	7685.48
498.821	7723.67
499.19	7817
499.559	8063.09
499.928	8021.74
500.298	8134.28
500.667	8295.18
501.036	8262.86
501.405	8415.85
501.774	8432.8
502.143	8588.95
502.512	8657.43
502.88	8796.41
503.249	8786.69
503.618	8893.58
503.987	9027.59
504.356	9108.49
504.724	9156.62
505.093	9294.93
505.462	9286.34
505.83	9439.55
506.199	9535.37
506.567	9712.99
506.936	9708.93
507.304	9792.31
507.672	9853.55
508.041	10020.78
508.409	10082.93
508.777	10104.85
509.145	10147.33
509.514	10214.9
509.882	10325.41
510.25	10397.27
510.618	10433.88
510.986	10609.24
511.354	10737.6
511.722	10752.06
512.09	10829.8
512.458	10888.33
512.826	10945.28
513.193	11047.65
513.561	11063.92
513.929	11169.45
514.297	11351.59
514.664	11388.2
515.032	11499.84
515.4	11532.61
515.767	11605.15
516.135	11632.72
516.502	11610.12
516.869	11826.61
517.237	11889.43
517.604	11911.13
517.972	12023.67
518.339	12096.89
518.706	12093.95
519.073	12236.99
519.44	12267.73
519.808	12338.23
520.175	12433.6
520.542	12552.24
520.909	12656.64
521.276	12710.65
521.643	12800.82
522.009	12839.46
522.376	12902.51
522.743	13027.26
523.11	13161.72
523.477	13228.83
523.843	13392.67
524.21	13439.67
524.577	13544.76
524.943	13625.88
525.31	13677.41
525.676	13834.24
526.043	13874.01
526.409	13957.18
526.776	14122.37
527.142	14082.82
527.508	14187.68
527.874	14320.78
528.241	14397.84
528.607	14445.52
528.973	14617.27
529.339	14576.37
529.705	14770.71
530.071	14887.55
530.437	14915.12
530.803	14955.57
531.169	15039.18
531.535	15037.37
531.901	15157.82
532.267	15223.58
532.632	15392.62
532.998	15358.72
533.364	15487.08
533.73	15574.08
534.095	15574.31
534.461	15694.53
534.826	15767.52
535.192	15779.95
535.557	15945.82
535.923	15883.9
536.288	15924.58
536.653	16049.1
537.019	16047.52
537.384	16175.42
537.749	16228.98
538.114	16292.03
538.479	16318.47
538.845	16494.06
539.21	16453.15
539.575	16492.02
539.94	16583.77
540.305	16772.02
540.67	16640.95
541.034	16809.76
541.399	16825.8
541.764	16876.19
542.129	17043.65
542.494	16966.36
542.858	17085.23
543.223	17118.67
543.587	17229.41
543.952	17208.84
544.316	17252.91
544.681	17327.71
545.045	17416.07
545.41	17514.6
545.774	17637.08
546.138	17647.47
546.503	17659.45
546.867	17781.93
547.231	17879.56
547.595	17935.38
547.959	18035.94
548.324	17937.86
548.688	18043.62
549.052	18094.02
549.416	18177.18
549.779	18194.13
550.143	18340.11
550.507	18432.54
550.871	18459.43
551.235	18484.06
551.599	18588.01
551.962	18636.6
552.326	18687.45
552.689	18776.71
553.053	18728.35
553.417	18756.6
553.78	19111.62
554.143	18958.63
554.507	19102.58
554.87	19125.63
555.234	19255.79
555.597	19155.91
555.96	19293.98
556.323	19357.71
556.686	19358.39
557.05	19612.85
557.413	19489.91
557.776	19632.05
558.139	19685.16
558.502	19802.45
558.865	19890.58
559.228	19906.62
559.59	19982.33
559.953	19981.42
560.316	20153.17
560.679	20217.12
561.041	20361.07
561.404	20488.53
561.767	20586.15
562.129	20564.69
562.492	20759.93
562.854	20735.75
563.217	20676.77
563.579	20803.55
563.941	20927.16
564.304	21031.11
564.666	21166.93
565.028	21196.08
565.39	21155.4
565.753	21386.36
566.115	21372.57
566.477	21550.87
566.839	21476.98
567.201	21638.33
567.563	21688.5
567.925	21872
568.287	21838.78
568.648	21932.33
569.01	22035.61
569.372	22151.31
569.734	22216.17
570.095	22283.96
570.457	22290.74
570.819	22443.28
571.18	22484.86
571.542	22577.29
571.903	22726.89
572.265	22837.85
572.626	22905.64
572.987	22996.94
573.349	23133.88
573.71	23184.28
574.071	23334.78
574.432	23297.49
574.794	23609.58
575.155	23462.46
575.516	23589.69
575.877	23699.74
576.238	23889.8
576.599	24014.54
576.96	23989.91
577.32	24114.42
577.681	24345.15
578.042	24375.21
578.403	24499.05
578.763	24655.43
579.124	24740.39
579.485	24850
579.845	25045.47
580.206	25225.13
580.566	25309.87
580.927	25504.22
581.287	25708.28
581.648	25734.72
582.008	26011.77
582.368	26137.19
582.728	26230.3
583.089	26335.38
583.449	26508.48
583.809	26640.01
584.169	26752.55
584.529	26967.91
584.889	27383.72
585.249	27400.44
585.609	27382.59
585.969	27778.51
586.329	27939.63
586.688	27972.4
587.048	28256.91
587.408	28332.62
587.768	28555.21
588.127	28720.4
588.487	28849.21
588.846	29258.02
589.206	29338.01
589.565	29495.3
589.925	29818.91
590.284	29822.52
590.643	30058.22
591.003	30365.78
591.362	30619.56
591.721	30827.01
592.08	30898.2
592.44	31090.06
592.799	31380.22
593.158	31467.9
593.517	31659.08
593.876	31795.12
594.235	31937.72
594.593	32236.92
594.952	32383.13
595.311	32367.31
595.67	32684.14
596.029	32964.81
596.387	33236.22
596.746	33402.54
597.104	33407.74
597.463	33557.79
597.822	33944.45
598.18	33973.82
598.538	34229.86
598.897	34402.29
599.255	34327.94
599.613	35024.19
599.972	34874.59
600.33	35040.91
600.688	35109.16
601.046	35413.11
601.404	35726.09
601.762	35670.5
602.12	36049.02
602.478	36103.26
602.836	36224.16
603.194	36080.21
603.552	36400.65
603.91	36428
604.268	36649.23
604.625	36722.45
604.983	36883.13
605.341	36830.92
605.698	37139.39
606.056	37404.02
606.413	37416.9
606.771	37666.38
607.128	37744.8
607.485	37711.81
607.843	37787.06
608.2	38080.61
608.557	38373.26
608.914	38329.64
609.272	38580.71
609.629	38713.13
609.986	38857.31
610.343	38844.43
610.7	39111.32
611.057	39107.25
611.414	39270.41
611.771	39406
612.127	39572.77
612.484	39516.73
612.841	39796.95
613.198	39671.3
613.554	39878.98
613.911	40151.51
614.267	40322.81
614.624	40213.66
614.98	40295.01
615.337	40503.6
615.693	40582.46
616.05	40564.84
616.406	40818.16
616.762	40654.55
617.118	40822.23
617.475	40808.9
617.831	41063.58
618.187	41041.89
618.543	41208.89
618.899	41617.47
619.255	41399.84
619.611	41619.27
619.967	41720.06
620.323	41778.82
620.678	41716.9
621.034	41589.9
621.39	41631.7
621.746	41754.18
622.101	41994.63
622.457	41792.15
622.812	41951.69
623.168	42154.85
623.523	42101.52
623.879	42261.97
624.234	42030.11
624.589	42273.49
624.945	42316.43
625.3	42362.98
625.655	42298.58
626.01	42406.6
626.365	42523.2
626.72	42466.48
627.075	42591.9
627.43	42492.02
627.785	42401.17
628.14	42413.6
628.495	42560.72
628.85	42725.68
629.205	42684.33
629.559	42957.77
629.914	42477.78
630.269	42713.03
630.623	42519.14
630.978	42608.85
631.332	42737.21
631.687	42842.97
632.041	42703.99
632.396	42713.71
632.75	42626.93
633.104	42713.26
633.459	42504
633.813	42572.24
634.167	42493.6
634.521	42467.39
634.875	42584.67
635.229	42583.32
635.583	42310.1
635.937	42472.36
636.291	42375.41
636.645	42576.54
636.999	42304.45
637.352	42464.22
637.706	42202.08
638.06	42388.74
638.413	42390.55
638.767	42321.63
639.121	42148.3
639.474	42193.5
639.828	42199.82
640.181	42394.39
640.534	42186.94
640.888	42211.57
641.241	41863.33
641.594	42104.68
641.947	42182.42
642.301	42176.09
642.654	42084.57
643.007	42154.17
643.36	42048.64
643.713	41939.94
644.066	42213.61
644.419	41917.8
644.771	41715.32
645.124	41240.75
645.477	41304.03
645.83	40908.56
646.182	40849.58
646.535	40740.43
646.888	40840.54
647.24	40591.05
647.593	40810.03
647.945	40710.14
648.298	40549.7
648.65	40382.24
649.002	40488.91
649.355	40645.74
649.707	40511.28
650.059	40700.88
650.411	41064.49
650.763	41151.71
651.115	41573.62
651.467	41324.59
651.819	41535.89
652.171	41342.44
652.523	41307.42
652.875	41337.47
653.227	41103.58
653.578	41307.87
653.93	41369.11
654.282	41059.74
654.633	41040.53
654.985	41182.67
655.337	41001.89
655.688	41139.06
656.039	41295.89
656.391	40901.78
656.742	41021.1
657.094	41107.87
657.445	41184.26
657.796	41045.73
658.147	41108.78
658.498	40930.93
658.849	41077.82
659.2	40997.14
659.551	40890.7
659.902	41114.65
660.253	41069.68
660.604	41001.44
660.955	40825.85
661.306	40961.21
661.656	40814.32
662.007	40963.47
662.358	40923.47
662.708	40854.32
663.059	40894.32
663.409	40589.24
663.76	40852.51
664.11	40918.95
664.461	40836.92
664.811	40857.71
665.161	40714.89
665.511	40718.73
665.862	40842.34
666.212	40832.63
666.562	40820.2
666.912	40747.88
667.262	40640.32
667.612	40683.93
667.962	40736.36
668.312	40624.95
668.662	40858.61
669.011	40722.12
669.361	40685.96
669.711	40574.1
670.06	40525.74
670.41	40569.13
670.76	40474.44
671.109	40523.93
671.459	40515.57
671.808	40459.3
672.157	40646.19
672.507	40462.92
672.856	40452.07
673.205	40451.17
673.554	40612.29
673.904	40553.76
674.253	40656.81
674.602	40477.16
674.951	40138.41
675.3	39823.39
675.649	40281.23
675.998	40442.81
676.346	40314.22
676.695	40493.2
677.044	40154.45
677.393	40198.52
677.741	40371.17
678.09	40208.91
678.438	40229.25
678.787	40234.9
679.135	40159.2
679.484	40005.53
679.832	40134.79
680.181	39873.1
680.529	40126.43
680.877	39952.2
681.225	39843.73
681.573	40020.67
681.922	39675.37
682.27	39614.81
682.618	39838.53
682.966	39607.57
683.314	39719.44
683.661	39560.34
684.009	39338.2
684.357	39326.9
684.705	39127.59
685.053	39336.4
685.4	39255.95
685.748	38930.3
686.095	38966.69
686.443	38895.05
686.79	38858.67
687.138	39008.27
687.485	38909.51
687.832	38737.09
688.18	38814.15
688.527	38704.55
688.874	38618.67
689.221	38479.92
689.568	38444.89
689.915	38387.95
690.262	38387.72
690.609	38257.1
690.956	38078.35
691.303	38035.41
691.65	37800.62
691.997	37828.86
692.344	37717.68
692.69	37594.52
693.037	37685.37
693.383	37280.18
693.73	37435.43
694.077	37233.17
694.423	37262.55
694.769	37063.46
695.116	37140.75
695.462	36949.57
695.808	36817.37
696.155	36994.99
696.501	36775.11
696.847	36610.37
697.193	36357.26
697.539	36447.66
697.885	36247.21
698.231	36195.46
698.577	36155.01
698.923	36121.79
699.269	35973.32
699.614	35858.97
699.96	35783.49
700.306	35813.78
700.651	35644.06
700.997	35645.64
701.342	35550.73
701.688	35439.32
702.033	35332.43
702.379	35336.05
702.724	35156.84
703.069	35315.94
703.415	34800.7
703.76	34971.54
704.105	34858.77
704.45	34790.53
704.795	34705.56
705.14	34521.38
705.485	34407.49
705.83	34204.33
706.175	34396.64
706.52	34229.41
706.865	34120.94
707.209	34065.57
707.554	33916.65
707.899	34070.54
708.243	33859.25
708.588	33837.33
708.932	33659.71
709.277	33651.12
709.621	33539.94
709.966	33345.14
710.31	33473.5
710.654	33149.67
710.998	33269.89
711.342	33267.85
711.687	33200.74
712.031	32994.19
712.375	32831.03
712.719	32826.06
713.063	32943.12
713.407	32962.78
713.75	32702.9
714.094	32699.28
714.438	32650.7
714.782	32568.44
715.125	32503.13
715.469	32557.59
715.812	32396.69
716.156	32261.1
716.499	32133.42
716.843	32322.12
717.186	31997.38
717.53	32169.13
717.873	32174.55
718.216	32013.88
718.559	32022.46
718.902	31749.7
719.246	31816.14
719.589	31770.49
719.932	31580.44
720.275	31586.99
720.617	31552.64
720.96	31414.57
721.303	31476.04
721.646	31411.86
721.989	31216.61
722.331	31462.48
722.674	31347.45
723.016	31193.33
723.359	31102.49
723.701	31123.5
724.044	31015.03
724.386	30853
724.729	30917.86
725.071	30929.38
725.413	30952.66
725.755	30790.41
726.097	30775.04
726.439	30658.66
726.782	30538.66
727.124	30784.08
727.465	30547.7
727.807	30463.41
728.149	30401.49
728.491	30333.69
728.833	30424.31
729.175	30297.76
729.516	30254.15
729.858	30140.7
730.199	30280.59
730.541	30071.33
730.882	29953.36
731.224	30222.74
731.565	29876.08
731.906	29895.29
732.248	30005.12
732.589	29828.17
732.93	29714.73
733.271	29671.56
733.612	29721.96
733.953	29792.92
734.294	29779.13
734.635	29559.93
734.976	29526.71
735.317	29411.91
735.658	29503.21
735.999	29315.19
736.339	29272.7
736.68	29482.87
737.021	29372.36
737.361	29272.7
737.702	29470.44
738.042	29190.45
738.383	29204.01
738.723	29324.45
739.063	29134.63
739.404	29119.04
739.744	29002.43
740.084	28843.56
740.424	28872.26
740.764	28900.96
741.104	28866.16
741.444	28775.77
741.784	28638.37
742.124	28816.22
742.464	28611.71
742.804	28624.13
743.143	28526.51
743.483	28507.75
743.823	28401.99
744.162	28384.37
744.502	28403.12
744.841	28203.58
745.181	28411.26
745.52	28137.82
745.86	28345.05
746.199	28256.46
746.538	28284.26
746.877	28131.72
747.216	28151.38
747.556	28011.04
747.895	28094.66
748.234	28017.14
748.573	27931.5
748.911	27887.43
749.25	27908
749.589	27724.72
749.928	27785.51
750.267	27743.25
750.605	27673.42
750.944	27622.35
751.283	27519.98
751.621	27509.59
751.96	27487.44
752.298	27381.91
752.636	27442.7
752.975	27418.52
753.313	27187.56
753.651	27157.51
753.989	27132.87
754.327	27149.6
754.666	27058.07
755.004	27016.04
755.342	27056.49
755.679	26873.9
756.017	26847.68
756.355	26879.55
756.693	26701.02
757.031	26791.87
