Data from hue_34_FLMS001491_00053.txt Node
Date: Tue Feb 07 17:25:49 GMT 2017
User: dcchb
Spectrometer: FLMS00149
Trigger mode: 0
Integration Time (sec): 2.000000E-2
Scans to average: 10
Electric dark correction enabled: true
Nonlinearity correction enabled: false
Boxcar width: 0
XAxis mode: Wavelengths
Number of Pixels in Spectrum: 2048
>>>>>Begin Spectral Data<<<<<
341.393	1.54
341.776	1.54
342.16	1.54
342.543	-75.52
342.927	-61.96
343.31	-54.05
343.693	-68.52
344.077	-67.39
344.46	-47.72
344.843	-50.89
345.226	-30.1
345.61	-53.15
345.993	-31.68
346.376	-21.51
346.759	1.31
347.142	39.96
347.525	38.37
347.908	66.62
348.291	72.95
348.674	85.83
349.057	119.95
349.44	133.74
349.823	146.85
350.206	162.44
350.588	199.27
350.971	213.29
351.354	221.19
351.737	230.91
352.119	246.28
352.502	264.13
352.884	283.11
353.267	271.81
353.65	271.59
354.032	322.44
354.414	332.15
354.797	317.92
355.179	333.96
355.562	328.99
355.944	327.18
356.326	341.64
356.709	338.71
357.091	353.17
357.473	338.71
357.855	338.03
358.238	350.46
358.62	352.72
359.002	364.47
359.384	354.98
359.766	329.67
360.148	339.61
360.53	341.42
360.912	359.04
361.294	318.14
361.676	329.89
362.057	344.81
362.439	336.9
362.821	336.22
363.203	341.64
363.584	300.06
363.966	315.66
364.348	326.73
364.729	334.64
365.111	331.25
365.493	348.88
365.874	305.03
366.256	332.15
366.637	314.75
367.019	325.6
367.4	339.38
367.781	332.38
368.163	333.28
368.544	328.31
368.925	306.16
369.306	312.49
369.688	330.34
370.069	330.34
370.45	331.7
370.831	305.94
371.212	314.3
371.593	288.99
371.974	319.95
372.355	326.28
372.736	345.03
373.117	322.21
373.498	317.24
373.879	313.85
374.26	321.76
374.641	313.85
375.021	322.21
375.402	324.92
375.783	332.38
376.163	330.12
376.544	345.03
376.925	340.29
377.305	338.71
377.686	317.01
378.066	355.2
378.447	331.7
378.827	328.54
379.208	345.03
379.588	350.68
379.968	335.32
380.349	340.97
380.729	347.07
381.109	351.36
381.489	345.03
381.87	339.61
382.25	359.04
382.63	334.19
383.01	370.57
383.39	336.22
383.77	338.71
384.15	340.97
384.53	346.62
384.91	361.08
385.29	340.74
385.67	357.69
386.049	354.98
386.429	347.75
386.809	357.46
387.189	369.67
387.568	340.74
387.948	359.04
388.328	339.16
388.707	366.73
389.087	373.06
389.466	371.93
389.846	392.49
390.225	384.58
390.605	378.48
390.984	368.54
391.363	371.93
391.743	379.61
392.122	369.44
392.501	370.12
392.881	373.51
393.26	366.5
393.639	372.38
394.018	369.67
394.397	376.9
394.776	368.76
395.155	371.47
395.534	385.94
395.913	389.1
396.292	409.89
396.671	397.24
397.05	388.65
397.429	383.45
397.808	394.07
398.186	380.74
398.565	373.73
398.944	399.5
399.323	404.24
399.701	408.31
400.08	382.77
400.458	393.85
400.837	381.64
401.215	393.62
401.594	391.36
401.972	426.39
402.351	404.47
402.729	400.17
403.107	408.31
403.486	406.95
403.864	425.94
404.242	411.02
404.62	412.38
404.999	415.54
405.377	433.62
405.755	431.58
406.133	431.36
406.511	439.27
406.889	427.52
407.267	454.86
407.645	433.17
408.023	437.46
408.401	427.29
408.779	447.63
409.156	453.96
409.534	448.99
409.912	436.56
410.29	457.12
410.667	447.18
411.045	460.06
411.422	445.37
411.8	464.13
412.178	457.57
412.555	472.94
412.933	469.78
413.31	469.32
413.687	472.94
414.065	479.95
414.442	473.84
414.819	479.04
415.197	498.25
415.574	482.43
415.951	502.54
416.328	511.81
416.705	509.1
417.082	486.95
417.46	498.02
417.837	514.52
418.214	499.38
418.591	499.15
418.967	499.61
419.344	519.04
419.721	528.53
420.098	514.75
420.475	532.82
420.852	524.01
421.228	526.5
421.605	535.31
421.982	547.06
422.358	565.82
422.735	543.9
423.111	550
423.488	517.01
423.864	551.58
424.241	530.79
424.617	547.51
424.994	544.8
425.37	564.91
425.746	567.17
426.123	575.54
426.499	555.42
426.875	563.11
427.251	594.52
427.627	586.61
428.003	578.7
428.379	596.1
428.756	592.48
429.132	582.77
429.507	602.65
429.883	613.73
430.259	608.08
430.635	634.29
431.011	616.21
431.387	617.79
431.763	630.68
432.138	642.43
432.514	666.15
432.89	667.96
433.265	694.85
433.641	662.09
434.016	654.4
434.392	672.71
434.767	687.62
435.143	679.94
435.518	688.98
435.894	685.82
436.269	683.78
436.644	700.5
437.02	703.44
437.395	743.67
437.77	706.83
438.145	697.57
438.52	749.54
438.895	745.02
439.271	734.85
439.646	748.86
440.021	767.17
440.395	749.09
440.77	749.54
441.145	740.73
441.52	735.08
441.895	746.38
442.27	775.76
442.645	792.93
443.019	770.11
443.394	781.41
443.769	810.56
444.143	790.22
444.518	805.81
444.892	809.43
445.267	801.97
445.641	798.13
446.016	831.35
446.39	803.33
446.764	824.12
447.139	798.58
447.513	807.62
447.887	813.95
448.262	815.08
448.636	848.3
449.01	837.45
449.384	832.93
449.758	855.3
450.132	839.03
450.506	866.83
450.88	872.03
451.254	865.02
451.628	887.62
452.002	901.85
452.376	897.11
452.75	870.67
453.123	907.96
453.497	915.41
453.871	907.28
454.244	947.73
454.618	947.5
454.992	942.76
455.365	940.05
455.739	958.12
456.112	975.3
456.486	1004.23
456.859	969.2
457.232	992.7
457.606	1009.65
457.979	1017.33
458.352	1030.89
458.725	1048.74
459.099	1044.22
459.472	1055.75
459.845	1057.78
460.218	1089.42
460.591	1118.8
460.964	1108.18
461.337	1124.9
461.71	1138.91
462.083	1130.1
462.456	1164.9
462.829	1165.35
463.201	1196.31
463.574	1198.8
463.947	1194.95
464.32	1222.3
464.692	1227.27
465.065	1256.87
465.438	1284.44
465.81	1292.35
466.183	1284.9
466.555	1294.39
466.928	1305.69
467.3	1325.57
467.672	1347.94
468.045	1381.39
468.417	1396.76
468.789	1397.89
469.161	1435.4
469.534	1429.52
469.906	1465.68
470.278	1472.46
470.65	1510.88
471.022	1558.79
471.394	1593.14
471.766	1596.98
472.138	1622.06
472.51	1667.26
472.882	1647.15
473.253	1690.08
473.625	1749.97
473.997	1770.98
474.369	1794.94
474.74	1779.57
475.112	1864.77
475.484	1884.88
475.855	1938.44
476.227	1963.75
476.598	2027.93
476.97	2042.84
477.341	2107.47
477.713	2160.35
478.084	2156.51
478.455	2245.1
478.827	2296.62
479.198	2372.55
479.569	2386.11
479.94	2463.62
480.311	2520.8
480.682	2583.17
481.053	2640.57
481.424	2665.65
481.795	2777.51
482.166	2834.01
482.537	2865.64
482.908	2991.97
483.279	3007.34
483.65	3082.59
484.021	3164.62
484.391	3270.61
484.762	3317.84
485.133	3345.63
485.503	3437.83
485.874	3582.01
486.244	3647.77
486.615	3733.19
486.985	3763.93
487.356	3872.62
487.726	3940.87
488.097	4047.31
488.467	4085.95
488.837	4227.87
489.207	4297.7
489.578	4373.18
489.948	4466.96
490.318	4546.96
490.688	4643.9
491.058	4733.39
491.428	4858.59
491.798	4917.12
492.168	5087.96
492.538	5082.76
492.908	5202.08
493.278	5280.27
493.648	5367.27
494.017	5435.75
494.387	5515.74
494.757	5591.22
495.126	5694.27
495.496	5754.83
495.866	5829.86
496.235	5944.89
496.605	6006.35
496.974	6114.83
497.344	6191.66
497.713	6229.4
498.082	6335.84
498.452	6430.52
498.821	6476.85
499.19	6477.98
499.559	6602.72
499.928	6648.37
500.298	6722.49
500.667	6844.75
501.036	6793.45
501.405	6870.74
501.774	6943.05
502.143	7034.12
502.512	7084.29
502.88	7212.42
503.249	7204.51
503.618	7307.11
503.987	7404.28
504.356	7379.65
504.724	7465.52
505.093	7580.78
505.462	7598.18
505.83	7630.94
506.199	7778.96
506.567	7802.69
506.936	7784.61
507.304	7934.66
507.672	7998.17
508.041	7996.58
508.409	8149.12
508.777	8220.31
509.145	8290.14
509.514	8286.97
509.882	8346.86
510.25	8359.51
510.618	8393.41
510.986	8461.88
511.354	8520.64
511.722	8593.86
512.09	8651.93
512.458	8636.57
512.826	8756.79
513.193	8778.48
513.561	8886.5
513.929	8973.51
514.297	8978.7
514.664	9060.51
515.032	9081.98
515.4	9166.27
515.767	9168.98
516.135	9269.09
516.502	9195.65
516.869	9349.77
517.237	9348.86
517.604	9363.55
517.972	9478.8
518.339	9521.52
518.706	9601.06
519.073	9546.83
519.44	9606.03
519.808	9704.56
520.175	9736.65
520.542	9819.81
520.909	9895.74
521.276	9908.62
521.643	9952.46
522.009	10051.22
522.376	10074.95
522.743	10193.81
523.11	10210.99
523.477	10336.18
523.843	10410.76
524.21	10501.6
524.577	10501.15
524.943	10624.09
525.31	10641.49
525.676	10678.55
526.043	10765.78
526.409	10784.08
526.776	10849.84
527.142	10904.98
527.508	10995.6
527.874	11095.94
528.241	11140.68
528.607	11170.06
528.973	11264.07
529.339	11291.86
529.705	11359.66
530.071	11420.45
530.437	11502.25
530.803	11556.04
531.169	11563.95
531.535	11725.07
531.901	11666.77
532.267	11766.65
532.632	11767.56
532.998	11919.42
533.364	11944.05
533.73	11990.6
534.095	12029.47
534.461	12111.28
534.826	12081.67
535.192	12224.04
535.557	12266.08
535.923	12333.64
536.288	12342.68
536.653	12412.96
537.019	12412.96
537.384	12447.09
537.749	12550.59
538.114	12590.59
538.479	12548.33
538.845	12638.27
539.21	12666.74
539.575	12772.28
539.94	12747.42
540.305	12874.65
540.67	12896.57
541.034	12876.68
541.399	12988.09
541.764	13053.63
542.129	13127.3
542.494	13093.17
542.858	13174.3
543.223	13213.17
543.587	13366.39
543.952	13237.58
544.316	13377.68
544.681	13364.35
545.045	13510.11
545.41	13513.95
545.774	13559.83
546.138	13643.67
546.503	13668.07
546.867	13682.54
547.231	13778.13
547.595	13829.65
547.959	13861.29
548.324	13904
548.688	13943.32
549.052	14004.34
549.416	14071.68
549.779	14013.6
550.143	14127.5
550.507	14273.03
550.871	14250.2
551.235	14211.79
551.599	14417.21
551.962	14371.33
552.326	14504.66
552.689	14498.11
553.053	14453.59
553.417	14497.66
553.78	14701.49
554.143	14596.64
554.507	14723.86
554.87	14734.03
555.234	14954.59
555.597	14822.62
555.96	14793.69
556.323	14939.23
556.686	14987.59
557.05	15079.34
557.413	15109.39
557.776	15062.16
558.139	15310.29
558.502	15190.52
558.865	15254.7
559.228	15456.27
559.59	15430.74
559.953	15468.7
560.316	15718.19
560.679	15568.14
561.041	15701.92
561.404	15760.9
561.767	15820.33
562.129	15852.2
562.492	16004.06
562.854	15899.88
563.217	15901.69
563.579	15981.46
563.941	16111.85
564.304	16169.25
564.666	16364.05
565.028	16188.68
565.39	16276.14
565.753	16467.1
566.115	16442.69
566.477	16500.31
566.839	16646.07
567.201	16690.82
567.563	16767.43
567.925	16805.39
568.287	16874.99
568.648	16864.82
569.01	16924.94
569.372	17124.48
569.734	16990.47
570.095	17237.02
570.457	17299.62
570.819	17270.24
571.18	17340.52
571.542	17387.3
571.903	17479.05
572.265	17576.67
572.626	17552.49
572.987	17743.9
573.349	17790.22
573.71	17865.93
574.071	17869.09
574.432	18020.05
574.794	18199.48
575.155	18247.84
575.516	18256.43
575.877	18452.81
576.238	18499.36
576.599	18649.41
576.96	18672.91
577.32	18707.04
577.681	19006.69
578.042	19088.72
578.403	19173.69
578.763	19287.81
579.124	19446.9
579.485	19679.67
579.845	19811.64
580.206	19823.62
580.566	20012.54
580.927	20165.98
581.287	20341.12
581.648	20454.11
582.008	20605.74
582.368	20916.02
582.728	21036.01
583.089	21148.1
583.449	21283.24
583.809	21599.84
584.169	21680.29
584.529	21895.43
584.889	22301.52
585.249	22224.91
585.609	22407.5
585.969	22758.46
586.329	22873.48
586.688	23245.22
587.048	23307.82
587.408	23395.05
587.768	23723.4
588.127	23849.73
588.487	24158.87
588.846	24573.1
589.206	24609.25
589.565	24887.66
589.925	25272.74
590.284	25328.33
590.643	25731.26
591.003	25933.51
591.362	26149.33
591.721	26411.01
592.08	26640.61
592.44	26963.77
592.799	27187.04
593.158	27448.5
593.517	27623.41
593.876	27935.27
594.235	28066.34
594.593	28320.57
594.952	28677.62
595.311	28726.21
595.67	29131.62
596.029	29424.49
596.387	29694.32
596.746	29964.59
597.104	30033.07
597.463	30149.22
597.822	30619.49
598.18	30836.89
598.538	30907.17
598.897	31332.69
599.255	31202.3
599.613	31973.13
599.972	32011.77
600.33	32143.52
600.688	32292.22
601.046	32649.49
601.404	32870.51
601.762	33065.3
602.12	33381
602.478	33419.19
602.836	33759.07
603.194	33769.69
603.552	33915
603.91	33969.23
604.268	34477.47
604.625	34491.48
604.983	34815.77
605.341	34874.52
605.698	35338.92
606.056	35385.69
606.413	35534.16
606.771	35771.9
607.128	36046.92
607.485	35917.21
607.843	36084.43
608.2	36380.47
608.557	36725.55
608.914	36713.79
609.272	36964.41
609.629	37059.32
609.986	37292.54
610.343	37209.6
610.7	37756.48
611.057	37742.47
611.414	37946.76
611.771	38000.09
612.127	38305.62
612.484	38409.34
612.841	38591.71
613.198	38430.13
613.554	38788.77
613.911	39111.92
614.267	39061.98
614.624	38989.89
614.98	39262.88
615.337	39464.23
615.693	39463.78
616.05	39657.45
616.406	39965.01
616.762	39754.39
617.118	39903.77
617.475	39812.7
617.831	40152.12
618.187	40200.93
618.543	40514.15
618.899	40688.15
619.255	40570.87
619.611	40612.9
619.967	40861.03
620.323	40924.53
620.678	40864.19
621.034	40803.86
621.39	40900.58
621.746	41094.7
622.101	41480.22
622.457	41251.98
622.812	41328.81
623.168	41512.76
623.523	41621.91
623.879	41720.67
624.234	41505.08
624.589	41756.83
624.945	41723.38
625.3	41930.83
625.655	41927.67
626.01	41960.89
626.365	42001.34
626.72	41928.57
627.075	41948.23
627.43	42010.15
627.785	41971.74
628.14	42149.36
628.495	42202.01
628.85	42204.95
629.205	42000.89
629.559	42243.14
629.914	42207.66
630.269	42253.31
630.623	42139.19
630.978	42010.38
631.332	42444.04
631.687	42399.52
632.041	42300.99
632.396	42346.41
632.75	42188.45
633.104	42399.07
633.459	42176.7
633.813	42255.12
634.167	42215.12
634.521	42239.52
634.875	42361.1
635.229	42432.29
635.583	42143.48
635.937	42147.78
636.291	42296.25
636.645	42139.64
636.999	42083.37
637.352	42278.39
637.706	41907.78
638.06	42186.87
638.413	42130.15
638.767	42062.13
639.121	42150.49
639.474	41902.81
639.828	41942.13
640.181	42091.73
640.534	42201.11
640.888	41880.66
641.241	41891.74
641.594	41959.98
641.947	41972.41
642.301	41826.43
642.654	42003.37
643.007	41888.57
643.36	41818.97
643.713	41836.82
644.066	42009.93
644.419	41845.64
644.771	41455.59
645.124	41084.53
645.477	41104.19
645.83	40844.31
646.182	40796.85
646.535	40536.74
646.888	40738.32
647.24	40496.29
647.593	40720.69
647.945	40632.79
648.298	40524.32
648.65	40431.66
649.002	40324.77
649.355	40418.78
649.707	40462.85
650.059	40682.28
650.411	41022.38
650.763	41249.49
651.115	41413.56
651.467	41330.4
651.819	41392.32
652.171	41201.81
652.523	41382.82
652.875	41271.19
653.227	41006.79
653.578	41389.15
653.93	41307.35
654.282	41052.89
654.633	40978.32
654.985	41083.85
655.337	41129.95
655.688	41138.76
656.039	41313
656.391	40816.96
656.742	40979.67
657.094	41075.49
657.445	41275.93
657.796	40918.88
658.147	40912.78
658.498	41007.69
658.849	41136.28
659.2	40929.05
659.551	40972.67
659.902	41073.68
660.253	40924.76
660.604	40936.51
660.955	40704.88
661.306	40938.77
661.656	40782.84
662.007	40820.35
662.358	40685.22
662.708	40810.64
663.059	40818.32
663.409	40523.86
663.76	40950.07
664.11	40838.66
664.461	40796.4
664.811	40868.49
665.161	40862.61
665.511	40652.9
665.862	40660.81
666.212	40801.14
666.562	40892.22
666.912	40819
667.262	40663.3
667.612	40657.42
667.962	40790.3
668.312	40688.83
668.662	40923.4
669.011	40671.66
669.361	40784.2
669.711	40758.66
670.06	40654.93
670.41	40601.83
670.76	40482.06
671.109	40622.39
671.459	40712.56
671.808	40612
672.157	40644.09
672.507	40473.92
672.856	40533.81
673.205	40554.37
673.554	40651.09
673.904	40404.54
674.253	40738.32
674.602	40431.21
674.951	39904.22
675.3	39819.93
675.649	40466.69
675.998	40362.74
676.346	40286.36
676.695	40460.81
677.044	40150.09
677.393	40186.92
677.741	40369.74
678.09	40161.16
678.438	40117.09
678.787	40205.68
679.135	40224.21
679.484	39972.69
679.832	40077.77
680.181	39928.63
680.529	40033.03
680.877	39812.7
681.225	39769.53
681.573	40083.2
681.922	39697.22
682.27	39572.7
682.618	39753.71
682.966	39593.72
683.314	39701.96
683.661	39643.66
684.009	39315.76
684.357	39358.7
684.705	39324.12
685.053	39441.41
685.4	39292.03
685.748	39138.36
686.095	39138.82
686.443	38913.96
686.79	39040.29
687.138	39074.64
687.485	38845.72
687.832	38773.4
688.18	38763.23
688.527	38657.92
688.874	38607.98
689.221	38481.43
689.568	38544.48
689.915	38537.25
690.262	38484.14
690.609	38291.61
690.956	38152.4
691.303	38196.47
691.65	37832.86
691.997	37955.12
692.344	37713.54
692.69	37677.39
693.037	37702.47
693.383	37455.47
693.73	37556.03
694.077	37465.19
694.423	37368.24
694.769	37127.34
695.116	37033.33
695.462	37122.15
695.808	36997.18
696.155	37008.25
696.501	36735.04
696.847	36800.35
697.193	36456.17
697.539	36608.26
697.885	36433.12
698.231	36404.42
698.577	36351.09
698.923	36378.66
699.269	36167.82
699.614	35873.82
699.96	35914.04
700.306	35899.35
700.651	35936.41
700.997	35618.23
701.342	35659.13
701.688	35451.91
702.033	35457.78
702.379	35318.8
702.724	35409.65
703.069	35352.7
703.415	35039.71
703.76	35072.03
704.105	34961.3
704.45	34918.81
704.795	34723.11
705.14	34633.17
705.485	34490.35
705.83	34388.21
706.175	34476.57
706.52	34372.39
706.865	34343.91
707.209	34332.84
707.554	34072.96
707.899	34237.48
708.243	33958.39
708.588	34015.79
708.932	33668.68
709.277	33665.74
709.621	33773.76
709.966	33602.46
710.31	33788.9
710.654	33239.76
710.998	33376.26
711.342	33481.34
711.687	33286.54
712.031	33118.18
712.375	33125.64
712.719	33120.22
713.063	32935.81
713.407	32981.46
713.75	32906.66
714.094	32867.12
714.438	32642.49
714.782	32709.83
715.125	32656.73
715.469	32552.32
715.812	32458.77
716.156	32258.54
716.499	32254.02
716.843	32410.86
717.186	32215.61
717.53	32376.51
717.873	32297.87
718.216	32133.8
718.559	31999.57
718.902	31902.85
719.246	31976.52
719.589	31850.65
719.932	31623.31
720.275	31799.12
720.617	31701.72
720.96	31621.05
721.303	31448.62
721.646	31511.22
721.989	31309.19
722.331	31437.78
722.674	31368.17
723.016	31295.86
723.359	31199.59
723.701	31413.59
724.044	31140.16
724.386	31063.77
724.729	31113.04
725.071	31074.17
725.413	31027.16
725.755	31024.45
726.097	30801.18
726.439	30665.14
726.782	30781.75
727.124	30838.47
727.465	30698.36
727.807	30743.56
728.149	30571.36
728.491	30591.92
728.833	30678.47
729.175	30452.94
729.516	30471.7
729.858	30443.22
730.199	30481.87
730.541	30343.11
730.882	30203.23
731.224	30271.25
731.565	30152.84
731.906	30157.81
732.248	30104.25
732.589	29982.67
732.93	29952.39
733.271	29965.95
733.612	29920.3
733.953	30013.41
734.294	29828.55
734.635	29738.38
734.976	29819.74
735.317	29639.4
735.658	29710.59
735.999	29660.65
736.339	29506.75
736.68	29609.35
737.021	29433.53
737.361	29339.75
737.702	29562.34
738.042	29354.67
738.383	29350.37
738.723	29446.64
739.063	29181.34
739.404	29376.36
739.744	29186.08
740.084	29133.2
740.424	29211.39
740.764	29147.44
741.104	29154.67
741.444	28953.09
741.784	29019.53
742.124	29010.72
742.464	28844.85
742.804	28855.7
743.143	28862.48
743.483	28864.51
743.823	28676.27
744.162	28681.01
744.502	28709.71
744.841	28582.71
745.181	28724.85
745.52	28597.62
745.86	28508.59
746.199	28555.82
746.538	28401.47
746.877	28406.89
747.216	28409.15
747.556	28358.08
747.895	28347.91
748.234	28189.5
748.573	28118.09
748.911	28088.71
749.25	28095.26
749.589	28001.93
749.928	27990.18
750.267	27920.58
750.605	27848.49
750.944	27793.13
751.283	27713.81
751.621	27789.06
751.96	27549.06
752.298	27667.25
752.636	27711.09
752.975	27516.75
753.313	27422.29
753.651	27594.03
753.989	27372.57
754.327	27215.29
754.666	27142.29
755.004	27217.55
755.342	27360.14
755.679	27299.8
756.017	27022.75
756.355	26974.16
756.693	26861.62
757.031	27115.4
757.368	26761.51
