Data from hue_70_FLMS001491_24.txt Node
Date: Mon Feb 06 15:20:20 GMT 2017
User: dcchb
Spectrometer: FLMS00149
Trigger mode: 0
Integration Time (sec): 2.000000E-2
Scans to average: 10
Electric dark correction enabled: true
Nonlinearity correction enabled: false
Boxcar width: 0
XAxis mode: Wavelengths
Number of Pixels in Spectrum: 2048
>>>>>Begin Spectral Data<<<<<
341.393	-9.99
341.776	-9.99
342.16	-9.99
342.543	-70.77
342.927	-56.09
343.31	-55.63
343.693	-77.55
344.077	-47.5
344.46	-61.06
344.843	-56.99
345.226	-38.23
345.61	-27.61
345.993	-34.39
346.376	-7.05
346.759	10.8
347.142	17.58
347.525	53.29
347.908	55.55
348.291	69.79
348.674	113.85
349.057	85.15
349.44	116.11
349.823	152.04
350.206	155.21
350.588	183.23
350.971	200.4
351.354	224.58
351.737	229.78
352.119	235.43
352.502	269.78
352.884	273.85
353.267	270.91
353.65	298.03
354.032	289.67
354.414	301.42
354.797	312.27
355.179	295.09
355.562	318.14
355.944	303.45
356.326	319.05
356.709	318.37
357.091	334.86
357.473	321.98
357.855	328.31
358.238	335.99
358.62	339.84
359.002	345.49
359.384	346.62
359.766	346.84
360.148	336.67
360.53	322.44
360.912	334.41
361.294	332.83
361.676	317.46
362.057	338.71
362.439	341.19
362.821	334.64
363.203	340.51
363.584	325.37
363.966	332.15
364.348	334.19
364.729	319.95
365.111	308.42
365.493	309.33
365.874	320.63
366.256	335.32
366.637	326.05
367.019	313.85
367.4	325.82
367.781	307.97
368.163	317.46
368.544	305.26
368.925	289.89
369.306	308.88
369.688	303
370.069	305.03
370.45	325.15
370.831	316.56
371.212	297.8
371.593	302.77
371.974	288.76
372.355	319.27
372.736	314.53
373.117	311.81
373.498	308.42
373.879	320.85
374.26	325.6
374.641	304.81
375.021	313.62
375.402	312.72
375.783	317.24
376.163	338.03
376.544	327.63
376.925	299.38
377.305	309.55
377.686	321.76
378.066	309.55
378.447	309.78
378.827	337.58
379.208	329.89
379.588	320.4
379.968	315.2
380.349	313.4
380.729	328.31
381.109	335.32
381.489	328.99
381.87	343.45
382.25	331.7
382.63	339.61
383.01	347.07
383.39	326.28
383.77	344.13
384.15	340.97
384.53	343.45
384.91	341.19
385.29	342.32
385.67	332.15
386.049	334.41
386.429	330.12
386.809	327.41
387.189	362.89
387.568	327.63
387.948	341.42
388.328	347.75
388.707	333.28
389.087	345.49
389.466	344.13
389.846	336.9
390.225	344.13
390.605	338.03
390.984	334.19
391.363	360.63
391.743	373.73
392.122	351.59
392.501	359.04
392.881	366.95
393.26	374.41
393.639	355.65
394.018	360.63
394.397	357.01
394.776	344.81
395.155	383
395.534	373.73
395.913	365.82
396.292	352.49
396.671	353.17
397.05	380.74
397.429	353.39
397.808	352.49
398.186	375.99
398.565	371.02
398.944	371.25
399.323	393.17
399.701	382.55
400.08	384.13
400.458	379.83
400.837	395.65
401.215	398.59
401.594	392.04
401.972	380.74
402.351	379.61
402.729	382.55
403.107	403.56
403.486	399.72
403.864	397.69
404.242	388.87
404.62	402.88
404.999	399.72
405.377	389.55
405.755	399.95
406.133	394.75
406.511	387.97
406.889	411.25
407.267	412.38
407.645	411.7
408.023	423.68
408.401	427.29
408.779	414.18
409.156	434.75
409.534	422.09
409.912	420.74
410.29	424.35
410.667	441.98
411.045	423.9
411.422	433.62
411.8	446.73
412.178	424.13
412.555	436.33
412.933	445.6
413.31	453.51
413.687	437.23
414.065	447.18
414.442	468.19
414.819	438.59
415.197	458.25
415.574	457.8
415.951	471.13
416.328	485.59
416.705	467.74
417.082	465.26
417.46	442.66
417.837	477.46
418.214	492.83
418.591	496.67
418.967	482.2
419.344	490.79
419.721	486.95
420.098	479.27
420.475	505.48
420.852	493.5
421.228	493.28
421.605	502.09
421.982	477.23
422.358	524.01
422.735	510.45
423.111	511.13
423.488	509.1
423.864	504.8
424.241	530.57
424.617	533.5
424.994	537.34
425.37	541.86
425.746	546.38
426.123	524.01
426.499	532.82
426.875	553.84
427.251	548.87
427.627	538.47
428.003	543.9
428.379	567.85
428.756	566.04
429.132	557.01
429.507	565.37
429.883	595.42
430.259	594.29
430.635	575.76
431.011	609.89
431.387	607.85
431.763	579.38
432.138	596.33
432.514	597.46
432.89	616.44
433.265	609.66
433.641	612.37
434.016	619.83
434.392	621.18
434.767	643.56
435.143	622.09
435.518	624.57
435.894	667.74
436.269	667.06
436.644	651.69
437.02	651.24
437.395	645.82
437.77	663.22
438.145	686.49
438.52	661.41
438.895	670.22
439.271	676.55
439.646	687.4
440.021	712.26
440.395	700.5
440.77	687.4
441.145	697.34
441.52	709.77
441.895	713.16
442.27	720.62
442.645	701.18
443.019	718.58
443.394	718.58
443.769	759.49
444.143	737.34
444.518	751.35
444.892	719.49
445.267	728.3
445.641	747.06
446.016	739.15
446.39	747.06
446.764	773.04
447.139	762.2
447.513	796.77
447.887	769.43
448.262	791.35
448.636	794.96
449.01	775.98
449.384	798.13
449.758	799.26
450.132	799.03
450.506	809.65
450.88	824.34
451.254	810.78
451.628	814.63
452.002	838.81
452.376	826.83
452.75	838.13
453.123	846.26
453.497	863.21
453.871	853.95
454.244	886.04
454.618	877.45
454.992	866.15
455.365	893.49
455.739	896.66
456.112	916.54
456.486	944.34
456.859	972.14
457.232	934.4
457.606	936.88
457.979	962.87
458.352	959.48
458.725	977.33
459.099	976.43
459.472	996.54
459.845	1030.89
460.218	1026.37
460.591	1038.8
460.964	1044
461.337	1056.43
461.71	1066.37
462.083	1093.26
462.456	1100.95
462.829	1111.57
463.201	1107.27
463.574	1129.65
463.947	1141.85
464.32	1173.03
464.692	1178.46
465.065	1192.24
465.438	1197.44
465.81	1214.16
466.183	1236.76
466.555	1234.5
466.928	1274.27
467.3	1273.14
467.672	1293.03
468.045	1316.76
468.417	1347.04
468.789	1366.02
469.161	1382.97
469.534	1407.6
469.906	1418.23
470.278	1440.82
470.65	1468.62
471.022	1496.87
471.394	1502.29
471.766	1550.88
472.138	1572.8
472.51	1623.19
472.882	1639.24
473.253	1698.22
473.625	1698.9
473.997	1726.92
474.369	1788.61
474.74	1810.08
475.112	1839.91
475.484	1893.92
475.855	1959.45
476.227	1985.89
476.598	2035.38
476.97	2096.85
477.341	2152.44
477.713	2188.37
478.084	2237.86
478.455	2342.95
478.827	2347.01
479.198	2444.64
479.569	2521.02
479.94	2590.62
480.311	2638.53
480.682	2742.71
481.053	2806.89
481.424	2879.2
481.795	2944.74
482.166	3018.64
482.537	3122.14
482.908	3212.53
483.279	3287.1
483.65	3378.85
484.021	3492.52
484.391	3613.42
484.762	3646.87
485.133	3754.44
485.503	3850.93
485.874	4015.9
486.244	4085.27
486.615	4198.49
486.985	4351.48
487.356	4471.03
487.726	4497.01
488.097	4697.24
488.467	4815.2
488.837	4918.47
489.207	5033.27
489.578	5242.08
489.948	5330.89
490.318	5484.33
490.688	5601.84
491.058	5706.7
491.428	5871.44
491.798	5969.97
492.168	6177.65
492.538	6237.53
492.908	6367.25
493.278	6558.66
493.648	6660.35
494.017	6858.76
494.387	6956.61
494.757	7032.54
495.126	7270.95
495.496	7347.79
495.866	7458.52
496.235	7615.58
496.605	7829.58
496.974	7816.48
497.344	8103.02
497.713	8173.98
498.082	8276.12
498.452	8437.25
498.821	8582.33
499.19	8696.45
499.559	8826.62
499.928	9020.51
500.298	9142.77
500.667	9246.72
501.036	9319.94
501.405	9455.08
501.774	9563.32
502.143	9707.5
502.512	9845.8
502.88	9995.85
503.249	9972.12
503.618	10175.74
503.987	10255.28
504.356	10395.84
504.724	10464.77
505.093	10607.59
505.462	10705.89
505.83	10818.2
506.199	11025.66
506.567	11100.91
506.936	11143.39
507.304	11379.55
507.672	11430.84
508.041	11519.43
508.409	11663.15
508.777	11837.16
509.145	11919.87
509.514	11959.42
509.882	12127.77
510.25	12206.87
510.618	12315.34
510.986	12363.47
511.354	12517.82
511.722	12669.91
512.09	12784.25
512.458	12833.29
512.826	12970.69
513.193	13018.6
513.561	13059.05
513.929	13132.27
514.297	13344.24
514.664	13373.17
515.032	13531.58
515.4	13578.36
515.767	13666.04
516.135	13757.34
516.502	13758.01
516.869	14015.86
517.237	13968.86
517.604	14016.09
517.972	14163.65
518.339	14272.58
518.706	14312.58
519.073	14415.62
519.44	14493.59
519.808	14614.04
520.175	14657.2
520.542	14834.82
520.909	14938.1
521.276	14941.26
521.643	15102.16
522.009	15223.29
522.376	15287.01
522.743	15407.01
523.11	15536.95
523.477	15603.62
523.843	15690.84
524.21	15846.09
524.577	16014.23
524.943	15939.88
525.31	16008.58
525.676	16228.68
526.043	16348.45
526.409	16311.85
526.776	16514.33
527.142	16576.02
527.508	16619.63
527.874	16654.89
528.241	16834.09
528.607	16808.56
528.973	16911.15
529.339	16969.23
529.705	17110.24
530.071	17227.53
530.437	17209.45
530.803	17382.78
531.169	17330.12
531.535	17340.29
531.901	17444.47
532.267	17534.41
532.632	17526.05
532.998	17619.83
533.364	17706.84
533.73	17729.43
534.095	17789.77
534.461	17813.27
534.826	17956.55
535.192	17939.6
535.557	18055.08
535.923	18000.39
536.288	18100.72
536.653	18098.01
537.019	18104.79
537.384	18096.66
537.749	18232.02
538.114	18195.64
538.479	18202.19
538.845	18270.21
539.21	18240.38
539.575	18297.1
539.94	18222.53
540.305	18371.9
540.67	18345.69
541.034	18340.72
541.399	18455.29
541.764	18481.28
542.129	18449.64
542.494	18417.78
542.858	18483.77
543.223	18535.29
543.587	18635.85
543.952	18500.71
544.316	18530.32
544.681	18555.4
545.045	18598.34
545.41	18580.26
545.774	18611.67
546.138	18766.92
546.503	18683.53
546.867	18687.6
547.231	18847.37
547.595	18802.63
547.959	18811.89
548.324	18792.23
548.688	18923.08
549.052	18820.03
549.416	18913.13
549.779	18873.13
550.143	18947.71
550.507	19082.39
550.871	18915.39
551.235	18934.38
551.599	19001.27
551.962	19072.22
552.326	19048.5
552.689	19148.83
553.053	19017.76
553.417	19000.36
553.78	19223.63
554.143	19224.31
554.507	19271.09
554.87	19233.8
555.234	19360.35
555.597	19311.77
555.96	19213.92
556.323	19427.7
556.686	19371.43
557.05	19584.53
557.413	19427.02
557.776	19436.96
558.139	19643.51
558.502	19591.53
558.865	19572.55
559.228	19813.9
559.59	19798.99
559.953	19897.29
560.316	20004.18
560.679	20045.76
561.041	20035.81
561.404	20095.93
561.767	20090.05
562.129	20095.25
562.492	20287.33
562.854	20242.82
563.217	20177.51
563.579	20259.31
563.941	20393.55
564.304	20389.03
564.666	20528.23
565.028	20592.41
565.39	20500.89
565.753	20739.3
566.115	20775.68
566.477	20737.04
566.839	20791.73
567.201	20939.52
567.563	20874.44
567.925	21068.56
568.287	20953.53
568.648	21061.55
569.01	21152.62
569.372	21296.57
569.734	21191.26
570.095	21399.39
570.457	21440.98
570.819	21445.72
571.18	21454.31
571.542	21518.04
571.903	21469.9
572.265	21653.63
572.626	21727.75
572.987	21674.87
573.349	21770.01
573.71	21739.5
574.071	21823.79
574.432	21867.18
574.794	21998.02
575.155	22047.06
575.516	21843
575.877	21934.97
576.238	21995.31
576.599	22136.78
576.96	22090.22
577.32	22123.22
577.681	22204.57
578.042	22191.01
578.403	22186.27
578.763	22226.72
579.124	22229.2
579.485	22336.77
579.845	22475.98
580.206	22416.09
580.566	22292.7
580.927	22330.44
581.287	22453.83
581.648	22386.26
582.008	22412.7
582.368	22417.45
582.728	22519.59
583.089	22424.68
583.449	22374.28
583.809	22473.72
584.169	22478.24
584.529	22411.57
584.889	22633.71
585.249	22387.17
585.609	22400.27
585.969	22461.74
586.329	22421.74
586.688	22405.7
587.048	22428.07
587.408	22436.43
587.768	22314.17
588.127	22392.82
588.487	22343.55
588.846	22538.57
589.206	22343.55
589.565	22251.12
589.925	22419.71
590.284	22466.94
590.643	22497.45
591.003	22492.7
591.362	22541.06
591.721	22508.52
592.08	22398.24
592.44	22513.04
592.799	22412.02
593.158	22501.74
593.517	22411.57
593.876	22471.01
594.235	22439.37
594.593	22452.7
594.952	22491.8
595.311	22364.34
595.67	22532.47
596.029	22657.89
596.387	22513.94
596.746	22582.64
597.104	22516.88
597.463	22532.92
597.822	22663.32
598.18	22431.91
598.538	22578.8
598.897	22553.26
599.255	22381.74
599.613	22717.78
599.972	22531.79
600.33	22730.21
600.688	22534.28
601.046	22767.72
601.404	22757.55
601.762	22782.41
602.12	22735.63
602.478	22803.88
602.836	22659.25
603.194	22622.64
603.552	22734.05
603.91	22629.19
604.268	22680.94
604.625	22774.5
604.983	22842.29
605.341	22688.63
605.698	22756.2
606.056	22755.07
606.413	22786.93
606.771	22899.02
607.128	22839.13
607.485	22760.72
607.843	22895.4
608.2	22933.59
608.557	23053.81
608.914	22991.44
609.272	23079.35
609.629	23054.27
609.986	23281.15
610.343	23175.62
610.7	23247.03
611.057	23226.47
611.414	23319.34
611.771	23227.6
612.127	23357.54
612.484	23383.07
612.841	23464.88
613.198	23259.01
613.554	23378.1
613.911	23492.67
614.267	23402.51
614.624	23462.39
614.98	23476.85
615.337	23606.12
615.693	23519.34
616.05	23558.66
616.406	23705.77
616.762	23582.84
617.118	23606.79
617.475	23521.6
617.831	23691.54
618.187	23765.21
618.543	23741.48
618.899	23758.88
619.255	23907.58
619.611	23775.6
619.967	23902.15
620.323	23839.33
620.678	23888.14
621.034	23769.73
621.39	23865.54
621.746	23828.26
622.101	24038.42
622.457	23785.32
622.812	23947.8
623.168	23874.81
623.523	23845.21
623.879	24039.55
624.234	23838.65
624.589	24024.86
624.945	24089.95
625.3	23967.01
625.655	24017.18
626.01	23955.26
626.365	24096.27
626.72	24006.11
627.075	24034.58
627.43	23933.57
627.785	23970.85
628.14	24067.12
628.495	24007.46
628.85	23858.77
629.205	23923.4
629.559	24081.36
629.914	24034.35
630.269	23956.16
630.623	23913.68
630.978	23869.61
631.332	24000.91
631.687	24091.53
632.041	23997.97
632.396	23970.63
632.75	23888.37
633.104	23875.94
633.459	23790.07
633.813	23861.03
634.167	23862.83
634.521	23791.65
634.875	23793
635.229	23856.96
635.583	23647.7
635.937	23735.38
636.291	23708.49
636.645	23707.81
636.999	23481.83
637.352	23687.24
637.706	23649.28
638.06	23659.67
638.413	23616.51
638.767	23503.29
639.121	23601.14
639.474	23408.83
639.828	23450.19
640.181	23504.42
640.534	23651.99
640.888	23403.64
641.241	23369.06
641.594	23444.54
641.947	23428.49
642.301	23472.56
642.654	23410.19
643.007	23480.47
643.36	23309.4
643.713	23345.56
644.066	23465.33
644.419	23223.75
644.771	23136.52
645.124	22908.28
645.477	22874.61
645.83	22722.75
646.182	22601.17
646.535	22583.32
646.888	22631.9
647.24	22533.38
647.593	22644.11
647.945	22576.09
648.298	22430.1
648.65	22496.09
649.002	22376.09
649.355	22536.31
649.707	22466.71
650.059	22492.47
650.411	22777.21
650.763	22795.29
651.115	23111.21
651.467	23032.57
651.819	23030.54
652.171	22888.62
652.523	22940.6
652.875	22935.17
653.227	22756.2
653.578	23007.49
653.93	22914.84
654.282	22759.36
654.633	22839.58
654.985	22812.92
655.337	22956.42
655.688	22787.38
656.039	22936.08
656.391	22796.87
656.742	22883.2
657.094	22961.61
657.445	22840.94
657.796	22844.33
658.147	22764.1
658.498	22806.59
658.849	22885.23
659.2	22803.88
659.551	22846.14
659.902	22909.86
660.253	22831.22
660.604	22891.11
660.955	22839.13
661.306	22827.38
661.656	22805.23
662.007	22843.65
662.358	22936.53
662.708	22870.54
663.059	22885.23
663.409	22720.94
663.76	22922.07
664.11	22883.42
664.461	22906.47
664.811	22867.38
665.161	22870.54
665.511	22889.75
665.862	22751.9
666.212	22890.66
666.562	22927.94
666.912	22783.54
667.262	22816.31
667.612	22828.96
667.962	22917.55
668.312	22789.19
668.662	22870.09
669.011	22734.95
669.361	22729.76
669.711	22837.32
670.06	22687.04
670.41	22669.87
670.76	22704.9
671.109	22670.1
671.459	22776.76
671.808	22638.91
672.157	22745.8
672.507	22597.78
672.856	22507.61
673.205	22564.34
673.554	22683.43
673.904	22577.67
674.253	22762.97
674.602	22697.21
674.951	22322.31
675.3	22222.2
675.649	22580.38
675.998	22518.69
676.346	22526.82
676.695	22638.01
677.044	22468.75
677.393	22620.15
677.741	22496.09
678.09	22434.85
678.438	22432.36
678.787	22395.98
679.135	22417.67
679.484	22215.87
679.832	22399.59
680.181	22214.97
680.529	22261.75
680.877	22117.12
681.225	22200.73
681.573	22257.45
681.922	22136.55
682.27	21992.37
682.618	22138.13
682.966	21993.73
683.314	22008.19
683.661	21902.88
684.009	21793.73
684.357	21838.25
684.705	21782.66
685.053	21888.42
685.4	21707.41
685.748	21580.86
686.095	21745.15
686.443	21532.27
686.79	21455.66
687.138	21528.43
687.485	21503.57
687.832	21389.45
688.18	21499.73
688.527	21299.74
688.874	21364.14
689.221	21259.29
689.568	21138.38
689.915	21132.06
690.262	21102.68
690.609	21085.96
690.956	20991.95
691.303	21036.47
691.65	20920.31
691.997	20912.4
692.344	20675.57
692.69	20782.46
693.037	20768
693.383	20567.78
693.73	20610.49
694.077	20419.99
694.423	20464.5
694.769	20305.64
695.116	20209.82
695.462	20187.22
695.808	20167.34
696.155	20207.34
696.501	20041.92
696.847	20064.51
697.193	19879.21
697.539	20018.19
697.885	19707.69
698.231	19779.78
698.577	19713.79
698.923	19672.43
699.269	19570.29
699.614	19507.69
699.96	19434.7
700.306	19395.15
700.651	19347.02
700.997	19253.91
701.342	19273.35
701.688	19236.51
702.033	19197.87
702.379	19041.49
702.724	19011.44
703.069	19114.26
703.415	18827.94
703.76	18941.15
704.105	18901.83
704.45	18744.1
704.795	18556.76
705.14	18680.82
705.485	18557.89
705.83	18535.97
706.175	18531.22
706.52	18469.08
706.865	18427.72
707.209	18358.8
707.554	18338.01
707.899	18329.65
708.243	18250.1
708.588	18137.79
708.932	18047.17
709.277	18143.44
709.621	18097.56
709.966	17969.2
710.31	17921.75
710.654	17811.47
710.998	17844.69
711.342	17808.08
711.687	17678.59
712.031	17691.02
712.375	17564.47
712.719	17638.82
713.063	17620.74
713.407	17495.09
713.75	17570.12
714.094	17533.73
714.438	17437.92
714.782	17483.11
715.125	17317.92
715.469	17355.43
715.812	17299.62
716.156	17097.81
716.499	17224.36
716.843	17186.4
717.186	17069.79
717.53	17225.49
717.873	17225.04
718.216	17173.74
718.559	17081.77
718.902	16914.54
719.246	16988.89
719.589	16964.94
719.932	16895.33
720.275	16933.75
720.617	16797.48
720.96	16909.12
721.303	16846.52
721.646	16804.71
721.989	16776.69
722.331	16880.64
722.674	16740.53
723.016	16757.71
723.359	16624.61
723.701	16715.45
724.044	16642.23
724.386	16637.49
724.729	16762.91
725.071	16552.06
725.413	16552.97
725.755	16512.07
726.097	16508.45
726.439	16431.16
726.782	16440.66
727.124	16515
727.465	16357.72
727.807	16382.8
728.149	16463.03
728.491	16348.23
728.833	16354.78
729.175	16293.77
729.516	16310.94
729.858	16275.91
730.199	16301
730.541	16207.44
730.882	16246.54
731.224	16348.68
731.565	16147.56
731.906	16174.67
732.248	16127.44
732.589	16131.28
732.93	16155.47
733.271	16063.26
733.612	16088.35
733.953	16126.77
734.294	16104.39
734.635	16113.21
734.976	16069.37
735.317	16053.77
735.658	15971.06
735.999	16099.87
736.339	16024.4
736.68	16093.32
737.021	16050.84
737.361	15931.52
737.702	16061.91
738.042	15997.28
738.383	15935.36
738.723	16105.97
739.063	15912.08
739.404	16020.78
739.744	15917.96
740.084	15896.49
740.424	16030.5
740.764	15893.78
741.104	16116.14
741.444	15914.79
741.784	15863.5
742.124	15902.36
742.464	15895.13
742.804	15968.8
743.143	15983.49
743.483	16014.68
743.823	16003.15
744.162	16007.9
744.502	16016.94
744.841	15920.22
745.181	16076.6
745.52	15994.79
745.86	16062.59
746.199	16034.11
746.538	16105.97
746.877	16195.69
747.216	16107.1
747.556	16185.52
747.895	16251.51
748.234	16205.41
748.573	16259.42
748.911	16283.82
749.25	16357.95
749.589	16305.52
749.928	16395.23
750.267	16421.22
750.605	16532.18
750.944	16437.72
751.283	16465.06
751.621	16572.63
751.96	16626.41
752.298	16582.35
752.636	16664.83
752.975	16719.52
753.313	16796.35
753.651	16964.48
753.989	16947.76
754.327	17034.76
754.666	16915.9
755.004	17033.63
755.342	17236.79
755.679	17320.41
756.017	17251.26
756.355	17333.51
756.693	17373.29
