Data from hue_80_FLMS001491_16.txt Node
Date: Mon Feb 06 15:22:33 GMT 2017
User: dcchb
Spectrometer: FLMS00149
Trigger mode: 0
Integration Time (sec): 2.000000E-2
Scans to average: 10
Electric dark correction enabled: true
Nonlinearity correction enabled: false
Boxcar width: 0
XAxis mode: Wavelengths
Number of Pixels in Spectrum: 2048
>>>>>Begin Spectral Data<<<<<
341.393	-11.54
341.776	-11.54
342.16	-11.54
342.543	-60.35
342.927	-49.05
343.31	-61.71
343.693	-74.36
344.077	-63.06
344.46	-59.67
344.843	-60.13
345.226	-40.01
345.61	-22.16
345.993	-24.19
346.376	4.73
346.759	13.09
347.142	4.28
347.525	48.12
347.908	50.61
348.291	83.6
348.674	81.34
349.057	119.53
349.44	109.36
349.823	142.81
350.206	159.53
350.588	171.51
350.971	210.38
351.354	222.13
351.737	218.74
352.119	258.74
352.502	252.86
352.884	284.72
353.267	278.4
353.65	295.35
354.032	289.47
354.414	310.49
354.797	283.14
355.179	316.59
355.562	327.43
355.944	347.32
356.326	310.71
356.709	339.86
357.091	338.96
357.473	330.37
357.855	343.25
358.238	340.99
358.62	317.27
359.002	337.6
359.384	338.06
359.766	335.8
360.148	338.96
360.53	332.41
360.912	322.46
361.294	316.59
361.676	347.1
362.057	325.18
362.439	310.94
362.821	332.41
363.203	314.78
363.584	303.48
363.966	320.43
364.348	314.78
364.729	309.81
365.111	326.3
365.493	302.35
365.874	325.85
366.256	319.07
366.637	319.53
367.019	326.08
367.4	310.03
367.781	322.69
368.163	312.52
368.544	288.11
368.925	301.9
369.306	294.67
369.688	319.53
370.069	313.65
370.45	300.77
370.831	319.98
371.212	316.36
371.593	310.26
371.974	315.46
372.355	309.58
372.736	311.62
373.117	303.93
373.498	319.3
373.879	303.25
374.26	309.58
374.641	308
375.021	324.72
375.402	316.81
375.783	313.88
376.163	324.72
376.544	328.79
376.925	322.24
377.305	325.63
377.686	324.95
378.066	310.03
378.447	335.57
378.827	317.27
379.208	353.2
379.588	324.72
379.968	326.08
380.349	319.3
380.729	328.79
381.109	332.41
381.489	344.84
381.87	336.7
382.25	331.28
382.63	335.8
383.01	320.66
383.39	338.51
383.77	343.25
384.15	331.05
384.53	329.69
384.91	348.9
385.29	353.87
385.67	329.69
386.049	348
386.429	362.24
386.809	342.35
387.189	354.55
387.568	359.3
387.948	377.15
388.328	350.71
388.707	357.72
389.087	362.69
389.466	365.4
389.846	341.22
390.225	362.01
390.605	362.01
390.984	343.25
391.363	373.31
391.743	358.62
392.122	344.38
392.501	361.78
392.881	375.12
393.26	339.86
393.639	360.65
394.018	376.7
394.397	367.21
394.776	383.7
395.155	363.14
395.534	371.5
395.913	375.12
396.292	389.81
396.671	373.31
397.05	366.08
397.429	376.25
397.808	364.27
398.186	378.28
398.565	380.09
398.944	362.91
399.323	366.08
399.701	378.51
400.08	400.88
400.458	399.98
400.837	372.86
401.215	389.13
401.594	399.75
401.972	402.24
402.351	374.21
402.729	366.98
403.107	399.3
403.486	397.94
403.864	401.78
404.242	411.95
404.62	400.65
404.999	395.68
405.377	411.95
405.755	398.85
406.133	424.61
406.511	402.46
406.889	410.37
407.267	429.13
407.645	404.27
408.023	418.51
408.401	420.54
408.779	416.47
409.156	414.44
409.534	425.96
409.912	432.06
410.29	437.26
410.667	434.55
411.045	431.16
411.422	423.03
411.8	452.86
412.178	463.93
412.555	441.78
412.933	438.62
413.31	467.32
413.687	467.09
414.065	443.14
414.442	486.53
414.819	477.49
415.197	481.33
415.574	474.78
415.951	475.68
416.328	481.1
416.705	477.04
417.082	482.91
417.46	502.35
417.837	484.72
418.214	502.12
418.591	501.22
418.967	508.22
419.344	500.09
419.721	508.45
420.098	508
420.475	498.5
420.852	509.8
421.228	536.92
421.605	501.22
421.982	512.29
422.358	529.01
422.735	521.55
423.111	515.9
423.488	509.35
423.864	544.38
424.241	538.95
424.617	515.23
424.994	548.9
425.37	542.57
425.746	548.9
426.123	542.57
426.499	530.59
426.875	564.49
427.251	557.49
427.627	567.2
428.003	565.17
428.379	567.65
428.756	566.75
429.132	585.96
429.507	579.63
429.883	585.96
430.259	585.28
430.635	588.44
431.011	590.03
431.387	604.49
431.763	600.65
432.138	618.27
432.514	593.64
432.89	593.64
433.265	619.4
433.641	621.66
434.016	640.87
434.392	618.95
434.767	644.49
435.143	667.99
435.518	673.64
435.894	684.04
436.269	658.05
436.644	693.75
437.02	670.48
437.395	653.75
437.77	686.07
438.145	675.22
438.52	708.67
438.895	698.27
439.271	699.4
439.646	704.15
440.021	736.01
440.395	733.53
440.77	720.64
441.145	720.42
441.52	725.39
441.895	726.97
442.27	728.1
442.645	739.18
443.019	757.03
443.394	749.57
443.769	747.76
444.143	752.96
444.518	758.61
444.892	744.37
445.267	770.81
445.641	779.17
446.016	795.22
446.39	785.95
446.764	764.71
447.139	784.82
447.513	795.45
447.887	790.7
448.262	785.5
448.636	792.73
449.01	819.4
449.384	817.59
449.758	856.23
450.132	815.11
450.506	828.21
450.88	832.51
451.254	856.91
451.628	851.04
452.002	873.86
452.376	879.74
452.75	898.72
453.123	854.2
453.497	888.55
453.871	889.91
454.244	915.67
454.618	926.97
454.992	895.1
455.365	926.29
455.739	923.58
456.112	919.28
456.486	942.33
456.859	967.42
457.232	962.67
457.606	988.21
457.979	1007.42
458.352	1025.04
458.725	1025.04
459.099	1020.98
459.472	1044.03
459.845	1077.92
460.218	1049.45
460.591	1077.47
460.964	1088.32
461.337	1098.71
461.71	1095.1
462.083	1123.57
462.456	1145.49
462.829	1116.11
463.201	1127.19
463.574	1137.58
463.947	1173.29
464.32	1211.71
464.692	1209.45
465.065	1202.89
465.438	1251.25
465.81	1264.13
466.183	1270.46
466.555	1293.29
466.928	1326.05
467.3	1316.79
467.672	1329.89
468.045	1371.93
468.417	1380.51
468.789	1406.28
469.161	1423
469.534	1438.37
469.906	1485.82
470.278	1490.34
470.65	1538.02
471.022	1534.41
471.394	1581.64
471.766	1587.29
472.138	1628.87
472.51	1671.13
472.882	1724.01
473.253	1748.19
473.625	1782.99
473.997	1822.54
474.369	1846.72
474.74	1869.99
475.112	1915.19
475.484	1946.6
475.855	1983.44
476.227	2010.78
476.598	2108.18
476.97	2141.17
477.341	2176.43
477.713	2266.82
478.084	2271.79
478.455	2378
478.827	2388.17
479.198	2486.7
479.569	2519.47
479.94	2638.33
480.311	2692.12
480.682	2768.5
481.053	2864.09
481.424	2923.52
481.795	3002.84
482.166	3078.55
482.537	3158.55
482.908	3262.27
483.279	3330.29
483.65	3375.94
484.021	3531.87
484.391	3634.69
484.762	3706.56
485.133	3766.44
485.503	3890.51
485.874	4009.15
486.244	4052.99
486.615	4171.85
486.985	4333.43
487.356	4481.22
487.726	4559.19
488.097	4668.79
488.467	4794.44
488.837	4937.03
489.207	5019.51
489.578	5166.63
489.948	5221.09
490.318	5378.83
490.688	5462.22
491.058	5624.47
491.428	5740.63
491.798	5854.52
492.168	6060.39
492.538	6143.1
492.908	6305.36
493.278	6436.65
493.648	6490.89
494.017	6667.83
494.387	6794.61
494.757	6931.78
495.126	7029.41
495.496	7182.17
495.866	7278.21
496.235	7440.92
496.605	7566.11
496.974	7682.72
497.344	7806.11
497.713	7927.01
498.082	8059.43
498.452	8153.22
498.821	8362.03
499.19	8389.37
499.559	8476.6
499.928	8666.2
500.298	8763.15
500.667	8936.25
501.036	8939.41
501.405	9105.74
501.774	9164.49
502.143	9264.6
502.512	9409.68
502.88	9549.11
503.249	9602.67
503.618	9720.86
503.987	9821.65
504.356	9922.89
504.724	10060.29
505.093	10147.74
505.462	10170.79
505.83	10284.91
506.199	10330.11
506.567	10571.69
506.936	10537.56
507.304	10710.89
507.672	10778.01
508.041	10890.77
508.409	11034.5
508.777	11062.97
509.145	11247.6
509.514	11309.29
509.882	11324.21
510.25	11414.83
510.618	11513.81
510.986	11607.14
511.354	11649.17
511.722	11789.05
512.09	11871.99
512.458	11897.07
512.826	11998.09
513.193	12027.69
513.561	12056.17
513.929	12248.93
514.297	12359.43
514.664	12430.62
515.032	12417.51
515.4	12537.51
515.767	12533.44
516.135	12713.78
516.502	12564.85
516.869	12831.29
517.237	12817.73
517.604	12850.04
517.972	12997.38
518.339	13170.49
518.706	13069.47
519.073	13072.86
519.44	13208.23
519.808	13302.91
520.175	13301.56
520.542	13438.73
520.909	13460.87
521.276	13503.36
521.643	13690.25
522.009	13669
522.376	13748.1
522.743	13828.77
523.11	13945.61
523.477	14059.05
523.843	14069.22
524.21	14207.07
524.577	14282.1
524.943	14258.37
525.31	14342.89
525.676	14435.99
526.043	14494.97
526.409	14582.2
526.776	14619.71
527.142	14565.7
527.508	14702.88
527.874	14729.54
528.241	14812.93
528.607	14766.38
528.973	14864.68
529.339	14862.87
529.705	14950.55
530.071	14996.2
530.437	15019.7
530.803	15127.72
531.169	15107.61
531.535	15168.63
531.901	15139.7
532.267	15214.5
532.632	15261.51
532.998	15284.56
533.364	15288.62
533.73	15350.54
534.095	15352.8
534.461	15377.21
534.826	15407.94
535.192	15405.68
535.557	15486.36
535.923	15477.77
536.288	15524.32
536.653	15451.33
537.019	15464.66
537.384	15508.73
537.749	15526.36
538.114	15569.97
538.479	15516.19
538.845	15571.78
539.21	15517.32
539.575	15548.5
539.94	15518.67
540.305	15466.7
540.67	15474.38
541.034	15468.05
541.399	15497.66
541.764	15539.24
542.129	15511.22
542.494	15442.52
542.858	15568.62
543.223	15521.61
543.587	15539.01
543.952	15461.73
544.316	15534.49
544.681	15414.72
545.045	15526.13
545.41	15553.02
545.774	15494.49
546.138	15412.69
546.503	15509.63
546.867	15427.38
547.231	15510.54
547.595	15539.92
547.959	15454.49
548.324	15410.43
548.688	15414.04
549.052	15547.83
549.416	15493.82
549.779	15487.94
550.143	15431.44
550.507	15540.59
550.871	15499.01
551.235	15394.61
551.599	15548.5
551.962	15515.96
552.326	15509.63
552.689	15470.09
553.053	15441.84
553.417	15499.92
553.78	15616.75
554.143	15535.17
554.507	15566.81
554.87	15568.39
555.234	15573.81
555.597	15485
555.96	15572.23
556.323	15534.94
556.686	15503.31
557.05	15594.6
557.413	15623.98
557.776	15505.11
558.139	15608.62
558.502	15626.69
558.865	15717.99
559.228	15793.02
559.59	15733.36
559.953	15746.01
560.316	15844.09
560.679	15769.97
561.041	15915.73
561.404	15873.92
561.767	15967.93
562.129	15814.71
562.492	15987.14
562.854	15891.77
563.217	15925.44
563.579	15916.63
563.941	15944.88
564.304	16063.07
564.666	16037.98
565.028	16110.3
565.39	16143.97
565.753	16098.77
566.115	16170.18
566.477	16193.68
566.839	16197.3
567.201	16346
567.563	16283.63
567.925	16383.51
568.287	16330.18
568.648	16301.7
569.01	16489.5
569.372	16467.12
569.734	16398.88
570.095	16458.31
570.457	16510.29
570.819	16644.07
571.18	16507.35
571.542	16697.63
571.903	16652.2
572.265	16696.04
572.626	16637.29
572.987	16712.99
573.349	16809.71
573.71	16811.3
574.071	16798.64
574.432	16865.31
574.794	16975.13
575.155	16880.67
575.516	16769.94
575.877	17000.44
576.238	16974.68
576.599	17022.59
576.96	16907.56
577.32	16943.5
577.681	17017.17
578.042	16965.19
578.403	17065.75
578.763	16928.35
579.124	16959.09
579.485	17077.95
579.845	17173.09
580.206	17085.19
580.566	17050.39
580.927	17045.41
581.287	17142.59
581.648	17037.96
582.008	17118.63
582.368	17088.12
582.728	17088.35
583.089	16986.66
583.449	17064.17
583.809	17079.08
584.169	17146.43
584.529	17051.97
584.889	17039.99
585.249	17004.06
585.609	16958.41
585.969	17022.82
586.329	16980.33
586.688	17102.81
587.048	17009.71
587.408	16978.75
587.768	16939.2
588.127	16949.37
588.487	17021.69
588.846	17000.67
589.206	16948.01
589.565	16953.21
589.925	16939.88
590.284	16956.38
590.643	16996.15
591.003	16860.33
591.362	16992.31
591.721	16950.5
592.08	16949.6
592.44	17057.84
592.799	16992.99
593.158	16884.74
593.517	16947.56
593.876	16947.56
594.235	16925.19
594.593	16934.23
594.952	16892.88
595.311	16900.78
595.67	16908.69
596.029	16965.42
596.387	16954.34
596.746	16937.62
597.104	16913.21
597.463	16971.74
597.822	16982.14
598.18	16917.51
598.538	16848.13
598.897	16905.53
599.255	16806.32
599.613	16986.88
599.972	16956.38
600.33	17018.97
600.688	16903.72
601.046	16938.75
601.404	17022.59
601.762	16917.06
602.12	17046.32
602.478	17020.1
602.836	17022.59
603.194	16907.79
603.552	16959.99
603.91	16870.05
604.268	16996.15
604.625	16952.53
604.983	17019.65
605.341	16902.14
605.698	16932.87
606.056	17015.58
606.413	17048.58
606.771	17035.02
607.128	17096.71
607.485	17026.2
607.843	16953.66
608.2	17130.83
608.557	17153.21
608.914	17086.32
609.272	17192.08
609.629	17231.17
609.986	17278.4
610.343	17210.38
610.7	17243.83
611.057	17204.05
611.414	17230.49
611.771	17297.61
612.127	17333.32
612.484	17237.95
612.841	17310.94
613.198	17272.98
613.554	17332.41
613.911	17272.07
614.267	17305.07
614.624	17379.64
614.98	17372.18
615.337	17438.62
615.693	17401.34
616.05	17400.66
616.406	17475.01
616.762	17508.23
617.118	17463.93
617.475	17402.01
617.831	17523.37
618.187	17506.87
618.543	17571.73
618.899	17591.84
619.255	17544.84
619.611	17607.43
619.967	17596.59
620.323	17687.66
620.678	17694.44
621.034	17537.15
621.39	17578.51
621.746	17651.27
622.101	17795.9
622.457	17667.77
622.812	17679.97
623.168	17719.29
623.523	17586.19
623.879	17807.2
624.234	17572.41
624.589	17674.55
624.945	17813.53
625.3	17689.46
625.655	17665.51
626.01	17766.98
626.365	17713.42
626.72	17748.67
627.075	17730.37
627.43	17720.42
627.785	17699.86
628.14	17680.2
628.495	17731.05
628.85	17684.49
629.205	17595.46
629.559	17715.23
629.914	17653.76
630.269	17655.11
630.623	17553.42
630.978	17571.5
631.332	17628.45
631.687	17645.17
632.041	17598.85
632.396	17657.83
632.75	17573.08
633.104	17633.65
633.459	17455.57
633.813	17492.18
634.167	17402.69
634.521	17548.23
634.875	17441.11
635.229	17392.97
635.583	17266.2
635.937	17432.52
636.291	17433.65
636.645	17396.36
636.999	17355.01
637.352	17305.52
637.706	17304.16
638.06	17291.06
638.413	17222.36
638.767	17253.54
639.121	17296.48
639.474	17159.08
639.828	17114.11
640.181	17182.58
640.534	17157.95
640.888	17149.14
641.241	17122.7
641.594	17052.87
641.947	17211.51
642.301	17047
642.654	17057.39
643.007	17063.49
643.36	17195.24
643.713	17007.22
644.066	17054.68
644.419	17024.4
644.771	16870.5
645.124	16687.91
645.477	16756.83
645.83	16638.19
646.182	16580.57
646.535	16563.39
646.888	16583.73
647.24	16416.05
647.593	16522.49
647.945	16479.78
648.298	16389.16
648.65	16428.93
649.002	16384.64
649.355	16487.24
649.707	16387.13
650.059	16496.73
650.411	16736.49
650.763	16637.74
651.115	16874.34
651.467	16725.65
651.819	16795.02
652.171	16815.59
652.523	16761.58
652.875	16790.96
653.227	16719.32
653.578	16855.81
653.93	16806.32
654.282	16742.82
654.633	16657.63
654.985	16764.97
655.337	16752.09
655.688	16828.7
656.039	16757.06
656.391	16705.76
656.742	16697.4
657.094	16783.95
657.445	16829.83
657.796	16803.84
658.147	16741.24
658.498	16725.42
658.849	16720.9
659.2	16744.63
659.551	16708.47
659.902	16669.6
660.253	16704.63
660.604	16750.96
660.955	16684.07
661.306	16783.73
661.656	16770.39
662.007	16759.55
662.358	16784.63
662.708	16804.06
663.059	16823.05
663.409	16756.61
663.76	16818.07
664.11	16827.57
664.461	16903.5
664.811	16823.95
665.161	16838.87
665.511	16840.67
665.862	16799.54
666.212	16933.55
666.562	16895.36
666.912	16862.37
667.262	16802.71
667.612	16845.64
667.962	16787.79
668.312	16822.37
668.662	16931.74
669.011	16782.14
669.361	16792.09
669.711	16785.31
670.06	16726.1
670.41	16777.4
670.76	16726.33
671.109	16823.27
671.459	16773.56
671.808	16693.56
672.157	16751.41
672.507	16669.6
672.856	16619.44
673.205	16707.12
673.554	16637.97
673.904	16724.97
674.253	16759.55
674.602	16662.37
674.951	16420.8
675.3	16370.85
675.649	16553
675.998	16632.77
676.346	16607.01
676.695	16660.79
677.044	16474.81
677.393	16535.37
677.741	16652.88
678.09	16568.14
678.438	16550.51
678.787	16458.54
679.135	16589.38
679.484	16349.39
679.832	16519.55
680.181	16395.71
680.529	16478.87
680.877	16279.56
681.225	16375.37
681.573	16387.35
681.922	16195.94
682.27	16275.04
682.618	16301.25
682.966	16092.44
683.314	16271.42
683.661	16162.95
684.009	16080.02
684.357	16009.51
684.705	16018.55
685.053	16065.55
685.4	15980.58
685.748	15885.67
686.095	15819.68
686.443	15812.68
686.79	15821.72
687.138	15769.74
687.485	15722.74
687.832	15764.09
688.18	15740.14
688.527	15660.82
688.874	15604.32
689.221	15599.58
689.568	15539.69
689.915	15542.4
690.262	15448.62
690.609	15396.87
690.956	15387.38
691.303	15283.43
691.65	15374.5
691.997	15279.13
692.344	15182.41
692.69	15160.94
693.037	15060.61
693.383	14955.3
693.73	15094.96
694.077	14991.23
694.423	14902.64
694.769	14951.91
695.116	14875.3
695.462	14776.09
695.808	14751.69
696.155	14782.2
696.501	14684.35
696.847	14613.61
697.193	14510.56
697.539	14535.42
697.885	14425.6
698.231	14379.95
698.577	14500.62
698.923	14314.64
699.269	14237.35
699.614	14127.98
699.96	14193.51
700.306	14182.66
700.651	13989.22
700.997	14024.02
701.342	14003.91
701.688	13977.02
702.033	13896.12
702.379	13833.75
702.724	13862.67
703.069	13902.22
703.415	13665.84
703.76	13664.49
704.105	13652.73
704.45	13670.59
704.795	13586.75
705.14	13560.31
705.485	13536.13
705.83	13436.24
706.175	13419.07
706.52	13360.09
706.865	13337.49
707.209	13286.42
707.554	13212.52
707.899	13261.78
708.243	13218.85
708.588	13217.04
708.932	13017.04
709.277	13045.29
709.621	13098.17
709.966	12989.47
710.31	12923.71
710.654	12930.72
710.998	12856.6
711.342	12929.36
711.687	12889.82
712.031	12826.77
712.375	12741.12
712.719	12682.59
713.063	12712.42
713.407	12660.67
713.75	12703.83
714.094	12644.17
714.438	12597.17
714.782	12572.76
715.125	12543.84
715.469	12494.12
715.812	12395.14
716.156	12466.78
716.499	12448.47
716.843	12532.76
717.186	12434.24
717.53	12387.23
717.873	12403.5
718.216	12454.35
718.559	12316.72
718.902	12213.45
719.246	12274.92
719.589	12253.9
719.932	12254.13
720.275	12253.67
720.617	12229.49
720.96	12248.48
721.303	12190.63
721.646	12172.55
721.989	12079.22
722.331	12199.21
722.674	12130.97
723.016	12180.23
723.359	12145.43
723.701	12119.89
724.044	12076.73
724.386	11997.86
724.729	11998.09
725.071	11974.81
725.413	11973.23
725.755	11846.45
726.097	12003.06
726.439	11833.35
726.782	11885.55
727.124	11982.72
727.465	11878.32
727.807	11859.79
728.149	11846.68
728.491	11776.85
728.833	11895.27
729.175	11812.78
729.516	11796.29
729.858	11848.49
730.199	11878.77
730.541	11793.12
730.882	11819.11
731.224	11768.72
731.565	11735.95
731.906	11805.33
732.248	11766.91
732.589	11752.9
732.93	11737.53
733.271	11767.81
733.612	11802.61
733.953	11770.52
734.294	11756.96
734.635	11750.41
734.976	11759.68
735.317	11744.08
735.658	11757.19
735.999	11748.83
736.339	11711.77
736.68	11767.59
737.021	11725.1
737.361	11697.76
737.702	11770.75
738.042	11773.01
738.383	11700.24
738.723	11793.57
739.063	11736.17
739.404	11766
739.744	11751.32
740.084	11839.67
740.424	11817.75
740.764	11763.97
741.104	11798.32
741.444	11777.53
741.784	11749.96
742.124	11833.8
742.464	11862.5
742.804	11853.69
743.143	11876.06
743.483	11931.2
743.823	11922.84
744.162	11837.19
744.502	11936.4
744.841	11965.09
745.181	11945.66
745.52	12008.94
745.86	12115.37
746.199	12026.34
746.538	12062.04
746.877	12160.12
747.216	12239.21
747.556	12171.19
747.895	12294.8
748.234	12260.68
748.573	12264.97
748.911	12368.25
749.25	12441.01
749.589	12495.02
749.928	12569.82
750.267	12577.28
750.605	12654.57
750.944	12696.38
751.283	12742.93
751.621	12831.51
751.96	12868.8
752.298	12918.06
752.636	13082.81
752.975	13143.14
753.313	13196.48
753.651	13364.61
753.989	13382.68
754.327	13482.34
754.666	13527.99
755.004	13625.84
755.342	13739.06
755.679	13834.65
756.017	13919.62
756.355	14026.28
756.693	13997.58
757.031	14277.8
