Data from hue_160_FLMS001491_00049.txt Node
Date: Tue Feb 07 16:51:15 GMT 2017
User: dcchb
Spectrometer: FLMS00149
Trigger mode: 0
Integration Time (sec): 2.000000E-2
Scans to average: 10
Electric dark correction enabled: true
Nonlinearity correction enabled: false
Boxcar width: 0
XAxis mode: Wavelengths
Number of Pixels in Spectrum: 2048
>>>>>Begin Spectral Data<<<<<
341.393	-0.38
341.776	-0.38
342.16	-0.38
342.543	-44.67
342.927	-48.29
343.31	-86.25
343.693	-80.38
344.077	-77.89
344.46	-64.56
344.843	-63.88
345.226	-25.69
345.61	-18.23
345.993	-20.04
346.376	6.17
346.759	12.95
347.142	22.44
347.525	52.72
347.908	65.15
348.291	70.35
348.674	88.43
349.057	118.71
349.44	121.2
349.823	133.63
350.206	168.65
350.588	180.4
350.971	229.44
351.354	247.97
351.737	238.48
352.119	249.33
352.502	240.97
352.884	289.1
353.267	287.07
353.65	280.29
354.032	283.45
354.414	301.31
354.797	309.67
355.179	314.41
355.562	313.51
355.944	321.19
356.326	328.65
356.709	338.82
357.091	339.27
357.473	323.23
357.855	331.81
358.238	324.81
358.62	320.51
359.002	334.75
359.384	338.82
359.766	332.72
360.148	332.27
360.53	320.29
360.912	339.95
361.294	325.71
361.676	334.07
362.057	331.59
362.439	333.62
362.821	321.87
363.203	327.07
363.584	319.61
363.966	329.33
364.348	324.58
364.729	324.13
365.111	298.14
365.493	311.25
365.874	313.96
366.256	316.9
366.637	316.67
367.019	309.44
367.4	307.41
367.781	315.77
368.163	319.38
368.544	322.77
368.925	310.8
369.306	311.7
369.688	294.75
370.069	322.32
370.45	321.87
370.831	297.46
371.212	326.62
371.593	301.76
371.974	319.38
372.355	322.77
372.736	331.36
373.117	314.86
373.498	313.06
373.879	343.56
374.26	325.94
374.641	316.45
375.021	308.54
375.402	308.09
375.783	300.85
376.163	299.5
376.544	330.68
376.925	330.23
377.305	333.4
377.686	322.1
378.066	337.91
378.447	320.97
378.827	330.01
379.208	327.52
379.588	328.2
379.968	338.14
380.349	330.01
380.729	327.29
381.109	318.71
381.489	322.1
381.87	344.92
382.25	336.11
382.63	321.42
383.01	336.33
383.39	352.6
383.77	343.56
384.15	336.78
384.53	338.37
384.91	327.52
385.29	343.34
385.67	344.69
386.049	351.93
386.429	341.53
386.809	354.86
387.189	347.63
387.568	357.35
387.948	361.42
388.328	375.88
388.707	359.38
389.087	359.61
389.466	371.36
389.846	349.89
390.225	361.42
390.605	363.45
390.984	363
391.363	337.46
391.743	347.18
392.122	384.92
392.501	359.61
392.881	362.55
393.26	348.54
393.639	367.97
394.018	348.76
394.397	361.42
394.776	349.21
395.155	387.86
395.534	382.43
395.913	381.76
396.292	371.59
396.671	394.18
397.05	383.79
397.429	378.14
397.808	375.43
398.186	375.88
398.565	355.99
398.944	386.5
399.323	383.56
399.701	375.43
400.08	375.88
400.458	418.14
400.837	407.97
401.215	404.35
401.594	386.05
401.972	386.5
402.351	401.42
402.729	391.92
403.107	396.9
403.486	395.09
403.864	398.7
404.242	427.86
404.62	414.3
404.999	395.77
405.377	425.82
405.755	422.66
406.133	392.83
406.511	412.26
406.889	425.6
407.267	427.63
407.645	430.57
408.023	445.48
408.401	421.75
408.779	421.3
409.156	450.45
409.534	439.16
409.912	439.16
410.29	477.35
410.667	443.9
411.045	457.23
411.422	457.69
411.8	468.08
412.178	467.18
412.555	466.5
412.933	463.34
413.31	474.63
413.687	512.15
414.065	485.48
414.442	494.07
414.819	474.41
415.197	502.2
415.574	497.01
415.951	516.67
416.328	512.37
416.705	519.6
417.082	486.39
417.46	492.49
417.837	505.82
418.214	493.16
418.591	532.49
418.967	531.58
419.344	503.33
419.721	526.61
420.098	513.5
420.475	523.22
420.852	537.01
421.228	529.77
421.605	538.81
421.982	544.46
422.358	542.66
422.735	544.46
423.111	542.88
423.488	558.47
423.864	546.5
424.241	569.1
424.617	566.84
424.994	586.04
425.37	573.39
425.746	560.73
426.123	584.91
426.499	584.24
426.875	565.48
427.251	574.74
427.627	598.92
428.003	615.87
428.379	624.46
428.756	615.42
429.132	626.72
429.507	617.68
429.883	641.41
430.259	652.71
430.635	652.71
431.011	654.97
431.387	657.23
431.763	667.4
432.138	668.98
432.514	685.48
432.89	643.67
433.265	678.02
433.641	695.65
434.016	685.7
434.392	693.39
434.767	697.68
435.143	708.3
435.518	711.92
435.894	741.29
436.269	726.38
436.644	755.53
437.02	726.83
437.395	762.76
437.77	753.27
438.145	777
438.52	766.6
438.895	752.59
439.271	777.23
439.646	798.47
440.021	821.74
440.395	799.37
440.77	804.57
441.145	824
441.52	835.08
441.895	832.59
442.27	820.61
442.645	822.42
443.019	857.45
443.394	845.47
443.769	844.12
444.143	833.95
444.518	893.83
444.892	852.03
445.267	865.36
445.641	866.49
446.016	875.3
446.39	907.39
446.764	896.77
447.139	923.44
447.513	914.85
447.887	909.43
448.262	895.64
448.636	908.3
449.01	925.24
449.384	939.93
449.758	942.19
450.132	944
450.506	960.05
450.88	958.46
451.254	972.02
451.628	956.66
452.002	1005.02
452.376	1003.21
452.75	1031.68
453.123	1006.6
453.497	1013.38
453.871	1032.36
454.244	1044.56
454.618	1025.81
454.992	1075.07
455.365	1075.75
455.739	1103.32
456.112	1086.37
456.486	1107.84
456.859	1109.19
457.232	1115.3
457.606	1158.68
457.979	1139.7
458.352	1148.51
458.725	1202.3
459.099	1187.16
459.472	1198.91
459.845	1201.85
460.218	1237.33
460.591	1255.4
460.964	1257.21
461.337	1284.1
461.71	1327.95
462.083	1345.12
462.456	1334.95
462.829	1339.7
463.201	1339.7
463.574	1358.9
463.947	1390.77
464.32	1428.51
464.692	1443.87
465.065	1450.65
465.438	1498.11
465.81	1501.95
466.183	1506.92
466.555	1557.09
466.928	1548.5
467.3	1581.72
467.672	1603.64
468.045	1659.46
468.417	1638.22
468.789	1665.34
469.161	1700.36
469.534	1703.08
469.906	1784.43
470.278	1780.36
470.65	1834.15
471.022	1856.97
471.394	1905.33
471.766	1910.3
472.138	1967.25
472.51	1991.43
472.882	2038.66
473.253	2085.44
473.625	2132.22
473.997	2157.3
474.369	2215.15
474.74	2254.02
475.112	2302.61
475.484	2354.36
475.855	2404.75
476.227	2468.71
476.598	2529.04
476.97	2570.4
477.341	2672.09
477.713	2719.1
478.084	2737.17
478.455	2832.31
478.827	2875.7
479.198	2987.11
479.569	3045.41
479.94	3102.36
480.311	3220.1
480.682	3297.16
481.053	3394.56
481.424	3506.42
481.795	3539.86
482.166	3617.15
482.537	3737.15
482.908	3885.17
483.279	3912.28
483.65	4021.89
484.021	4141.43
484.391	4218.26
484.762	4315.89
485.133	4351.59
485.503	4531.7
485.874	4719.04
486.244	4755.88
486.615	4880.39
486.985	5017.34
487.356	5070.45
487.726	5224.79
488.097	5387.95
488.467	5436.31
488.837	5576.65
489.207	5714.72
489.578	5839.92
489.948	5992.91
490.318	6112.45
490.688	6199.68
491.058	6339.11
491.428	6428.6
491.798	6553.8
492.168	6756.28
492.538	6773.9
492.908	7017.74
493.278	7152.65
493.648	7153.33
494.017	7329.37
494.387	7426.32
494.757	7514.9
495.126	7675.58
495.496	7805.29
495.866	7891.16
496.235	7982.91
496.605	8085.28
496.974	8162.12
497.344	8309.23
497.713	8452.96
498.082	8510.36
498.452	8646.85
498.821	8743.12
499.19	8804.58
499.559	8895.66
499.928	9066.95
500.298	9136.33
500.667	9238.47
501.036	9281.63
501.405	9351.92
501.774	9443.44
502.143	9505.36
502.512	9626.94
502.88	9716.2
503.249	9720.72
503.618	9796.42
503.987	9924.78
504.356	9920.49
504.724	9998.45
505.093	10067.15
505.462	10133.36
505.83	10110.09
506.199	10252.46
506.567	10412.68
506.936	10442.96
507.304	10513.92
507.672	10590.07
508.041	10594.59
508.409	10687.02
508.777	10871.2
509.145	10913
509.514	10903.06
509.882	10936.28
510.25	10932.89
510.618	11035.26
510.986	10994.13
511.354	11125.65
511.722	11210.4
512.09	11275.71
512.458	11234.8
512.826	11347.79
513.193	11275.48
513.561	11377.62
513.929	11482.48
514.297	11550.28
514.664	11555.7
515.032	11591.18
515.4	11613.78
515.767	11652.65
516.135	11704.17
516.502	11644.28
516.869	11811.51
517.237	11766.09
517.604	11681.8
517.972	11842.25
518.339	11841.79
518.706	11772.42
519.073	11891.06
519.44	11912.98
519.808	11957.27
520.175	11958.85
520.542	12041.79
520.909	12068.68
521.276	12046.76
521.643	12075.01
522.009	12129.24
522.376	12226.42
522.743	12179.41
523.11	12301.22
523.477	12260.54
523.843	12371.27
524.21	12356.58
524.577	12446.3
524.943	12410.59
525.31	12352.51
525.676	12532.4
526.043	12436.13
526.409	12462.57
526.776	12616.69
527.142	12472.74
527.508	12518.16
527.874	12606.07
528.241	12625.05
528.607	12554.09
528.973	12641.55
529.339	12561.1
529.705	12680.87
530.071	12729.91
530.437	12660.98
530.803	12533.3
531.169	12596.35
531.535	12594.09
531.901	12614.88
532.267	12633.41
532.632	12592.96
532.998	12652.62
533.364	12682.45
533.73	12558.84
534.095	12725.61
534.461	12540.31
534.826	12557.48
535.192	12564.49
535.557	12608.78
535.923	12436.35
536.288	12541.89
536.653	12468.9
537.019	12410.14
537.384	12337.83
537.749	12435
538.114	12339.63
538.479	12275.23
538.845	12298.05
539.21	12190.94
539.575	12179.86
539.94	12253.76
540.305	12240.43
540.67	12109.58
541.034	12085.18
541.399	12152.52
541.764	12068.45
542.129	12081.56
542.494	12000.21
542.858	12041.11
543.223	11972.19
543.587	11984.84
543.952	11934.45
544.316	11888.8
544.681	11794.56
545.045	11819.65
545.41	11793.66
545.774	11728.35
546.138	11684.96
546.503	11684.28
546.867	11650.61
547.231	11623.04
547.595	11614.45
547.959	11614
548.324	11604.74
548.688	11517.96
549.052	11500.11
549.416	11482.25
549.779	11365.87
550.143	11364.52
550.507	11404.74
550.871	11383.27
551.235	11343.73
551.599	11266.44
551.962	11270.96
552.326	11220.11
552.689	11338.3
553.053	11137.18
553.417	11075.03
553.78	11135.15
554.143	11150.29
554.507	11148.03
554.87	11063.06
555.234	11162.94
555.597	11030.29
555.96	11091.08
556.323	11025.32
556.686	10987.8
557.05	11022.38
557.413	11065.77
557.776	11021.25
558.139	10998.88
558.502	10994.58
558.865	11089.5
559.228	11024.19
559.59	10937.41
559.953	11027.58
560.316	11057.41
560.679	10943.29
561.041	11035.49
561.404	11002.95
561.767	11033.9
562.129	11000.69
562.492	11016.28
562.854	10960.69
563.217	11005.66
563.579	10970.63
563.941	10954.58
564.304	11019.44
564.666	11031.87
565.028	11064.41
565.39	11009.05
565.753	11014.7
566.115	10987.13
566.477	10980.57
566.839	11081.14
567.201	11137.63
567.563	11113.9
567.925	11102.83
568.287	11141.47
568.648	11082.94
569.01	11136.5
569.372	11195.26
569.734	11192.54
570.095	11193.22
570.457	11183.51
570.819	11169.72
571.18	11226.67
571.542	11186.44
571.903	11192.09
572.265	11308.7
572.626	11181.25
572.987	11208.59
573.349	11233
573.71	11222.6
574.071	11296.27
574.432	11327.91
574.794	11381.69
575.155	11252.88
575.516	11187.8
575.877	11303.05
576.238	11216.5
576.599	11334.01
576.96	11257.63
577.32	11299.43
577.681	11331.3
578.042	11296.5
578.403	11364.52
578.763	11297.85
579.124	11339.66
579.485	11320.9
579.845	11343.95
580.206	11341.24
580.566	11379.66
580.927	11375.14
581.287	11285.2
581.648	11316.84
582.008	11392.99
582.368	11355.93
582.728	11387.12
583.089	11309.83
583.449	11336.04
583.809	11258.76
584.169	11316.38
584.529	11342.6
584.889	11323.16
585.249	11257.63
585.609	11287.68
585.969	11349.15
586.329	11350.05
586.688	11354.57
587.048	11218.76
587.408	11236.39
587.768	11216.72
588.127	11179.89
588.487	11206.78
588.846	11243.84
589.206	11214.01
589.565	11153.45
589.925	11199.78
590.284	11190.74
590.643	11192.54
591.003	11170.62
591.362	11204.07
591.721	11158.87
592.08	11160.46
592.44	11170.85
592.799	11192.54
593.158	11112.77
593.517	11070.97
593.876	11129.72
594.235	11127.46
594.593	11124.98
594.952	11108.03
595.311	11076.84
595.67	11117.29
596.029	11087.01
596.387	11090.4
596.746	11109.16
597.104	11028.93
597.463	11049.5
597.822	11077.75
598.18	10981.93
598.538	11048.82
598.897	11153.68
599.255	10969.73
599.613	11097.63
599.972	11084.07
600.33	11080.01
600.688	11052.44
601.046	11047.92
601.404	11136.27
601.762	11075.71
602.12	11116.61
602.478	11085.88
602.836	11075.26
603.194	11070.29
603.552	11133.56
603.91	11099.44
604.268	11044.53
604.625	10990.29
604.983	11061.47
605.341	11011.31
605.698	11021.7
606.056	11081.59
606.413	11084.98
606.771	11051.76
607.128	11077.97
607.485	11072.1
607.843	10992.1
608.2	11174.24
608.557	11091.53
608.914	11128.14
609.272	11098.54
609.629	11113
609.986	11186.44
610.343	11152.32
610.7	11162.04
611.057	11245.42
611.414	11168.14
611.771	11183.05
612.127	11196.39
612.484	11258.31
612.841	11261.02
613.198	11167.69
613.554	11185.77
613.911	11270.28
614.267	11211.75
614.624	11268.02
614.98	11278.64
615.337	11268.47
615.693	11301.24
616.05	11270.06
616.406	11312.09
616.762	11338.3
617.118	11300.56
617.475	11287.01
617.831	11313.9
618.187	11267.8
618.543	11296.95
618.899	11392.31
619.255	11322.94
619.611	11346.66
619.967	11325.87
620.323	11384.63
620.678	11341.24
621.034	11302.82
621.39	11331.75
621.746	11293.78
622.101	11440.22
622.457	11345.99
622.812	11356.16
623.168	11432.99
623.523	11355.7
623.879	11352.77
624.234	11324.97
624.589	11357.74
624.945	11357.06
625.3	11427.57
625.655	11316.16
626.01	11419.88
626.365	11420.56
626.72	11371.97
627.075	11408.36
627.43	11370.85
627.785	11325.2
628.14	11324.07
628.495	11422.37
628.85	11302.6
629.205	11341.47
629.559	11362.71
629.914	11378.53
630.269	11269.83
630.623	11341.47
630.978	11257.4
631.332	11278.87
631.687	11341.69
632.041	11265.09
632.396	11278.42
632.75	11250.85
633.104	11276.38
633.459	11233.45
633.813	11220.34
634.167	11156.84
634.521	11179.89
634.875	11175.37
635.229	11135.82
635.583	11106.22
635.937	11143.73
636.291	11135.37
636.645	11132.66
636.999	11037.52
637.352	11095.15
637.706	10971.76
638.06	11084.07
638.413	11054.47
638.767	11058.99
639.121	11027.8
639.474	10990.06
639.828	11009.72
640.181	10940.57
640.534	11012.44
640.888	10975.83
641.241	10961.59
641.594	10917.75
641.947	10915.04
642.301	10902.38
642.654	10927.24
643.007	10909.16
643.36	10874.59
643.713	10872.78
644.066	10924.3
644.419	10850.86
644.771	10754.36
645.124	10656.29
645.477	10656.74
645.83	10622.39
646.182	10547.82
646.535	10586.68
646.888	10607.25
647.24	10523.64
647.593	10609.74
647.945	10543.3
648.298	10524.54
648.65	10466.46
649.002	10445.45
649.355	10525.9
649.707	10506.01
650.059	10608.38
650.411	10677.53
650.763	10659
651.115	10720.24
651.467	10744.19
651.819	10747.81
652.171	10798.88
652.523	10655.84
652.875	10722.73
653.227	10694.93
653.578	10767.47
653.93	10713.24
654.282	10726.79
654.633	10703.07
654.985	10724.31
655.337	10774.25
655.688	10758.66
656.039	10770.18
656.391	10731.77
656.742	10684.54
657.094	10748.04
657.445	10844.08
657.796	10712.56
658.147	10743.74
658.498	10733.35
658.849	10744.65
659.2	10775.83
659.551	10691.77
659.902	10736.74
660.253	10693.12
660.604	10744.65
660.955	10740.81
661.306	10754.82
661.656	10722.27
662.007	10755.04
662.358	10840.92
662.708	10707.13
663.059	10719.11
663.409	10736.74
663.76	10750.97
664.11	10828.94
664.461	10806.34
664.811	10869.62
665.161	10803.85
665.511	10776.96
665.862	10745.55
666.212	10806.34
666.562	10830.29
666.912	10800.01
667.262	10813.12
667.612	10798.88
667.962	10820.8
668.312	10777.41
668.662	10805.44
669.011	10757.75
669.361	10776.74
669.711	10762.27
670.06	10728.38
670.41	10734.7
670.76	10708.04
671.109	10713.91
671.459	10730.41
671.808	10788.26
672.157	10795.49
672.507	10689.06
672.856	10706.68
673.205	10696.51
673.554	10678.21
673.904	10689.06
674.253	10795.49
674.602	10733.35
674.951	10544.65
675.3	10498.78
675.649	10657.19
675.998	10629.17
676.346	10602.73
676.695	10642.5
677.044	10593.69
677.393	10665.1
677.741	10606.12
678.09	10552.34
678.438	10569.06
678.787	10563.18
679.135	10569.28
679.484	10508.72
679.832	10524.54
680.181	10460.81
680.529	10520.92
680.877	10398.22
681.225	10433.92
681.573	10502.17
681.922	10389.63
682.27	10441.15
682.618	10426.92
682.966	10361.83
683.314	10407.48
683.661	10293.36
684.009	10275.28
684.357	10232.12
684.705	10242.06
685.053	10254.04
685.4	10206.36
685.748	10203.19
686.095	10172.46
686.443	10128.39
686.79	10090.65
687.138	10116.41
687.485	10111.9
687.832	10105.79
688.18	10071.9
688.527	10053.14
688.874	10023.76
689.221	9986.7
689.568	9884.33
689.915	9864.44
690.262	9937.44
690.609	9863.77
690.956	9808.17
691.303	9837.55
691.65	9836.65
691.997	9738.8
692.344	9696.09
692.69	9676.88
693.037	9676.43
693.383	9618.12
693.73	9643.21
694.077	9592.13
694.423	9527.28
694.769	9517.79
695.116	9439.82
695.462	9423.55
695.808	9366.15
696.155	9341.07
696.501	9326.83
696.847	9288.87
697.193	9231.47
697.539	9296.1
697.885	9197.34
698.231	9135.2
698.577	9191.24
698.923	9186.04
699.269	9068.08
699.614	9085.93
699.96	9024.24
700.306	9043
700.651	8922.55
700.997	8965.71
701.342	8888.88
701.688	8898.82
702.033	8861.53
702.379	8868.99
702.724	8813.62
703.069	8822.89
703.415	8681.42
703.76	8734.3
704.105	8702.44
704.45	8718.26
704.795	8592.39
705.14	8538.38
705.485	8601.43
705.83	8494.54
706.175	8517.59
706.52	8466.06
706.865	8561.65
707.209	8463.35
707.554	8436.23
707.899	8409.79
708.243	8421.09
708.588	8371.83
708.932	8271.27
709.277	8324.82
709.621	8260.64
709.966	8242.34
710.31	8246.18
710.654	8182
710.998	8222
711.342	8150.36
711.687	8193.75
712.031	8169.35
712.375	8145.17
712.719	8166.41
713.063	8115.56
713.407	8196.92
713.75	8118.05
714.094	8067.2
714.438	8069.46
714.782	8045.28
715.125	7977.94
715.469	8036.7
715.812	7979.07
716.156	7964.61
716.499	7949.69
716.843	7932.74
717.186	7941.33
717.53	7916.47
717.873	7925.06
718.216	7889.35
718.559	7912.4
718.902	7812.97
719.246	7822.92
719.589	7857.49
719.932	7806.87
720.275	7809.13
720.617	7806.65
720.96	7831.73
721.303	7737.95
721.646	7774.56
721.989	7699.08
722.331	7742.47
722.674	7773.43
723.016	7758.06
723.359	7714.22
723.701	7756.7
724.044	7702.01
724.386	7673.09
724.729	7694.33
725.071	7723.26
725.413	7679.19
725.755	7793.54
726.097	7680.55
726.439	7581.57
726.782	7655.69
727.124	7685.74
727.465	7644.16
727.807	7666.31
728.149	7636.48
728.491	7549.48
728.833	7651.39
729.175	7696.82
729.516	7643.26
729.858	7604.16
730.199	7559.65
730.541	7621.11
730.882	7645.52
731.224	7581.57
731.565	7577.05
731.906	7572.98
732.248	7591.51
732.589	7571.17
732.93	7542.92
733.271	7545.63
733.612	7596.71
733.953	7553.54
734.294	7552.19
734.635	7524.84
734.976	7532.53
735.317	7511.29
735.658	7559.87
735.999	7544.28
736.339	7614.56
736.68	7562.81
737.021	7567.78
737.361	7541.57
737.702	7579.53
738.042	7574.33
738.383	7599.42
738.723	7621.57
739.063	7616.14
739.404	7619.76
739.744	7596.03
740.084	7612.3
740.424	7590.38
740.764	7608.01
741.104	7660.43
741.444	7663.6
741.784	7673.09
742.124	7791.73
742.464	7730.94
742.804	7705.63
743.143	7740.88
743.483	7780.43
743.823	7758.51
744.162	7879.19
744.502	7837.83
744.841	7909.02
745.181	7900.65
745.52	7941.1
745.86	7939.52
746.199	8033.08
746.538	8060.42
746.877	8043.02
747.216	8093.87
747.556	8164.38
747.895	8202.11
748.234	8207.76
748.573	8257.03
748.911	8225.62
749.25	8329.12
749.589	8366.86
749.928	8428.55
750.267	8503.58
750.605	8559.39
750.944	8597.36
751.283	8690.24
751.621	8753.51
751.96	8881.42
752.298	8977.24
752.636	9054.75
752.975	9102.2
753.313	9130.23
753.651	9337
753.989	9375.87
754.327	9460.84
754.666	9587.16
755.004	9659.25
755.342	9794.39
755.679	9924.56
756.017	10024.44
756.355	10204.32
756.693	10231.21
757.031	10412.23
757.368	10622.39
757.706	10680.24
758.044	10726.79
758.381	10988.71
758.719	11149.38
759.056	11178.53
759.394	11408.58
759.731	11458.53
760.068	11608.8
760.405	11738.07
760.743	11947.78
