Data from hue_320_FLMS001491_48.txt Node
Date: Mon Feb 06 15:47:16 GMT 2017
User: dcchb
Spectrometer: FLMS00149
Trigger mode: 0
Integration Time (sec): 2.000000E-2
Scans to average: 10
Electric dark correction enabled: true
Nonlinearity correction enabled: false
Boxcar width: 0
XAxis mode: Wavelengths
Number of Pixels in Spectrum: 2048
>>>>>Begin Spectral Data<<<<<
341.393	-10.89
341.776	-10.89
342.16	-10.89
342.543	-62.41
342.927	-73.94
343.31	-64.9
343.693	-70.55
344.077	-66.48
344.46	-45.69
344.843	-89.08
345.226	-20.83
345.61	-5.01
345.993	-26.48
346.376	4.7
346.759	-5.24
347.142	16.68
347.525	39.28
347.908	55.55
348.291	58.04
348.674	96.45
349.057	123.57
349.44	122.44
349.823	139.84
350.206	147.98
350.588	185.26
350.971	202.44
351.354	229.78
351.737	226.17
352.119	237.69
352.502	264.13
352.884	269.56
353.267	277.46
353.65	312.72
354.032	297.8
354.414	304.81
354.797	323.34
355.179	318.82
355.562	324.24
355.944	329.21
356.326	328.76
356.709	303.45
357.091	326.5
357.473	340.06
357.855	350.91
358.238	333.51
358.62	320.85
359.002	311.36
359.384	333.28
359.766	350.68
360.148	334.64
360.53	344.36
360.912	331.7
361.294	324.02
361.676	344.81
362.057	294.87
362.439	340.51
362.821	337.35
363.203	324.69
363.584	331.47
363.966	324.92
364.348	328.08
364.729	325.82
365.111	319.95
365.493	330.8
365.874	308.65
366.256	320.4
366.637	299.84
367.019	296.22
367.4	312.49
367.781	296.22
368.163	318.59
368.544	302.55
368.925	306.62
369.306	320.4
369.688	327.86
370.069	309.55
370.45	298.03
370.831	297.58
371.212	303.9
371.593	304.13
371.974	305.03
372.355	283.11
372.736	330.12
373.117	307.97
373.498	310.91
373.879	332.15
374.26	311.36
374.641	332.15
375.021	298.03
375.402	313.85
375.783	300.29
376.163	332.6
376.544	310.68
376.925	314.07
377.305	313.62
377.686	316.79
378.066	316.79
378.447	323.34
378.827	341.87
379.208	328.99
379.588	335.99
379.968	325.6
380.349	318.82
380.729	336.22
381.109	332.83
381.489	322.44
381.87	333.28
382.25	326.5
382.63	321.08
383.01	327.63
383.39	343.68
383.77	344.58
384.15	314.75
384.53	347.75
384.91	353.39
385.29	351.36
385.67	352.04
386.049	338.71
386.429	337.12
386.809	327.41
387.189	336.9
387.568	323.56
387.948	346.16
388.328	352.04
388.707	357.24
389.087	347.29
389.466	355.65
389.846	340.29
390.225	346.84
390.605	345.71
390.984	360.63
391.363	343.68
391.743	337.58
392.122	352.94
392.501	350.91
392.881	349.33
393.26	369.89
393.639	355.2
394.018	379.38
394.397	340.51
394.776	379.83
395.155	377.12
395.534	369.67
395.913	362.89
396.292	383.45
396.671	350.91
397.05	374.41
397.429	378.93
397.808	362.43
398.186	380.74
398.565	382.77
398.944	367.41
399.323	385.94
399.701	397.69
400.08	385.94
400.458	394.98
400.837	383.68
401.215	387.74
401.594	419.16
401.972	399.72
402.351	388.87
402.729	405.37
403.107	393.85
403.486	410.79
403.864	413.73
404.242	406.95
404.62	400.85
404.999	401.08
405.377	431.36
405.755	402.21
406.133	404.69
406.511	431.13
406.889	436.78
407.267	439.27
407.645	414.18
408.023	424.35
408.401	441.98
408.779	441.53
409.156	456.89
409.534	456.44
409.912	436.78
410.29	452.6
410.667	462.54
411.045	456.22
411.422	463.22
411.8	470.68
412.178	474.3
412.555	477.69
412.933	474.07
413.31	475.88
413.687	501.19
414.065	516.55
414.442	520.17
414.819	544.8
415.197	518.59
415.574	534.86
415.951	543.45
416.328	538.93
416.705	541.41
417.082	539.83
417.46	569.89
417.837	544.58
418.214	585.93
418.591	557.01
418.967	593.61
419.344	595.2
419.721	596.33
420.098	601.52
420.475	608.3
420.852	622.77
421.228	620.28
421.605	637.91
421.982	620.96
422.358	606.5
422.735	626.83
423.111	637.91
423.488	647.4
423.864	658.25
424.241	691.92
424.617	677.45
424.994	665.48
425.37	700.5
425.746	698.47
426.123	686.04
426.499	680.62
426.875	696.66
427.251	707.51
427.627	717.45
428.003	753.38
428.379	717.9
428.756	751.12
429.132	748.64
429.507	763.1
429.883	779.37
430.259	801.29
430.635	783.89
431.011	791.58
431.387	813.72
431.763	825.02
432.138	829.09
432.514	843.1
432.89	824.57
433.265	870.44
433.641	849.2
434.016	840.39
434.392	882.87
434.767	901.63
435.143	887.62
435.518	909.54
435.894	884.23
436.269	925.81
436.644	938.24
437.02	916.77
437.395	926.26
437.77	946.37
438.145	961.97
438.52	967.39
438.895	948.63
439.271	962.64
439.646	977.33
440.021	1001.51
440.395	995.19
440.77	995.19
441.145	983.43
441.52	1006.71
441.895	1009.87
442.27	1024.11
442.645	1005.81
443.019	1027.73
443.394	1036.09
443.769	1036.77
444.143	1022.98
444.518	1073.15
444.892	1055.52
445.267	1057.56
445.641	1079.7
446.016	1068.86
446.39	1076.54
446.764	1071.57
447.139	1091.45
447.513	1076.77
447.887	1100.49
448.262	1085.13
448.636	1087.84
449.01	1107.95
449.384	1109.08
449.758	1113.37
450.132	1136.88
450.506	1116.76
450.88	1118.12
451.254	1102.98
451.628	1146.82
452.002	1127.39
452.376	1120.61
452.75	1171.45
453.123	1172.58
453.497	1173.03
453.871	1172.13
454.244	1166.25
454.618	1197.67
454.992	1200.83
455.365	1185.92
455.739	1229.98
456.112	1236.08
456.486	1222.07
456.859	1247.16
457.232	1238.12
457.606	1227.04
457.979	1256.2
458.352	1301.17
458.725	1297.1
459.099	1268.4
459.472	1295.74
459.845	1323.99
460.218	1294.61
460.591	1308.4
460.964	1303.2
461.337	1361.28
461.71	1360.83
462.083	1357.89
462.456	1371.22
462.829	1363.76
463.201	1354.72
463.574	1388.17
463.947	1394.95
464.32	1435.4
464.692	1415.51
465.065	1411.45
465.438	1462.29
465.81	1456.64
466.183	1503.65
466.555	1510.2
466.928	1498.22
467.3	1510.88
467.672	1531.67
468.045	1552.69
468.417	1539.8
468.789	1534.38
469.161	1524.44
469.534	1587.49
469.906	1586.36
470.278	1615.73
470.65	1617.54
471.022	1639.01
471.394	1674.49
471.766	1690.08
472.138	1700.7
472.51	1726.24
472.882	1728.5
473.253	1721.72
473.625	1751.1
473.997	1740.93
474.369	1800.14
474.74	1798.33
475.112	1815.05
475.484	1864.77
475.855	1836.07
476.227	1859.57
476.598	1921.72
476.97	1928.95
477.341	1941.38
477.713	1957.19
478.084	1964.2
478.455	2013.01
478.827	2002.39
479.198	2049.4
479.569	2038.32
479.94	2111.77
480.311	2108.15
480.682	2156.06
481.053	2192.89
481.424	2219.33
481.795	2203.29
482.166	2219.33
482.537	2259.56
482.908	2307.47
483.279	2259.33
483.65	2340.24
484.021	2413.23
484.391	2391.08
484.762	2358.77
485.133	2425.88
485.503	2444.19
485.874	2467.46
486.244	2482.15
486.615	2517.63
486.985	2524.64
487.356	2555.6
487.726	2568.48
488.097	2643.05
488.467	2643.05
488.837	2666.33
489.207	2686.21
489.578	2727.12
489.948	2758.08
490.318	2780.68
490.688	2783.16
491.058	2813.67
491.428	2852.09
491.798	2847.57
492.168	2882.14
492.538	2916.72
492.908	2949.03
493.278	2979.77
493.648	2967.79
494.017	3019.31
494.387	3029.26
494.757	3036.04
495.126	3070.84
495.496	3019.77
495.866	3061.35
496.235	3081.01
496.605	3117.84
496.974	3090.27
497.344	3168.01
497.713	3191.74
498.082	3222.92
498.452	3206.2
498.821	3215.69
499.19	3194.45
499.559	3284.39
499.928	3260.66
500.298	3284.17
500.667	3278.06
501.036	3313.99
501.405	3334.11
501.774	3289.36
502.143	3300.89
502.512	3358.29
502.88	3383.37
503.249	3362.13
503.618	3368.91
503.987	3423.14
504.356	3431.05
504.724	3410.04
505.093	3426.76
505.462	3434.22
505.83	3427.44
506.199	3455.46
506.567	3502.01
506.936	3484.16
507.304	3528.9
507.672	3500.88
508.041	3569.36
508.409	3524.61
508.777	3569.58
509.145	3572.29
509.514	3582.46
509.882	3631.5
510.25	3615.23
510.618	3650.71
510.986	3629.24
511.354	3636.7
511.722	3628.56
512.09	3674.44
512.458	3660.2
512.826	3669.47
513.193	3635.12
513.561	3654.55
513.929	3705.4
514.297	3709.01
514.664	3718.28
515.032	3742.46
515.4	3770.48
515.767	3739.29
516.135	3762.34
516.502	3743.81
516.869	3800.54
517.237	3804.83
517.604	3812.29
517.972	3816.35
518.339	3835.79
518.706	3820.42
519.073	3840.31
519.44	3852.29
519.808	3852.51
520.175	3899.97
520.542	3860.2
520.909	3910.14
521.276	3855.22
521.643	3930.48
522.009	3943.13
522.376	3970.25
522.743	3970.47
523.11	3967.76
523.477	3984.03
523.843	3988.78
524.21	4052.73
524.577	4030.59
524.943	4044.82
525.31	4086.63
525.676	4109.91
526.043	4116.01
526.409	4155.1
526.776	4149
527.142	4168.44
527.508	4166.85
527.874	4198.27
528.241	4254.76
528.607	4203.01
528.973	4272.61
529.339	4243.91
529.705	4299.28
530.071	4338.83
530.437	4339.05
530.803	4348.09
531.169	4370.69
531.535	4355.78
531.901	4366.62
532.267	4421.54
532.632	4428.77
532.998	4427.41
533.364	4473.06
533.73	4480.52
534.095	4544.24
534.461	4519.39
534.826	4534.75
535.192	4570.23
535.557	4588.76
535.923	4598.71
536.288	4624.92
536.653	4666.5
537.019	4636.9
537.384	4648.87
537.749	4660.63
538.114	4691.59
538.479	4738.14
538.845	4709.44
539.21	4705.6
539.575	4772.71
539.94	4782.2
540.305	4846.16
540.67	4778.82
541.034	4795.09
541.399	4887.96
541.764	4908.08
542.129	4876.89
542.494	4873.73
542.858	4896.1
543.223	4901.3
543.587	4961.86
543.952	4988.08
544.316	5015.42
544.681	4979.71
545.045	5007.51
545.41	5082.31
545.774	5078.69
546.138	5032.14
546.503	5088.86
546.867	5144.68
547.231	5184.45
547.595	5162.08
547.959	5192.59
548.324	5222.87
548.688	5199.14
549.052	5235.75
549.416	5269.65
549.779	5286.6
550.143	5276.66
550.507	5349.2
550.871	5324.34
551.235	5287.05
551.599	5367.5
551.962	5351.46
552.326	5386.26
552.689	5445.92
553.053	5386.03
553.417	5402.75
553.78	5519.81
554.143	5467.16
554.507	5469.87
554.87	5564.56
555.234	5549.64
555.597	5515.29
555.96	5592.13
556.323	5588.06
556.686	5602.97
557.05	5619.02
557.413	5598.68
557.776	5662.86
558.139	5631.22
558.502	5667.15
558.865	5649.75
559.228	5721.39
559.59	5732.91
559.953	5737.21
560.316	5797.55
560.679	5752.35
561.041	5802.06
561.404	5798.45
561.767	5805.68
562.129	5813.82
562.492	5887.49
562.854	5844.32
563.217	5876.64
563.579	5938.56
563.941	5944.21
564.304	5942.85
564.666	5993.47
565.028	5987.37
565.39	6032.57
565.753	6023.08
566.115	6032.34
566.477	6069.18
566.839	6123.64
567.201	6092.68
567.563	6174.94
567.925	6128.38
568.287	6181.26
568.648	6132.23
569.01	6215.61
569.372	6325.67
569.734	6280.47
570.095	6313.92
570.457	6303.52
570.819	6331.77
571.18	6360.92
571.542	6420.58
571.903	6438.66
572.265	6508.04
572.626	6558.2
572.987	6558.2
573.349	6579.9
573.71	6614.7
574.071	6668.93
574.432	6698.99
574.794	6748.03
575.155	6786.45
575.516	6817.41
575.877	6884.07
576.238	6941.24
576.599	7025.99
576.96	7099.43
577.32	7220.78
577.681	7183.05
578.042	7281.35
578.403	7360.22
578.763	7404.28
579.124	7436.15
579.485	7583.04
579.845	7654.67
580.206	7761.79
580.566	7922.69
580.927	7972.4
581.287	8108.67
581.648	8308.44
582.008	8399.74
582.368	8515.67
582.728	8623.46
583.089	8736.9
583.449	8938.03
583.809	9062.77
584.169	9234.29
584.529	9427.28
584.889	9592.7
585.249	9695.75
585.609	9887.83
585.969	10133.25
586.329	10254.83
586.688	10429.29
587.048	10667.47
587.408	10912.67
587.768	11099.33
588.127	11348.13
588.487	11489.15
588.846	11888.46
589.206	11926.2
589.565	12258.84
589.925	12609.12
590.284	12791.26
590.643	12988.99
591.003	13270.57
591.362	13625.14
591.721	13865.36
592.08	14129.98
592.44	14420.14
592.799	14713.92
593.158	14927.47
593.517	15256.96
593.876	15520.91
594.235	15719.77
594.593	16060.55
594.952	16328.12
595.311	16595
595.67	16854.43
596.029	17273.18
596.387	17710.45
596.746	17925.36
597.104	18131.46
597.463	18305.92
597.822	18816.41
598.18	18949.52
598.538	19278.32
598.897	19623.62
599.255	19773.9
599.613	20321.23
599.972	20522.13
600.33	20756.93
600.688	20889.58
601.046	21332.05
601.404	21752.83
601.762	21976.55
602.12	22274.63
602.478	22539.03
602.836	22757.78
603.194	22888.62
603.552	23315.73
603.91	23358.44
604.268	23771.99
604.625	24085.88
604.983	24301.24
605.341	24456.94
605.698	24771.51
606.056	25108.9
606.413	25349.57
606.771	25626.85
607.128	25803.57
607.485	25940.29
607.843	26185.48
608.2	26597.68
608.557	26898.46
608.914	26891.45
609.272	27229.3
609.629	27498.44
609.986	27742.28
610.343	27837.19
610.7	28122.83
611.057	28301.81
611.414	28495.71
611.771	28688.47
612.127	29024.51
612.484	29173.43
612.841	29399.86
613.198	29452.97
613.554	29582.91
613.911	29941.77
614.267	30189.9
614.624	30219.05
614.98	30385.15
615.337	30654.97
615.693	30756.66
616.05	30981.29
616.406	31027.39
616.762	31239.36
617.118	31322.75
617.475	31635.96
617.831	31670.31
618.187	31896.52
618.543	31965.44
618.899	32336.28
619.255	32340.35
619.611	32389.39
619.967	32731.75
620.323	32869.38
620.678	32750.73
621.034	32857.4
621.39	32988.02
621.746	32980.79
622.101	33440.21
622.457	33257.61
622.812	33405.18
623.168	33506.42
623.523	33810.37
623.879	33874.32
624.234	33606.31
624.589	33841.78
624.945	34039.06
625.3	34050.36
625.655	34126.74
626.01	34264.59
626.365	34290.58
626.72	34448.09
627.075	34372.84
627.43	34519.28
627.785	34451.03
628.14	34617.58
628.495	34702.55
628.85	34719.95
629.205	34673.62
629.559	34874.97
629.914	34742.32
630.269	34878.81
630.623	34796.33
630.978	34814.64
631.332	35026.83
631.687	35032.26
632.041	34983.9
632.396	35065.02
632.75	35035.65
633.104	35177.56
633.459	35009.43
633.813	34935.54
634.167	35123.78
634.521	35130.79
634.875	35230.44
635.229	35091.01
635.583	35098.92
635.937	35184.8
636.291	35065.48
636.645	35193.16
636.999	35085.59
637.352	35260.27
637.706	35083.1
638.06	35234.74
638.413	35136.21
638.767	35158.81
639.121	35261.18
639.474	35126.72
639.828	35198.35
640.181	35144.57
640.534	35281.06
640.888	35053.73
641.241	34946.38
641.594	35119.26
641.947	35208.07
642.301	35127.85
642.654	35187.06
643.007	35170.78
643.36	35065.48
643.713	35043.56
644.066	35244.45
644.419	35051.01
644.771	34700.74
645.124	34364.25
645.477	34430.01
645.83	34367.42
646.182	34240.64
646.535	34006.07
646.888	34097.82
647.24	33944.38
647.593	34143.92
647.945	34069.12
648.298	33842.01
648.65	33865.28
649.002	33898.5
649.355	34140.08
649.707	33982.57
650.059	34164.71
650.411	34490.8
650.763	34513.17
651.115	34930.11
651.467	34778.03
651.819	34707.29
652.171	34664.36
652.523	34651.93
652.875	34790.23
653.227	34482.21
653.578	34731.93
653.93	34725.15
654.282	34556.79
654.633	34326.51
654.985	34599.95
655.337	34559.5
655.688	34507.75
656.039	34705.26
656.391	34392.5
656.742	34477.02
657.094	34535.77
657.445	34500.52
657.796	34581.65
658.147	34368.32
658.498	34439.28
658.849	34551.59
659.2	34411.48
659.551	34348.66
659.902	34519.73
660.253	34416.23
660.604	34543.46
660.955	34300.07
661.306	34381.88
661.656	34394.08
662.007	34274.31
662.358	34352.95
662.708	34383.23
663.059	34334.42
663.409	34229.57
663.76	34424.82
664.11	34317.47
664.461	34394.99
664.811	34436.57
665.161	34409.45
665.511	34389.34
665.862	34350.01
666.212	34415.1
666.562	34545.72
666.912	34412.39
667.262	34370.81
667.612	34365.83
667.962	34373.97
668.312	34273.41
668.662	34531.48
669.011	34388.66
669.361	34226.18
669.711	34257.14
670.06	34162.68
670.41	34223.69
670.76	34145.05
671.109	34319.51
671.459	34226.4
671.808	34176.01
672.157	34166.29
672.507	34020.31
672.856	33971.72
673.205	34157.48
673.554	34256.46
673.904	34068.89
674.253	34234.99
674.602	34098.04
674.951	33533.54
675.3	33444.5
675.649	33992.74
675.998	33899.41
676.346	33915.22
676.695	34008.33
677.044	33826.19
677.393	33960.65
677.741	33972.4
678.09	33886.3
678.438	33820.54
678.787	33814.21
679.135	33828.67
679.484	33620.09
679.832	33746.41
680.181	33611.28
680.529	33694.89
680.877	33408.12
681.225	33566.31
681.573	33719.75
681.922	33457.83
682.27	33309.59
682.618	33409.47
682.966	33424.62
683.314	33464.84
683.661	33278.4
684.009	33175.36
684.357	33167.22
684.705	32966.32
685.053	33067.34
685.4	33025.3
685.748	32784.63
686.095	32821.24
686.443	32728.59
686.79	32839.55
687.138	32708.93
687.485	32758.87
687.832	32740.79
688.18	32735.14
688.527	32652.88
688.874	32530.4
689.221	32516.16
689.568	32528.82
689.915	32331.31
690.262	32284.98
690.609	32172.45
690.956	32118.21
691.303	32088.61
691.65	31924.77
691.997	31973.58
692.344	31762.06
692.69	31717.99
693.037	31680.48
693.383	31560.26
693.73	31566.81
694.077	31405.46
694.423	31412.24
694.769	31274.39
695.116	31222.19
695.462	31170.44
695.808	31149.42
696.155	31207.95
696.501	30785.36
696.847	30824.68
697.193	30666.95
697.539	30801.63
697.885	30620.85
698.231	30542.21
698.577	30548.98
698.923	30559.83
699.269	30294.75
699.614	30124.36
699.96	30171.14
700.306	30198.71
700.651	30056.79
700.997	29857.03
701.342	29874.65
701.688	29876.46
702.033	29769.34
702.379	29667.88
702.724	29574.55
703.069	29747.42
703.415	29302.92
703.76	29364.84
704.105	29297.27
704.45	29334.55
704.795	29251.62
705.14	29076.71
705.485	29048.23
705.83	28816.83
706.175	28956.94
706.52	28830.84
706.865	28756.94
707.209	28729.37
707.554	28686.66
707.899	28676.94
708.243	28414.35
708.588	28635.14
708.932	28359.89
709.277	28262.72
709.621	28471.07
709.966	28149.05
710.31	28312.89
710.654	27977.75
710.998	28085.77
711.342	27920.13
711.687	27935.49
712.031	27856.85
712.375	27707.03
712.719	27808.04
713.063	27733.69
713.407	27869.96
713.75	27605.11
714.094	27634.94
714.438	27533.47
714.782	27505.45
715.125	27291.9
715.469	27352.01
715.812	27253.48
716.156	27162.63
716.499	27142.97
716.843	27187.27
717.186	26991.79
717.53	27178.68
717.873	26975.52
718.216	27114.5
718.559	26893.26
718.902	26743.21
719.246	26863.21
719.589	26712.25
719.932	26571.69
720.275	26548.86
720.617	26609.65
720.96	26432.48
721.303	26499.6
721.646	26442.43
721.989	26384.57
722.331	26404.91
722.674	26308.42
723.016	26245.82
723.359	26359.26
723.701	26354.52
724.044	26079.5
724.386	26012.61
724.729	26091.02
725.071	26011.48
725.413	25948.43
725.755	25907.75
726.097	25908.65
726.439	25659.85
726.782	25839.28
727.124	25875.21
727.465	25680.41
727.807	25587.31
728.149	25588.89
728.491	25548.21
728.833	25555.44
729.175	25564.48
729.516	25483.58
729.858	25508.67
730.199	25473.86
730.541	25456.01
730.882	25409.46
731.224	25435.67
731.565	25312.29
731.906	25246.3
732.248	25346.18
732.589	25289.46
732.93	25096.7
733.271	25071.61
733.612	25044.04
733.953	25168.34
734.294	25025.51
734.635	24901.45
734.976	25079.75
735.317	24824.84
735.658	24844.73
735.999	24846.08
736.339	24744.39
736.68	24849.47
737.021	24716.14
737.361	24551.4
737.702	24776.03
738.042	24718.86
738.383	24665.75
738.723	24562.7
739.063	24536.26
739.404	24587.33
739.744	24434.57
740.084	24376.49
740.424	24365.42
740.764	24388.69
741.104	24349.15
741.444	24186.67
741.784	24184.18
742.124	24321.35
742.464	24115.93
742.804	24049.95
743.143	23985.99
743.483	24181.92
743.823	23895.37
744.162	24020.34
744.502	23964.3
744.841	23845.21
745.181	24024.86
745.52	23850.18
745.86	23861.03
746.199	23844.75
746.538	23730.86
746.877	23729.73
747.216	23764.08
747.556	23734.7
747.895	23678.43
748.234	23617.64
748.573	23523.18
748.911	23552.11
749.25	23504.2
749.589	23479.79
749.928	23511.88
750.267	23506.68
750.605	23442.96
750.944	23309.63
751.283	23222.4
751.621	23362.51
751.96	23164.77
752.298	23110.31
752.636	23122.06
752.975	23087.94
753.313	22888.4
753.651	23025.11
753.989	22835.97
754.327	22861.5
754.666	22679.36
755.004	22763.43
755.342	22667.61
755.679	22625.35
756.017	22591
756.355	22680.27
756.693	22480.72
757.031	22537.67
757.368	22401.63
757.706	22346.26
758.044	22331.35
758.381	22380.61
758.719	22204.57
759.056	22233.05
759.394	22188.98
759.731	21982.2
