Data from hue_36_FLMS001491_00039.txt Node
Date: Tue Feb 07 17:29:44 GMT 2017
User: dcchb
Spectrometer: FLMS00149
Trigger mode: 0
Integration Time (sec): 2.000000E-2
Scans to average: 10
Electric dark correction enabled: true
Nonlinearity correction enabled: false
Boxcar width: 0
XAxis mode: Wavelengths
Number of Pixels in Spectrum: 2048
>>>>>Begin Spectral Data<<<<<
341.393	-4.36
341.776	-4.36
342.16	-4.36
342.543	-47.53
342.927	-44.82
343.31	-83.01
343.693	-69
344.077	-38.49
344.46	-57.7
344.843	-52.27
345.226	-63.35
345.61	-13.18
345.993	-26.96
346.376	-29.22
346.759	-5.04
347.142	36.54
347.525	47.39
347.908	55.97
348.291	87.38
348.674	94.62
349.057	116.31
349.44	115.86
349.823	142.07
350.206	168.51
350.588	204.67
350.971	198.57
351.354	240.83
351.737	246.02
352.119	252.35
352.502	273.82
352.884	276.53
353.267	287.83
353.65	305.91
354.032	316.08
354.414	314.5
354.797	315.18
355.179	315.4
355.562	332.8
355.944	329.64
356.326	337.1
356.709	335.97
357.091	339.58
357.473	342.29
357.855	335.74
358.238	342.97
358.62	346.36
359.002	337.32
359.384	330.77
359.766	338.45
360.148	340.94
360.53	338.9
360.912	336.64
361.294	330.54
361.676	345.91
362.057	337.1
362.439	329.19
362.821	336.64
363.203	327.38
363.584	334.16
363.966	318.79
364.348	340.71
364.729	331.22
365.111	331.22
365.493	328.96
365.874	320.15
366.256	322.86
366.637	317.44
367.019	322.18
367.4	314.72
367.781	307.27
368.163	316.98
368.544	321.28
368.925	326.7
369.306	323.99
369.688	318.11
370.069	302.07
370.45	301.39
370.831	300.94
371.212	303.88
371.593	317.44
371.974	316.31
372.355	300.26
372.736	331.9
373.117	302.07
373.498	350.88
373.879	304.55
374.26	314.27
374.641	323.31
375.021	309.75
375.402	322.86
375.783	333.93
376.163	315.63
376.544	329.64
376.925	341.39
377.305	310.88
377.686	327.83
378.066	342.97
378.447	335.97
378.827	350.65
379.208	326.7
379.588	314.95
379.968	345.01
380.349	335.74
380.729	344.78
381.109	340.71
381.489	354.5
381.87	355.63
382.25	345.46
382.63	327.6
383.01	336.64
383.39	328.28
383.77	344.33
384.15	349.98
384.53	337.55
384.91	366.47
385.29	343.2
385.67	360.82
386.049	360.15
386.429	354.95
386.809	362.18
387.189	343.2
387.568	345.23
387.948	341.84
388.328	358.11
388.707	359.24
389.087	358.79
389.466	353.59
389.846	359.47
390.225	358.79
390.605	359.47
390.984	371.22
391.363	356.98
391.743	375.96
392.122	399.47
392.501	360.82
392.881	348.17
393.26	373.25
393.639	365.12
394.018	384.33
394.397	376.42
394.776	366.47
395.155	389.07
395.534	380.71
395.913	388.85
396.292	376.87
396.671	384.55
397.05	369.19
397.429	384.78
397.808	380.03
398.186	379.81
398.565	386.81
398.944	364.21
399.323	401.73
399.701	380.48
400.08	387.49
400.458	386.13
400.837	400.14
401.215	391.56
401.594	400.37
401.972	378.45
402.351	397.21
402.729	402.63
403.107	413.48
403.486	406.02
403.864	374.38
404.242	388.39
404.62	406.7
404.999	419.58
405.377	404.66
405.755	444.44
406.133	407.6
406.511	428.62
406.889	425
407.267	413.93
407.645	419.13
408.023	417.09
408.401	414.16
408.779	426.36
409.156	431.78
409.534	424.78
409.912	428.62
410.29	444.66
410.667	447.15
411.045	436.08
411.422	438.11
411.8	455.74
412.178	449.86
412.555	468.39
412.933	437.21
413.31	454.15
413.687	468.62
414.065	455.28
414.442	451.22
414.819	452.35
415.197	483.08
415.574	483.98
415.951	470.43
416.328	492.8
416.705	482.85
417.082	473.59
417.46	481.95
417.837	500.03
418.214	465
418.591	472.46
418.967	495.51
419.344	497.77
419.721	491.44
420.098	489.86
420.475	511.78
420.852	480.37
421.228	517.88
421.605	529.41
421.982	509.52
422.358	490.76
422.735	502.74
423.111	526.02
423.488	511.33
423.864	514.49
424.241	529.63
424.617	515.4
424.994	504.1
425.37	509.29
425.746	543.19
426.123	543.64
426.499	539.58
426.875	537.32
427.251	561.27
427.627	542.97
428.003	551.78
428.379	540.25
428.756	557.65
429.132	567.37
429.507	576.64
429.883	582.51
430.259	570.99
430.635	587.48
431.011	572.57
431.387	598.56
431.763	621.61
432.138	599.24
432.514	620.48
432.89	625
433.265	620.03
433.641	615.96
434.016	616.64
434.392	620.7
434.767	618.67
435.143	630.42
435.518	648.05
435.894	650.53
436.269	663.41
436.644	663.64
437.02	668.61
437.395	647.37
437.77	670.87
438.145	690.53
438.52	664.32
438.895	672
439.271	682.4
439.646	682.85
440.021	690.31
440.395	713.13
440.77	718.33
441.145	698.44
441.52	700.02
441.895	715.39
442.27	743.64
442.645	729.18
443.019	731.21
443.394	718.78
443.769	705.22
444.143	736.86
444.518	737.09
444.892	728.72
445.267	759.68
445.641	740.47
446.016	740.25
446.39	757.65
446.764	755.39
447.139	762.17
447.513	747.93
447.887	755.16
448.262	794.26
448.636	784.09
449.01	772.56
449.384	780.47
449.758	794.94
450.132	805.11
450.506	799.91
450.88	822.28
451.254	784.99
451.628	824.31
452.002	828.38
452.376	821.38
452.75	831.32
453.123	848.27
453.497	862.05
453.871	855.27
454.244	870.64
454.618	884.65
454.992	874.48
455.365	876.52
455.739	888.72
456.112	890.53
456.486	903.41
456.859	919.68
457.232	899.11
457.606	918.55
457.979	923.75
458.352	936.85
458.725	947.25
459.099	975.95
459.472	960.13
459.845	999.68
460.218	997.19
460.591	1010.75
460.964	1011.65
461.337	1020.47
461.71	1027.7
462.083	1039.9
462.456	1062.27
462.829	1057.53
463.201	1103.86
463.574	1074.25
463.947	1097.3
464.32	1149.96
464.692	1115.61
465.065	1158.99
465.438	1156.06
465.81	1137.3
466.183	1156.51
466.555	1171.2
466.928	1248.03
467.3	1234.02
467.672	1245.32
468.045	1258.2
468.417	1289.84
468.789	1288.48
469.161	1300.46
469.534	1337.52
469.906	1373.23
470.278	1380.46
470.65	1396.73
471.022	1416.39
471.394	1416.62
471.766	1469.95
472.138	1467.91
472.51	1512.21
472.882	1510.62
473.253	1573.45
473.625	1610.06
473.997	1618.42
474.369	1645.31
474.74	1689.15
475.112	1699.32
475.484	1765.08
475.855	1838.07
476.227	1834.68
476.598	1867.68
476.97	1927.79
477.341	1995.58
477.713	2008.69
478.084	2076.48
478.455	2140.44
478.827	2142.25
479.198	2230.15
479.569	2264.28
479.94	2357.38
480.311	2366.87
480.682	2413.2
481.053	2536.36
481.424	2587.66
481.795	2631.5
482.166	2719.63
482.537	2767.77
482.908	2835.56
483.279	2910.14
483.65	2971.15
484.021	3123.24
484.391	3129.11
484.762	3200.3
485.133	3314.42
485.503	3366.62
485.874	3476.45
486.244	3595.32
486.615	3611.81
486.985	3727.51
487.356	3802.77
487.726	3845.25
488.097	4010.67
488.467	4065.13
488.837	4189.88
489.207	4332.92
489.578	4379.7
489.948	4447.72
490.318	4540.6
490.688	4665.8
491.058	4773.36
491.428	4868.73
491.798	4964.32
492.168	5095.61
492.538	5157.99
492.908	5233.69
493.278	5384.19
493.648	5411.09
494.017	5570.86
494.387	5663.74
494.757	5779.44
495.126	5854.46
495.496	5905.76
495.866	6046.1
496.235	6102.59
496.605	6228.24
496.974	6314.11
497.344	6365.41
497.713	6438.63
498.082	6532.86
498.452	6672.52
498.821	6744.16
499.19	6763.82
499.559	6885.17
499.928	6995.68
500.298	7107.99
500.667	7184.83
501.036	7173.98
501.405	7295.33
501.774	7325.39
502.143	7380.53
502.512	7497.81
502.88	7608.77
503.249	7658.71
503.618	7715.66
503.987	7837.01
504.356	7892.15
504.724	7935.31
505.093	8039.49
505.462	8069.1
505.83	8175.31
506.199	8260.96
506.567	8358.81
506.936	8373.49
507.304	8528.52
507.672	8648.52
508.041	8610.55
508.409	8672.47
508.777	8789.3
509.145	8876.76
509.514	8930.54
509.882	8990.43
510.25	9058.67
510.618	9129.63
510.986	9181.61
511.354	9239.69
511.722	9294.15
512.09	9371.89
512.458	9311.55
512.826	9498.89
513.193	9534.59
513.561	9577.3
513.929	9639
514.297	9726.23
514.664	9801.71
515.032	9900.46
515.4	9988.82
515.767	9958.99
516.135	10096.61
516.502	10016.16
516.869	10219.1
517.237	10254.12
517.604	10158.31
517.972	10354.91
518.339	10402.59
518.706	10448.69
519.073	10479.65
519.44	10552.65
519.808	10668.58
520.175	10645.98
520.542	10793.32
520.909	10808.68
521.276	10895.91
521.643	10908.57
522.009	10964.61
522.376	11117.38
522.743	11170.48
523.11	11287.54
523.477	11407.09
523.843	11414.32
524.21	11477.59
524.577	11545.61
524.943	11689.79
525.31	11703.35
525.676	11760.3
526.043	11776.12
526.409	11938.82
526.776	12038.71
527.142	12195.31
527.508	12136.11
527.874	12224.01
528.241	12231.02
528.607	12274.63
528.973	12463.33
529.339	12471.92
529.705	12546.94
530.071	12638.69
530.437	12610.22
530.803	12801.17
531.169	12859.03
531.535	12842.98
531.901	12918.69
532.267	12980.15
532.632	13133.82
532.998	13160.94
533.364	13237.77
533.73	13239.36
534.095	13342.86
534.461	13435.06
534.826	13517.77
535.192	13493.59
535.557	13515.28
535.923	13580.59
536.288	13722.05
536.653	13729.96
537.019	13764.31
537.384	13789.85
537.749	13856.97
538.114	14021.26
538.479	13896.97
538.845	13980.35
539.21	13957.3
539.575	14113.46
539.94	14167.69
540.305	14256.28
540.67	14236.62
541.034	14373.34
541.399	14349.38
541.764	14379.89
542.129	14451.3
542.494	14538.98
542.858	14588.92
543.223	14649.71
543.587	14665.53
543.952	14663.5
544.316	14713.44
544.681	14827.56
545.045	14885.19
545.41	14988.01
545.774	15046.77
546.138	15068.23
546.503	15101.45
546.867	15138.51
547.231	15239.08
547.595	15294.44
547.959	15335.8
548.324	15226.42
548.688	15355.68
549.052	15522.23
549.416	15528.56
549.779	15536.24
550.143	15584.38
550.507	15740.76
550.871	15727.2
551.235	15729.69
551.599	15802.45
551.962	15903.69
552.326	15987.76
552.689	15976.68
553.053	15875.9
553.417	15996.57
553.78	16193.4
554.143	16226.4
554.507	16313.17
554.87	16408.54
555.234	16523.79
555.597	16387.75
555.96	16518.14
556.323	16601.07
556.686	16534.86
557.05	16615.76
557.413	16694.41
557.776	16803.78
558.139	16902.76
558.502	16855.31
558.865	16918.58
559.228	17119.71
559.59	17083.55
559.953	17123.77
560.316	17300.72
560.679	17318.57
561.041	17422.97
561.404	17493.48
561.767	17610.99
562.129	17515.63
562.492	17701.38
562.854	17705.68
563.217	17733.25
563.579	17771.67
563.941	17912.9
564.304	17962.39
564.666	18041.26
565.028	18093.01
565.39	18133.46
565.753	18280.58
566.115	18320.8
566.477	18419.78
566.839	18417.98
567.201	18612.32
567.563	18527.35
567.925	18714.47
568.287	18716.05
568.648	18742.49
569.01	18870.85
569.372	18937.51
569.734	18924.63
570.095	19015.47
570.457	19131.63
570.819	19214.57
571.18	19292.76
571.542	19367.33
571.903	19464.5
572.265	19581.34
572.626	19595.12
572.987	19571.62
573.349	19756.92
573.71	19823.36
574.071	19942.46
574.432	19935.9
574.794	20306.29
575.155	20241.21
575.516	20187.87
575.877	20413.4
576.238	20547.41
576.599	20603.23
576.96	20746.5
577.32	20796.22
577.681	20925.48
578.042	21060.17
578.403	21103.78
578.763	21270.1
579.124	21424.68
579.485	21568.85
579.845	21668.06
580.206	21736.98
580.566	22019.24
580.927	22117.77
581.287	22270.76
581.648	22382.62
582.008	22789.61
582.368	22669.16
582.728	22873.68
583.089	22942.15
583.449	23258.3
583.809	23399.09
584.169	23692.19
584.529	23739.87
584.889	24103.7
585.249	24125.62
585.609	24221.67
585.969	24470.7
586.329	24612.39
586.688	24938.71
587.048	25084.69
587.408	25234.97
587.768	25403.78
588.127	25621.85
588.487	25899.14
588.846	26163.76
589.206	26213.03
589.565	26560.59
589.925	26883.06
590.284	27003.29
590.643	27317.4
591.003	27551.07
591.362	27824.96
591.721	27912.64
592.08	28074.9
592.44	28434.21
592.799	28649.12
593.158	28776.12
593.517	29010.69
593.876	29260.18
594.235	29379.5
594.593	29560.06
594.952	29939.71
595.311	29982.64
595.67	30364.33
596.029	30746.47
596.387	30939.45
596.746	31203.4
597.104	31143.52
597.463	31266.23
597.822	31645.42
598.18	31738.08
598.538	32075.7
598.897	32243.15
599.255	32206.09
599.613	32867.31
599.972	32944.15
600.33	33160.64
600.688	33167.64
601.046	33399.05
601.404	33623.68
601.762	33717.91
602.12	34126.94
602.478	34274.51
602.836	34370.78
603.194	34368.52
603.552	34705.23
603.91	34686.47
604.268	34890.31
604.625	34978.22
604.983	35312.67
605.341	35371.2
605.698	35518.09
606.056	35748.82
606.413	35827.69
606.771	36068.81
607.128	36147.45
607.485	36141.13
607.843	36391.74
608.2	36756.48
608.557	36943.36
608.914	36784.27
609.272	37098.39
609.629	37184.26
609.986	37390.36
610.343	37386.07
610.7	37775.43
611.057	37819.73
611.414	37792.83
611.771	37989.21
612.127	38299.26
612.484	38326.15
612.841	38411.8
613.198	38560.72
613.554	38775.18
613.911	38830.55
614.267	38958.91
614.624	38995.74
614.98	39000.49
615.337	39282.74
615.693	39351.89
616.05	39227.15
616.406	39654.48
616.762	39632.11
617.118	39747.36
617.475	39741.26
617.831	39941.48
618.187	40100.8
618.543	40249.27
618.899	40351.41
619.255	40210.4
619.611	40337.85
619.967	40599.09
620.323	40603.61
620.678	40615.36
621.034	40576.72
621.39	40717.73
621.746	40632.31
622.101	41105.74
622.457	40917.27
622.812	40999.53
623.168	41074.33
623.523	41159.53
623.879	41319.75
624.234	41233.87
624.589	41410.82
624.945	41442
625.3	41460.99
625.655	41554.77
626.01	41559.06
626.365	41559.97
626.72	41490.36
627.075	41585.95
627.43	41592.51
627.785	41620.08
628.14	41625.95
628.495	41873.18
628.85	41777.59
629.205	41545.73
629.559	41839.96
629.914	41693.07
630.269	41858.49
630.623	41758.61
630.978	41858.49
631.332	41871.37
631.687	42034.3
632.041	41796.8
632.396	41846.06
632.75	41793.86
633.104	41766.29
633.459	41670.92
633.813	41749.34
634.167	41661.66
634.521	41860.3
634.875	41781.66
635.229	41792.28
635.583	41653.98
635.937	41752.73
636.291	41637.25
636.645	41706.63
636.999	41580.53
637.352	41834.08
637.706	41403.59
638.06	41668.89
638.413	41726.29
638.767	41560.87
639.121	41698.49
639.474	41462.34
639.828	41537.59
640.181	41620.53
640.534	41545.5
640.888	41346.86
641.241	41322.01
641.594	41279.97
641.947	41533.07
642.301	41436.13
642.654	41507.76
643.007	41526.52
643.36	41385.73
643.713	41254.44
644.066	41453.3
644.419	41159.75
644.771	41037.49
645.124	40583.95
645.477	40701.01
645.83	40365.65
646.182	40286.55
646.535	40211.3
646.888	40163.62
647.24	40003.4
647.593	40267.12
647.945	40194.35
648.298	39967.24
648.65	40050.4
649.002	39868.03
649.355	40108.93
649.707	40107.35
650.059	40239.1
650.411	40591.86
650.763	40583.95
651.115	41029.59
651.467	40907.1
651.819	41066.42
652.171	40694.45
652.523	40756.82
652.875	40689.71
653.227	40661.46
653.578	40893.09
653.93	40771.29
654.282	40634.57
654.633	40416.04
654.985	40606.55
655.337	40623.27
655.688	40688.58
656.039	40693.55
656.391	40278.87
656.742	40534.91
657.094	40602.48
657.445	40588.69
657.796	40467.57
658.147	40581.24
658.498	40534.68
658.849	40515.47
659.2	40572.2
659.551	40337.63
659.902	40577.62
660.253	40459.2
660.604	40568.58
660.955	40412.88
661.306	40515.7
661.656	40296.04
662.007	40342.6
662.358	40400
662.708	40376.04
663.059	40307.12
663.409	40216.73
663.76	40468.7
664.11	40294.92
664.461	40397.51
664.811	40435.7
665.161	40299.21
665.511	40362.26
665.862	40278.19
666.212	40266.67
666.562	40320.68
666.912	40404.74
667.262	40256.5
667.612	40263.5
667.962	40355.93
668.312	40245.2
668.662	40482.25
669.011	40197.29
669.361	40232.09
669.711	40191.64
670.06	40144.86
670.41	40091.98
670.76	40020.35
671.109	40361.58
671.459	40126.33
671.808	40015.15
672.157	40168.82
672.507	39822.61
672.856	39878.43
673.205	40037.29
673.554	40122.04
673.904	40023.28
674.253	40299.43
674.602	39926.11
674.951	39596.85
675.3	39436.41
675.649	39944.64
675.998	39917.98
676.346	39981.7
676.695	40073.9
677.044	39659.45
677.393	39949.16
677.741	39839.79
678.09	39808.6
678.438	39688.83
678.787	39731.54
679.135	39804.98
679.484	39566.57
679.832	39729.73
680.181	39409.51
680.529	39672.78
680.877	39411.77
681.225	39445.45
681.573	39523.64
681.922	39268.05
682.27	39251.55
682.618	39245.68
682.966	39190.99
683.314	39166.81
683.661	39107.38
684.009	38900.38
684.357	38818.8
684.705	38775.86
685.053	38923.65
685.4	38699.93
685.748	38620.83
686.095	38606.37
686.443	38596.2
686.79	38580.16
687.138	38552.81
687.485	38393.5
687.832	38414.29
688.18	38346.49
688.527	38202.54
688.874	38129.77
689.221	38100.62
689.568	38126.84
689.915	38061.75
690.262	37960.06
690.609	37921.42
690.956	37779.05
691.303	37649.11
691.65	37418.61
691.997	37500.41
692.344	37303.58
692.69	37370.47
693.037	37355.33
693.383	36955.79
693.73	37084.15
694.077	36880.99
694.423	36842.8
694.769	36742.24
695.116	36829.47
695.462	36723.94
695.808	36631.96
696.155	36685.74
696.501	36297.05
696.847	36274.23
697.193	36051.64
697.539	36196.27
697.885	35975.48
698.231	35912.43
698.577	35933.67
698.923	35909.95
699.269	35633.57
699.614	35561.25
699.96	35528.26
700.306	35405.78
700.651	35324.2
700.997	35205.11
701.342	35144.09
701.688	35155.84
702.033	35041.27
702.379	35013.92
702.724	34935.96
703.069	34922.85
703.415	34578.46
703.76	34660.26
704.105	34715.63
704.45	34586.36
704.795	34346.14
705.14	34383.21
705.485	34267.95
705.83	33985.48
706.175	34100.28
706.52	34043.33
706.865	33949.77
707.209	33935.76
707.554	33753.39
707.899	33787.52
708.243	33625.94
708.588	33633.85
708.932	33427.3
709.277	33478.6
709.621	33414.42
709.966	33179.62
710.31	33283.8
710.654	32984.37
710.998	33040.19
711.342	32991.6
711.687	32820.54
712.031	32803.36
712.375	32676.13
712.719	32734.21
713.063	32653.31
713.407	32706.41
713.75	32616.47
714.094	32580.32
714.438	32363.37
714.782	32432.97
715.125	32188.24
715.469	32407.21
715.812	32171.06
716.156	32017.84
716.499	32025.75
716.843	32014.45
717.186	31762.03
717.53	31933.1
717.873	31957.51
718.216	31786.44
718.559	31609.27
718.902	31467.35
719.246	31560
719.589	31529.5
719.932	31459.44
720.275	31350.97
720.617	31227.13
720.96	31105.55
721.303	31240.01
721.646	31250.86
721.989	31035.95
722.331	31136.74
722.674	30954.37
723.016	31093.8
723.359	31071.88
723.701	31053.12
724.044	30656.3
724.386	30591.89
724.729	30785.56
725.071	30773.81
725.413	30645.9
725.755	30610.2
726.097	30428.73
726.439	30327.95
726.782	30382.41
727.124	30556.19
727.465	30294.95
727.807	30264.22
728.149	30286.14
728.491	30231.9
728.833	30361.84
729.175	30049.08
729.516	29980.61
729.858	30068.97
730.199	29981.97
730.541	29915.53
730.882	29877.79
731.224	29940.61
731.565	29698.13
731.906	29851.35
732.248	29751.46
732.589	29709.88
732.93	29515.76
733.271	29604.57
733.612	29669.43
733.953	29673.05
734.294	29522.32
734.635	29421.98
734.976	29547.63
735.317	29233.29
735.658	29332.27
735.999	29292.04
736.339	29262.89
736.68	29279.39
737.021	29213.17
737.361	29137.24
737.702	29246.39
738.042	29142.67
738.383	29034.19
738.723	29061.99
739.063	29019.73
739.404	28968.89
739.744	28984.7
740.084	28823.58
740.424	28895.67
740.764	28666.29
741.104	28771.38
741.444	28641.44
741.784	28566.86
742.124	28595.11
742.464	28586.07
742.804	28624.49
743.143	28405.28
743.483	28466.75
743.823	28309.02
744.162	28288
744.502	28326.19
744.841	28265.85
745.181	28323.25
745.52	28104.5
745.86	28318.73
746.199	28205.29
746.538	28140.66
746.877	28236.7
747.216	28179.08
747.556	28022.7
747.895	28130.72
748.234	27996.71
748.573	27839.88
748.911	27760.78
749.25	27850.04
749.589	27704.96
749.928	27762.59
750.267	27770.72
750.605	27677.39
750.944	27491.18
751.283	27465.87
751.621	27612.99
751.96	27439.21
752.298	27309.27
752.636	27415.71
752.975	27286.67
753.313	27169.38
753.651	27236.73
753.989	27129.61
754.327	27062.49
754.666	26957.41
755.004	26982.27
755.342	26933.23
755.679	26984.3
756.017	26728.04
756.355	26851.43
756.693	26771.43
757.031	26729.4
757.368	26545.67
757.706	26689.17
