Data from hue_130_FLMS001491_00031.txt Node
Date: Tue Feb 07 16:57:30 GMT 2017
User: dcchb
Spectrometer: FLMS00149
Trigger mode: 0
Integration Time (sec): 2.000000E-2
Scans to average: 10
Electric dark correction enabled: true
Nonlinearity correction enabled: false
Boxcar width: 0
XAxis mode: Wavelengths
Number of Pixels in Spectrum: 2048
>>>>>Begin Spectral Data<<<<<
341.393	-21.13
341.776	-21.13
342.16	-21.13
342.543	-70.39
342.927	-92.77
343.31	-84.63
343.693	-64.29
344.077	-53.9
344.46	-43.5
344.843	-47.57
345.226	-42.6
345.61	-37.17
345.993	-16.61
346.376	-5.31
346.759	-1.47
347.142	14.35
347.525	59.55
347.908	59.09
348.291	70.85
348.674	81.24
349.057	111.97
349.44	141.8
349.823	155.59
350.206	141.35
350.588	193.78
350.971	213.67
351.354	219.77
351.737	229.94
352.119	246.43
352.502	282.37
352.884	271.52
353.267	299.54
353.65	304.51
354.032	304.06
354.414	312.87
354.797	300.67
355.179	306.77
355.562	304.29
355.944	338.18
356.326	338.41
356.709	304.51
357.091	328.01
357.473	342.48
357.855	331.63
358.238	346.77
358.62	332.99
359.002	337.05
359.384	344.06
359.766	338.18
360.148	340.67
360.53	344.96
360.912	337.73
361.294	342.93
361.676	315.58
362.057	350.61
362.439	338.41
362.821	342.25
363.203	336.83
363.584	315.36
363.966	323.04
364.348	315.81
364.729	321.23
365.111	331.4
365.493	319.2
365.874	331.63
366.256	309.03
366.637	336.83
367.019	307.22
367.4	318.97
367.781	289.14
368.163	324.62
368.544	351.97
368.925	312.2
369.306	302.7
369.688	303.16
370.069	324.85
370.45	318.75
370.831	293.66
371.212	321.69
371.593	313.78
371.974	289.14
372.355	307.9
372.736	328.69
373.117	314
373.498	305.19
373.879	288.02
374.26	320.33
374.641	298.41
375.021	295.02
375.402	323.95
375.783	323.49
376.163	327.34
376.544	337.73
376.925	299.99
377.305	332.08
377.686	303.38
378.066	337.51
378.447	325.3
378.827	325.53
379.208	312.2
379.588	327.56
379.968	343.83
380.349	308.13
380.729	338.64
381.109	344.28
381.489	332.53
381.87	352.42
382.25	322.14
382.63	328.47
383.01	341.12
383.39	358.07
383.77	361.46
384.15	334.12
384.53	344.51
384.91	335.47
385.29	342.02
385.67	344.51
386.049	348.35
386.429	351.06
386.809	358.3
387.189	358.75
387.568	357.39
387.948	351.06
388.328	361.69
388.707	351.52
389.087	347.22
389.466	365.08
389.846	361.91
390.225	379.31
390.605	363.27
390.984	342.48
391.363	346.54
391.743	350.84
392.122	387.67
392.501	358.97
392.881	368.69
393.26	368.46
393.639	394.23
394.018	367.33
394.397	358.97
394.776	359.2
395.155	380.67
395.534	376.83
395.913	402.14
396.292	368.24
396.671	401.91
397.05	402.59
397.429	408.69
397.808	394.23
398.186	379.09
398.565	383.61
398.944	370.5
399.323	413.89
399.701	390.61
400.08	391.52
400.458	398.52
400.837	410.5
401.215	379.76
401.594	417.28
401.972	414.34
402.351	401.23
402.729	391.29
403.107	419.54
403.486	407.33
403.864	419.99
404.242	412.53
404.62	405.53
404.999	426.32
405.377	426.09
405.755	440.33
406.133	426.54
406.511	426.99
406.889	442.59
407.267	422.25
407.645	441.46
408.023	439.88
408.401	424.51
408.779	450.5
409.156	447.33
409.534	439.2
409.912	443.04
410.29	457.95
410.667	455.69
411.045	443.04
411.422	455.24
411.8	468.35
412.178	464.73
412.555	486.43
412.933	466.77
413.31	461.8
413.687	480.33
414.065	492.08
414.442	482.36
414.819	492.98
415.197	493.43
415.574	505.41
415.951	493.43
416.328	506.99
416.705	507.44
417.082	511.51
417.46	506.31
417.837	519.42
418.214	511.29
418.591	515.81
418.967	521.68
419.344	528.23
419.721	537.27
420.098	545.41
420.475	529.14
420.852	529.14
421.228	542.02
421.605	542.47
421.982	552.41
422.358	532.75
422.735	548.35
423.111	556.26
423.488	544.51
423.864	557.61
424.241	574.79
424.617	583.83
424.994	584.05
425.37	579.31
425.746	585.86
426.123	571.4
426.499	602.13
426.875	596.93
427.251	583.83
427.627	593.09
428.003	640.55
428.379	636.93
428.756	632.19
429.132	641.23
429.507	616.14
429.883	613.88
430.259	635.58
430.635	655.01
431.011	650.27
431.387	665.86
431.763	659.76
432.138	655.46
432.514	684.61
432.89	677.38
433.265	678.51
433.641	694.11
434.016	709.25
434.392	715.8
434.767	722.35
435.143	714.22
435.518	710.6
435.894	731.17
436.269	735.01
436.644	745.4
437.02	742.24
437.395	737.27
437.77	777.27
438.145	764.84
438.52	765.74
438.895	769.13
439.271	771.62
439.646	793.09
440.021	786.08
440.395	801.45
440.77	785.63
441.145	797.15
441.52	813.88
441.895	819.75
442.27	846.19
442.645	817.72
443.019	838.96
443.394	843.25
443.769	839.86
444.143	852.07
444.518	875.34
444.892	858.17
445.267	868.34
445.641	886.19
446.016	856.14
446.39	889.36
446.764	887.1
447.139	883.03
447.513	903.37
447.887	896.36
448.262	902.24
448.636	926.42
449.01	926.19
449.384	931.61
449.758	918.51
450.132	941.56
450.506	960.09
450.88	951.05
451.254	953.76
451.628	956.02
452.002	978.39
452.376	1009.58
452.75	986.53
453.123	1017.94
453.497	1015.91
453.871	1012.29
454.244	1048.67
454.618	1046.41
454.992	1062.91
455.365	1074.44
455.739	1088.67
456.112	1094.32
456.486	1125.96
456.859	1092.29
457.232	1121.67
457.606	1126.64
457.979	1143.59
458.352	1144.72
458.725	1158.27
459.099	1189.01
459.472	1203.47
459.845	1207.54
460.218	1210.02
460.591	1224.94
460.964	1246.63
461.337	1283.7
461.71	1296.12
462.083	1298.84
462.456	1324.15
462.829	1323.02
463.201	1340.87
463.574	1359.85
463.947	1374.54
464.32	1417.48
464.692	1409.12
465.065	1444.82
465.438	1473.07
465.81	1485.72
466.183	1485.27
466.555	1525.72
466.928	1575.44
467.3	1552.61
467.672	1593.97
468.045	1609.34
468.417	1619.51
468.789	1657.02
469.161	1672.39
469.534	1732.27
469.906	1734.3
470.278	1760.07
470.65	1791.25
471.022	1841.42
471.394	1874.64
471.766	1895.43
472.138	1968.2
472.51	2019.49
472.882	1988.99
473.253	2041.19
473.625	2121.41
473.997	2144.69
474.369	2215.2
474.74	2255.87
475.112	2277.12
475.484	2305.36
475.855	2403.44
476.227	2407.96
476.598	2497
476.97	2550.1
477.341	2649.53
477.713	2686.14
478.084	2718.91
478.455	2835.52
478.827	2919.36
479.198	2995.06
479.569	3015.63
479.94	3157.09
480.311	3213.59
480.682	3325.22
481.053	3381.94
481.424	3483.41
481.795	3589.17
482.166	3639.79
482.537	3766.57
482.908	3902.38
483.279	3949.61
483.65	4086.33
484.021	4182.6
484.391	4273.45
484.762	4397.96
485.133	4479.09
485.503	4628.24
485.874	4779.65
486.244	4837.5
486.615	5011.96
486.985	5151.84
487.356	5287.88
487.726	5347.32
488.097	5525.17
488.467	5625.28
488.837	5812.62
489.207	5897.36
489.578	6091.93
489.948	6204.92
490.318	6281.53
490.688	6426.61
491.058	6572.82
491.428	6742.53
491.798	6864.11
492.168	7065.92
492.538	7123.54
492.908	7276.31
493.278	7467.71
493.648	7518.79
494.017	7640.14
494.387	7803.52
494.757	7959.45
495.126	8103.85
495.496	8171.65
495.866	8315.6
496.235	8450.29
496.605	8606.89
496.974	8703.16
497.344	8840.11
497.713	8952.65
498.082	9069.03
498.452	9188.8
498.821	9327.78
499.19	9325.74
499.559	9538.62
499.928	9661.1
500.298	9669.69
500.667	9809.35
501.036	9841.44
501.405	9966.18
501.774	10043.69
502.143	10186.29
502.512	10255.44
502.88	10395.55
503.249	10505.83
503.618	10533.17
503.987	10574.52
504.356	10737.01
504.724	10803.22
505.093	10918.24
505.462	10951.24
505.83	11022.87
506.199	11097.22
506.567	11271.23
506.936	11254.28
507.304	11463.99
507.672	11449.98
508.041	11596.19
508.409	11605.91
508.777	11681.84
509.145	11821.95
509.514	11827.37
509.882	11846.13
510.25	11942.17
510.618	12050.64
510.986	12074.82
511.354	12134.71
511.722	12272.33
512.09	12275.72
512.458	12260.58
512.826	12400.24
513.193	12440.01
513.561	12461.03
513.929	12597.52
514.297	12684.75
514.664	12661.25
515.032	12741.7
515.4	12879.32
515.767	12743.28
516.135	12902.37
516.502	12863.28
516.869	12937.85
517.237	12979.66
517.604	12964.97
517.972	13058.3
518.339	13120.9
518.706	13144.85
519.073	13104.63
519.44	13205.42
519.808	13292.87
520.175	13255.81
520.542	13391.85
520.909	13450.83
521.276	13385.52
521.643	13502.13
522.009	13583.94
522.376	13594.78
522.743	13646.08
523.11	13703.03
523.477	13777.83
523.843	13826.19
524.21	13850.6
524.577	13950.48
524.943	13870.93
525.31	13945.28
525.676	14033.87
526.043	14005.62
526.409	14012.4
526.776	14100.76
527.142	14090.14
527.508	14206.07
527.874	14220.3
528.241	14175.56
528.607	14194.09
528.973	14329.23
529.339	14211.94
529.705	14250.36
530.071	14325.16
530.437	14321.77
530.803	14395.67
531.169	14353.18
531.535	14282.45
531.901	14294.88
532.267	14330.58
532.632	14347.08
532.998	14331.26
533.364	14363.58
533.73	14316.57
534.095	14319.06
534.461	14404.71
534.826	14373.75
535.192	14374.2
535.557	14428.21
535.923	14435.44
536.288	14257.59
536.653	14437.7
537.019	14228.21
537.384	14247.42
537.749	14241.09
538.114	14215.11
538.479	14218.72
538.845	14130.36
539.21	14071.83
539.575	14150.02
539.94	14150.93
540.305	14081.32
540.67	13945.28
541.034	14001.55
541.399	14098.95
541.764	13959.52
542.129	14016.24
542.494	13941.22
542.858	13936.02
543.223	13905.96
543.587	13873.87
543.952	13733.09
544.316	13807.89
544.681	13714.33
545.045	13763.37
545.41	13702.8
545.774	13704.39
546.138	13715.23
546.503	13564.95
546.867	13566.08
547.231	13711.62
547.595	13647.89
547.959	13552.3
548.324	13558.85
548.688	13535.8
549.052	13508.46
549.416	13510.94
549.779	13432.08
550.143	13409.93
550.507	13394.79
550.871	13372.64
551.235	13252.87
551.599	13315.7
551.962	13277.28
552.326	13270.5
552.689	13301.68
553.053	13144.4
553.417	13137.39
553.78	13284.96
554.143	13086.77
554.507	13220.78
554.87	13226.21
555.234	13226.66
555.597	13188.92
555.96	13090.39
556.323	13113.67
556.686	13094.68
557.05	13143.95
557.413	13083.84
557.776	13017.62
558.139	13125.87
558.502	13014.23
558.865	13107.56
559.228	13094.46
559.59	13087
559.953	13099.66
560.316	13134
560.679	13122.25
561.041	13184.63
561.404	13150.5
561.767	13125.42
562.129	13094.01
562.492	13187.11
562.854	13082.03
563.217	13096.27
563.579	13139.2
563.941	13170.39
564.304	13228.47
564.666	13183.95
565.028	13177.62
565.39	13218.07
565.753	13228.24
566.115	13206.32
566.477	13251.97
566.839	13347.33
567.201	13306.88
567.563	13253.78
567.925	13365.64
568.287	13367.45
568.648	13326.54
569.01	13407.44
569.372	13489.02
569.734	13341.46
570.095	13437.5
570.457	13466.65
570.819	13420.1
571.18	13382.13
571.542	13463.04
571.903	13543.26
572.265	13459.19
572.626	13478.4
572.987	13471.17
573.349	13588.23
573.71	13521.79
574.071	13536.93
574.432	13520.89
574.794	13647.21
575.155	13603.37
575.516	13563.37
575.877	13602.47
576.238	13524.5
576.599	13592.75
576.96	13606.08
577.32	13598.17
577.681	13608.12
578.042	13634.56
578.403	13630.94
578.763	13657.38
579.124	13611.51
579.485	13641.11
579.845	13677.49
580.206	13614.67
580.566	13597.72
580.927	13621.9
581.287	13716.36
581.648	13582.81
582.008	13658.96
582.368	13645.63
582.728	13627.78
583.089	13661.9
583.449	13607.21
583.809	13670.94
584.169	13629.13
584.529	13597.27
584.889	13665.06
585.249	13566.08
585.609	13506.88
585.969	13555.69
586.329	13592.52
586.688	13583.71
587.048	13564.28
587.408	13482.24
587.768	13527.44
588.127	13448.57
588.487	13525.41
588.846	13518.63
589.206	13399.31
589.565	13447.22
589.925	13527.21
590.284	13513.43
590.643	13461.45
591.003	13452.87
591.362	13548.91
591.721	13515.69
592.08	13455.58
592.44	13467.1
592.799	13389.37
593.158	13407.22
593.517	13487.89
593.876	13467.56
594.235	13476.82
594.593	13431.85
594.952	13369.03
595.311	13279.99
595.67	13358.86
596.029	13401.57
596.387	13430.72
596.746	13469.59
597.104	13424.17
597.463	13415.13
597.822	13390.27
598.18	13338.52
598.538	13329.48
598.897	13402.25
599.255	13340.78
599.613	13421.46
599.972	13347.33
600.33	13382.59
600.688	13296.94
601.046	13268.24
601.404	13408.8
601.762	13312.08
602.12	13365.41
602.478	13374.9
602.836	13353.66
603.194	13354.79
603.552	13272.08
603.91	13248.8
604.268	13318.18
604.625	13326.54
604.983	13411.51
605.341	13329.93
605.698	13317.28
606.056	13391.4
606.413	13376.94
606.771	13480.44
607.128	13383.49
607.485	13334
607.843	13341.68
608.2	13358.41
608.557	13411.74
608.914	13382.59
609.272	13430.95
609.629	13472.75
609.986	13466.2
610.343	13469.82
610.7	13546.65
611.057	13498.52
611.414	13480.44
611.771	13529.47
612.127	13535.8
612.484	13538.29
612.841	13630.26
613.198	13475.24
613.554	13573.99
613.911	13573.54
614.267	13627.1
614.624	13553.88
614.98	13591.62
615.337	13703.48
615.693	13609.47
616.05	13644.5
616.406	13711.16
616.762	13676.14
617.118	13749.81
617.475	13754.55
617.831	13679.53
618.187	13692.18
618.543	13736.25
618.899	13809.02
619.255	13757.04
619.611	13742.8
619.967	13745.29
620.323	13776.25
620.678	13667.78
621.034	13692.18
621.39	13662.8
621.746	13749.81
622.101	13905.96
622.457	13744.84
622.812	13801.11
623.168	13746.42
623.523	13728.34
623.879	13780.77
624.234	13668.68
624.589	13765.63
624.945	13797.94
625.3	13804.27
625.655	13843.82
626.01	13807.21
626.365	13706.87
626.72	13720.43
627.075	13833.42
627.43	13771.05
627.785	13774.44
628.14	13818.51
628.495	13841.78
628.85	13752.52
629.205	13622.13
629.559	13742.58
629.914	13613.54
630.269	13701.9
630.623	13701.45
630.978	13641.11
631.332	13710.49
631.687	13735.57
632.041	13601.79
632.396	13576.25
632.75	13577.84
633.104	13526.76
633.459	13489.7
633.813	13564.5
634.167	13602.47
634.521	13571.06
634.875	13498.29
635.229	13560.66
635.583	13431.62
635.937	13463.49
636.291	13478.18
636.645	13411.74
636.999	13363.38
637.352	13387.33
637.706	13348.01
638.06	13431.17
638.413	13408.35
638.767	13271.4
639.121	13280.89
639.474	13249.48
639.828	13261.01
640.181	13277.28
640.534	13262.36
640.888	13223.49
641.241	13198.41
641.594	13181.69
641.947	13224.17
642.301	13256.49
642.654	13222.82
643.007	13234.57
643.36	13261.23
643.713	13161.57
644.066	13267.56
644.419	13119.54
644.771	13070.96
645.124	12995.25
645.477	12988.02
645.83	12913.9
646.182	12903.28
646.535	12802.49
646.888	12842.71
647.24	12663.28
647.593	12736.28
647.945	12735.82
648.298	12713.9
648.65	12713.68
649.002	12645.2
649.355	12663.73
649.707	12761.81
650.059	12802.49
650.411	12936.04
650.763	12834.35
651.115	13091.29
651.467	13040.67
651.819	13127.68
652.171	13004.97
652.523	12935.37
652.875	12933.56
653.227	12956.38
653.578	13016.72
653.93	12986.44
654.282	13002.26
654.633	12901.02
654.985	12916.61
655.337	13059.66
655.688	12938.08
656.039	13030.96
656.391	12833
656.742	12931.3
657.094	12961.35
657.445	12968.36
657.796	12941.92
658.147	12931.3
658.498	13030.73
658.849	12969.04
659.2	12995.03
659.551	12904.41
659.902	13008.81
660.253	13016.95
660.604	13017.62
660.955	12985.53
661.306	13065.31
661.656	12975.82
662.007	13055.14
662.358	13053.1
662.708	12964.29
663.059	12987.57
663.409	13035.93
663.76	13095.59
664.11	12994.57
664.461	13023.73
664.811	13028.25
665.161	13048.81
665.511	12995.48
665.862	13069.6
666.212	13065.31
666.562	13045.87
666.912	13056.72
667.262	13010.84
667.612	13056.72
667.962	13037.51
668.312	13009.94
668.662	13054.23
669.011	13015.59
669.361	13065.53
669.711	13105.08
670.06	12980.79
670.41	12990.51
670.76	13002.71
671.109	13050.84
671.459	12934.46
671.808	13005.87
672.157	13086.55
672.507	12968.59
672.856	12994.35
673.205	12917.74
673.554	12963.39
673.904	12973.33
674.253	12982.82
674.602	12897.4
674.951	12755.94
675.3	12612.89
675.649	12886.1
675.998	12831.64
676.346	12839.55
676.695	12888.81
677.044	12791.87
677.393	12776.73
677.741	12860.57
678.09	12740.79
678.438	12765.88
678.787	12818.98
679.135	12710.06
679.484	12724.52
679.832	12699.67
680.181	12693.56
680.529	12720.68
680.877	12665.54
681.225	12642.49
681.573	12692.66
681.922	12582.61
682.27	12595.71
682.618	12552.78
682.966	12569.27
683.314	12547.35
683.661	12504.19
684.009	12419.22
684.357	12386
684.705	12399.11
685.053	12425.32
685.4	12338.32
685.748	12312.78
686.095	12238.21
686.443	12174.93
686.79	12156.4
687.138	12283.18
687.485	12227.36
687.832	12192.79
688.18	12168.83
688.527	12102.85
688.874	12085.44
689.221	12077.31
689.568	12028.72
689.915	11913.92
690.262	12062.17
690.609	11942.85
690.956	11873.47
691.303	11891.33
691.65	11787.15
691.997	11767.26
692.344	11781.95
692.69	11706.02
693.037	11673.93
693.383	11525.01
693.73	11548.51
694.077	11475.52
694.423	11561.62
694.769	11500.38
695.116	11431.9
695.462	11417.67
695.808	11394.39
696.155	11406.37
696.501	11306.93
696.847	11226.94
697.193	11156.2
697.539	11236.43
697.885	11141.06
698.231	11070.33
698.577	11030.33
698.923	11041.4
699.269	11047.96
699.614	10920.73
699.96	10940.62
700.306	10852.71
700.651	10741.07
700.997	10759.15
701.342	10702.66
701.688	10769.77
702.033	10740.4
702.379	10668.31
702.724	10631.25
703.069	10685.03
703.415	10445.04
703.76	10548.99
704.105	10528.42
704.45	10483.91
704.795	10440.06
705.14	10373.85
705.485	10388.77
705.83	10357.13
706.175	10340.86
706.52	10314.42
706.865	10198.71
707.209	10209.11
707.554	10183.57
707.899	10246.4
708.243	10153.07
708.588	10133.18
708.932	10080.98
709.277	10081.2
709.621	10009.79
709.966	9980.64
710.31	9966.4
710.654	9899.06
710.998	9928.67
711.342	9939.51
711.687	9839.85
712.031	9792.62
712.375	9763.7
712.719	9807.54
713.063	9721.89
713.407	9826.75
713.75	9727.09
714.094	9711.04
714.438	9664.49
714.782	9702
715.125	9663.59
715.469	9646.41
715.812	9617.71
716.156	9554.66
716.499	9550.37
716.843	9591.5
717.186	9516.92
717.53	9593.76
717.873	9605.96
718.216	9509.69
718.559	9497.94
718.902	9472.41
719.246	9496.59
719.589	9502.01
719.932	9418.4
720.275	9443.93
720.617	9391.5
720.96	9359.41
721.303	9365.52
721.646	9375.01
721.989	9261.56
722.331	9299.3
722.674	9315.35
723.016	9276.03
723.359	9275.35
723.701	9253.43
724.044	9281.22
724.386	9227.22
724.729	9250.49
725.071	9292.3
725.413	9266.08
725.755	9221.34
726.097	9172.08
726.439	9166.43
726.782	9164.39
727.124	9155.8
727.465	9159.65
727.807	9126.65
728.149	9168.69
728.491	9140.66
728.833	9157.39
729.175	9116.71
729.516	9149.7
729.858	9099.99
730.199	9078.07
730.541	9117.39
730.882	9106.09
731.224	9162.13
731.565	9085.52
731.906	9084.62
732.248	9094.56
732.589	9119.87
732.93	9152.64
733.271	9107.67
733.612	9083.04
733.953	9093.21
734.294	9050.04
734.635	9074.9
734.976	9132.3
735.317	9048.91
735.658	9092.3
735.999	9031.06
736.339	9057.28
736.68	9098.4
737.021	9056.82
737.361	9043.27
737.702	9092.3
738.042	9107.67
738.383	9081.91
738.723	9112.42
739.063	9099.53
739.404	9149.25
739.744	9103.15
740.084	9143.6
740.424	9141.57
740.764	9119.2
741.104	9130.27
741.444	9142.47
741.784	9073.77
742.124	9171.62
742.464	9172.75
742.804	9161
743.143	9151.06
743.483	9254.33
743.823	9227.44
744.162	9268.12
744.502	9311.73
744.841	9378.62
745.181	9383.37
745.52	9334.1
745.86	9448
746.199	9455.68
746.538	9520.54
746.877	9536.36
747.216	9602.57
747.556	9592.63
747.895	9667.43
748.234	9659.97
748.573	9746.3
748.911	9794.88
749.25	9866.07
749.589	9905.84
749.928	10035.33
750.267	10074.2
750.605	10129.11
750.944	10178.83
751.283	10235.1
751.621	10377.92
751.96	10373.85
752.298	10552.6
752.636	10563.23
752.975	10661.98
753.313	10743.79
753.651	10881.86
753.989	10945.36
754.327	11009.99
754.666	11134.51
755.004	11296.09
755.342	11388.51
755.679	11525.01
756.017	11610.88
756.355	11797.54
756.693	11903.75
757.031	12014.49
757.368	12131.09
757.706	12266.91
758.044	12439.79
758.381	12506.45
