Data from hue_210_FLMS001491_00049.txt Node
Date: Tue Feb 07 16:41:16 GMT 2017
User: dcchb
Spectrometer: FLMS00149
Trigger mode: 0
Integration Time (sec): 2.000000E-2
Scans to average: 10
Electric dark correction enabled: true
Nonlinearity correction enabled: false
Boxcar width: 0
XAxis mode: Wavelengths
Number of Pixels in Spectrum: 2048
>>>>>Begin Spectral Data<<<<<
341.393	0.97
341.776	0.97
342.16	0.97
342.543	-60.94
342.927	-48.74
343.31	-66.82
343.693	-63.88
344.077	-50.78
344.46	-79.02
344.843	-62.07
345.226	-25.24
345.61	-17.78
345.993	-18.23
346.376	1.88
346.759	3.46
347.142	21.54
347.525	22.44
347.908	67.87
348.291	67.87
348.674	98.15
349.057	100.63
349.44	137.47
349.823	172.72
350.206	171.59
350.588	194.64
350.971	218.6
351.354	225.83
351.737	230.12
352.119	241.87
352.502	269.89
352.884	260.63
353.267	277.35
353.65	296.56
354.032	310.12
354.414	317.12
354.797	304.02
355.179	322.55
355.562	338.37
355.944	323.23
356.326	334.07
356.709	312.83
357.091	348.54
357.473	335.43
357.855	351.02
358.238	351.47
358.62	343.34
359.002	335.43
359.384	346.28
359.766	351.02
360.148	342.21
360.53	333.17
360.912	341.3
361.294	333.62
361.676	321.87
362.057	339.27
362.439	342.21
362.821	354.64
363.203	329.1
363.584	322.32
363.966	327.07
364.348	355.32
364.729	328.2
365.111	315.99
365.493	323.45
365.874	311.25
366.256	337.69
366.637	334.53
367.019	321.42
367.4	322.32
367.781	309.67
368.163	309.44
368.544	312.6
368.925	333.4
369.306	303.34
369.688	329.78
370.069	326.62
370.45	315.54
370.831	304.92
371.212	314.19
371.593	328.65
371.974	292.72
372.355	324.36
372.736	315.32
373.117	333.4
373.498	333.17
373.879	309.67
374.26	303.79
374.641	314.86
375.021	311.47
375.402	321.42
375.783	314.41
376.163	326.62
376.544	334.98
376.925	334.07
377.305	329.55
377.686	326.39
378.066	320.74
378.447	325.26
378.827	330.68
379.208	335.66
379.588	339.95
379.968	338.82
380.349	328.88
380.729	349.89
381.109	337.24
381.489	341.53
381.87	337.24
382.25	340.4
382.63	344.92
383.01	351.25
383.39	366.39
383.77	345.15
384.15	332.49
384.53	355.77
384.91	341.08
385.29	336.33
385.67	351.25
386.049	342.43
386.429	326.84
386.809	346.28
387.189	349.44
387.568	366.39
387.948	341.3
388.328	374.07
388.707	356.9
389.087	344.69
389.466	377.91
389.846	363.22
390.225	365.03
390.605	358.71
390.984	371.13
391.363	383.11
391.743	384.24
392.122	391.02
392.501	369.33
392.881	370.23
393.26	384.47
393.639	380.63
394.018	400.74
394.397	390.34
394.776	390.79
395.155	386.28
395.534	393.28
395.913	385.15
396.292	409.78
396.671	391.92
397.05	403
397.429	371.13
397.808	415.88
398.186	405.26
398.565	408.42
398.944	424.01
399.323	418.14
399.701	414.75
400.08	421.75
400.458	427.4
400.837	392.83
401.215	426.5
401.594	457.46
401.972	431.02
402.351	410
402.729	445.48
403.107	455.65
403.486	432.83
403.864	457.91
404.242	442.09
404.62	454.07
404.999	442.32
405.377	447.97
405.755	460.17
406.133	463.56
406.511	467.18
406.889	464.24
407.267	478.48
407.645	476.44
408.023	480.74
408.401	500.62
408.779	485.48
409.156	499.04
409.534	533.39
409.912	493.16
410.29	523.9
410.667	547.85
411.045	541.07
411.422	560.96
411.8	530.68
412.178	559.6
412.555	557.57
412.933	580.17
413.31	613.39
413.687	601.41
414.065	597.57
414.442	607.74
414.819	629.21
415.197	627.62
415.574	624.91
415.951	646.38
416.328	635.99
416.705	670.56
417.082	666.04
417.46	652.26
417.837	691.13
418.214	669.66
418.591	697.68
418.967	717.11
419.344	724.8
419.721	742.42
420.098	756.43
420.475	738.36
420.852	764.8
421.228	765.7
421.605	803.89
421.982	790.33
422.358	818.13
422.735	826.72
423.111	827.62
423.488	856.09
423.864	853.61
424.241	892.02
424.617	896.32
424.994	920.5
425.37	900.39
425.746	908.3
426.123	951.91
426.499	963.89
426.875	942.42
427.251	970.89
427.627	992.81
428.003	998.24
428.379	1011.8
428.756	1017.67
429.132	1026.94
429.507	1062.19
429.883	1088.63
430.259	1082.53
430.635	1106.26
431.011	1097.89
431.387	1131.34
431.763	1143.77
432.138	1141.28
432.514	1151.23
432.89	1186.25
433.265	1212.92
433.641	1244.78
434.016	1228.51
434.392	1266.48
434.767	1296.76
435.143	1294.5
435.518	1315.06
435.894	1346.7
436.269	1369.98
436.644	1430.99
437.02	1427.6
437.395	1438.22
437.77	1462.18
438.145	1504.44
438.52	1499.47
438.895	1519.13
439.271	1553.48
439.646	1588.5
440.021	1584.89
440.395	1639.58
440.77	1643.19
441.145	1659.01
441.52	1688.16
441.895	1710.53
442.27	1714.38
442.645	1705.79
443.019	1762.51
443.394	1776.07
443.769	1759.57
444.143	1816.07
444.518	1818.55
444.892	1840.02
445.267	1842.96
445.641	1878.21
446.016	1860.13
446.39	1889.06
446.764	1906.01
447.139	1922.96
447.513	1943.07
447.887	1969.06
448.262	1968.38
448.636	1973.35
449.01	2001.6
449.384	2015.61
449.758	2033.92
450.132	2041.37
450.506	2081.82
450.88	2080.24
451.254	2091.99
451.628	2092.67
452.002	2131.77
452.376	2135.61
452.75	2198.66
453.123	2219.9
453.497	2220.58
453.871	2248.83
454.244	2283.85
454.618	2278.65
454.992	2337.18
455.365	2312.55
455.739	2399.56
456.112	2429.84
456.486	2420.35
456.859	2441.36
457.232	2470.29
457.606	2467.35
457.979	2484.75
458.352	2549.83
458.725	2536.95
459.099	2572.66
459.472	2648.81
459.845	2630.74
460.218	2681.81
460.591	2723.61
460.964	2702.82
461.337	2750.51
461.71	2826.89
462.083	2884.29
462.456	2850.62
462.829	2844.74
463.201	2914.34
463.574	2931.07
463.947	2952.76
464.32	3015.81
464.692	3064.85
465.065	3077.05
465.438	3100.1
465.81	3159.99
466.183	3189.82
466.555	3249.02
466.928	3247.22
467.3	3266.43
467.672	3301.45
468.045	3365.41
468.417	3396.14
468.789	3442.69
469.161	3421
469.534	3480.88
469.906	3561.56
470.278	3592.74
470.65	3662.8
471.022	3651.95
471.394	3772.63
471.766	3768.33
472.138	3824.83
472.51	3913.64
472.882	3966.75
473.253	3986.63
473.625	4052.39
473.997	4070.47
474.369	4126.06
474.74	4151.37
475.112	4237.47
475.484	4302.78
475.855	4381.2
476.227	4411.71
476.598	4468.88
476.97	4523.79
477.341	4606.28
477.713	4663.9
478.084	4687.18
478.455	4813.28
478.827	4884.91
479.198	4980.5
479.569	4964.23
479.94	5077.45
480.311	5111.8
480.682	5195.19
481.053	5307.73
481.424	5414.84
481.795	5430.21
482.166	5534.84
482.537	5556.99
482.908	5681.5
483.279	5713.82
483.65	5808.96
484.021	5919.46
484.391	5956.52
484.762	6015.28
485.133	6071.32
485.503	6066.8
485.874	6228.61
486.244	6281.04
486.615	6316.06
486.985	6394.7
487.356	6583.63
487.726	6561.48
488.097	6683.06
488.467	6682.38
488.837	6757.63
489.207	6857.74
489.578	6949.04
489.948	6998.08
490.318	7070.62
490.688	7077.85
491.058	7207.79
491.428	7275.59
491.798	7321.46
492.168	7444.39
492.538	7464.96
492.908	7566.43
493.278	7680.09
493.648	7629.93
494.017	7737.04
494.387	7826.98
494.757	7751.28
495.126	7922.12
495.496	7912.63
495.866	7932.29
496.235	8019.97
496.605	8077.15
496.974	8069.69
497.344	8141.33
497.713	8204.83
498.082	8301.55
498.452	8289.34
498.821	8360.3
499.19	8341.32
499.559	8407.99
499.928	8475.55
500.298	8440.53
500.667	8501.32
501.036	8524.82
501.405	8567.98
501.774	8557.81
502.143	8581.09
502.512	8662.67
502.88	8679.16
503.249	8718.03
503.618	8700.86
503.987	8702.21
504.356	8779.05
504.724	8763.91
505.093	8744.47
505.462	8829.67
505.83	8897.46
506.199	8927.97
506.567	9007.74
506.936	8995.31
507.304	9042.32
507.672	9060.62
508.041	9036.9
508.409	9167.74
508.777	9129.77
509.145	9206.38
509.514	9127.29
509.882	9164.35
510.25	9188.08
510.618	9275.31
510.986	9177.23
511.354	9305.81
511.722	9290.22
512.09	9403.89
512.458	9364.12
512.826	9310.56
513.193	9369.32
513.561	9303.55
513.929	9414.06
514.297	9482.99
514.664	9486.6
515.032	9509.88
515.4	9472.59
515.767	9519.14
516.135	9554.85
516.502	9408.18
516.869	9550.33
517.237	9596.88
517.604	9552.36
517.972	9534.74
518.339	9625.58
518.706	9511.68
519.073	9566.37
519.44	9561.4
519.808	9622.19
520.175	9603.89
520.542	9637.56
520.909	9679.14
521.276	9656.77
521.643	9672.81
522.009	9722.53
522.376	9664.9
522.743	9705.35
523.11	9755.97
523.477	9784.45
523.843	9806.14
524.21	9856.53
524.577	9857.44
524.943	9865.35
525.31	9901.96
525.676	9875.29
526.043	9887.27
526.409	9851.56
526.776	9974.27
527.142	9922.3
527.508	9991.45
527.874	9996.19
528.241	9956.64
528.607	9940.6
528.973	10029.86
529.339	9905.12
529.705	9999.13
530.071	10011.33
530.437	9988.73
530.803	10018.11
531.169	10020.37
531.535	9974.05
531.901	9900.15
532.267	9830.77
532.632	9972.24
532.998	9859.47
533.364	9889.53
533.73	9927.95
534.095	9898.57
534.461	9807.27
534.826	9914.16
535.192	9842.07
535.557	9892.69
535.923	9771.11
536.288	9704.45
536.653	9781.51
537.019	9688.86
537.384	9765.46
537.749	9710.1
538.114	9697.22
538.479	9643.88
538.845	9650.21
539.21	9526.37
539.575	9603.43
539.94	9583.32
540.305	9608.41
540.67	9538.12
541.034	9551.68
541.399	9544
541.764	9522.31
542.129	9469.2
542.494	9474.85
542.858	9457
543.223	9465.81
543.587	9393.04
543.952	9300.17
544.316	9355.76
544.681	9302.65
545.045	9259.71
545.41	9261.52
545.774	9242.99
546.138	9304.23
546.503	9105.59
546.867	9146.5
547.231	9184.69
547.595	9136.55
547.959	9140.85
548.324	9013.62
548.688	9075.99
549.052	9013.39
549.416	9009.1
549.779	8968.65
550.143	8951.7
550.507	8954.19
550.871	8867.18
551.235	8891.59
551.599	8885.03
551.962	8847.97
552.326	8804.81
552.689	8859.72
553.053	8717.13
553.417	8714.87
553.78	8857.46
554.143	8654.31
554.507	8766.17
554.87	8736.11
555.234	8746.06
555.597	8690.92
555.96	8628.09
556.323	8687.75
556.686	8603.91
557.05	8672.16
557.413	8613.4
557.776	8496.12
558.139	8619.5
558.502	8569.34
558.865	8558.49
559.228	8613.4
559.59	8593.97
559.953	8501.54
560.316	8634.19
560.679	8584.93
561.041	8607.3
561.404	8645.04
561.767	8543.35
562.129	8596.23
562.492	8578.38
562.854	8566.63
563.217	8554.2
563.579	8555.33
563.941	8605.72
564.304	8617.02
564.666	8636.23
565.028	8595.55
565.39	8580.64
565.753	8646.17
566.115	8620.41
566.477	8687.75
566.839	8610.24
567.201	8694.98
567.563	8633.52
567.925	8684.81
568.287	8726.85
568.648	8648.66
569.01	8705.15
569.372	8720.07
569.734	8688.43
570.095	8755.55
570.457	8754.19
570.819	8762.78
571.18	8762.1
571.542	8753.96
571.903	8734.3
572.265	8808.2
572.626	8735.43
572.987	8825.6
573.349	8843.23
573.71	8857.01
574.071	8886.84
574.432	8822.66
574.794	8934.07
575.155	8899.5
575.516	8830.8
575.877	8915.77
576.238	8894.75
576.599	8953.06
576.96	8903.11
577.32	8913.06
577.681	8951.47
578.042	8990.57
578.403	8919.16
578.763	8964.81
579.124	8999.61
579.485	9023.11
579.845	8990.79
580.206	9017.46
580.566	8988.08
580.927	8992.15
581.287	9004.13
581.648	9004.81
582.008	9030.79
582.368	9036.67
582.728	9085.48
583.089	9036.9
583.449	9070.79
583.809	9081.87
584.169	9140.17
584.529	9032.6
584.889	9052.71
585.249	9094.97
585.609	9055.65
585.969	9133.84
586.329	9141.07
586.688	9099.04
587.048	9162.09
587.408	9093.84
587.768	9118.93
588.127	9081.87
588.487	9114.86
588.846	9186.04
589.206	9103.56
589.565	9068.08
589.925	9171.81
590.284	9162.54
590.643	9138.81
591.003	9152.82
591.362	9137.01
591.721	9217.68
592.08	9231.92
592.44	9189.43
592.799	9156.44
593.158	9179.26
593.517	9206.83
593.876	9225.14
594.235	9174.29
594.593	9193.73
594.952	9229.66
595.311	9159.15
595.67	9174.29
596.029	9268.98
596.387	9226.04
596.746	9210.68
597.104	9247.51
597.463	9252.26
597.822	9239.6
598.18	9207.51
598.538	9184.01
598.897	9295.42
599.255	9124.8
599.613	9325.48
599.972	9276.44
600.33	9307.62
600.688	9186.72
601.046	9292.03
601.404	9265.36
601.762	9247.51
602.12	9282.76
602.478	9205.03
602.836	9345.14
603.194	9261.3
603.552	9280.96
603.91	9210.45
604.268	9209.09
604.625	9257.68
604.983	9242.77
605.341	9222.65
605.698	9281.86
606.056	9339.94
606.413	9251.58
606.771	9281.63
607.128	9330.22
607.485	9202.77
607.843	9300.84
608.2	9327.28
608.557	9269.66
608.914	9344.01
609.272	9361.18
609.629	9343.1
609.986	9398.69
610.343	9325.93
610.7	9386.26
611.057	9372.03
611.414	9341.07
611.771	9367.28
612.127	9390.11
612.484	9433.04
612.841	9384.23
613.198	9413.38
613.554	9388.75
613.911	9471.23
614.267	9414.29
614.624	9402.76
614.98	9398.24
615.337	9453.61
615.693	9447.05
616.05	9477.79
616.406	9504.23
616.762	9453.83
617.118	9438.69
617.475	9403.21
617.831	9454.51
618.187	9458.13
618.543	9486.83
618.899	9539.03
619.255	9555.98
619.611	9544.45
619.967	9584.23
620.323	9566.37
620.678	9493.61
621.034	9494.96
621.39	9520.95
621.746	9556.43
622.101	9631.23
622.457	9576.54
622.812	9575.41
623.168	9528.63
623.523	9501.97
623.879	9558.01
624.234	9476.66
624.589	9452.7
624.945	9577.22
625.3	9535.64
625.655	9574.96
626.01	9515.53
626.365	9513.72
626.72	9521.85
627.075	9504
627.43	9527.96
627.785	9547.62
628.14	9509.65
628.495	9531.57
628.85	9475.98
629.205	9484.57
629.559	9504.23
629.914	9459.71
630.269	9491.57
630.623	9445.02
630.978	9410.67
631.332	9413.83
631.687	9424.91
632.041	9451.35
632.396	9458.58
632.75	9439.82
633.104	9427.62
633.459	9354.4
633.813	9432.59
634.167	9396.43
634.521	9314.63
634.875	9387.85
635.229	9306.49
635.583	9297.23
635.937	9290.22
636.291	9266.04
636.645	9306.04
636.999	9285.25
637.352	9242.77
637.706	9232.14
638.06	9268.53
638.413	9191.92
638.767	9245.93
639.121	9201.41
639.474	9114.86
639.828	9217.68
640.181	9150.34
640.534	9137.68
640.888	9144.24
641.241	9116.67
641.594	9095.65
641.947	9162.54
642.301	9104.24
642.654	9174.29
643.007	9120.51
643.36	9044.35
643.713	9031.47
644.066	9145.14
644.419	9003.68
644.771	8964.13
645.124	8910.12
645.477	8846.84
645.83	8880.97
646.182	8817.47
646.535	8813.85
646.888	8813.85
647.24	8772.27
647.593	8794.87
647.945	8794.19
648.298	8718.94
648.65	8805.26
649.002	8749.67
649.355	8792.38
649.707	8765.04
650.059	8829.22
650.411	8947.86
650.763	8899.05
651.115	9019.49
651.467	8966.39
651.819	9005.94
652.171	8972.26
652.523	8931.14
652.875	8936.11
653.227	8917.58
653.578	8961.42
653.93	9027.4
654.282	8897.69
654.633	8921.87
654.985	8922.55
655.337	8918.48
655.688	8975.2
656.039	8983.56
656.391	8949.21
656.742	8948.08
657.094	8951.25
657.445	8932.94
657.796	8930.68
658.147	8948.76
658.498	8967.07
658.849	9012.49
659.2	9048.19
659.551	9010.91
659.902	8985.15
660.253	8961.87
660.604	8982.89
660.955	8958.25
661.306	9000.74
661.656	9006.16
662.007	8965.03
662.358	8971.59
662.708	8965.94
663.059	8983.11
663.409	8907.63
663.76	8992.6
664.11	8968.65
664.461	9008.42
664.811	9041.19
665.161	9009.78
665.511	8907.41
665.862	9002.77
666.212	9007.74
666.562	8993.05
666.912	8993.51
667.262	8962.77
667.612	8979.27
667.962	8964.13
668.312	8984.02
668.662	8969.78
669.011	8965.03
669.361	8990.12
669.711	9043.67
670.06	8968.42
670.41	8989.44
670.76	8999.38
671.109	8980.17
671.459	8896.79
671.808	8917.58
672.157	8920.74
672.507	8892.49
672.856	8927.07
673.205	8933.62
673.554	8904.02
673.904	8876.67
674.253	8922.32
674.602	8928.2
674.951	8855.43
675.3	8728.88
675.649	8858.37
675.998	8868.76
676.346	8894.98
676.695	8865.15
677.044	8797.13
677.393	8834.64
677.741	8828.31
678.09	8834.64
678.438	8829.89
678.787	8809.56
679.135	8831.7
679.484	8781.53
679.832	8774.53
680.181	8736.56
680.529	8755.32
680.877	8697.7
681.225	8704.93
681.573	8709.9
681.922	8673.06
682.27	8623.12
682.618	8670.35
682.966	8650.01
683.314	8611.82
683.661	8625.38
684.009	8593.74
684.357	8517.13
684.705	8584.7
685.053	8524.59
685.4	8572.05
685.748	8466.06
686.095	8489.34
686.443	8367.31
686.79	8398.49
687.138	8371.6
687.485	8393.97
687.832	8362.79
688.18	8335.9
688.527	8318.27
688.874	8273.53
689.221	8290.47
689.568	8244.83
689.915	8264.03
690.262	8220.42
690.609	8203.02
690.956	8092.29
691.303	8197.37
691.65	8085.28
691.997	8139.97
692.344	8066.53
692.69	8020.42
693.037	8017.03
693.383	7939.3
693.73	7927.77
694.077	7961.22
694.423	7936.13
694.769	7909.02
695.116	7847.77
695.462	7843.71
695.808	7840.99
696.155	7815.91
696.501	7737.72
696.847	7762.58
697.193	7675.8
697.539	7717.16
697.885	7628.57
698.231	7631.96
698.577	7587.89
698.923	7607.78
699.269	7517.16
699.614	7483.72
699.96	7424.51
700.306	7460.67
700.651	7410.27
700.997	7375.7
701.342	7353.32
701.688	7383.38
702.033	7381.35
702.379	7297.05
702.724	7216.83
703.069	7289.82
703.415	7171.41
703.76	7176.83
704.105	7193.1
704.45	7210.73
704.795	7074.01
705.14	7117.17
705.485	7124.86
705.83	7093.9
706.175	6986.33
706.52	7054.12
706.865	6946.55
707.209	6990.17
707.554	6917.4
707.899	6916.72
708.243	6891.64
708.588	6847.12
708.932	6865.88
709.277	6800.34
709.621	6864.97
709.966	6771.42
710.31	6753.34
710.654	6713.57
710.998	6732.77
711.342	6742.04
711.687	6716.05
712.031	6644.64
712.375	6725.77
712.719	6740.01
713.063	6675.83
713.407	6683.51
713.75	6661.59
714.094	6640.35
714.438	6650.52
714.782	6624.98
715.125	6597.86
715.469	6608.03
715.812	6564.19
716.156	6520.13
716.499	6542.27
716.843	6565.1
717.186	6511.09
717.53	6512.67
717.873	6480.13
718.216	6497.3
718.559	6489.39
718.902	6481.48
719.246	6472.22
719.589	6415.5
719.932	6441.26
720.275	6416.4
720.617	6423.63
720.96	6393.12
721.303	6454.14
721.646	6402.61
721.989	6384.76
722.331	6425.44
722.674	6398.77
723.016	6389.28
723.359	6347.93
723.701	6373.46
724.044	6335.72
724.386	6349.96
724.729	6374.37
725.071	6391.77
725.413	6387.02
725.755	6355.16
726.097	6343.41
726.439	6317.87
726.782	6307.25
727.124	6352.9
727.465	6331.43
727.807	6329.85
728.149	6288.94
728.491	6326.23
728.833	6276.97
729.175	6302.73
729.516	6323.52
729.858	6279.23
730.199	6316.29
730.541	6263.63
730.882	6289.62
731.224	6275.39
731.565	6253.01
731.906	6265.22
732.248	6271.32
732.589	6279.91
732.93	6303.86
733.271	6239
733.612	6277.19
733.953	6319.23
734.294	6242.39
734.635	6258.21
734.976	6270.87
735.317	6271.32
735.658	6267.02
735.999	6223.64
736.339	6273.13
736.68	6340.69
737.021	6301.15
737.361	6295.27
737.702	6340.47
738.042	6289.62
738.383	6284.88
738.723	6335.27
739.063	6297.76
739.404	6347.7
739.744	6368.94
740.084	6314.03
740.424	6356.06
740.764	6297.76
741.104	6396.06
741.444	6381.6
741.784	6370.98
742.124	6425.44
742.464	6448.49
742.804	6439.9
743.143	6432.44
743.483	6458.66
743.823	6476.06
744.162	6508.6
744.502	6532.33
744.841	6595.38
745.181	6568.49
745.52	6588.37
745.86	6655.94
746.199	6669.27
746.538	6672.66
746.877	6706.56
747.216	6784.52
747.556	6799.67
747.895	6820.68
748.234	6855.94
748.573	6935.93
748.911	6937.29
749.25	7056.83
749.589	7077.62
749.928	7166.21
750.267	7189.49
750.605	7289.82
750.944	7365.3
751.283	7357.84
751.621	7449.82
751.96	7498.4
752.298	7598.74
752.636	7699.3
752.975	7751.96
753.313	7881.67
753.651	7971.61
753.989	8046.86
754.327	8146.52
754.666	8199.86
755.004	8344.03
755.342	8500.19
755.679	8663.57
756.017	8669.67
756.355	8852.04
756.693	8920.97
757.031	9099.49
757.368	9222.43
757.706	9373.38
758.044	9452.93
758.381	9659.03
758.719	9706.48
759.056	9964.33
759.394	10079.35
759.731	10145.11
760.068	10320.48
760.405	10476.86
760.743	10621.03
761.08	10777.64
761.417	10947.58
761.754	11104.64
762.091	11275.48
762.428	11440.22
762.765	11570.39
763.102	11742.81
763.438	11912.07
763.775	12071.62
764.112	12232.52
764.449	12483.13
764.785	12540.31
765.122	12666.63
765.458	12832.5
765.795	13014.19
766.131	13157.01
766.467	13298.7
766.804	13452.15
767.14	13488.08
767.476	13794.28
767.812	13869.99
768.148	14029.76
768.485	14133.03
