Data from hue_90_FLMS001491_66.txt Node
Date: Mon Feb 06 15:25:28 GMT 2017
User: dcchb
Spectrometer: FLMS00149
Trigger mode: 0
Integration Time (sec): 2.000000E-2
Scans to average: 10
Electric dark correction enabled: true
Nonlinearity correction enabled: false
Boxcar width: 0
XAxis mode: Wavelengths
Number of Pixels in Spectrum: 2048
>>>>>Begin Spectral Data<<<<<
341.393	-3.8
341.776	-3.8
342.16	-3.8
342.543	-62.55
342.927	-58.94
343.31	-64.36
343.693	-70.24
344.077	-65.72
344.46	-78.83
344.843	-47.64
345.226	-57.36
345.61	-19.84
345.993	-14.19
346.376	-17.58
346.759	0.95
347.142	28.06
347.525	62.41
347.908	61.96
348.291	74.62
348.674	80.27
349.057	127.5
349.44	120.49
349.823	142.86
350.206	158
350.588	207.27
350.971	225.12
351.354	220.6
351.737	229.41
352.119	259.92
352.502	262.63
352.884	266.25
353.267	293.82
353.65	285.91
354.032	295.85
354.414	299.7
354.797	307.38
355.179	336.3
355.562	337.43
355.944	334.04
356.326	341.28
356.709	329.07
357.091	344.21
357.473	346.25
357.855	330.2
358.238	348.73
358.62	346.47
359.002	358.9
359.384	350.77
359.766	339.24
360.148	326.81
360.53	357.55
360.912	329.53
361.294	318.45
361.676	336.3
362.057	349.19
362.439	349.64
362.821	322.75
363.203	336.53
363.584	305.35
363.966	336.98
364.348	339.92
364.729	341.28
365.111	333.82
365.493	312.12
365.874	322.75
366.256	312.58
366.637	307.38
367.019	314.38
367.4	307.6
367.781	307.6
368.163	325.46
368.544	300.15
368.925	322.75
369.306	320.26
369.688	321.62
370.069	325.46
370.45	327.04
370.831	323.2
371.212	308.73
371.593	325.01
371.974	302.41
372.355	329.75
372.736	320.26
373.117	327.49
373.498	322.29
373.879	331.11
374.26	321.39
374.641	324.1
375.021	299.02
375.402	336.98
375.783	305.12
376.163	305.8
376.544	320.71
376.925	333.37
377.305	334.27
377.686	325.68
378.066	311.67
378.447	348.96
378.827	333.14
379.208	323.42
379.588	332.69
379.968	332.91
380.349	306.02
380.729	331.11
381.109	328.85
381.489	345.57
381.87	352.35
382.25	332.69
382.63	349.19
383.01	348.06
383.39	366.59
383.77	350.99
384.15	335.85
384.53	342.18
384.91	344.89
385.29	358.68
385.67	360.26
386.049	348.51
386.429	358.9
386.809	359.58
387.189	348.73
387.568	364.78
387.948	349.41
388.328	362.74
388.707	375.4
389.087	368.17
389.466	390.54
389.846	377.21
390.225	374.27
390.605	342.86
390.984	373.37
391.363	373.14
391.743	352.58
392.122	371.56
392.501	395.06
392.881	377.43
393.26	379.02
393.639	380.82
394.018	362.07
394.397	386.47
394.776	399.81
395.155	391.67
395.534	392.12
395.913	384.21
396.292	384.89
396.671	415.85
397.05	397.09
397.429	402.52
397.808	391.22
398.186	387.83
398.565	382.63
398.944	433.7
399.323	401.61
399.701	413.82
400.08	429.18
400.458	406.81
400.837	419.24
401.215	425.79
401.594	426.47
401.972	416.98
402.351	419.92
402.729	418.34
403.107	424.89
403.486	423.31
403.864	418.34
404.242	407.04
404.62	414.04
404.999	422.4
405.377	444.1
405.755	445.23
406.133	422.86
406.511	445
406.889	438
407.267	455.17
407.645	473.48
408.023	452.01
408.401	463.31
408.779	458.11
409.156	447.04
409.534	449.52
409.912	487.04
410.29	456.08
410.667	477.32
411.045	472.35
411.422	461.27
411.8	469.86
412.178	471.89
412.555	508.73
412.933	495.62
413.31	514.83
413.687	490.88
414.065	513.93
414.442	509.86
414.819	513.93
415.197	516.19
415.574	518.67
415.951	497.2
416.328	485.91
416.705	528.39
417.082	492.68
417.46	530.2
417.837	539.92
418.214	544.21
418.591	513.48
418.967	552.57
419.344	531.78
419.721	535.4
420.098	538.56
420.475	559.58
420.852	545.11
421.228	546.92
421.605	572.23
421.982	581.04
422.358	579.24
422.735	552.34
423.111	568.16
423.488	581.72
423.864	574.72
424.241	581.27
424.617	582.17
424.994	586.47
425.37	612
425.746	610.65
426.123	581.5
426.499	599.8
426.875	586.24
427.251	604.32
427.627	616.75
428.003	630.31
428.379	644.09
428.756	640.7
429.132	662.4
429.507	663.75
429.883	644.55
430.259	667.82
430.635	666.92
431.011	671.21
431.387	698.1
431.763	699.91
432.138	668.73
432.514	698.78
432.89	720.02
433.265	709.63
433.641	739.46
434.016	711.89
434.392	717.31
434.767	727.25
435.143	739.46
435.518	747.82
435.894	755.5
436.269	736.97
436.644	743.53
437.02	793.24
437.395	767.48
437.77	764.54
438.145	760.02
438.52	801.38
438.895	786.01
439.271	808.61
439.646	830.3
440.021	814.48
440.395	828.27
440.77	810.19
441.145	790.76
441.52	849.51
441.895	844.31
442.27	840.7
442.645	854.26
443.019	860.13
443.394	846.57
443.769	876.18
444.143	848.16
444.518	863.52
444.892	882.96
445.267	881.6
445.641	851.32
446.016	908.72
446.39	897.42
446.764	922.05
447.139	905.56
447.513	901.04
447.887	910.3
448.262	922.5
448.636	950.3
449.01	966.12
449.384	944.88
449.758	958.21
450.132	952.11
450.506	975.16
450.88	973.8
451.254	951.43
451.628	976.74
452.002	988.26
452.376	1004.08
452.75	1002.28
453.123	1037.3
453.497	1028.72
453.871	1054.03
454.244	1037.76
454.618	1080.69
454.992	1048.38
455.365	1079.34
455.739	1087.92
456.112	1087.02
456.486	1105.78
456.859	1129.5
457.232	1171.76
457.606	1134.7
457.979	1163.18
458.352	1178.32
458.725	1214.47
459.099	1191.2
459.472	1214.7
459.845	1229.16
460.218	1254.25
460.591	1283.85
460.964	1287.92
461.337	1291.53
461.71	1302.38
462.083	1346.22
462.456	1321.14
462.829	1337.41
463.201	1379.22
463.574	1401.14
463.947	1385.32
464.32	1421.7
464.692	1437.07
465.065	1455.82
465.438	1475.03
465.81	1536.27
466.183	1537.4
466.555	1547.35
466.928	1597.51
467.3	1590.96
467.672	1632.77
468.045	1637.74
468.417	1652.2
468.789	1684.97
469.161	1684.07
469.534	1704.18
469.906	1745.53
470.278	1830.95
470.65	1828.02
471.022	1874.57
471.394	1901.46
471.766	1918.64
472.138	1964.28
472.51	2016.26
472.882	2046.32
473.253	2071.4
473.625	2156.82
473.997	2197.27
474.369	2223.49
474.74	2275.24
475.112	2329.7
475.484	2399.3
475.855	2410.83
476.227	2463.25
476.598	2585.51
476.97	2609.92
477.341	2713.42
477.713	2737.15
478.084	2779.63
478.455	2909.34
478.827	2932.39
479.198	3097.59
479.569	3086.97
479.94	3212.39
480.311	3276.57
480.682	3389.78
481.053	3462.32
481.424	3565.15
481.795	3655.09
482.166	3765.37
482.537	3827.96
482.908	3994.51
483.279	4060.95
483.65	4187.5
484.021	4299.14
484.391	4388.4
484.762	4502.52
485.133	4613.03
485.503	4711.1
485.874	4872.91
486.244	4971.89
486.615	5091.21
486.985	5188.15
487.356	5400.35
487.726	5516.73
488.097	5669.72
488.467	5738.65
488.837	5956.04
489.207	6057.74
489.578	6189.94
489.948	6345.19
490.318	6466.09
490.688	6611.62
491.058	6759.64
491.428	6935.45
491.798	7038.73
492.168	7236.91
492.538	7340.19
492.908	7498.6
493.278	7718.94
493.648	7760.74
494.017	7961.19
494.387	8072.15
494.757	8174.74
495.126	8362.99
495.496	8480.72
495.866	8601.62
496.235	8784.22
496.605	8842.07
496.974	9021.27
497.344	9156.64
497.713	9292.68
498.082	9358.89
498.452	9551.2
498.821	9651.77
499.19	9746.68
499.559	9869.84
499.928	10007.46
500.298	10146.22
500.667	10271.18
501.036	10269.83
501.405	10450.16
501.774	10556.37
502.143	10672.08
502.512	10691.96
502.88	10872.52
503.249	10920.89
503.618	11063.25
503.987	11075.23
504.356	11273.87
504.724	11319.29
505.093	11435
505.462	11518.38
505.83	11601.55
506.199	11760.19
506.567	11851.48
506.936	11880.18
507.304	12031.82
507.672	12107.29
508.041	12262.77
508.409	12213.51
508.777	12309.32
509.145	12545.48
509.514	12467.74
509.882	12581.86
510.25	12583.21
510.618	12725.58
510.986	12738.46
511.354	12841.96
511.722	12867.27
512.09	13186.81
512.458	12956.09
512.826	13144.33
513.193	13181.16
513.561	13236.76
513.929	13254.16
514.297	13368.96
514.664	13483.08
515.032	13508.61
515.4	13561.72
515.767	13549.52
516.135	13609.4
516.502	13536.86
516.869	13695.05
517.237	13862.5
517.604	13641.49
517.972	13905.67
518.339	13918.09
518.706	13951.99
519.073	14010.3
519.44	14012.1
519.808	14040.13
520.175	14019.56
520.542	14225.43
520.909	14236.5
521.276	14259.78
521.643	14250.06
522.009	14399.21
522.376	14384.07
522.743	14430.85
523.11	14532.09
523.477	14617.29
523.843	14663.16
524.21	14678.98
524.577	14796.94
524.943	14734.12
525.31	14776.15
525.676	14935.02
526.043	14884.17
526.409	14839.43
526.776	14984.06
527.142	14967.11
527.508	14971.4
527.874	15116.03
528.241	15048.91
528.607	15022.92
528.973	15162.36
529.339	15155.12
529.705	15156.48
530.071	15177.95
530.437	15098.4
530.803	15281.9
531.169	15205.52
531.535	15178.85
531.901	15203.26
532.267	15187.44
532.632	15246.87
532.998	15200.09
533.364	15223.6
533.73	15095.01
534.095	15219.08
534.461	15136.37
534.826	15167.78
535.192	15158.29
535.557	15183.37
535.923	15136.37
536.288	15099.76
536.653	15167.1
537.019	15055.69
537.384	15065.86
537.749	15060.21
538.114	15099.53
538.479	14983.38
538.845	14984.28
539.21	14967.78
539.575	14923.94
539.94	14918.07
540.305	14954.68
540.67	14897.5
541.034	14937.05
541.399	14736.83
541.764	14790.61
542.129	14787
542.494	14748.58
542.858	14763.95
543.223	14569.38
543.587	14679.88
543.952	14568.47
544.316	14635.36
544.681	14553.78
545.045	14432.43
545.41	14579.55
545.774	14461.36
546.138	14442.6
546.503	14422.04
546.867	14343.62
547.231	14340.23
547.595	14320.34
547.959	14384.52
548.324	14274.02
548.688	14210.52
549.052	14276.73
549.416	14141.59
549.779	14100.24
550.143	14086.45
550.507	14166
550.871	14092.33
551.235	14127.81
551.599	14142.04
551.962	14021.14
552.326	13972.56
552.689	14001.48
553.053	13969.39
553.417	13855.27
553.78	14029.28
554.143	13888.72
554.507	13914.03
554.87	13851.66
555.234	13934.37
555.597	13804.43
555.96	13782.96
556.323	13796.06
556.686	13695.05
557.05	13869.28
557.413	13799.45
557.776	13709.51
558.139	13747.48
558.502	13770.53
558.865	13699.8
559.228	13766.69
559.59	13761.49
559.953	13780.7
560.316	13854.82
560.679	13738.89
561.041	13793.8
561.404	13815.05
561.767	13773.47
562.129	13717.42
562.492	13799.45
562.854	13742.96
563.217	13786.8
563.579	13802.84
563.941	13751.55
564.304	13805.33
564.666	13851.43
565.028	13820.7
565.39	13807.81
565.753	13876.74
566.115	13959.68
566.477	13895.27
566.839	13903.63
567.201	13924.87
567.563	13904.76
567.925	14015.49
568.287	13952.67
568.648	13977.98
569.01	13991.54
569.372	14077.41
569.734	13973.23
570.095	14001.93
570.457	14096.62
570.819	14104.76
571.18	14022.05
571.542	14042.84
571.903	14148.82
572.265	14083.29
572.626	14166.22
572.987	14173.23
573.349	14056.85
573.71	14170.97
574.071	14187.92
574.432	14210.06
574.794	14226.79
575.155	14169.61
575.516	14104.98
575.877	14142.27
576.238	14165.77
576.599	14201.25
576.96	14251.42
577.32	14232.44
577.681	14270.63
578.042	14192.66
578.403	14229.5
578.763	14185.88
579.124	14263.85
579.485	14316.95
579.845	14207.35
580.206	14247.58
580.566	14236.5
580.927	14303.4
581.287	14284.64
581.648	14125.09
582.008	14212.32
582.368	14185.43
582.728	14201.48
583.089	14102.5
583.449	14171.2
583.809	14209.39
584.169	14171.65
584.529	14161.03
584.889	14209.16
585.249	14107.02
585.609	14073.57
585.969	14212.1
586.329	14158.54
586.688	14204.64
587.048	14187.47
587.408	14067.24
587.768	14081.71
588.127	14076.96
588.487	14060.24
588.846	14140.46
589.206	13992.89
589.565	14011.65
589.925	14083.51
590.284	14023.4
590.643	14006.45
591.003	13975.72
591.362	14010.3
591.721	14048.71
592.08	13997.41
592.44	14012.1
592.799	13948.83
593.158	13900.69
593.517	13926.23
593.876	13984.53
594.235	13968.04
594.593	13993.8
594.952	13913.12
595.311	13932.33
595.67	13943.63
596.029	14039.67
596.387	13956.06
596.746	13960.35
597.104	13998.77
597.463	13861.6
597.822	13954.93
598.18	13946.12
598.538	13876.06
598.897	13917.64
599.255	13814.37
599.613	14007.58
599.972	13874.03
600.33	13954.03
600.688	13838.77
601.046	13957.19
601.404	13920.13
601.762	13952.22
602.12	13966.68
602.478	13936.63
602.836	13902.05
603.194	13864.99
603.552	13847.36
603.91	13854.14
604.268	13890.98
604.625	13848.72
604.983	13912.67
605.341	13804.43
605.698	13813.46
606.056	13881.94
606.413	13836.97
606.771	13985.89
607.128	13948.38
607.485	13881.71
607.843	13858.89
608.2	13949.96
608.557	13917.19
608.914	13927.81
609.272	13999.22
609.629	13985.21
609.986	13988.38
610.343	13888.72
610.7	14123.96
611.057	14043.97
611.414	13989.96
611.771	14023.63
612.127	14074.93
612.484	14059.79
612.841	14125.09
613.198	14055.49
613.554	14007.81
613.911	14114.47
614.267	14104.98
614.624	14160.35
614.98	14144.3
615.337	14189.5
615.693	14194.02
616.05	14133.68
616.406	14248.93
616.762	14121.93
617.118	14146.56
617.475	14082.61
617.831	14210.29
618.187	14215.04
618.543	14203.51
618.899	14303.4
619.255	14204.87
619.611	14208.48
619.967	14226.33
620.323	14333.45
620.678	14173.46
621.034	14288.03
621.39	14214.81
621.746	14238.99
622.101	14337.07
622.457	14229.05
622.812	14248.71
623.168	14259.55
623.523	14333
623.879	14359.21
624.234	14247.13
624.589	14248.48
624.945	14271.08
625.3	14280.8
625.655	14279.67
626.01	14313.56
626.365	14336.61
626.72	14213
627.075	14200.12
627.43	14243.74
627.785	14222.72
628.14	14305.88
628.495	14232.66
628.85	14321.25
629.205	14130.52
629.559	14239.22
629.914	14208.71
630.269	14153.57
630.623	14034.7
630.978	14083.06
631.332	14194.92
631.687	14135.04
632.041	14070.86
632.396	14176.39
632.75	14072.89
633.104	14043.74
633.459	14041.71
633.813	14062.95
634.167	14064.98
634.521	14039.67
634.875	14018.66
635.229	14013.46
635.583	13897.76
635.937	13883.97
636.291	13881.94
636.645	13837.87
636.999	13882.16
637.352	13907.7
637.706	13789.06
638.06	13887.59
638.413	13861.6
638.767	13761.49
639.121	13738.21
639.474	13742.96
639.828	13772.34
640.181	13799.91
640.534	13683.52
640.888	13756.06
641.241	13643.98
641.594	13690.98
641.947	13712.22
642.301	13810.53
642.654	13749.74
643.007	13605.11
643.36	13670.64
643.713	13762.84
644.066	13648.95
644.419	13589.97
644.771	13530.53
645.124	13416.64
645.477	13387.71
645.83	13257.09
646.182	13159.47
646.535	13164.44
646.888	13161.5
647.24	13122.18
647.593	13285.12
647.945	13180.94
648.298	13133.03
648.65	13134.61
649.002	13109.3
649.355	13130.32
649.707	13178.45
650.059	13146.59
650.411	13272.91
650.763	13319.47
651.115	13521.27
651.467	13544.54
651.819	13474.94
652.171	13417.32
652.523	13483.08
652.875	13387.71
653.227	13412.35
653.578	13462.74
653.93	13493.47
654.282	13457.32
654.633	13406.92
654.985	13409.18
655.337	13450.99
655.688	13513.81
656.039	13521.95
656.391	13399.01
656.742	13403.31
657.094	13447.82
657.445	13536.41
657.796	13452.12
658.147	13341.39
658.498	13337.09
658.849	13514.72
659.2	13518.33
659.551	13437.88
659.902	13470.87
660.253	13446.47
660.604	13523.75
660.955	13402.18
661.306	13511.1
661.656	13436.53
662.007	13458.45
662.358	13528.5
662.708	13489.63
663.059	13532.34
663.409	13454.38
663.76	13473.36
664.11	13510.65
664.461	13593.58
664.811	13577.54
665.161	13490.31
665.511	13535.51
665.862	13592.23
666.212	13658.44
666.562	13556.52
666.912	13511.78
667.262	13600.14
667.612	13538.67
667.962	13626.35
668.312	13563.98
668.662	13568.05
669.011	13552.68
669.361	13580.25
669.711	13523.53
670.06	13476.52
670.41	13513.13
670.76	13468.84
671.109	13517.88
671.459	13490.31
671.808	13445.11
672.157	13533.25
672.507	13384.78
672.856	13436.53
673.205	13471.55
673.554	13439.91
673.904	13362.85
674.253	13544.77
674.602	13382.74
674.951	13279.24
675.3	13115.86
675.649	13279.02
675.998	13350.65
676.346	13311.33
676.695	13375.06
677.044	13278.34
677.393	13289.41
677.741	13361.27
678.09	13297.55
678.438	13245.34
678.787	13354.95
679.135	13310.65
679.484	13074.27
679.832	13258.9
680.181	13139.36
680.529	13196.53
680.877	13154.27
681.225	13053.26
681.573	13096.2
681.922	13087.16
682.27	12991.57
682.618	12970.1
682.966	13030.21
683.314	12987.5
683.661	12968.74
684.009	12890.32
684.357	12827.05
684.705	12866.6
685.053	12799.93
685.4	12852.36
685.748	12753.83
686.095	12741.18
686.443	12700.27
686.79	12675.87
687.138	12635.87
687.485	12647.62
687.832	12622.08
688.18	12628.18
688.527	12521.07
688.874	12581.63
689.221	12503.22
689.568	12497.57
689.915	12437.91
690.262	12369.43
690.609	12345.03
690.956	12290.79
691.303	12323.33
691.65	12248.99
691.997	12211.7
692.344	12146.16
692.69	12096.9
693.037	12126.28
693.383	12046.96
693.73	11996.56
694.077	11955.21
694.423	11885.15
694.769	11902.1
695.116	11831.82
695.462	11845.61
695.808	11818.94
696.155	11783.24
696.501	11679.51
696.847	11726.51
697.193	11556.8
697.539	11626.86
697.885	11497.59
698.231	11496.46
698.577	11500.08
698.923	11361.55
699.269	11307.99
699.614	11345.28
699.96	11273.87
700.306	11318.39
700.651	11214.21
700.997	11153.42
701.342	11084.04
701.688	11121.33
702.033	11009.47
702.379	11090.82
702.724	10990.49
703.069	10991.17
703.415	10886.54
703.76	10861.45
704.105	10875.91
704.45	10802.24
704.795	10686.77
705.14	10700.1
705.485	10696.03
705.83	10705.52
706.175	10626.43
706.52	10600.44
706.865	10602.25
707.209	10505.3
707.554	10492.87
707.899	10526.77
708.243	10407.9
708.588	10395.02
708.932	10390.05
709.277	10375.59
709.621	10363.84
709.966	10290.39
710.31	10280.68
710.654	10245.87
710.998	10216.72
711.342	10186.22
711.687	10181.92
712.031	10152.32
712.375	10088.59
712.719	10084.3
713.063	10170.62
713.407	10150.96
713.75	10040.46
714.094	10027.12
714.438	9997.29
714.782	10094.24
715.125	9999.78
715.469	9895.38
715.812	9943.96
716.156	9870.29
716.499	9859.9
716.843	9954.81
717.186	9859.22
717.53	9914.13
717.873	9809.95
718.216	9830.74
718.559	9768.83
718.902	9714.59
719.246	9735.15
719.589	9722.05
719.932	9668.94
720.275	9701.03
720.617	9664.2
720.96	9615.61
721.303	9622.84
721.646	9756.85
721.989	9600.24
722.331	9623.74
722.674	9638.43
723.016	9593.24
723.359	9583.29
723.701	9588.26
724.044	9525.44
724.386	9489.96
724.729	9577.87
725.071	9622.39
725.413	9559.34
725.755	9511.2
726.097	9517.76
726.439	9400.47
726.782	9485.67
727.124	9510.98
727.465	9459.68
727.807	9445.44
728.149	9461.04
728.491	9376.52
728.833	9428.04
729.175	9358.44
729.516	9331.32
729.858	9366.12
730.199	9426.24
730.541	9336.07
730.882	9402.06
731.224	9407.7
731.565	9372
731.906	9390.3
732.248	9355.28
732.589	9294.94
732.93	9321.15
733.271	9364.54
733.612	9369.51
733.953	9320.25
734.294	9353.69
734.635	9355.28
734.976	9392.79
735.317	9325.45
735.658	9329.74
735.999	9404.99
736.339	9341.94
736.68	9376.07
737.021	9359.34
737.361	9352.56
737.702	9431.21
738.042	9357.76
738.383	9407.03
738.723	9469.62
739.063	9382.62
739.404	9442.51
739.744	9469.62
740.084	9463.52
740.424	9480.47
740.764	9484.31
741.104	9467.82
741.444	9446.57
741.784	9459.68
742.124	9534.03
742.464	9551.66
742.804	9530.41
743.143	9598.21
743.483	9632.33
743.823	9598.21
744.162	9695.83
744.502	9669.84
744.841	9655.16
745.181	9789.16
745.52	9755.49
745.86	9802.04
746.199	9839.78
746.538	9838.43
746.877	9971.08
747.216	9949.16
747.556	10046.78
747.895	10028.71
748.234	10059.66
748.573	10154.13
748.911	10173.33
749.25	10279.32
749.589	10338.53
749.928	10440.67
750.267	10477.73
750.605	10553.44
750.944	10597.05
751.283	10656.49
751.621	10751.85
751.96	10803.37
752.298	11014.89
752.636	11092.41
752.975	11147.09
753.313	11183.03
753.651	11422.11
753.989	11553.86
754.327	11653.97
754.666	11707.31
755.004	11925.6
755.342	12060.97
755.679	12158.59
756.017	12198.82
756.355	12457.12
756.693	12506.38
757.031	12693.95
757.368	12814.39
757.706	13008.06
758.044	13081.51
758.381	13301.39
