Data from hue_28_FLMS001491_00097.txt Node
Date: Tue Feb 07 17:18:04 GMT 2017
User: dcchb
Spectrometer: FLMS00149
Trigger mode: 0
Integration Time (sec): 2.000000E-2
Scans to average: 10
Electric dark correction enabled: true
Nonlinearity correction enabled: false
Boxcar width: 0
XAxis mode: Wavelengths
Number of Pixels in Spectrum: 2048
>>>>>Begin Spectral Data<<<<<
341.393	-31
341.776	-31
342.16	-31
342.543	-64.45
342.927	-88.4
343.31	-58.35
343.693	-78.46
344.077	-69.87
344.46	-54.73
344.843	-47.5
345.226	-39.36
345.61	-39.36
345.993	-28.29
346.376	-3.66
346.759	26.85
347.142	26.85
347.525	34.31
347.908	50.8
348.291	67.98
348.674	97.58
349.057	115.21
349.44	120.63
349.823	140.52
350.206	176.9
350.588	191.59
350.971	203.79
351.354	224.58
351.737	235.43
352.119	246.28
352.502	280.63
352.884	284.7
353.267	280.85
353.65	286.28
354.032	304.13
354.414	304.81
354.797	312.27
355.179	332.83
355.562	336.67
355.944	351.59
356.326	357.91
356.709	325.82
357.091	311.36
357.473	333.73
357.855	340.51
358.238	350.23
358.62	325.6
359.002	336.22
359.384	358.82
359.766	357.69
360.148	356.56
360.53	356.11
360.912	344.81
361.294	351.59
361.676	319.72
362.057	336.9
362.439	348.88
362.821	335.32
363.203	340.97
363.584	336.45
363.966	305.71
364.348	320.85
364.729	329.67
365.111	332.6
365.493	316.79
365.874	315.2
366.256	329.67
366.637	305.03
367.019	302.32
367.4	317.92
367.781	323.56
368.163	333.96
368.544	298.25
368.925	312.27
369.306	327.41
369.688	309.55
370.069	309.33
370.45	323.79
370.831	320.85
371.212	304.81
371.593	308.2
371.974	351.81
372.355	293.51
372.736	321.53
373.117	322.21
373.498	315.2
373.879	323.56
374.26	311.81
374.641	318.82
375.021	314.07
375.402	326.95
375.783	323.56
376.163	347.07
376.544	353.39
376.925	311.59
377.305	325.82
377.686	320.63
378.066	335.77
378.447	340.97
378.827	333.96
379.208	323.56
379.588	321.31
379.968	339.61
380.349	321.98
380.729	340.74
381.109	324.24
381.489	345.49
381.87	347.52
382.25	332.38
382.63	342.1
383.01	349.78
383.39	355.65
383.77	334.64
384.15	328.76
384.53	333.06
384.91	354.07
385.29	355.43
385.67	349.78
386.049	359.95
386.429	352.26
386.809	335.09
387.189	353.17
387.568	342.55
387.948	331.47
388.328	338.71
388.707	340.51
389.087	362.89
389.466	350.68
389.846	368.31
390.225	362.43
390.605	347.97
390.984	360.85
391.363	361.08
391.743	364.92
392.122	373.51
392.501	374.41
392.881	385.48
393.26	352.04
393.639	373.28
394.018	388.2
394.397	371.47
394.776	392.26
395.155	384.81
395.534	376.44
395.913	367.63
396.292	363.34
396.671	388.2
397.05	389.33
397.429	399.72
397.808	397.01
398.186	387.52
398.565	388.2
398.944	375.09
399.323	401.98
399.701	381.42
400.08	419.16
400.458	403.56
400.837	396.56
401.215	406.95
401.594	382.55
401.972	401.53
402.351	397.24
402.729	416.22
403.107	380.06
403.486	401.53
403.864	432.04
404.242	425.03
404.62	414.64
404.999	423.45
405.377	413.96
405.755	400.17
406.133	404.24
406.511	430.23
406.889	445.82
407.267	422.77
407.645	428.87
408.023	437.91
408.401	429.1
408.779	441.75
409.156	441.3
409.534	451.92
409.912	446.73
410.29	463.22
410.667	447.63
411.045	454.86
411.422	442.21
411.8	444.01
412.178	462.32
412.555	471.58
412.933	488.08
413.31	485.82
413.687	460.74
414.065	483.11
414.442	486.05
414.819	474.07
415.197	477.23
415.574	479.49
415.951	477.69
416.328	481.07
416.705	489.89
417.082	511.81
417.46	486.05
417.837	514.52
418.214	508.42
418.591	517.23
418.967	508.64
419.344	523.33
419.721	541.19
420.098	525.59
420.475	504.58
420.852	540.06
421.228	536.67
421.605	526.95
421.982	524.69
422.358	533.73
422.735	536.67
423.111	528.08
423.488	546.38
423.864	537.57
424.241	554.97
424.617	551.58
424.994	565.82
425.37	560.17
425.746	577.57
426.123	565.14
426.499	558.81
426.875	573.05
427.251	564.91
427.627	608.76
428.003	578.47
428.379	613.5
428.756	597.23
429.132	588.64
429.507	591.81
429.883	596.33
430.259	628.64
430.635	583.22
431.011	643.78
431.387	627.96
431.763	641.75
432.138	648.98
432.514	629.77
432.89	656.44
433.265	654.63
433.641	662.77
434.016	655.99
434.392	688.98
434.767	678.81
435.143	679.26
435.518	698.02
435.894	696.66
436.269	694.63
436.644	702.99
437.02	720.16
437.395	738.7
437.77	701.41
438.145	751.12
438.52	739.15
438.895	745.7
439.271	719.03
439.646	737.79
440.021	749.99
440.395	757.68
440.77	757.9
441.145	765.36
441.52	775.3
441.895	752.48
442.27	775.98
442.645	790.45
443.019	789.77
443.394	790.22
443.769	785.47
444.143	804.68
444.518	805.36
444.892	812.14
445.267	793.61
445.641	792.03
446.016	808.75
446.39	796.55
446.764	829.31
447.139	805.36
447.513	850.56
447.887	843.33
448.262	844
448.636	842.2
449.01	853.49
449.384	834.29
449.758	857.79
450.132	870.44
450.506	880.61
450.88	873.38
451.254	876.09
451.628	898.69
452.002	883.55
452.376	888.97
452.75	904.57
453.123	915.64
453.497	922.19
453.871	931.68
454.244	937.56
454.618	938.46
454.992	974.62
455.365	969.2
455.739	980.04
456.112	1000.16
456.486	981.85
456.859	994.06
457.232	1008.52
457.606	1027.05
457.979	1029.31
458.352	1039.7
458.725	1068.18
459.099	1041.06
459.472	1068.18
459.845	1060.27
460.218	1093.49
460.591	1106.6
460.964	1095.07
461.337	1105.47
461.71	1138.23
462.083	1175.07
462.456	1167.61
462.829	1149.31
463.201	1175.07
463.574	1198.12
463.947	1209.42
464.32	1230.43
464.692	1224.33
465.065	1227.95
465.438	1267.95
465.81	1296.19
466.183	1325.57
466.555	1310.21
466.928	1328.74
467.3	1340.94
467.672	1378.45
468.045	1415.74
468.417	1378
468.789	1359.92
469.161	1399.69
469.534	1467.72
469.906	1453.03
470.278	1464.78
470.65	1468.62
471.022	1526.02
471.394	1530.31
471.766	1557.66
472.138	1586.81
472.51	1610.99
472.882	1651.44
473.253	1667.26
473.625	1676.3
473.997	1727.37
474.369	1744.09
474.74	1756.52
475.112	1781.15
475.484	1834.49
475.855	1865.67
476.227	1883.98
476.598	1921.72
476.97	1959.23
477.341	2017.76
477.713	2063.41
478.084	2060.02
478.455	2118.77
478.827	2137.75
479.198	2170.97
479.569	2214.59
479.94	2275.6
480.311	2290.29
480.682	2402.38
481.053	2391.08
481.424	2500.23
481.795	2491.87
482.166	2525.99
482.537	2610.51
482.908	2671.3
483.279	2648.48
483.65	2785.42
484.021	2831.75
484.391	2848.47
484.762	2887.11
485.133	2968.47
485.503	2985.64
485.874	3041.91
486.244	3087.79
486.615	3181.57
486.985	3218.63
487.356	3332.98
487.726	3321
488.097	3394.67
488.467	3450.26
488.837	3546.31
489.207	3586.08
489.578	3577.04
489.948	3642.8
490.318	3704.94
490.688	3782.91
491.058	3866.97
491.428	3910.82
491.798	3950.14
492.168	4046.86
492.538	4084.14
492.908	4176.12
493.278	4179.96
493.648	4261.31
494.017	4333.63
494.387	4320.3
494.757	4370.69
495.126	4427.41
495.496	4456.11
495.866	4514.87
496.235	4582.21
496.605	4619.27
496.974	4692.04
497.344	4732.26
497.713	4720.06
498.082	4861.98
498.452	4863.56
498.821	4880.96
499.19	4918.7
499.559	4950.11
499.928	5021.75
500.298	4986.49
500.667	5109.2
501.036	5102.65
501.405	5184.68
501.774	5182.19
502.143	5224.9
502.512	5267.39
502.88	5329.99
503.249	5318.46
503.618	5447.72
503.987	5394.17
504.356	5441.4
504.724	5478.23
505.093	5528.85
505.462	5542.41
505.83	5526.14
506.199	5649.98
506.567	5665.12
506.936	5679.36
507.304	5774.95
507.672	5720.71
508.041	5837.32
508.409	5850.2
508.777	5837.54
509.145	5912.12
509.514	5933.59
509.882	5965.22
510.25	5972.46
510.618	6043.64
510.986	6048.61
511.354	6057.2
511.722	6147.14
512.09	6177.42
512.458	6146.24
512.826	6198.89
513.193	6257.87
513.561	6296.06
513.929	6256.52
514.297	6324.76
514.664	6358.89
515.032	6390.75
515.4	6394.59
515.767	6405.21
516.135	6436.17
516.502	6449.28
516.869	6568.15
517.237	6582.61
517.604	6543.74
517.972	6588.03
518.339	6603.85
518.706	6621.03
519.073	6721.36
519.44	6704.64
519.808	6794.36
520.175	6718.43
520.542	6828.7
520.909	6858.76
521.276	6825.99
521.643	6934.24
522.009	6978.08
522.376	6931.3
522.743	7038.87
523.11	7089.04
523.477	7117.74
523.843	7138.53
524.21	7209.03
524.577	7236.38
524.943	7209.03
525.31	7329.03
525.676	7367.9
526.043	7367
526.409	7409.03
526.776	7481.34
527.142	7545.52
527.508	7584.39
527.874	7618.97
528.241	7700.32
528.607	7636.14
528.973	7758.17
529.339	7756.59
529.705	7854.44
530.071	7839.3
530.437	7889.02
530.803	7984.61
531.169	7971.5
531.535	7936.25
531.901	8048.79
532.267	7981.44
532.632	8112.06
532.998	8072.51
533.364	8130.59
533.73	8192.74
534.095	8269.8
534.461	8279.06
534.826	8287.2
535.192	8354.99
535.557	8333.75
535.923	8357.93
536.288	8445.16
536.653	8467.31
537.019	8510.47
537.384	8456.91
537.749	8572.39
538.114	8578.49
538.479	8580.97
538.845	8624.36
539.21	8651.26
539.575	8672.95
539.94	8724.25
540.305	8801.99
540.67	8836.34
541.034	8884.92
541.399	8873.4
541.764	8899.38
542.129	8916.56
542.494	8943.23
542.858	9010.79
543.223	9087.4
543.587	9137.8
543.952	9076.56
544.316	9137.12
544.681	9190.9
545.045	9196.33
545.41	9299.6
545.774	9326.49
546.138	9305.25
546.503	9329.66
546.867	9436.09
547.231	9442.42
547.595	9511.8
547.959	9541.85
548.324	9533.49
548.688	9491.91
549.052	9585.92
549.416	9630.44
549.779	9665.47
550.143	9683.32
550.507	9737.33
550.871	9842.18
551.235	9667.95
551.599	9841.73
551.962	9855.74
552.326	9818.46
552.689	9931.22
553.053	9910.66
553.417	9957.89
553.78	10069.3
554.143	10045.8
554.507	10043.76
554.87	10051.9
555.234	10177.09
555.597	10175.96
555.96	10138.45
556.323	10209.63
556.686	10220.25
557.05	10264.77
557.413	10364.66
557.776	10344.09
558.139	10406.24
558.502	10469.51
558.865	10460.25
559.228	10526.69
559.59	10613.46
559.953	10566.46
560.316	10644.2
560.679	10627.02
561.041	10671.54
561.404	10780.01
561.767	10771.88
562.129	10776.17
562.492	10838.54
562.854	10859.11
563.217	10851.42
563.579	10912.44
563.941	10930.07
564.304	10965.55
564.666	11070.85
565.028	11059.33
565.39	11080.34
565.753	11156.27
566.115	11157.63
566.477	11292.77
566.839	11289.6
567.201	11365.31
567.563	11347.23
567.925	11478.07
568.287	11427.45
568.648	11451.41
569.01	11434.01
569.372	11665.87
569.734	11591.29
570.095	11724.17
570.457	11765.3
570.819	11816.6
571.18	11865.63
571.542	11827.22
571.903	11873.54
572.265	11973.65
572.626	12080.32
572.987	12045.74
573.349	12227.43
573.71	12195.34
574.071	12324.38
574.432	12312.85
574.794	12462.45
575.155	12550.36
575.516	12466.75
575.877	12631.49
576.238	12675.1
576.599	12749.68
576.96	12792.62
577.32	12926.4
577.681	13066.51
578.042	13168.88
578.403	13190.12
578.763	13359.83
579.124	13421.98
579.485	13656.1
579.845	13722.99
580.206	13802.53
580.566	14004.56
580.927	14087.72
581.287	14267.38
581.648	14366.81
582.008	14584.21
582.368	14619.69
582.728	14866.46
583.089	14993.46
583.449	15112.1
583.809	15318.88
584.169	15502.83
584.529	15675.03
584.889	15992.98
585.249	16076.37
585.609	16227.33
585.969	16522.69
586.329	16772.62
586.688	17094.65
587.048	17081.09
587.408	17452.61
587.768	17693.73
588.127	17834.06
588.487	18098.46
588.846	18527.83
589.206	18629.3
589.565	18869.29
589.925	19207.81
590.284	19441.03
590.643	19651.19
591.003	20000.56
591.362	20357.61
591.721	20550.38
592.08	20837.83
592.44	21098.84
592.799	21443.69
593.158	21692.49
593.517	21991.7
593.876	22232.14
594.235	22576.31
594.593	22800.26
594.952	23216.75
595.311	23392.56
595.67	23697.19
596.029	24065.31
596.387	24337.4
596.746	24777.84
597.104	24889.02
597.463	25206.3
597.822	25682.22
598.18	25810.8
598.538	25982.1
598.897	26558.81
599.255	26482.43
599.613	27195.4
599.972	27297.54
600.33	27669.74
600.688	27828.6
601.046	28234.7
601.404	28571.18
601.762	28630.84
602.12	29169.13
602.478	29388.56
602.836	29586.75
603.194	29771.38
603.552	30109.67
603.91	30279.61
604.268	30717.57
604.625	30809.99
604.983	31140.61
605.341	31132.47
605.698	31564.33
606.056	31829.86
606.413	32157.53
606.771	32432.78
607.128	32777.85
607.485	32792.54
607.843	32948.47
608.2	33371.28
608.557	33575.12
608.914	33640.43
609.272	34166.52
609.629	34235.89
609.986	34653.28
610.343	34674.53
610.7	35073.39
611.057	35042.43
611.414	35316.77
611.771	35555.63
612.127	35716.76
612.484	35911.1
612.841	36130.08
613.198	36115.17
613.554	36375.95
613.911	36637.64
614.267	36995.6
614.624	37097.51
614.98	37195.59
615.337	37481.01
615.693	37622.02
616.05	37589.48
616.406	37965.29
616.762	37991.28
617.118	38173.64
617.475	38268.33
617.831	38598.26
618.187	38638.49
618.543	38829.22
618.899	38999.61
619.255	39160.96
619.611	39085.03
619.967	39311.01
620.323	39365.7
620.678	39500.39
621.034	39416.1
621.39	39545.36
621.746	39786.48
622.101	40014.27
622.457	39898.34
622.812	40022.18
623.168	40258.79
623.523	40263.98
623.879	40583.98
624.234	40367.48
624.589	40545.78
624.945	40617.87
625.3	40839.79
625.655	40802.05
626.01	40937.86
626.365	40945.32
626.72	40942.61
627.075	41163.62
627.43	40868.49
627.785	41004.08
628.14	41135.15
628.495	41313.67
628.85	41233
629.205	41123.17
629.559	41486.78
629.914	41358.19
630.269	41345.76
630.623	41381.24
630.978	41308.7
631.332	41495.82
631.687	41836.15
632.041	41512.31
632.396	41683.61
632.75	41602.93
633.104	41797.28
633.459	41688.35
633.813	41735.81
634.167	41617.62
634.521	41770.61
634.875	41790.72
635.229	41646.32
635.583	41608.81
635.937	41581.69
636.291	41528.81
636.645	41685.42
636.999	41524.52
637.352	41639.99
637.706	41613.33
638.06	41660.11
638.413	41607.68
638.767	41558.41
639.121	41766.54
639.474	41529.04
639.828	41530.84
640.181	41545.31
640.534	41566.77
640.888	41550.73
641.241	41423.73
641.594	41457.85
641.947	41668.69
642.301	41517.96
642.654	41471.64
643.007	41584.63
643.36	41484.06
643.713	41564.29
644.066	41558.19
644.419	41414.24
644.771	41202.26
645.124	40812.44
645.477	40705.55
645.83	40507.37
646.182	40352.12
646.535	40212.91
646.888	40312.34
647.24	40046.81
647.593	40375.39
647.945	40449.74
648.298	40125.23
648.65	40081.16
649.002	40009.75
649.355	40079.81
649.707	40209.97
650.059	40328.16
650.411	40739
650.763	40845.44
651.115	41229.61
651.467	41107.58
651.819	41071.65
652.171	41069.39
652.523	40991.87
652.875	41107.58
653.227	40719.79
653.578	41112.32
653.93	40905.32
654.282	40822.39
654.633	40669.4
654.985	40756.17
655.337	40768.83
655.688	40917.75
656.039	40955.94
656.391	40629.85
656.742	40796.4
657.094	40908.94
657.445	40965.21
657.796	40816.74
658.147	40609.29
658.498	40751.88
658.849	40892.22
659.2	40769.73
659.551	40552.34
659.902	40738.1
660.253	40639.34
660.604	40771.09
660.955	40672.11
661.306	40734.93
661.656	40653.58
662.007	40762.28
662.358	40695.84
662.708	40680.02
663.059	40713.24
663.409	40412.68
663.76	40793.91
664.11	40798.21
664.461	40688.38
664.811	40916.85
665.161	40676.85
665.511	40596.86
665.862	40614.93
666.212	40869.84
666.562	40668.27
666.912	40599.57
667.262	40654.93
667.612	40646.12
667.962	40510.76
668.312	40563.41
668.662	40682.73
669.011	40586.69
669.361	40557.08
669.711	40532
670.06	40456.07
670.41	40560.02
670.76	40476.41
671.109	40613.35
671.459	40502.4
671.808	40482.51
672.157	40490.19
672.507	40430.98
672.856	40319.58
673.205	40363.42
673.554	40486.12
673.904	40280.48
674.253	40367.26
674.602	40322.97
674.951	39746.48
675.3	39654.96
675.649	40314.6
675.998	40175.4
676.346	40186.02
676.695	40419.69
677.044	40101.05
677.393	40148.28
677.741	40240.71
678.09	40128.85
678.438	40040.94
678.787	40254.27
679.135	40115.29
679.484	39964.78
679.832	40047.94
680.181	39691.12
680.529	39839.14
680.877	39842.3
681.225	39842.98
681.573	39886.59
681.922	39727.95
682.27	39554.17
682.618	39648.41
682.966	39472.37
683.314	39640.27
683.661	39553.72
684.009	39308.3
684.357	39224.01
684.705	39292.71
685.053	39285.93
685.4	39090.91
685.748	39130
686.095	38935.66
686.443	38811.14
686.79	38921.87
687.138	38987.18
687.485	38922.55
687.832	38636
688.18	38797.58
688.527	38535.89
688.874	38569.34
689.221	38538.61
689.568	38379.97
689.915	38325.73
690.262	38297.71
690.609	38259.06
690.956	38053.42
691.303	38047.54
691.65	37921.67
691.997	37905.4
692.344	37662.02
692.69	37650.72
693.037	37678.74
693.383	37347.22
693.73	37256.83
694.077	37244.63
694.423	37307.68
694.769	37291.18
695.116	37166.21
695.462	37119.66
695.808	36963.73
696.155	37052.32
696.501	36772.55
696.847	36914.69
697.193	36575.27
697.539	36696.85
697.885	36340.25
698.231	36263.18
698.577	36224.32
698.923	36272.22
699.269	36055.73
699.614	35835.63
699.96	35787.49
700.306	35834.27
700.651	35609.64
700.997	35568.97
701.342	35534.16
701.688	35427.5
702.033	35222.31
702.379	35343.21
702.724	35308.18
703.069	35406.48
703.415	34944.8
703.76	34953.61
704.105	35011.01
704.45	34954.74
704.795	34669.55
705.14	34695.32
705.485	34634.08
705.83	34348.21
706.175	34479.73
706.52	34321.99
706.865	34241.77
707.209	34146.4
707.554	34188.21
707.899	34286.97
708.243	33952.06
708.588	33949.12
708.932	33810.59
709.277	33800.2
709.621	33757.71
709.966	33382.36
710.31	33500.55
710.654	33172.64
710.998	33235.47
711.342	33425.75
711.687	33270.04
712.031	33157.5
712.375	32980.56
712.719	33219.65
713.063	33108.47
713.407	33072.53
713.75	32958.64
714.094	32887.45
714.438	32820.56
714.782	32723.84
715.125	32631.87
715.469	32743.96
715.812	32525.66
716.156	32302.39
716.499	32325.44
716.843	32394.13
717.186	32166.12
717.53	32247.47
717.873	32431.65
718.216	32157.98
718.559	32029.4
718.902	31706.47
719.246	31913.02
719.589	31835.28
719.932	31749.63
720.275	31694.27
720.617	31606.58
720.96	31603.87
721.303	31669.86
721.646	31489.3
721.989	31329.53
722.331	31468.28
722.674	31378.79
723.016	31503.08
723.359	31379.25
723.701	31390.77
724.044	31134.96
724.386	30967.28
724.729	31142.87
725.071	31115.3
725.413	31016.54
725.755	31010.22
726.097	30901.97
726.439	30718.92
726.782	30752.6
727.124	30987.39
727.465	30830.56
727.807	30614.75
728.149	30625.14
728.491	30559.38
728.833	30560.51
729.175	30492.49
729.516	30333.62
729.858	30314.19
730.199	30439.16
730.541	30298.82
730.882	30292.04
731.224	30419.27
731.565	30074.87
731.906	30136.79
732.248	30219.95
732.589	30059.96
732.93	29967.98
733.271	29864.26
733.612	29923.24
733.953	29984.03
734.294	29850.47
734.635	29889.34
734.976	29818.38
735.317	29667.43
735.658	29623.81
735.999	29788.1
736.339	29637.14
736.68	29690.25
737.021	29498.62
737.361	29381.33
737.702	29568.45
738.042	29492.97
738.383	29390.82
738.723	29542.68
739.063	29340.88
739.404	29416.81
739.744	29260.21
740.084	29126.88
740.424	29222.01
740.764	29206.87
741.104	29243.71
741.444	29105.41
741.784	28911.97
742.124	28919.88
742.464	28964.39
742.804	28889.14
743.143	28802.14
743.483	28887.33
743.823	28622.93
744.162	28628.81
744.502	28747
744.841	28553.78
745.181	28614.12
745.52	28556.27
745.86	28620.22
746.199	28429.94
746.538	28457.29
746.877	28468.59
747.216	28471.07
747.556	28369.16
747.895	28432.66
748.234	28132.1
748.573	28268.37
748.911	28230.18
749.25	28203.74
749.589	28017.53
749.928	28004.65
750.267	28072.21
750.605	27991.76
750.944	27922.16
751.283	27912.9
751.621	27943.86
751.96	27818.21
752.298	27773.69
752.636	27750.41
752.975	27687.37
753.313	27545
753.651	27642.85
753.989	27526.47
754.327	27421.38
754.666	27428.84
755.004	27507.03
755.342	27451.21
755.679	27285.12
756.017	27220.48
756.355	27317.66
756.693	27198.11
757.031	27193.37
757.368	27044.67
757.706	26984.11
758.044	26875.64
758.381	26890.78
758.719	26885.35
759.056	26756.77
759.394	26720.16
