Data from hue_230_FLMS001491_00071.txt Node
Date: Tue Feb 07 16:37:42 GMT 2017
User: dcchb
Spectrometer: FLMS00149
Trigger mode: 0
Integration Time (sec): 2.000000E-2
Scans to average: 10
Electric dark correction enabled: true
Nonlinearity correction enabled: false
Boxcar width: 0
XAxis mode: Wavelengths
Number of Pixels in Spectrum: 2048
>>>>>Begin Spectral Data<<<<<
341.393	-1.81
341.776	-1.81
342.16	-1.81
342.543	-75.03
342.927	-76.16
343.31	-75.93
343.693	-65.31
344.077	-71.64
344.46	-67.57
344.843	-55.59
345.226	-56.04
345.61	-23.05
345.993	-10.4
346.376	-7.01
346.759	2.03
347.142	29.83
347.525	31.19
347.908	69.38
348.291	79.32
348.674	82.26
349.057	138.53
349.44	123.39
349.823	164.52
350.206	172.2
350.588	188.02
350.971	208.58
351.354	248.13
351.737	223.27
352.119	240.45
352.502	250.16
352.884	239.09
353.267	283.38
353.65	298.3
354.032	283.83
354.414	312.99
354.797	300.11
355.179	309.6
355.562	306.66
355.944	308.24
356.326	339.65
356.709	324.96
357.091	321.57
357.473	333.32
357.855	346.21
358.238	337.39
358.62	338.07
359.002	327.45
359.384	324.96
359.766	326.55
360.148	321.12
360.53	344.85
360.912	341.23
361.294	323.83
361.676	337.84
362.057	322.25
362.439	325.64
362.821	312.76
363.203	328.35
363.584	323.83
363.966	308.01
364.348	313.44
364.729	307.79
365.111	310.5
365.493	296.94
365.874	308.01
366.256	299.43
366.637	307.56
367.019	296.04
367.4	289.71
367.781	297.39
368.163	283.38
368.544	305.75
368.925	315.25
369.306	314.57
369.688	319.77
370.069	304.17
370.45	310.73
370.831	326.55
371.212	310.95
371.593	305.98
371.974	305.3
372.355	310.05
372.736	296.26
373.117	321.8
373.498	311.86
373.879	306.88
374.26	318.64
374.641	306.88
375.021	309.6
375.402	318.64
375.783	324.51
376.163	321.35
376.544	298.52
376.925	305.08
377.305	312.31
377.686	322.48
378.066	308.92
378.447	314.57
378.827	333.55
379.208	326.09
379.588	316.6
379.968	315.92
380.349	328.8
380.729	320.67
381.109	329.48
381.489	317.73
381.87	328.35
382.25	318.64
382.63	327.9
383.01	321.12
383.39	323.83
383.77	327.45
384.15	340.56
384.53	348.24
384.91	335.81
385.29	334.68
385.67	342.82
386.049	332.87
386.429	347.11
386.809	346.88
387.189	343.49
387.568	336.94
387.948	354.34
388.328	340.56
388.707	343.72
389.087	367.67
389.466	349.14
389.846	365.64
390.225	337.39
390.605	342.36
390.984	349.82
391.363	349.14
391.743	349.37
392.122	387.11
392.501	361.35
392.881	358.63
393.26	370.16
393.639	359.54
394.018	388.01
394.397	359.76
394.776	355.24
395.155	364.06
395.534	359.31
395.913	387.33
396.292	388.24
396.671	388.69
397.05	393.44
397.429	384.17
397.808	394.79
398.186	396.37
398.565	392.08
398.944	390.72
399.323	412.87
399.701	411.06
400.08	423.94
400.458	405.41
400.837	392.53
401.215	408.12
401.594	404.51
401.972	398.86
402.351	438.63
402.729	420.1
403.107	417.16
403.486	433.21
403.864	435.02
404.242	423.27
404.62	437.5
404.999	426.88
405.377	444.73
405.755	440.89
406.133	431.63
406.511	467.78
406.889	458.75
407.267	446.77
407.645	461.46
408.023	454.9
408.401	465.98
408.779	473.66
409.156	469.82
409.534	472.98
409.912	501
410.29	491.96
410.667	505.3
411.045	490.83
411.422	533.32
411.8	522.7
412.178	527.22
412.555	534.22
412.933	523.38
413.31	547.1
413.687	544.62
414.065	543.71
414.442	562.7
414.819	585.07
415.197	593.43
415.574	586.2
415.951	589.14
416.328	586.65
416.705	592.07
417.082	606.76
417.46	623.49
417.837	602.92
418.214	641.79
418.591	650.15
418.967	638.63
419.344	648.57
419.721	637.27
420.098	675.69
420.475	671.62
420.852	673.65
421.228	690.6
421.605	703.94
421.982	722.47
422.358	715.69
422.735	740.77
423.111	732.64
423.488	732.86
423.864	766.31
424.241	762.24
424.617	765.4
424.994	775.35
425.37	767.66
425.746	777.38
426.123	817.38
426.499	823.03
426.875	832.29
427.251	838.62
427.627	844.05
428.003	879.98
428.379	864.38
428.756	894.67
429.132	904.38
429.507	894.21
429.883	893.08
430.259	920.43
430.635	923.37
431.011	954.55
431.387	947.32
431.763	986.41
432.138	955.91
432.514	986.19
432.89	993.65
433.265	1056.92
433.641	1021.67
434.016	1042.23
434.392	1064.6
434.767	1093.76
435.143	1090.14
435.518	1117.03
435.894	1131.27
436.269	1140.76
436.644	1162.23
437.02	1155.9
437.395	1169.46
437.77	1226.86
438.145	1199.06
438.52	1266.86
438.895	1238.39
439.271	1261.21
439.646	1296.24
440.021	1321.55
440.395	1292.85
440.77	1329
441.145	1323.58
441.52	1332.85
441.895	1384.37
442.27	1371.26
442.645	1398.16
443.019	1419.17
443.394	1407.19
443.769	1407.19
444.143	1416.23
444.518	1456.01
444.892	1443.8
445.267	1461.66
445.641	1467.98
446.016	1473.63
446.39	1509.11
446.764	1500.98
447.139	1481.54
447.513	1533.07
447.887	1519.73
448.262	1538.26
448.636	1578.04
449.01	1557.47
449.384	1553.41
449.758	1587.3
450.132	1621.65
450.506	1645.61
450.88	1645.61
451.254	1646.28
451.628	1635.21
452.002	1674.31
452.376	1724.7
452.75	1689.67
453.123	1705.49
453.497	1754.08
453.871	1740.07
454.244	1794.98
454.618	1818.94
454.992	1796.79
455.365	1813.29
455.739	1901.19
456.112	1882.89
456.486	1896.9
456.859	1886.96
457.232	1971.93
457.606	1954.3
457.979	1963.79
458.352	1952.27
458.725	1995.65
459.099	2016.9
459.472	2070.45
459.845	2051.25
460.218	2126.5
460.591	2118.81
460.964	2141.41
461.337	2161.53
461.71	2186.38
462.083	2252.14
462.456	2219.83
462.829	2229.55
463.201	2271.13
463.574	2244.46
463.947	2316.1
464.32	2383.21
464.692	2319.71
465.065	2389.09
465.438	2384.8
465.81	2448.07
466.183	2483.78
466.555	2520.16
466.928	2543.21
467.3	2505.7
467.672	2600.61
468.045	2628.86
468.417	2641.29
468.789	2627.5
469.161	2660.72
469.534	2714.5
469.906	2769.64
470.278	2798.8
470.65	2812.81
471.022	2847.38
471.394	2900.04
471.766	2914.27
472.138	2937.32
472.51	2980.94
472.882	3062.97
473.253	3085.57
473.625	3084.21
473.997	3176.64
474.369	3177.32
474.74	3235.17
475.112	3304.77
475.484	3327.82
475.855	3349.74
476.227	3391.55
476.598	3451.89
476.97	3471.1
477.341	3552
477.713	3603.75
478.084	3650.07
478.455	3700.24
478.827	3713.8
479.198	3812.1
479.569	3846.45
479.94	3922.16
480.311	3936.85
480.682	4028.14
481.053	4166.44
481.424	4130.74
481.795	4171.64
482.166	4262.03
482.537	4290.28
482.908	4376.61
483.279	4367.34
483.65	4454.35
484.021	4582.93
484.391	4641.91
484.762	4638.52
485.133	4721.68
485.503	4738.63
485.874	4779.31
486.244	4829.48
486.615	4923.94
486.985	4950.83
487.356	5000.09
487.726	5109.47
488.097	5173.42
488.467	5171.62
488.837	5305.85
489.207	5313.31
489.578	5370.48
489.948	5429.46
490.318	5511.72
490.688	5472.17
491.058	5560.53
491.428	5643.92
491.798	5685.05
492.168	5792.39
492.538	5724.14
492.908	5865.16
493.278	5862.67
493.648	5929.56
494.017	5976.79
494.387	6026.51
494.757	6099.95
495.126	6112.38
495.496	6144.47
495.866	6148.99
496.235	6220.85
496.605	6274.19
496.974	6252.94
497.344	6353.73
497.713	6398.7
498.082	6390.34
498.452	6436.67
498.821	6489.55
499.19	6483.22
499.559	6526.83
499.928	6540.62
500.298	6587.62
500.667	6627.17
501.036	6619.94
501.405	6723.89
501.774	6739.71
502.143	6710.11
502.512	6772.7
502.88	6758.92
503.249	6753.49
503.618	6815.87
503.987	6877.11
504.356	6900.38
504.724	6877.79
505.093	6941.96
505.462	6884.56
505.83	6971.12
506.199	7016.09
506.567	7041.17
506.936	7055.86
507.304	7165.91
507.672	7102.19
508.041	7122.75
508.409	7137.21
508.777	7228.96
509.145	7265.8
509.514	7254.95
509.882	7218.12
510.25	7286.59
510.618	7306.25
510.986	7253.14
511.354	7395.29
511.722	7390.54
512.09	7466.02
512.458	7386.7
512.826	7445.91
513.193	7491.33
513.561	7427.38
513.929	7542.4
514.297	7529.97
514.664	7547.37
515.032	7516.64
515.4	7602.96
515.767	7666.01
516.135	7686.35
516.502	7575.85
516.869	7676.18
517.237	7720.02
517.604	7602.06
517.972	7683.64
518.339	7767.71
518.706	7676.18
519.073	7706.92
519.44	7786.91
519.808	7795.05
520.175	7808.83
520.542	7886.57
520.909	7866.91
521.276	7829.17
521.643	7896.06
522.009	7891.77
522.376	7940.13
522.743	7960.02
523.11	7990.98
523.477	8012.44
523.843	8003.41
524.21	8062.16
524.577	8064.19
524.943	8079.79
525.31	8086.57
525.676	8148.71
526.043	8133.57
526.409	8142.61
526.776	8230.97
527.142	8216.73
527.508	8252.44
527.874	8229.16
528.241	8221.25
528.607	8282.27
528.973	8269.39
529.339	8258.54
529.705	8290.63
530.071	8273.45
530.437	8286.79
530.803	8294.92
531.169	8398.88
531.535	8301.02
531.901	8322.27
532.267	8275.49
532.632	8362.72
532.998	8377.41
533.364	8353.45
533.73	8397.29
534.095	8406.33
534.461	8373.34
534.826	8391.42
535.192	8385.54
535.557	8352.1
535.923	8394.13
536.288	8336.73
536.653	8360.23
537.019	8317.75
537.384	8355.03
537.749	8397.07
538.114	8356.16
538.479	8280.01
538.845	8237.52
539.21	8269.16
539.575	8280.01
539.94	8330.63
540.305	8246.34
540.67	8256.05
541.034	8291.99
541.399	8275.04
541.764	8228.94
542.129	8276.17
542.494	8260.8
542.858	8240.46
543.223	8198.88
543.587	8270.74
543.952	8212.44
544.316	8228.26
544.681	8235.04
545.045	8212.89
545.41	8203.17
545.774	8191.42
546.138	8166.34
546.503	8148.71
546.867	8146.45
547.231	8165.66
547.595	8128.83
547.959	8057.42
548.324	8103.29
548.688	8087.7
549.052	8097.41
549.416	8108.71
549.779	8081.37
550.143	8084.08
550.507	8080.69
550.871	8035.49
551.235	8045.66
551.599	8071.43
551.962	8048.38
552.326	8043.4
552.689	8084.08
553.053	7982.39
553.417	7981.71
553.78	8073.91
554.143	7975.61
554.507	8045.89
554.87	8054.03
555.234	8058.09
555.597	7948.94
555.96	7996.85
556.323	7991.88
556.686	8018.09
557.05	8040.01
557.413	7945.78
557.776	8044.76
558.139	8036.4
558.502	7979.23
558.865	8040.01
559.228	8050.18
559.59	8099.67
559.953	8067.58
560.316	8027.13
560.679	8084.08
561.041	8128.37
561.404	8158.88
561.767	8119.56
562.129	8088.15
562.492	8153.68
562.854	8125.21
563.217	8165.21
563.579	8187.36
563.941	8203.17
564.304	8248.82
564.666	8242.27
565.028	8227.58
565.39	8193.46
565.753	8311.42
566.115	8302.38
566.477	8348.48
566.839	8336.5
567.201	8442.72
567.563	8334.7
567.925	8353.9
568.287	8341.25
568.648	8388.93
569.01	8412.43
569.372	8435.94
569.734	8402.94
570.095	8442.94
570.457	8450.4
570.819	8498.76
571.18	8494.69
571.542	8547.57
571.903	8565.65
572.265	8542.37
572.626	8585.99
572.987	8610.17
573.349	8580.57
573.71	8618.3
574.071	8640.22
574.432	8676.16
574.794	8720.67
575.155	8717.06
575.516	8680.45
575.877	8706.66
576.238	8796.6
576.599	8772.88
576.96	8850.39
577.32	8821.01
577.681	8876.38
578.042	8837.73
578.403	8852.42
578.763	8832.99
579.124	8919.54
579.485	8959.09
579.845	8903.49
580.206	8923.16
580.566	8947.79
580.927	9004.96
581.287	9051.51
581.648	8916.38
582.008	9061.91
582.368	8979.2
582.728	9045.19
583.089	9050.84
583.449	9089.93
583.809	9069.82
584.169	9058.52
584.529	9069.59
584.889	9165.18
585.249	9082.47
585.609	9109.14
585.969	9133.09
586.329	9122.47
586.688	9172.87
587.048	9203.15
587.408	9165.63
587.768	9174.22
588.127	9146.65
588.487	9131.74
588.846	9193.88
589.206	9251.96
589.565	9192.98
589.925	9228.46
590.284	9238.4
590.643	9327.89
591.003	9276.14
591.362	9343.26
591.721	9297.83
592.08	9294.9
592.44	9358.17
592.799	9274.11
593.158	9242.02
593.517	9310.49
593.876	9358.62
594.235	9366.99
594.593	9406.98
594.952	9281.34
595.311	9275.24
595.67	9375.8
596.029	9426.87
596.387	9450.37
596.746	9373.31
597.104	9364.95
597.463	9383.26
597.822	9476.36
598.18	9388.91
598.538	9405.85
598.897	9401.33
599.255	9377.61
599.613	9509.35
599.972	9487.21
600.33	9475.23
600.688	9432.97
601.046	9471.16
601.404	9534.66
601.762	9454.44
602.12	9578.96
602.478	9602.46
602.836	9614.89
603.194	9507.32
603.552	9502.8
603.91	9440.43
604.268	9517.94
604.625	9519.3
604.983	9572.86
605.341	9494.44
605.698	9583.25
606.056	9572.4
606.413	9558.84
606.771	9537.15
607.128	9637.49
607.485	9530.82
607.843	9602.69
608.2	9588.67
608.557	9671.38
608.914	9588.9
609.272	9701.44
609.629	9594.32
609.986	9705.06
610.343	9646.07
610.7	9686.3
611.057	9730.37
611.414	9670.71
611.771	9732.4
612.127	9698.28
612.484	9716.35
612.841	9761.78
613.198	9735.56
613.554	9736.24
613.911	9809.23
614.267	9785.05
614.624	9796.13
614.98	9764.94
615.337	9805.17
615.693	9820.53
616.05	9818.72
616.406	9865.28
616.762	9786.86
617.118	9807.2
617.475	9795
617.831	9891.94
618.187	9778.73
618.543	9883.13
618.899	9915.45
619.255	9915.67
619.611	9891.94
619.967	9936.24
620.323	9896.46
620.678	9855.79
621.034	9903.92
621.39	9877.48
621.746	9938.5
622.101	10031.83
622.457	9922
622.812	9928.1
623.168	9922.45
623.523	9915.45
623.879	10022.56
624.234	9886.52
624.589	9944.15
624.945	9899.4
625.3	9926.07
625.655	9866.86
626.01	9897.82
626.365	9910.93
626.72	9936.24
627.075	9867.99
627.43	9888.55
627.785	9869.8
628.14	9885.84
628.495	9874.32
628.85	9909.34
629.205	9868.89
629.559	9893.3
629.914	9832.74
630.269	9827.99
630.623	9844.49
630.978	9878.84
631.332	9796.8
631.687	9895.11
632.041	9765.17
632.396	9859.63
632.75	9753.87
633.104	9768.33
633.459	9697.6
633.813	9745.28
634.167	9666.64
634.521	9720.87
634.875	9713.87
635.229	9699.63
635.583	9650.14
635.937	9682.01
636.291	9597.49
636.645	9682.46
636.999	9602.01
637.352	9649.69
637.706	9567.66
638.06	9592.52
638.413	9561.1
638.767	9635.23
639.121	9571.05
639.474	9519.07
639.828	9560.88
640.181	9550.26
640.534	9520.65
640.888	9486.08
641.241	9434.33
641.594	9601.78
641.947	9468
642.301	9413.54
642.654	9524.27
643.007	9508.22
643.36	9468.68
643.713	9460.99
644.066	9551.16
644.419	9417.61
644.771	9419.64
645.124	9257.16
645.477	9227.55
645.83	9206.31
646.182	9171.06
646.535	9153.66
646.888	9171.28
647.24	9087.44
647.593	9130.61
647.945	9086.54
648.298	9079.08
648.65	9037.05
649.002	9037.95
649.355	9104.39
649.707	9098.74
650.059	9198.18
650.411	9289.25
650.763	9255.58
651.115	9362.24
651.467	9257.38
651.819	9317.04
652.171	9284.05
652.523	9264.84
652.875	9226.42
653.227	9281.11
653.578	9256.48
653.93	9348.45
654.282	9272.98
654.633	9234.11
654.985	9253.77
655.337	9248.34
655.688	9278.85
656.039	9345.29
656.391	9237.05
656.742	9268.91
657.094	9275.01
657.445	9297.38
657.796	9253.09
658.147	9250.15
658.498	9235.24
658.849	9242.02
659.2	9335.35
659.551	9206.76
659.902	9272.75
660.253	9307.33
660.604	9311.39
660.955	9283.37
661.306	9299.19
661.656	9318.4
662.007	9297.16
662.358	9324.5
662.708	9335.8
663.059	9312.75
663.409	9233.88
663.76	9312.75
664.11	9313.43
664.461	9317.5
664.811	9377.83
665.161	9304.16
665.511	9286.76
665.862	9344.16
666.212	9298.29
666.562	9285.63
666.912	9258.51
667.262	9237.5
667.612	9273.65
667.962	9255.12
668.312	9263.03
668.662	9277.04
669.011	9269.13
669.361	9274.33
669.711	9238.18
670.06	9219.42
670.41	9219.19
670.76	9236.37
671.109	9225.97
671.459	9211.28
671.808	9180.32
672.157	9233.43
672.507	9215.35
672.856	9145.07
673.205	9193.66
673.554	9183.49
673.904	9173.77
674.253	9235.46
674.602	9193.88
674.951	9079.99
675.3	9023.04
675.649	9154.56
675.998	9197.95
676.346	9143.26
676.695	9149.36
677.044	9131.74
677.393	9131.74
677.741	9136.71
678.09	9135.35
678.438	9082.93
678.787	9159.99
679.135	9082.25
679.484	9031.85
679.832	9072.3
680.181	9049.48
680.529	9003.83
680.877	8949.14
681.225	9018.97
681.573	9042.93
681.922	8999.54
682.27	8885.87
682.618	8896.49
682.966	8894.91
683.314	8924.74
683.661	8851.07
684.009	8854.23
684.357	8823.72
684.705	8823.72
685.053	8821.91
685.4	8789.15
685.748	8786.44
686.095	8776.49
686.443	8694.91
686.79	8713.9
687.138	8720
687.485	8698.3
687.832	8682.71
688.18	8678.87
688.527	8613.11
688.874	8675.48
689.221	8572.88
689.568	8496.5
689.915	8510.06
690.262	8492.21
690.609	8574.24
690.956	8444.75
691.303	8407.01
691.65	8414.47
691.997	8329.27
692.344	8360.46
692.69	8324.3
693.037	8346
693.383	8275.94
693.73	8283.17
694.077	8218.09
694.423	8233.46
694.769	8207.47
695.116	8119.11
695.462	8213.8
695.808	8108.04
696.155	8166.56
696.501	8046.12
696.847	8101.48
697.193	8054.25
697.539	8033.46
697.885	7953.69
698.231	7915.05
698.577	7967.25
698.923	7881.37
699.269	7773.35
699.614	7824.43
699.96	7753.24
700.306	7832.11
700.651	7746.91
700.997	7728.84
701.342	7752.79
701.688	7651.55
702.033	7701.27
702.379	7643.19
702.724	7666.01
703.069	7643.64
703.415	7569.29
703.76	7516.41
704.105	7448.62
704.45	7494.94
704.795	7516.19
705.14	7426.02
705.485	7377.66
705.83	7368.17
706.175	7363.87
706.52	7368.62
706.865	7342.18
707.209	7271
707.554	7338.56
707.899	7242.97
708.243	7238.68
708.588	7202.3
708.932	7148.29
709.277	7189.19
709.621	7155.74
709.966	7092.24
710.31	7148.51
710.654	7116.65
710.998	7102.19
711.342	7121.39
711.687	7087.72
712.031	7102.19
712.375	7051.57
712.719	7013.37
713.063	7017.22
713.407	7013.15
713.75	6980.16
714.094	6984
714.438	6939.48
714.782	6923.66
715.125	6878.92
715.469	6929.99
715.812	6907.39
716.156	6842.31
716.499	6861.29
716.843	6849.09
717.186	6767.05
717.53	6840.72
717.873	6847.96
718.216	6789.43
718.559	6809.99
718.902	6776.09
719.246	6725.02
719.589	6758.01
719.932	6715.3
720.275	6706.26
720.617	6756.21
720.96	6708.75
721.303	6688.64
721.646	6770.9
721.989	6659.03
722.331	6646.83
722.674	6759.14
723.016	6676.21
723.359	6688.41
723.701	6684.34
724.044	6651.8
724.386	6600.28
724.729	6705.81
725.071	6617.23
725.413	6665.59
725.755	6623.1
726.097	6608.87
726.439	6571.35
726.782	6587.85
727.124	6628.75
727.465	6600.5
727.807	6544.46
728.149	6550.11
728.491	6576.55
728.833	6598.47
729.175	6506.95
729.516	6494.52
729.858	6527.29
730.199	6506.72
730.541	6510.79
730.882	6581.3
731.224	6562.99
731.565	6517.57
731.906	6543.33
732.248	6493.39
732.589	6487.06
732.93	6516.44
733.271	6459.27
733.612	6548.53
733.953	6527.74
734.294	6495.42
734.635	6487.74
734.976	6521.41
735.317	6508.53
735.658	6554.18
735.999	6500.39
736.339	6517.79
736.68	6552.14
737.021	6505.59
737.361	6511.92
737.702	6548.98
738.042	6496.33
738.383	6572.48
738.723	6546.27
739.063	6511.24
739.404	6518.02
739.744	6611.58
740.084	6562.54
740.424	6590.11
740.764	6569.32
741.104	6591.24
741.444	6623.78
741.784	6529.32
742.124	6609.09
742.464	6566.83
742.804	6614.29
743.143	6631.01
743.483	6656.55
743.823	6631.24
744.162	6681.41
744.502	6699.48
744.841	6652.25
745.181	6742.2
745.52	6708.52
745.86	6778.35
746.199	6768.41
746.538	6838.46
746.877	6843.21
747.216	6873.94
747.556	6903.77
747.895	6940.83
748.234	6932.7
748.573	7005.01
748.911	6990.1
749.25	7028.06
749.589	7070.55
749.928	7150.77
750.267	7229.41
750.605	7214.27
750.944	7274.38
751.283	7288.4
751.621	7390.99
751.96	7416.98
752.298	7525.68
752.636	7571.78
752.975	7627.6
753.313	7662.4
753.651	7834.6
753.989	7890.41
754.327	7979.9
754.666	7921.6
755.004	8070.75
755.342	8189.39
755.679	8258.99
756.017	8291.99
756.355	8395.94
756.693	8552.32
757.031	8644.07
757.368	8684.97
757.706	8783.5
758.044	8889.94
758.381	8983.72
758.719	9144.17
759.056	9227.1
759.394	9299.19
759.731	9435.91
760.068	9562.01
760.405	9625.28
760.743	9729.46
761.08	9892.17
761.417	9965.84
761.754	10079.28
762.091	10189.56
762.428	10330.8
762.765	10350.01
763.102	10509.55
763.438	10673.62
763.775	10767.4
764.112	10835.65
764.449	10928.3
764.785	11130.55
765.122	11141.4
765.458	11304.34
765.795	11279.03
766.131	11469.3
766.467	11535.74
766.804	11603.08
767.14	11710.43
767.476	11768.5
767.812	11871.33
768.148	12061.15
768.485	12040.36
768.821	12149.29
769.157	12203.75
