Data from hue_230_FLMS001491_00099.txt Node
Date: Tue Feb 07 16:38:01 GMT 2017
User: dcchb
Spectrometer: FLMS00149
Trigger mode: 0
Integration Time (sec): 2.000000E-2
Scans to average: 10
Electric dark correction enabled: true
Nonlinearity correction enabled: false
Boxcar width: 0
XAxis mode: Wavelengths
Number of Pixels in Spectrum: 2048
>>>>>Begin Spectral Data<<<<<
341.393	-20.03
341.776	-20.03
342.16	-20.03
342.543	-64.09
342.927	-62.51
343.31	-83.08
343.693	-68.61
344.077	-78.11
344.46	-47.37
344.843	-43.98
345.226	-61.38
345.61	-41.27
345.993	-27.03
346.376	-5.11
346.759	25.17
347.142	33.3
347.525	41.21
347.908	68.11
348.291	78.95
348.674	95.22
349.057	113.98
349.44	120.99
349.823	146.07
350.206	141.55
350.588	176.35
350.971	198.05
351.354	189.46
351.737	221.32
352.119	219.97
352.502	256.35
352.884	278.27
353.267	264.94
353.65	280.53
354.032	278.95
354.414	293.41
354.797	287.08
355.179	314.43
355.562	315.1
355.944	311.04
356.326	318.49
356.709	326.18
357.091	320.08
357.473	333.18
357.855	331.15
358.238	315.56
358.62	324.82
359.002	335.9
359.384	312.17
359.766	320.3
360.148	323.24
360.53	334.54
360.912	338.38
361.294	325.73
361.676	312.84
362.057	311.04
362.439	316.01
362.821	309.91
363.203	333.64
363.584	311.04
363.966	304.03
364.348	327.99
364.729	318.49
365.111	307.87
365.493	294.54
365.874	311.04
366.256	311.71
366.637	306.29
367.019	308.33
367.4	313.75
367.781	320.08
368.163	287.76
368.544	309
368.925	302
369.306	287.31
369.688	295.67
370.069	285.05
370.45	308.78
370.831	327.31
371.212	297.48
371.593	320.3
371.974	301.77
372.355	307.65
372.736	307.42
373.117	307.87
373.498	301.55
373.879	285.05
374.26	306.07
374.641	308.33
375.021	310.81
375.402	289.57
375.783	304.71
376.163	291.15
376.544	297.03
376.925	299.74
377.305	313.97
377.686	309.46
378.066	281.21
378.447	318.72
378.827	318.72
379.208	316.69
379.588	312.84
379.968	317.82
380.349	313.75
380.729	330.47
381.109	342.67
381.489	314.65
381.87	321.43
382.25	324.14
382.63	332.05
383.01	310.81
383.39	328.44
383.77	310.59
384.15	328.44
384.53	327.76
384.91	326.4
385.29	332.51
385.67	348.1
386.049	338.15
386.429	355.1
386.809	337.7
387.189	364.37
387.568	342.67
387.948	332.51
388.328	336.12
388.707	332.73
389.087	328.44
389.466	346.97
389.846	357.82
390.225	349.23
390.605	362.79
390.984	351.71
391.363	340.87
391.743	350.36
392.122	371.6
392.501	360.98
392.881	370.7
393.26	352.39
393.639	352.39
394.018	371.83
394.397	371.83
394.776	363.24
395.155	362.34
395.534	351.94
395.913	372.5
396.292	353.52
396.671	348.1
397.05	389.91
397.429	379.96
397.808	355.1
398.186	395.1
398.565	385.84
398.944	372.28
399.323	396.01
399.701	390.58
400.08	387.42
400.458	381.32
400.837	396.91
401.215	395.78
401.594	398.27
401.972	396.68
402.351	412.73
402.729	393.52
403.107	395.33
403.486	393.97
403.864	427.87
404.242	404.14
404.62	414.09
404.999	390.13
405.377	427.19
405.755	426.29
406.133	435.78
406.511	422.22
406.889	455.89
407.267	432.39
407.645	415.67
408.023	416.34
408.401	442.56
408.779	452.05
409.156	462.22
409.534	472.39
409.912	464.71
410.29	485.95
410.667	470.58
411.045	479.62
411.422	469
411.8	480.98
412.178	510.13
412.555	504.03
412.933	509.45
413.31	515.78
413.687	533.63
414.065	539.05
414.442	548.54
414.819	554.87
415.197	531.14
415.574	554.19
415.951	593.06
416.328	552.84
416.705	556.45
417.082	569.56
417.46	568.21
417.837	581.09
418.214	599.17
418.591	594.87
418.967	599.62
419.344	619.05
419.721	618.37
420.098	617.7
420.475	630.12
420.852	663.12
421.228	645.72
421.605	659.5
421.982	651.82
422.358	681.65
422.735	678.94
423.111	700.41
423.488	710.12
423.864	743.57
424.241	719.16
424.617	724.36
424.994	746.51
425.37	755.55
425.746	739.27
426.123	751.7
426.499	784.24
426.875	797.13
427.251	778.6
427.627	791.25
428.003	804.81
428.379	818.37
428.756	818.14
429.132	811.59
429.507	874.86
429.883	865.82
430.259	881.19
430.635	894.98
431.011	890.23
431.387	918.03
431.763	920.06
432.138	944.01
432.514	920.74
432.89	925.26
433.265	962.32
433.641	959.61
434.016	987.86
434.392	1013.84
434.767	1026.5
435.143	1047.51
435.518	1048.64
435.894	1078.47
436.269	1068.31
436.644	1118.93
437.02	1095.2
437.395	1117.12
437.77	1126.16
438.145	1153.95
438.52	1165.48
438.895	1186.49
439.271	1184.01
439.646	1231.69
440.021	1230.79
440.395	1225.59
440.77	1248.19
441.145	1271.46
441.52	1257
441.895	1282.08
442.27	1295.87
442.645	1322.76
443.019	1344
443.394	1332.25
443.769	1378.35
444.143	1349.43
444.518	1390.1
444.892	1339.26
445.267	1398.24
445.641	1386.94
446.016	1399.6
446.39	1428.52
446.764	1428.52
447.139	1421.97
447.513	1451.8
447.887	1458.13
448.262	1452.02
448.636	1466.49
449.01	1505.58
449.384	1525.69
449.758	1496.54
450.132	1517.56
450.506	1547.84
450.88	1564.34
451.254	1529.31
451.628	1568.41
452.002	1573.6
452.376	1612.02
452.75	1599.36
453.123	1596.88
453.497	1609.31
453.871	1654.5
454.244	1678.68
454.618	1691.11
454.992	1692.47
455.365	1703.09
455.739	1753.71
456.112	1755.52
456.486	1788.51
456.859	1828.74
457.232	1842.52
457.606	1793.26
457.979	1838.68
458.352	1885.23
458.725	1923.88
459.099	1918.9
459.472	1941.05
459.845	1925.91
460.218	1962.97
460.591	1982.63
460.964	1967.94
461.337	2032.12
461.71	2037.77
462.083	2066.7
462.456	2081.16
462.829	2075.28
463.201	2110.54
463.574	2146.69
463.947	2122.06
464.32	2220.14
464.692	2224.43
465.065	2237.54
465.438	2259.01
465.81	2282.51
466.183	2283.64
466.555	2376.52
466.928	2357.76
467.3	2345.79
467.672	2423.07
468.045	2442.05
468.417	2463.75
468.789	2455.84
469.161	2508.27
469.534	2558.89
469.906	2577.87
470.278	2543.29
470.65	2611.09
471.022	2678.66
471.394	2713.91
471.766	2736.06
472.138	2722.73
472.51	2812.67
472.882	2777.19
473.253	2863.74
473.625	2906
473.997	2944.19
474.369	2942.15
474.74	2991.42
475.112	3023.73
475.484	3066.67
475.855	3130.62
476.227	3136.27
476.598	3214.24
476.97	3202.26
477.341	3272.77
477.713	3342.37
478.084	3358.41
478.455	3392.99
478.827	3499.65
479.198	3532.87
479.569	3512.31
479.94	3648.8
480.311	3671.85
480.682	3750.49
481.053	3788.69
481.424	3815.35
481.795	3889.25
482.166	3920.89
482.537	3915.01
482.908	4005.18
483.279	4042.69
483.65	4112.97
484.021	4213.99
484.391	4220.76
484.762	4254.44
485.133	4278.39
485.503	4313.42
485.874	4436.13
486.244	4420.76
486.615	4526.29
486.985	4542.56
487.356	4644.26
487.726	4647.87
488.097	4704.37
488.467	4769.68
488.837	4868.43
489.207	4864.59
489.578	4933.29
489.948	4940.75
490.318	5057.58
490.688	5048.09
491.058	5142.55
491.428	5181.87
491.798	5214.18
492.168	5306.84
492.538	5257.57
492.908	5419.38
493.278	5386.61
493.648	5427.06
494.017	5481.3
494.387	5535.53
494.757	5601.52
495.126	5593.61
495.496	5591.8
495.866	5631.35
496.235	5746.15
496.605	5719.26
496.974	5725.36
497.344	5806.49
497.713	5849.2
498.082	5846.94
498.452	5896.2
498.821	5896.65
499.19	5909.53
499.559	5919.25
499.928	5977.78
500.298	6003.09
500.667	6007.16
501.036	6011.45
501.405	6041.06
501.774	6091.9
502.143	6121.28
502.512	6086.25
502.88	6179.13
503.249	6185.23
503.618	6202.41
503.987	6211.67
504.356	6209.19
504.724	6272.24
505.093	6255.51
505.462	6216.87
505.83	6340.26
506.199	6320.6
506.567	6436.07
506.936	6391.1
507.304	6389.52
507.672	6443.53
508.041	6458.22
508.409	6509.07
508.777	6508.84
509.145	6545
509.514	6530.76
509.882	6554.04
510.25	6467.03
510.618	6560.59
510.986	6543.87
511.354	6587.48
511.722	6608.95
512.09	6711.55
512.458	6674.03
512.826	6670.19
513.193	6719.23
513.561	6717.87
513.929	6747.48
514.297	6765.78
514.664	6786.12
515.032	6729.85
515.4	6785.44
515.767	6785.44
516.135	6864.54
516.502	6761.94
516.869	6828.83
517.237	6874.71
517.604	6810.98
517.972	6874.25
518.339	6890.3
518.706	6902.73
519.073	6926.46
519.44	6868.6
519.808	6976.85
520.175	6858.89
520.542	6956.74
520.909	6939.56
521.276	6962.39
521.643	6942.5
522.009	7018.88
522.376	7016.17
522.743	7030.63
523.11	7130.07
523.477	7097.3
523.843	7119.9
524.21	7109.73
524.577	7117.86
524.943	7119.22
525.31	7151.08
525.676	7202.61
526.043	7146.11
526.409	7171.87
526.776	7248.03
527.142	7193.12
527.508	7206.45
527.874	7268.82
528.241	7217.52
528.607	7274.24
528.973	7245.54
529.339	7297.75
529.705	7318.76
530.071	7266.33
530.437	7311.3
530.803	7332.1
531.169	7285.09
531.535	7253.23
531.901	7227.01
532.267	7288.25
532.632	7266.33
532.998	7246.45
533.364	7306.56
533.73	7297.07
534.095	7319.67
534.461	7328.48
534.826	7307.46
535.192	7273.79
535.557	7278.09
535.923	7209.16
536.288	7230.86
536.653	7222.27
537.019	7224.3
537.384	7193.57
537.749	7268.59
538.114	7244.87
538.479	7198.77
538.845	7158.77
539.21	7176.39
539.575	7203.96
539.94	7207.13
540.305	7166.22
540.67	7136.85
541.034	7116.06
541.399	7165.55
541.764	7121.93
542.129	7113.8
542.494	7080.12
542.858	7078.09
543.223	7083.29
543.587	7081.48
543.952	7043.06
544.316	7013.91
544.681	7048.94
545.045	7047.13
545.41	7043.97
545.774	7031.76
546.138	7036.74
546.503	6974.82
546.867	6979.56
547.231	6994.7
547.595	6981.6
547.959	6965.55
548.324	6945.44
548.688	6917.87
549.052	6947.7
549.416	6893.46
549.779	6903.63
550.143	6881.49
550.507	6888.27
550.871	6872.45
551.235	6850.53
551.599	6888.27
551.962	6862.73
552.326	6799
552.689	6852.11
553.053	6822.73
553.417	6803.52
553.78	6911.77
554.143	6815.5
554.507	6812.79
554.87	6799.91
555.234	6860.7
555.597	6784.77
555.96	6815.5
556.323	6812.34
556.686	6784.77
557.05	6813.92
557.413	6817.31
557.776	6775.95
558.139	6794.93
558.502	6756.52
558.865	6810.08
559.228	6824.31
559.59	6766.69
559.953	6800.36
560.316	6860.7
560.679	6834.93
561.041	6859.11
561.404	6862.5
561.767	6927.59
562.129	6831.77
562.492	6864.09
562.854	6879.9
563.217	6880.58
563.579	6886.01
563.941	6930.52
564.304	6883.29
564.666	6915.38
565.028	6911.54
565.39	6957.42
565.753	6971.2
566.115	6982.73
566.477	6951.31
566.839	6953.57
567.201	7031.54
567.563	6924.65
567.925	7042.16
568.287	7071.99
568.648	7041.93
569.01	7038.77
569.372	7158.09
569.734	7084.87
570.095	7127.13
570.457	7093.23
570.819	7151.99
571.18	7151.76
571.542	7125.77
571.903	7100.24
572.265	7190.18
572.626	7212.32
572.987	7178.88
573.349	7226.79
573.71	7211.19
574.071	7297.97
574.432	7322.38
574.794	7325.77
575.155	7322.15
575.516	7304.98
575.877	7320.34
576.238	7347.69
576.599	7358.08
576.96	7316.05
577.32	7387.46
577.681	7386.33
578.042	7416.39
578.403	7409.16
578.763	7465.65
579.124	7487.35
579.485	7485.31
579.845	7490.96
580.206	7548.59
580.566	7537.06
580.927	7524.63
581.287	7511.98
581.648	7567.8
582.008	7594.01
582.368	7603.95
582.728	7608.92
583.089	7634.69
583.449	7563.73
583.809	7614.57
584.169	7641.01
584.529	7646.44
584.889	7673.56
585.249	7657.51
585.609	7715.14
585.969	7700.9
586.329	7745.64
586.688	7721.46
587.048	7763.27
587.408	7727.79
587.768	7749.71
588.127	7763.5
588.487	7780.67
588.846	7832.65
589.206	7721.24
589.565	7790.39
589.925	7835.81
590.284	7862.48
590.643	7836.49
591.003	7827.45
591.362	7896.15
591.721	7849.37
592.08	7866.77
592.44	7850.05
592.799	7872.87
593.158	7920.33
593.517	7860.9
593.876	7881.01
594.235	7909.71
594.593	7912.87
594.952	7916.94
595.311	7891.4
595.67	7948.8
596.029	8005.3
596.387	7967.56
596.746	8036.94
597.104	7896.83
597.463	7981.34
597.822	8016.37
598.18	7961.46
598.538	8019.53
598.897	8083.49
599.255	8005.75
599.613	8060.89
599.972	7984.73
600.33	7981.12
600.688	8021.79
601.046	8056.82
601.404	8057.05
601.762	8072.87
602.12	8074.45
602.478	8130.27
602.836	8112.87
603.194	8027.44
603.552	8089.82
603.91	8026.09
604.268	8162.13
604.625	8093.21
604.983	8086.43
605.341	8127.33
605.698	8143.15
606.056	8148.35
606.413	8104.73
606.771	8144.05
607.128	8181.79
607.485	8091.62
607.843	8191.06
608.2	8178.4
608.557	8151.73
608.914	8102.02
609.272	8155.58
609.629	8193.99
609.986	8181.34
610.343	8233.77
610.7	8316.25
611.057	8229.7
611.414	8214.56
611.771	8207.55
612.127	8298.4
612.484	8328.45
612.841	8250.72
613.198	8272.64
613.554	8271.51
613.911	8320.54
614.267	8281.67
614.624	8343.14
614.98	8365.29
615.337	8303.37
615.693	8341.79
616.05	8320.77
616.406	8402.35
616.762	8414.1
617.118	8340.2
617.475	8339.3
617.831	8393.54
618.187	8415.91
618.543	8377.72
618.899	8366.19
619.255	8416.13
619.611	8449.58
619.967	8458.39
620.323	8377.94
620.678	8421.11
621.034	8391.5
621.39	8368.45
621.746	8411.61
622.101	8490.03
622.457	8399.86
622.812	8381.11
623.168	8447.55
623.523	8405.06
623.879	8466.75
624.234	8379.3
624.589	8408.23
624.945	8392.86
625.3	8459.52
625.655	8449.58
626.01	8403.48
626.365	8489.58
626.72	8380.43
627.075	8384.05
627.43	8364.84
627.785	8354.89
628.14	8430.15
628.495	8432.18
628.85	8433.08
629.205	8337.72
629.559	8471.95
629.914	8351.73
630.269	8340.2
630.623	8403.93
630.978	8310.15
631.332	8322.13
631.687	8326.19
632.041	8281.67
632.396	8372.07
632.75	8282.35
633.104	8298.62
633.459	8285.06
633.813	8283.71
634.167	8256.14
634.521	8230.15
634.875	8295.23
635.229	8236.93
635.583	8214.11
635.937	8216.59
636.291	8184.5
636.645	8242.81
636.999	8206.87
637.352	8218.85
637.706	8152.41
638.06	8189.7
638.413	8151.73
638.767	8155.12
639.121	8228.79
639.474	8136.59
639.828	8123.04
640.181	8178.85
640.534	8151.96
640.888	8150.38
641.241	8053.21
641.594	8124.39
641.947	8151.96
642.301	8079.87
642.654	8120.55
643.007	8043.26
643.36	8083.04
643.713	8081.45
644.066	8138.85
644.419	8072.64
644.771	8017.05
645.124	7909.26
645.477	7941.8
645.83	7862.25
646.182	7841.23
646.535	7769.15
646.888	7817.28
647.24	7737.28
647.593	7838.3
647.945	7774.34
648.298	7791.74
648.65	7670.84
649.002	7708.13
649.355	7767.34
649.707	7754.91
650.059	7845.08
650.411	7920.33
650.763	7910.84
651.115	7929.59
651.467	7953.77
651.819	7930.72
652.171	7941.34
652.523	7914.45
652.875	7954.45
653.227	7885.53
653.578	7974.11
653.93	7953.77
654.282	7859.09
654.633	7892.31
654.985	7907.9
655.337	7893.89
655.688	7955.36
656.039	7958.29
656.391	7913.1
656.742	7936.6
657.094	7929.14
657.445	7943.6
657.796	7959.42
658.147	7910.39
658.498	7934.57
658.849	7899.76
659.2	7885.3
659.551	7894.79
659.902	7936.83
660.253	7912.42
660.604	7920.78
660.955	7860.67
661.306	7949.93
661.656	7908.58
662.007	7881.91
662.358	7900.22
662.708	7863.38
663.059	7956.26
663.409	7918.97
663.76	7950.16
664.11	7922.59
664.461	7922.14
664.811	7918.52
665.161	7965.07
665.511	7932.53
665.862	7909.48
666.212	7893.44
666.562	7970.27
666.912	7896.83
667.262	7939.99
667.612	7944.96
667.962	7894.79
668.312	7888.69
668.662	8028.8
669.011	7930.5
669.361	7904.28
669.711	7911.97
670.06	7875.81
670.41	7866.77
670.76	7894.57
671.109	7924.4
671.459	7915.58
671.808	7932.98
672.157	7926.88
672.507	7797.17
672.856	7864.96
673.205	7856.38
673.554	7962.59
673.904	7825.87
674.253	7975.47
674.602	7874.45
674.951	7704.97
675.3	7717.62
675.649	7841.69
675.998	7783.83
676.346	7802.37
676.695	7863.61
677.044	7815.47
677.393	7808.69
677.741	7780.45
678.09	7743.84
678.438	7761.24
678.787	7805.53
679.135	7754.68
679.484	7665.65
679.832	7706.1
680.181	7673.33
680.529	7798.75
680.877	7646.66
681.225	7690.05
681.573	7790.16
681.922	7662.71
682.27	7627.68
682.618	7663.61
682.966	7612.54
683.314	7629.26
683.661	7548.81
684.009	7574.57
684.357	7511.75
684.705	7534.58
685.053	7558.98
685.4	7569.83
685.748	7442.6
686.095	7430.17
686.443	7482.83
686.79	7427.01
687.138	7443.5
687.485	7394.01
687.832	7362.83
688.18	7391.53
688.527	7316.05
688.874	7353.34
689.221	7331.64
689.568	7271.31
689.915	7266.11
690.262	7305.88
690.609	7258.88
690.956	7239.22
691.303	7178.88
691.65	7227.24
691.997	7140.46
692.344	7091.42
692.69	7153.79
693.037	7160.12
693.383	7053.91
693.73	7112.44
694.077	7043.52
694.423	7056.62
694.769	6970.75
695.116	6968.04
695.462	6937.98
695.808	6962.39
696.155	6939.11
696.501	6894.14
696.847	6854.59
697.193	6800.13
697.539	6830.87
697.885	6819.57
698.231	6786.35
698.577	6752.45
698.923	6733.24
699.269	6738.66
699.614	6660.25
699.96	6703.64
700.306	6662.96
700.651	6634.49
700.997	6603.98
701.342	6650.76
701.688	6619.35
702.033	6552.45
702.379	6508.84
702.724	6533.47
703.069	6528.27
703.415	6440.14
703.76	6444.89
704.105	6411.44
704.45	6354.27
704.795	6394.04
705.14	6394.27
705.485	6411.22
705.83	6303.2
706.175	6329.41
706.52	6270.43
706.865	6244.89
707.209	6268.17
707.554	6221.39
707.899	6230.43
708.243	6245.12
708.588	6180.71
708.932	6162.41
709.277	6184.78
709.621	6168.28
709.966	6070.21
710.31	6151.56
710.654	6084.9
710.998	6055.74
711.342	6103.65
711.687	6062.75
712.031	6048.06
712.375	6003.99
712.719	6022.3
713.063	5995.18
713.407	6071.11
713.75	5966.03
714.094	5944.34
714.438	5933.71
714.782	5933.94
715.125	5899.14
715.469	5951.34
715.812	5944.56
716.156	5915.18
716.499	5858.91
716.843	5877.9
717.186	5888.29
717.53	5866.82
717.873	5880.16
718.216	5785.24
718.559	5836.99
718.902	5826.6
719.246	5867.28
719.589	5807.62
719.932	5813.27
720.275	5861.63
720.617	5830.21
720.96	5712.02
721.303	5688.07
721.646	5760.84
721.989	5764.23
722.331	5757
722.674	5702.76
723.016	5829.31
723.359	5749.09
723.701	5737.79
724.044	5692.14
724.386	5681.74
724.729	5715.64
725.071	5740.95
725.413	5746.15
725.755	5710.9
726.097	5711.35
726.439	5627.06
726.782	5695.75
727.124	5686.49
727.465	5651.46
727.807	5686.71
728.149	5664.79
728.491	5648.98
728.833	5646.72
729.175	5663.21
729.516	5645.13
729.858	5647.85
730.199	5620.73
730.541	5667.51
730.882	5567.85
731.224	5666.38
731.565	5575.53
731.906	5611.91
732.248	5585.25
732.589	5620.5
732.93	5599.49
733.271	5647.39
733.612	5608.52
733.953	5625.7
734.294	5632.48
734.635	5629.99
734.976	5641.29
735.317	5580.28
735.658	5629.54
735.999	5634.29
736.339	5656.89
736.68	5665.47
737.021	5650.11
737.361	5608.52
737.702	5658.47
738.042	5672.7
738.383	5649.88
738.723	5639.03
739.063	5657.79
739.404	5624.8
739.744	5652.82
740.084	5638.35
740.424	5646.49
740.764	5659.6
741.104	5733.72
741.444	5722.19
741.784	5706.38
742.124	5710.22
742.464	5772.14
742.804	5743.21
743.143	5757.45
743.483	5798.8
743.823	5795.19
744.162	5772.59
744.502	5874.05
744.841	5812.59
745.181	5838.12
745.52	5831.57
745.86	5869.31
746.199	5901.62
746.538	5907.5
746.877	5951.11
747.216	6046.93
747.556	6000.6
747.895	6083.77
748.234	6094.61
748.573	6105.01
748.911	6196.98
749.25	6203.31
749.589	6171
749.928	6284.21
750.267	6358.79
750.605	6378.67
750.944	6383.42
751.283	6447.6
751.621	6520.59
751.96	6566.69
752.298	6653.92
752.636	6703.41
752.975	6748.16
753.313	6775.05
753.651	6913.8
753.989	6967.81
754.327	7027.92
754.666	7054.36
755.004	7219.1
755.342	7272.21
755.679	7380.23
756.017	7441.92
756.355	7544.75
756.693	7617.51
757.031	7707.23
757.368	7827.45
757.706	7899.31
758.044	8010.72
758.381	8126.88
758.719	8188.34
759.056	8368.9
759.394	8368.23
759.731	8481.67
760.068	8703.13
760.405	8797.59
760.743	8802.34
761.08	8987.42
761.417	9068.55
761.754	9204.81
762.091	9274.19
762.428	9440.97
762.765	9464.69
763.102	9671.02
763.438	9780.39
763.775	9845.93
764.112	10034.4
764.449	10132.47
764.785	10210.44
765.122	10265.13
765.458	10345.12
765.795	10502.41
766.131	10534.5
766.467	10704.89
766.804	10808.61
767.14	10880.02
767.476	10921.38
767.812	10981.72
768.148	11118.89
768.485	11210.86
768.821	11265.33
769.157	11406.79
769.492	11470.07
