Data from hue_180_FLMS001491_00089.txt Node
Date: Tue Feb 07 16:47:37 GMT 2017
User: dcchb
Spectrometer: FLMS00149
Trigger mode: 0
Integration Time (sec): 2.000000E-2
Scans to average: 10
Electric dark correction enabled: true
Nonlinearity correction enabled: false
Boxcar width: 0
XAxis mode: Wavelengths
Number of Pixels in Spectrum: 2048
>>>>>Begin Spectral Data<<<<<
341.393	-52.09
341.776	-52.09
342.16	-52.09
342.543	-60
342.927	-70.85
343.31	-79.21
343.693	-66.78
344.077	-70.85
344.46	-58.19
344.843	-54.12
345.226	-51.64
345.61	-43.05
345.993	-6.44
346.376	-6.21
346.759	-7.57
347.142	30.39
347.525	46.21
347.908	70.62
348.291	81.01
348.674	100.45
349.057	115.36
349.44	121.47
349.823	147.23
350.206	156.49
350.588	190.62
350.971	209.82
351.354	232.65
351.737	238.52
352.119	229.94
352.502	250.73
352.884	273.55
353.267	272.87
353.65	303.83
354.032	283.04
354.414	300.22
354.797	307.45
355.179	320.1
355.562	312.42
355.944	311.74
356.326	325.75
356.709	323.04
357.091	322.59
357.473	303.16
357.855	322.82
358.238	334.12
358.62	332.53
359.002	334.34
359.384	355.36
359.766	337.28
360.148	342.02
360.53	332.76
360.912	314.91
361.294	316.49
361.676	312.65
362.057	321.46
362.439	299.09
362.821	318.3
363.203	310.84
363.584	326.21
363.966	335.25
364.348	301.57
364.729	319.65
365.111	300.67
365.493	311.74
365.874	315.81
366.256	306.55
366.637	321.46
367.019	332.53
367.4	278.52
367.781	333.44
368.163	308.35
368.544	304.96
368.925	298.18
369.306	295.25
369.688	316.49
370.069	288.92
370.45	304.29
370.831	291.18
371.212	293.44
371.593	298.86
371.974	289.6
372.355	325.53
372.736	294.79
373.117	296.6
373.498	318.3
373.879	311.07
374.26	300.22
374.641	299.54
375.021	314.23
375.402	318.97
375.783	309.48
376.163	324.17
376.544	341.8
376.925	358.97
377.305	319.43
377.686	314
378.066	323.27
378.447	336.38
378.827	311.74
379.208	336.15
379.588	339.77
379.968	345.64
380.349	331.4
380.729	336.15
381.109	337.05
381.489	325.53
381.87	325.3
382.25	339.77
382.63	334.34
383.01	330.5
383.39	322.14
383.77	338.18
384.15	355.58
384.53	345.19
384.91	354.91
385.29	344.96
385.67	367.11
386.049	355.36
386.429	333.44
386.809	339.09
387.189	332.99
387.568	356.26
387.948	350.84
388.328	363.27
388.707	328.24
389.087	352.87
389.466	335.7
389.846	344.28
390.225	388.58
390.605	371.4
390.984	363.04
391.363	365.3
391.743	369.14
392.122	361.69
392.501	384.28
392.881	383.61
393.26	367.33
393.639	376.6
394.018	345.41
394.397	381.8
394.776	390.16
395.155	371.4
395.534	385.64
395.913	383.38
396.292	367.79
396.671	379.99
397.05	394.45
397.429	381.57
397.808	382.7
398.186	393.32
398.565	364.17
398.944	419.76
399.323	404.62
399.701	399.65
400.08	403.94
400.458	399.88
400.837	414.79
401.215	406.2
401.594	410.95
401.972	422.02
402.351	413.66
402.729	402.59
403.107	429.71
403.486	409.14
403.864	438.07
404.242	417.05
404.62	437.84
404.999	452.53
405.377	434.9
405.755	448.91
406.133	433.32
406.511	439.88
406.889	451.17
407.267	474
407.645	477.16
408.023	474.68
408.401	469.48
408.779	466.54
409.156	478.29
409.534	480.33
409.912	476.03
410.29	492.08
410.667	502.25
411.045	508.12
411.422	522.36
411.8	534.56
412.178	537.5
412.555	515.58
412.933	527.56
413.31	554
413.687	562.36
414.065	566.88
414.442	586.76
414.819	596.03
415.197	570.27
415.574	596.03
415.951	608.01
416.328	611.4
416.705	594.22
417.082	599.87
417.46	627.22
417.837	636.25
418.214	647.55
418.591	632.41
418.967	642.81
419.344	660.21
419.721	659.76
420.098	662.69
420.475	673.32
420.852	699.08
421.228	701.11
421.605	737.72
421.982	718.74
422.358	714.44
422.735	755.35
423.111	737.72
423.488	758.96
423.864	763.03
424.241	774.33
424.617	787.21
424.994	804.39
425.37	803.48
425.746	827.89
426.123	822.92
426.499	836.25
426.875	879.19
427.251	856.14
427.627	872.18
428.003	897.72
428.379	896.13
428.756	903.82
429.132	914.67
429.507	920.99
429.883	936.59
430.259	933.87
430.635	955.12
431.011	978.84
431.387	992.86
431.763	990.82
432.138	1008.22
432.514	1004.61
432.89	1027.43
433.265	1042.35
433.641	1064.49
434.016	1107.2
434.392	1104.49
434.767	1116.47
435.143	1132.29
435.518	1130.48
435.894	1173.42
436.269	1201.66
436.644	1201.89
437.02	1214.32
437.395	1208.67
437.77	1277.59
438.145	1266.97
438.52	1260.19
438.895	1294.09
439.271	1310.81
439.646	1349.23
440.021	1366.63
440.395	1368.89
440.77	1362.56
441.145	1391.94
441.52	1415.67
441.895	1400.75
442.27	1430.13
442.645	1460.87
443.019	1462.45
443.394	1481.2
443.769	1518.72
444.143	1478.72
444.518	1532.73
444.892	1541.54
445.267	1524.59
445.641	1547.19
446.016	1571.15
446.39	1568.43
446.764	1589.45
447.139	1611.82
447.513	1659.05
447.887	1596.23
448.262	1629
448.636	1674.19
449.01	1663.8
449.384	1684.36
449.758	1699.96
450.132	1722.1
450.506	1718.03
450.88	1741.31
451.254	1745.15
451.628	1784.25
452.002	1786.51
452.376	1810.46
452.75	1837.58
453.123	1855.88
453.497	1881.65
453.871	1886.39
454.244	1915.99
454.618	1948.31
454.992	1960.74
455.365	1965.03
455.739	2000.51
456.112	2029.66
456.486	2040.96
456.859	2066.05
457.232	2126.61
457.606	2119.38
457.979	2155.76
458.352	2193.28
458.725	2202.09
459.099	2184.91
459.472	2270.56
459.845	2297
460.218	2359.6
460.591	2353.5
460.964	2321.18
461.337	2397.34
461.71	2440.73
462.083	2484.79
462.456	2473.95
462.829	2490.89
463.201	2554.17
463.574	2549.2
463.947	2621.51
464.32	2642.76
464.692	2688.18
465.065	2737.44
465.438	2760.27
465.81	2776.54
466.183	2825.8
466.555	2904.9
466.928	2892.92
467.3	2889.08
467.672	2964.78
468.045	3038
468.417	3057.21
468.789	3064.44
469.161	3117.77
469.534	3181.5
469.906	3240.03
470.278	3280.25
470.65	3282.74
471.022	3388.27
471.394	3438.21
471.766	3487.93
472.138	3553.69
472.51	3596.18
472.882	3687.7
473.253	3753.69
473.625	3779.67
473.997	3870.29
474.369	3905.55
474.74	3944.64
475.112	4021.25
475.484	4134.02
475.855	4187.12
476.227	4229.83
476.598	4303.05
476.97	4394.57
477.341	4496.72
477.713	4552.08
478.084	4563.16
478.455	4740.33
478.827	4808.8
479.198	4952.53
479.569	5014.22
479.94	5121.56
480.311	5204.72
480.682	5325.62
481.053	5422.57
481.424	5467.99
481.795	5610.59
482.166	5661.66
482.537	5740.75
482.908	5944.14
483.279	5997.92
483.65	6127.86
484.021	6211.93
484.391	6310
484.762	6381.64
485.133	6455.76
485.503	6593.84
485.874	6723.78
486.244	6782.08
486.615	6926.26
486.985	7034.73
487.356	7222.97
487.726	7190.21
488.097	7421.16
488.467	7441.95
488.837	7685.56
489.207	7677.43
489.578	7834.48
489.948	7957.42
490.318	8023.18
490.688	8073.12
491.058	8258.2
491.428	8374.81
491.798	8387.69
492.168	8596.5
492.538	8704.52
492.908	8724.4
493.278	8854.12
493.648	8868.35
494.017	8965.98
494.387	9125.52
494.757	9141.57
495.126	9281.9
495.496	9340.43
495.866	9382.24
496.235	9465.85
496.605	9543.36
496.974	9599.18
497.344	9702.23
497.713	9698.39
498.082	9772.06
498.452	9849.57
498.821	9920.98
499.19	9945.61
499.559	10092.28
499.928	10168.66
500.298	10193.74
500.667	10250.24
501.036	10260.41
501.405	10273.97
501.774	10294.08
502.143	10450.46
502.512	10420.63
502.88	10575.2
503.249	10584.02
503.618	10555.32
503.987	10665.14
504.356	10644.58
504.724	10762.54
505.093	10838.92
505.462	10711.92
505.83	10856.1
506.199	10914.18
506.567	10961.41
506.936	10926.38
507.304	11041.4
507.672	11103.78
508.041	11142.64
508.409	11113.27
508.777	11299.7
509.145	11266.48
509.514	11289.31
509.882	11374.5
510.25	11335.86
510.618	11438.46
510.986	11413.82
511.354	11468.74
511.722	11590.09
512.09	11491.56
512.458	11481.17
512.826	11557.78
513.193	11604.78
513.561	11615.4
513.929	11704.44
514.297	11709.18
514.664	11693.14
515.032	11732.23
515.4	11841.16
515.767	11812.01
516.135	11896.75
516.502	11776.75
516.869	11853.81
517.237	11867.6
517.604	11788.28
517.972	11932.91
518.339	11975.84
518.706	11897.43
519.073	11944.43
519.44	11956.18
519.808	11976.3
520.175	12019.46
520.542	12083.86
520.909	12157.08
521.276	12039.57
521.643	12166.35
522.009	12127.7
522.376	12154.14
522.743	12187.59
523.11	12197.76
523.477	12246.34
523.843	12182.17
524.21	12293.35
524.577	12326.12
524.943	12338.77
525.31	12317.98
525.676	12397.98
526.043	12382.84
526.409	12333.35
526.776	12458.99
527.142	12439.56
527.508	12372.67
527.874	12405.66
528.241	12423.52
528.607	12449.5
528.973	12386.91
529.339	12417.87
529.705	12411.54
530.071	12498.54
530.437	12382.16
530.803	12449.28
531.169	12437.98
531.535	12420.35
531.901	12356.17
532.267	12311.65
532.632	12306.68
532.998	12321.6
533.364	12343.74
533.73	12281.15
534.095	12346
534.461	12323.63
534.826	12314.59
535.192	12251.54
535.557	12214.71
535.923	12124.77
536.288	12154.37
536.653	12103.98
537.019	12058.55
537.384	12042.73
537.749	11999.57
538.114	11972
538.479	11892.91
538.845	11942.85
539.21	11768.62
539.575	11740.37
539.94	11706.7
540.305	11710.99
540.67	11620.15
541.034	11667.6
541.399	11625.8
541.764	11541.05
542.129	11448.63
542.494	11446.59
542.858	11415.18
543.223	11403.43
543.587	11446.82
543.952	11343.32
544.316	11267.84
544.681	11221.74
545.045	11177.22
545.41	11212.7
545.774	11156.66
546.138	11092.7
546.503	11118.46
546.867	10939.03
547.231	11015.64
547.595	10956.66
547.959	10846.38
548.324	10786.72
548.688	10792.82
549.052	10771.81
549.416	10682.77
549.779	10692.94
550.143	10594.18
550.507	10632.6
550.871	10571.13
551.235	10515.77
551.599	10486.16
551.962	10481.42
552.326	10462.89
552.689	10447.52
553.053	10321.2
553.417	10252.72
553.78	10340.41
554.143	10244.59
554.507	10260.18
554.87	10195.1
555.234	10254.31
555.597	10094.08
555.96	10065.61
556.323	10136.8
556.686	10045.95
557.05	10050.7
557.413	10086.4
557.776	10074.2
558.139	10023.13
558.502	9971.6
558.865	9900.42
559.228	9979.96
559.59	9925.5
559.953	9904.03
560.316	9957.14
560.679	9885.05
561.041	9826.75
561.404	9961.21
561.767	9880.76
562.129	9860.19
562.492	9829.01
562.854	9831.72
563.217	9845.73
563.579	9816.8
563.941	9897.25
564.304	9775
564.666	9829.01
565.028	9802.57
565.39	9844.37
565.753	9847.09
566.115	9809.35
566.477	9816.58
566.839	9759.4
567.201	9795.11
567.563	9778.61
567.925	9789.01
568.287	9866.52
568.648	9796.01
569.01	9872.62
569.372	9815.67
569.734	9797.37
570.095	9836.92
570.457	9843.92
570.819	9816.8
571.18	9822.45
571.542	9815.67
571.903	9822.45
572.265	9828.1
572.626	9819.29
572.987	9894.54
573.349	9886.41
573.71	9803.47
574.071	9879.85
574.432	9874.66
574.794	9884.37
575.155	9841.66
575.516	9782.23
575.877	9810.93
576.238	9852.28
576.599	9763.02
576.96	9798.05
577.32	9849.35
577.681	9916.91
578.042	9863.13
578.403	9789.23
578.763	9875.33
579.124	9815.22
579.485	9876.92
579.845	9809.12
580.206	9800.99
580.566	9836.46
580.927	9757.14
581.287	9821.55
581.648	9737.03
582.008	9794.21
582.368	9838.27
582.728	9732.06
583.089	9799.63
583.449	9759.4
583.809	9745.39
584.169	9716.02
584.529	9720.99
584.889	9779.74
585.249	9682.12
585.609	9655.45
585.969	9671.5
586.329	9684.6
586.688	9674.66
587.048	9648.45
587.408	9605.51
587.768	9553.31
588.127	9621.55
588.487	9576.36
588.846	9659.75
589.206	9636.92
589.565	9572.97
589.925	9708.56
590.284	9543.59
590.643	9582.46
591.003	9565.29
591.362	9661.78
591.721	9611.16
592.08	9593.31
592.44	9564.38
592.799	9563.03
593.158	9552.18
593.517	9500.2
593.876	9485.06
594.235	9452.97
594.593	9477.38
594.952	9469.02
595.311	9415.23
595.67	9444.84
596.029	9510.37
596.387	9496.36
596.746	9524.38
597.104	9511.5
597.463	9393.31
597.822	9479.86
598.18	9399.19
598.538	9441.45
598.897	9456.81
599.255	9367.55
599.613	9456.14
599.972	9382.69
600.33	9419.07
600.688	9369.81
601.046	9414.33
601.404	9429.7
601.762	9402.8
602.12	9448
602.478	9409.13
602.836	9438.96
603.194	9374.33
603.552	9353.31
603.91	9322.35
604.268	9320.09
604.625	9396.7
604.983	9390.15
605.341	9389.92
605.698	9396.48
606.056	9391.05
606.413	9350.38
606.771	9332.97
607.128	9380.88
607.485	9281.22
607.843	9334.33
608.2	9409.81
608.557	9490.26
608.914	9413.88
609.272	9458.4
609.629	9439.64
609.986	9476.47
610.343	9392.41
610.7	9483.03
611.057	9472.18
611.414	9465.17
611.771	9453.65
612.127	9463.59
612.484	9400.32
612.841	9421.11
613.198	9429.02
613.554	9426.31
613.911	9482.58
614.267	9471.05
614.624	9457.49
614.98	9458.4
615.337	9511.95
615.693	9568.9
616.05	9473.99
616.406	9502.69
616.762	9511.5
617.118	9471.05
617.475	9466.3
617.831	9573.65
618.187	9561.67
618.543	9561.22
618.899	9544.27
619.255	9563.48
619.611	9550.37
619.967	9594.66
620.323	9577.26
620.678	9547.66
621.034	9526.19
621.39	9626.07
621.746	9541.33
622.101	9663.36
622.457	9542.23
622.812	9586.75
623.168	9557.38
623.523	9585.85
623.879	9614.78
624.234	9546.53
624.589	9568.9
624.945	9531.16
625.3	9643.7
625.655	9586.3
626.01	9549.69
626.365	9530.48
626.72	9542.69
627.075	9590.14
627.43	9528.68
627.785	9539.75
628.14	9494.55
628.495	9500.65
628.85	9504.04
629.205	9445.97
629.559	9537.72
629.914	9447.55
630.269	9429.92
630.623	9429.02
630.978	9514.89
631.332	9455.68
631.687	9494.78
632.041	9419.3
632.396	9437.6
632.75	9418.85
633.104	9394.44
633.459	9330.04
633.813	9326.65
634.167	9382.47
634.521	9403.71
634.875	9422.24
635.229	9375.46
635.583	9279.87
635.937	9307.89
636.291	9346.08
636.645	9234.9
636.999	9222.92
637.352	9269.7
637.706	9241.68
638.06	9283.03
638.413	9279.87
638.767	9182.02
639.121	9230.83
639.474	9124.39
639.828	9163.71
640.181	9160.32
640.534	9218.18
640.888	9161.68
641.241	9128.23
641.594	9163.49
641.947	9145.64
642.301	9120.55
642.654	9064.28
643.007	9098.63
643.36	9138.18
643.713	9031.06
644.066	9130.95
644.419	9117.61
644.771	9001.23
645.124	8903.16
645.477	8912.2
645.83	8861.57
646.182	8855.47
646.535	8840.33
646.888	8827
647.24	8810.95
647.593	8811.18
647.945	8829.94
648.298	8751.52
648.65	8785.42
649.002	8772.99
649.355	8838.98
649.707	8869.94
650.059	8805.53
650.411	8947.22
650.763	8954.23
651.115	9018.86
651.467	9047.56
651.819	9010.5
652.171	9050.72
652.523	9064.51
652.875	9024.73
653.227	8965.3
653.578	9011.18
653.93	9017.28
654.282	8997.62
654.633	8970.72
654.985	9031.29
655.337	9029.03
655.688	9019.08
656.039	9016.83
656.391	8982.7
656.742	9030.61
657.094	9040.33
657.445	9052.3
657.796	8990.39
658.147	9091.4
658.498	8988.35
658.849	8996.26
659.2	9061.8
659.551	8981.57
659.902	9048.01
660.253	9020.44
660.604	9024.51
660.955	9006.2
661.306	9079.87
661.656	9076.48
662.007	9128.91
662.358	9104.51
662.708	9146.31
663.059	9118.07
663.409	9014.34
663.76	9106.99
664.11	9060.67
664.461	9117.61
664.811	9088.01
665.161	9080.33
665.511	9162.13
665.862	9074.45
666.212	9146.09
666.562	9132.75
666.912	9081.91
667.262	9095.69
667.612	9139.31
667.962	9075.58
668.312	9105.64
668.662	9109.03
669.011	9064.28
669.361	9058.63
669.711	9149.7
670.06	9086.43
670.41	9086.88
670.76	9101.12
671.109	9103.6
671.459	9095.69
671.808	9081.68
672.157	9122.58
672.507	8998.07
672.856	9003.72
673.205	9043.49
673.554	9066.32
673.904	9029.48
674.253	9061.34
674.602	8980.22
674.951	8885.3
675.3	8840.56
675.649	8994.45
675.998	8954.23
676.346	8974.57
676.695	8927.56
677.044	8912.65
677.393	8951.06
677.741	8870.61
678.09	8939.09
678.438	8913.78
678.787	8867.45
679.135	8886.66
679.484	8843.5
679.832	8881.01
680.181	8875.59
680.529	8832.88
680.877	8793.33
681.225	8844.85
681.573	8834.01
681.922	8829.26
682.27	8775.02
682.618	8805.98
682.966	8714.91
683.314	8728.92
683.661	8734.35
684.009	8672.43
684.357	8620.68
684.705	8589.49
685.053	8645.99
685.4	8609.83
685.748	8580.68
686.095	8497.52
686.443	8488.25
686.79	8508.59
687.138	8501.58
687.485	8538.42
687.832	8495.26
688.18	8458.2
688.527	8378.88
688.874	8330.06
689.221	8319.89
689.568	8348.82
689.915	8379.1
690.262	8334.58
690.609	8210.29
690.956	8245.55
691.303	8224.98
691.65	8192.21
691.997	8180.69
692.344	8139.11
692.69	8104.31
693.037	8109.96
693.383	8051.43
693.73	8079.9
694.077	7995.16
694.423	7931.66
694.769	7948.6
695.116	7915.61
695.462	7915.39
695.808	7907.02
696.155	7852.34
696.501	7800.13
696.847	7786.35
697.193	7662.74
697.539	7762.17
697.885	7672.23
698.231	7637.88
698.577	7699.35
698.923	7613.47
699.269	7582.96
699.614	7508.16
699.96	7501.61
700.306	7569.18
700.651	7471.55
700.997	7421.61
701.342	7422.06
701.688	7366.02
702.033	7344.78
702.379	7418.22
702.724	7336.64
703.069	7349.3
703.415	7252.58
703.76	7287.38
704.105	7253.48
704.45	7190.21
704.795	7152.47
705.14	7161.28
705.485	7149.3
705.83	7075.41
706.175	7159.02
706.52	7113.37
706.865	7052.13
707.209	7040.61
707.554	6988.86
707.899	7003.77
708.243	6943.43
708.588	6928.52
708.932	6895.3
709.277	6888.52
709.621	6911.8
709.966	6829.76
710.31	6797.45
710.654	6869.76
710.998	6793.61
711.342	6754.51
711.687	6809.2
712.031	6702.54
712.375	6745.25
712.719	6754.06
713.063	6705.02
713.407	6668.86
713.75	6648.75
714.094	6645.81
714.438	6645.36
714.782	6700.73
715.125	6689.2
715.469	6607.17
715.812	6550.68
716.156	6553.16
716.499	6536.21
716.843	6534.18
717.186	6559.71
717.53	6528.08
717.873	6592.48
718.216	6542.99
718.559	6590.45
718.902	6500.06
719.246	6483.33
719.589	6481.75
719.932	6441.07
720.275	6404.24
720.617	6456.44
720.96	6455.76
721.303	6409.21
721.646	6442.66
721.989	6447.63
722.331	6469.77
722.674	6420.06
723.016	6403.11
723.359	6390.23
723.701	6406.95
724.044	6430.45
724.386	6401.3
724.729	6402.2
725.071	6400.62
725.413	6370.34
725.755	6324.24
726.097	6291.25
726.439	6314.52
726.782	6353.62
727.124	6365.14
727.465	6324.92
727.807	6335.09
728.149	6298.48
728.491	6300.06
728.833	6339.16
729.175	6296.44
729.516	6300.29
729.858	6318.82
730.199	6321.98
730.541	6315.43
730.882	6355.88
731.224	6335.09
731.565	6305.48
731.906	6263.9
732.248	6328.08
732.589	6314.75
732.93	6267.97
733.271	6274.75
733.612	6309.78
733.953	6318.14
734.294	6284.47
734.635	6288.31
734.976	6336.44
735.317	6342.77
735.658	6311.36
735.999	6319.72
736.339	6354.52
736.68	6343
737.021	6325.37
737.361	6318.36
737.702	6361.08
738.042	6335.77
738.383	6387.97
738.723	6359.04
739.063	6354.07
739.404	6386.84
739.744	6369.21
740.084	6361.08
740.424	6466.61
740.764	6400.17
741.104	6416.89
741.444	6453.05
741.784	6465.03
742.124	6469.55
742.464	6514.29
742.804	6477.91
743.143	6522.2
743.483	6536.66
743.823	6543.44
744.162	6599.49
744.502	6680.62
744.841	6603.56
745.181	6675.87
745.52	6687.17
745.86	6757.22
746.199	6746.15
746.538	6747.96
746.877	6800.84
747.216	6888.97
747.556	6924.22
747.895	6949.53
748.234	6948.18
748.573	7018.69
748.911	7164.9
749.25	7150.21
749.589	7212.58
749.928	7324.21
750.267	7374.83
750.605	7432.69
750.944	7502.29
751.283	7603.3
751.621	7682.85
751.96	7714.71
752.298	7792.22
752.636	7942.73
752.975	7967.81
753.313	8096.4
753.651	8281.93
753.989	8253
754.327	8416.61
754.666	8500
755.004	8628.36
755.342	8751.3
755.679	8923.95
756.017	8999.42
756.355	9131.62
756.693	9279.64
757.031	9419.3
757.368	9573.19
757.706	9632.18
758.044	9799.4
758.381	9951.26
758.719	10120.52
759.056	10273.74
759.394	10419.5
759.731	10533.85
760.068	10739.49
760.405	10907.62
760.743	11048.64
761.08	11216.09
761.417	11255.18
761.754	11555.06
762.091	11688.85
762.428	11830.76
762.765	11933.36
763.102	12165.89
763.438	12243.63
763.775	12414.7
764.112	12681.14
764.449	12836.61
764.785	12891.75
765.122	13027.79
765.458	13199.99
765.795	13372.87
766.131	13600.21
766.467	13782.8
