Data from hue_00_FLMS001491_21.txt Node
Date: Mon Feb 06 15:29:28 GMT 2017
User: dcchb
Spectrometer: FLMS00149
Trigger mode: 0
Integration Time (sec): 2.000000E-2
Scans to average: 10
Electric dark correction enabled: true
Nonlinearity correction enabled: false
Boxcar width: 0
XAxis mode: Wavelengths
Number of Pixels in Spectrum: 2048
>>>>>Begin Spectral Data<<<<<
341.393	1.21
341.776	1.21
342.16	1.21
342.543	-70.87
342.927	-61.83
343.31	-84.43
343.693	-88.95
344.077	-88.05
344.46	-48.5
344.843	-62.74
345.226	-35.85
345.61	-18.45
345.993	-30.42
346.376	-1.27
346.759	12.29
347.142	29.01
347.525	58.61
347.908	62.68
348.291	89.12
348.674	93.87
349.057	113.08
349.44	125.96
349.823	151.49
350.206	165.5
350.588	181.32
350.971	186.29
351.354	207.31
351.737	239.4
352.119	239.4
352.502	289.57
352.884	265.39
353.267	276.91
353.65	305.16
354.032	306.07
354.414	316.91
354.797	317.82
355.179	340.64
355.562	311.49
355.944	306.52
356.326	346.29
356.709	340.19
357.091	331.15
357.473	337.25
357.855	340.41
358.238	333.64
358.62	326.63
359.002	314.65
359.384	365.5
359.766	354.88
360.148	320.98
360.53	347.65
360.912	351.94
361.294	338.15
361.676	322.56
362.057	322.34
362.439	355.56
362.821	311.04
363.203	305.84
363.584	316.01
363.966	313.52
364.348	327.08
364.729	289.34
365.111	331.38
365.493	335.44
365.874	320.75
366.256	291.15
366.637	306.07
367.019	339.51
367.4	330.7
367.781	309.68
368.163	314.65
368.544	324.37
368.925	303.35
369.306	354.43
369.688	300.42
370.069	314.65
370.45	294.77
370.831	320.08
371.212	319.62
371.593	326.86
371.974	322.79
372.355	314.2
372.736	314.43
373.117	314.88
373.498	316.46
373.879	317.82
374.26	321.43
374.641	324.37
375.021	298.61
375.402	318.27
375.783	316.01
376.163	318.04
376.544	320.75
376.925	321.66
377.305	313.52
377.686	317.59
378.066	332.51
378.447	331.15
378.827	331.6
379.208	337.25
379.588	336.12
379.968	330.25
380.349	330.25
380.729	337.03
381.109	340.87
381.489	337.25
381.87	342.9
382.25	360.3
382.63	352.62
383.01	326.86
383.39	332.28
383.77	340.64
384.15	329.12
384.53	371.83
384.91	360.75
385.29	347.19
385.67	369.57
386.049	365.95
386.429	350.58
386.809	346.06
387.189	357.82
387.568	347.65
387.948	358.72
388.328	341.54
388.707	354.88
389.087	361.43
389.466	360.3
389.846	368.89
390.225	360.08
390.605	397.14
390.984	333.41
391.363	361.21
391.743	352.39
392.122	354.88
392.501	392.62
392.881	379.74
393.26	370.7
393.639	372.73
394.018	361.88
394.397	382.9
394.776	347.65
395.155	373.18
395.534	389.45
395.913	379.28
396.292	385.84
396.671	374.99
397.05	384.93
397.429	390.81
397.808	381.54
398.186	374.54
398.565	376.8
398.944	402.79
399.323	380.64
399.701	402.79
400.08	412.96
400.458	404.14
400.837	374.31
401.215	386.52
401.594	384.48
401.972	385.84
402.351	405.95
402.729	405.72
403.107	415.89
403.486	407.53
403.864	410.92
404.242	401.66
404.62	401.2
404.999	415.67
405.377	406.4
405.755	404.82
406.133	418.6
406.511	430.13
406.889	421.09
407.267	421.09
407.645	428.55
408.023	421.32
408.401	420.86
408.779	404.37
409.156	417.02
409.534	419.51
409.912	448.43
410.29	440.3
410.667	451.82
411.045	442.78
411.422	469.22
411.8	462.9
412.178	469.22
412.555	450.69
412.933	454.54
413.31	484.59
413.687	469.22
414.065	478.04
414.442	477.36
414.819	477.36
415.197	477.13
415.574	494.08
415.951	466.97
416.328	492.28
416.705	482.78
417.082	502.67
417.46	500.41
417.837	497.02
418.214	508.55
418.591	506.74
418.967	496.79
419.344	514.42
419.721	511.48
420.098	516.68
420.475	518.04
420.852	518.72
421.228	524.82
421.605	535.89
421.982	543.57
422.358	526.4
422.735	537.7
423.111	570.24
423.488	528.21
423.864	554.42
424.241	546.29
424.617	569.56
424.994	557.13
425.37	554.42
425.746	558.04
426.123	584.93
426.499	583.35
426.875	566.62
427.251	583.57
427.627	606.4
428.003	612.5
428.379	607.3
428.756	592.39
429.132	596
429.507	626.73
429.883	599.39
430.259	615.89
430.635	630.58
431.011	594.65
431.387	622.67
431.763	631.25
432.138	647.98
432.514	631.71
432.89	657.24
433.265	659.28
433.641	647.53
434.016	670.35
434.392	665.38
434.767	666.51
435.143	673.74
435.518	702.67
435.894	685.49
436.269	706.05
436.644	722.78
437.02	702.21
437.395	716.9
437.77	733.4
438.145	710.57
438.52	733.4
438.895	721.42
439.271	743.12
439.646	767.3
440.021	751.25
440.395	756
440.77	753.29
441.145	753.96
441.52	761.87
441.895	801.65
442.27	753.29
442.645	786.05
443.019	786.73
443.394	795.54
443.769	813.62
444.143	808.43
444.518	767.52
444.892	804.58
445.267	804.36
445.641	820.18
446.016	815.88
446.39	793.74
446.764	838.93
447.139	810.91
447.513	810.23
447.887	778.14
448.262	817.01
448.636	825.37
449.01	837.35
449.384	833.28
449.758	845.49
450.132	865.82
450.506	860.18
450.88	857.92
451.254	836.9
451.628	875.99
452.002	889.33
452.376	876.22
452.75	893.85
453.123	879.84
453.497	919.16
453.871	919.38
454.244	919.16
454.618	919.38
454.992	909.44
455.365	948.53
455.739	954.18
456.112	956.9
456.486	988.99
456.859	954.18
457.232	995.54
457.606	997.35
457.979	1017.46
458.352	1024.46
458.725	1028.31
459.099	1017.91
459.472	1036.22
459.845	1054.75
460.218	1064.92
460.591	1082.77
460.964	1109.21
461.337	1097.23
461.71	1104.01
462.083	1146.27
462.456	1113.5
462.829	1125.03
463.201	1165.03
463.574	1164.57
463.947	1176.78
464.32	1172.26
464.692	1184.69
465.065	1201.64
465.438	1194.63
465.81	1236.66
466.183	1225.59
466.555	1270.33
466.928	1260.16
467.3	1255.87
467.672	1263.55
468.045	1297.68
468.417	1319.6
468.789	1337.22
469.161	1317.11
469.534	1369.09
469.906	1364.79
470.278	1398.69
470.65	1417.22
471.022	1408.86
471.394	1454.51
471.766	1450.67
472.138	1465.81
472.51	1505.81
472.882	1517.33
473.253	1564.56
473.625	1539.48
473.997	1602.08
474.369	1584
474.74	1633.94
475.112	1669.42
475.484	1683.88
475.855	1712.81
476.227	1728.17
476.598	1756.2
476.97	1778.8
477.341	1814.95
477.713	1891.11
478.084	1866.48
478.455	1907.83
478.827	1929.53
479.198	1998.68
479.569	2008.62
479.94	2043.65
480.311	2070.76
480.682	2106.24
481.053	2177.2
481.424	2223.76
481.795	2221.95
482.166	2232.79
482.537	2285.45
482.908	2335.16
483.279	2366.8
483.65	2407.48
484.021	2444.31
484.391	2466.23
484.762	2513.24
485.133	2520.02
485.503	2553.92
485.874	2613.35
486.244	2635.72
486.615	2721.37
486.985	2726.11
487.356	2791.88
487.726	2808.82
488.097	2917.07
488.467	2899.44
488.837	2967.01
489.207	3026.45
489.578	3025.09
489.948	3075.03
490.318	3102.6
490.688	3133.56
491.058	3225.31
491.428	3198.19
491.798	3341.69
492.168	3312.54
492.538	3334.91
492.908	3363.39
493.278	3403.39
493.648	3414.46
494.017	3475.7
494.387	3510.27
494.757	3543.95
495.126	3550.73
495.496	3589.14
495.866	3622.59
496.235	3669.59
496.605	3675.24
496.974	3705.98
497.344	3724.05
497.713	3756.6
498.082	3781
498.452	3862.13
498.821	3883.6
499.19	3894.22
499.559	3881.11
499.928	3936.7
500.298	4018.28
500.667	4033.43
501.036	4006.53
501.405	4041.33
501.774	4070.71
502.143	4057.83
502.512	4126.08
502.88	4131.05
503.249	4102.8
503.618	4179.86
503.987	4220.31
504.356	4203.14
504.724	4224.61
505.093	4234.55
505.462	4256.7
505.83	4287.66
506.199	4346.41
506.567	4375.56
506.936	4345.51
507.304	4430.7
507.672	4432.28
508.041	4446.97
508.409	4443.36
508.777	4480.64
509.145	4552.73
509.514	4509.12
509.882	4511.15
510.25	4559.51
510.618	4558.61
510.986	4610.13
511.354	4668.89
511.722	4666.4
512.09	4668.89
512.458	4663.24
512.826	4688.55
513.193	4727.64
513.561	4722.67
513.929	4788.21
514.297	4821.2
514.664	4836.34
515.032	4842.22
515.4	4846.51
515.767	4839.28
516.135	4902.55
516.502	4867.08
516.869	4956.56
517.237	4947.98
517.604	4949.56
517.972	4956.34
518.339	5003.12
518.706	5007.86
519.073	5039.27
519.44	5064.13
519.808	5075.21
520.175	5103
520.542	5099.61
520.909	5160.4
521.276	5112.04
521.643	5195.43
522.009	5201.3
522.376	5215.99
522.743	5272.71
523.11	5310.23
523.477	5328.53
523.843	5345.93
524.21	5353.16
524.577	5415.99
524.943	5396.1
525.31	5484.69
525.676	5554.74
526.043	5540.73
526.409	5550.45
526.776	5584.8
527.142	5594.97
527.508	5623.67
527.874	5658.02
528.241	5673.83
528.607	5725.13
528.973	5763.1
529.339	5721.74
529.705	5799.48
530.071	5879.7
530.437	5915.18
530.803	5850.1
531.169	5910.21
531.535	5923.77
531.901	5915.18
532.267	6001.51
532.632	6013.03
532.998	6048.97
533.364	6046.25
533.73	6045.8
534.095	6138.91
534.461	6144.56
534.826	6139.13
535.192	6197.21
535.557	6296.64
535.923	6234.72
536.288	6310.88
536.653	6274.72
537.019	6291.9
537.384	6292.57
537.749	6334.38
538.114	6373.02
538.479	6387.04
538.845	6437.66
539.21	6453.7
539.575	6457.54
539.94	6466.58
540.305	6540.7
540.67	6517.88
541.034	6555.17
541.399	6638.78
541.764	6512.46
542.129	6664.09
542.494	6735.27
542.858	6691.43
543.223	6734.14
543.587	6743.86
543.952	6710.87
544.316	6813.92
544.681	6776.86
545.045	6828.38
545.41	6916.51
545.774	6857.98
546.138	6961.26
546.503	6969.62
546.867	6982.5
547.231	6955.38
547.595	6989.51
547.959	7017.08
548.324	7050.75
548.688	7070.63
549.052	7095.27
549.416	7114.25
549.779	7149.95
550.143	7172.1
550.507	7198.99
550.871	7231.31
551.235	7255.71
551.599	7314.47
551.962	7289.16
552.326	7303.4
552.689	7391.3
553.053	7340.68
553.417	7389.04
553.78	7453.45
554.143	7427.91
554.507	7467.91
554.87	7476.95
555.234	7605.08
555.597	7510.62
555.96	7548.36
556.323	7646.66
556.686	7633.33
557.05	7695.48
557.413	7708.81
557.776	7702.48
558.139	7765.53
558.502	7805.53
558.865	7822.03
559.228	7821.12
559.59	7848.01
559.953	7890.72
560.316	7933.44
560.679	7957.16
561.041	7976.15
561.404	7975.47
561.767	8042.81
562.129	8016.82
562.492	8080.78
562.854	8097.27
563.217	8095.47
563.579	8131.4
563.941	8117.61
564.304	8252.75
564.666	8271.05
565.028	8285.97
565.39	8287.32
565.753	8306.98
566.115	8359.41
566.477	8419.52
566.839	8368.23
567.201	8426.3
567.563	8493.19
567.925	8515.79
568.287	8518.73
568.648	8547.66
569.01	8648.67
569.372	8612.51
569.734	8634.43
570.095	8732.74
570.457	8733.64
570.819	8776.35
571.18	8819.06
571.542	8848.89
571.903	8882.79
572.265	8985.84
572.626	8989.45
572.987	9011.37
573.349	9071.94
573.71	9102.67
574.071	9201.65
574.432	9214.76
574.794	9287.98
575.155	9343.34
575.516	9382.21
575.877	9401.87
576.238	9523.45
576.599	9530.23
576.96	9627.18
577.32	9713.73
577.681	9775.42
578.042	9887.51
578.403	9911.01
578.763	9999.14
579.124	10113.94
579.485	10195.75
579.845	10280.94
580.206	10340.38
580.566	10509.41
580.927	10572.91
581.287	10779.46
581.648	10862.62
582.008	10973.13
582.368	11077.53
582.728	11221.71
583.089	11375.15
583.449	11386.45
583.809	11695.37
584.169	11815.82
584.529	11944.18
584.889	12166.09
585.249	12343.49
585.609	12475.24
585.969	12729.47
586.329	12886.98
586.688	13122.68
587.048	13356.34
587.408	13479.28
587.768	13643.12
588.127	13868.87
588.487	14134.63
588.846	14415.3
589.206	14612.58
589.565	14782.52
589.925	15139.57
590.284	15405.33
590.643	15571.2
591.003	15877.63
591.362	16147
591.721	16381.8
592.08	16644.84
592.44	16972.52
592.799	17207.32
593.158	17407.99
593.517	17757.58
593.876	18057.92
594.235	18198.93
594.593	18646.83
594.952	18901.51
595.311	19075.29
595.67	19365.9
596.029	19836.17
596.387	20087.01
596.746	20430.73
597.104	20592.99
597.463	20926.09
597.822	21334.21
598.18	21505.73
598.538	21811.71
598.897	22128.99
599.255	22250.57
599.613	22945.02
599.972	23043.55
600.33	23324.22
600.688	23541.16
601.046	23890.53
601.404	24157.87
601.762	24401.93
602.12	24807.79
602.478	25077.84
602.836	25332.3
603.194	25483.48
603.552	25646.19
603.91	26047.99
604.268	26379.5
604.625	26573.62
604.983	26823.33
605.341	26964.8
605.698	27440.95
606.056	27574.5
606.413	27919.8
606.771	28182.85
607.128	28447.92
607.485	28417.87
607.843	28731.53
608.2	29147.34
608.557	29308.01
608.914	29407.9
609.272	29794.1
609.629	30076.13
609.986	30368.55
610.343	30423.69
610.7	30801.53
611.057	30869.1
611.414	31173.5
611.771	31366.49
612.127	31556.32
612.484	31758.57
612.841	32090.09
613.198	32003.99
613.554	32224.1
613.911	32577.99
614.267	32588.38
614.624	32704.31
614.98	33027.01
615.337	33208.48
615.693	33222.04
616.05	33552.2
616.406	33774.11
616.762	33698.18
617.118	33968.23
617.475	34019.53
617.831	34448.9
618.187	34442.34
618.543	34550.81
618.899	34970.46
619.255	34967.98
619.611	34953.06
619.967	35328.87
620.323	35438.7
620.678	35410
621.034	35559.83
621.39	35554.18
621.746	35463.56
622.101	36175.18
622.457	35996.43
622.812	36108.97
623.168	36242.52
623.523	36400.03
623.879	36500.14
624.234	36383.76
624.589	36543.3
624.945	36706.92
625.3	36728.38
625.655	36763.64
626.01	36907.81
626.365	36917.08
626.72	37017.64
627.075	37137.87
627.43	37004.99
627.785	37125.66
628.14	37333.79
628.495	37344.87
628.85	37366.11
629.205	37287.24
629.559	37701.69
629.914	37312.1
630.269	37426.45
630.623	37551.41
630.978	37428.93
631.332	37682.48
631.687	37731.97
632.041	37719.77
632.396	37671.18
632.75	37576.5
633.104	37596.84
633.459	37495.6
633.813	37629.38
634.167	37711.18
634.521	37666.21
634.875	37773.78
635.229	37741.01
635.583	37516.16
635.937	37590.06
636.291	37636.84
636.645	37754.35
636.999	37608.36
637.352	37876.15
637.706	37560.23
638.06	37883.16
638.413	37750.5
638.767	37602.26
639.121	37738.75
639.474	37517.29
639.828	37498.31
640.181	37667.57
640.534	37661.69
640.888	37491.75
641.241	37351.42
641.594	37608.81
641.947	37667.57
642.301	37594.58
642.654	37584.18
643.007	37662.15
643.36	37654.01
643.713	37500.57
644.066	37607.68
644.419	37536.95
644.771	37235.72
645.124	36886.35
645.477	36906.68
645.83	36546.24
646.182	36605
646.535	36502.4
646.888	36649.06
647.24	36466.7
647.593	36521.84
647.945	36502.63
648.298	36467.83
648.65	36219.25
649.002	36311.45
649.355	36352.35
649.707	36256.08
650.059	36560.25
650.411	36930.64
650.763	36935.84
651.115	37216.73
651.467	37193.46
651.819	37307.58
652.171	37151.42
652.523	37185.32
652.875	37097.19
653.227	36898.55
653.578	37085.21
653.93	36980.36
654.282	36941.94
654.633	36906.23
654.985	36963.86
655.337	36934.03
655.688	36836.86
656.039	36982.16
656.391	36660.36
656.742	36656.07
657.094	36932
657.445	36951.88
657.796	36845.22
658.147	36757.54
658.498	36842.28
658.849	36903.52
659.2	36844.31
659.551	36654.49
659.902	36849.74
660.253	36884.76
660.604	36788.72
660.955	36680.7
661.306	36850.64
661.656	36739.91
662.007	36655.62
662.358	36668.73
662.708	36769.74
663.059	36642.29
663.409	36587.15
663.76	36856.52
664.11	36768.38
664.461	36687.26
664.811	36725.22
665.161	36714.37
665.511	36687.03
665.862	36780.36
666.212	36759.34
666.562	36833.24
666.912	36696.75
667.262	36686.13
667.612	36710.76
667.962	36695.62
668.312	36616.75
668.662	36704.88
669.011	36666.69
669.361	36655.17
669.711	36712.79
670.06	36557.77
670.41	36522.29
670.76	36487.26
671.109	36689.29
671.459	36610.42
671.808	36509.18
672.157	36566.81
672.507	36330.43
672.856	36472.35
673.205	36400.94
673.554	36506.92
673.904	36393.25
674.253	36550.54
674.602	36459.47
674.951	35908.52
675.3	35770.67
675.649	36286.14
675.998	36286.14
676.346	36241.62
676.695	36450.43
677.044	36150.77
677.393	36370.65
677.741	36301.73
678.09	36211.34
678.438	36065.8
678.787	36181.96
679.135	36106.48
679.484	36019.48
679.832	36092.92
680.181	35818.35
680.529	35920.5
680.877	35884.56
681.225	35722.99
681.573	36043.66
681.922	35659.49
682.27	35647.28
682.618	35573.84
682.966	35520.96
683.314	35626.72
683.661	35552.14
684.009	35492.71
684.357	35211.81
684.705	35350.12
685.053	35300.85
685.4	35348.99
685.748	35180.4
686.095	35213.17
686.443	34999.16
686.79	34985.15
687.138	34924.36
687.485	35009.11
687.832	34859.28
688.18	34849.11
688.527	34716.69
688.874	34723.47
689.221	34732.73
689.568	34508.33
689.915	34563.24
690.262	34490.03
690.609	34231.5
690.956	34300.65
691.303	34189.24
691.65	34143.37
691.997	33926.65
692.344	33795.58
692.69	33849.59
693.037	33878.52
693.383	33526.89
693.73	33656.37
694.077	33525.76
694.423	33504.51
694.769	33373.9
695.116	33244.63
695.462	33193.34
695.808	33122.83
696.155	33187.23
696.501	32863.85
696.847	32904.53
697.193	32682.39
697.539	32850.75
697.885	32618.66
698.231	32515.84
698.577	32611.88
698.923	32635.16
699.269	32307.71
699.614	32176.87
699.96	32126.02
700.306	32230.42
700.651	32174.15
700.997	31899.36
701.342	31959.47
701.688	31878.57
702.033	31810.32
702.379	31753.15
702.724	31660.95
703.069	31687.84
703.415	31314.06
703.76	31340.5
704.105	31445.81
704.45	31251.47
704.795	31029.1
705.14	30973.96
705.485	30991.36
705.83	30853.51
706.175	30837.69
706.52	30899.16
706.865	30751.37
707.209	30649.22
707.554	30514.08
707.899	30689.22
708.243	30424.82
708.588	30442.22
708.932	30211.72
709.277	30259.4
709.621	30204.71
709.966	29962.69
710.31	30119.07
710.654	29878.85
710.998	29832.07
711.342	29921.78
711.687	29833.42
712.031	29668.01
712.375	29538.52
712.719	29590.49
713.063	29564.51
713.407	29566.76
713.75	29490.38
714.094	29396.15
714.438	29256.04
714.782	29285.42
715.125	29105.53
715.469	29100.34
715.812	29010.4
716.156	28911.64
716.499	28904.18
716.843	28987.57
717.186	28809.27
717.53	28920.68
717.873	28909.16
718.216	28736.28
718.559	28706.9
718.902	28481.6
719.246	28516.4
719.589	28470.52
719.932	28398.66
720.275	28348.27
720.617	28431.65
720.96	28288.15
721.303	28403.41
721.646	28480.69
721.989	28081.61
722.331	28223.07
722.674	28028.5
723.016	28178.33
723.359	28068.05
723.701	28030.31
724.044	27839.13
724.386	27811.33
724.729	27911.67
725.071	27678
725.413	27805
725.755	27798.22
726.097	27618.12
726.439	27552.13
726.782	27523.88
727.124	27503.77
727.465	27346.71
727.807	27484.79
728.149	27473.03
728.491	27351.23
728.833	27287.73
729.175	27300.61
729.516	27241.18
729.858	27163.44
730.199	27104
730.541	27216.32
730.882	27087.51
731.224	27113.72
731.565	26967.96
731.906	27069.88
732.248	26950.79
732.589	26826.95
732.93	26759.38
733.271	26751.7
733.612	26738.82
733.953	26749.66
734.294	26676.67
734.635	26690.23
734.976	26601.87
735.317	26572.04
735.658	26639.61
735.999	26520.74
736.339	26458.37
736.68	26472.61
737.021	26264.25
737.361	26383.35
737.702	26433.06
738.042	26313.74
738.383	26171.83
738.723	26208.21
739.063	26208.66
739.404	26159.17
739.744	26119.17
740.084	25972.96
740.424	26030.81
740.764	26032.39
741.104	25941.78
741.444	25877.82
741.784	25795.79
742.124	25839.86
742.464	25789.92
742.804	25724.15
743.143	25699.52
743.483	25724.15
743.823	25619.75
744.162	25458.85
744.502	25645.96
744.841	25488.91
745.181	25490.04
745.52	25430.38
745.86	25388.12
746.199	25434.9
746.538	25316.03
746.877	25496.14
747.216	25313.54
747.556	25325.52
747.895	25329.36
748.234	25185.64
748.573	25176.15
748.911	25177.28
749.25	25095.02
749.589	24981.57
749.928	24988.35
750.267	25029.48
750.605	24987
750.944	24970.73
751.283	24866.1
751.621	24826.1
751.96	24729.6
752.298	24711.75
752.636	24767.57
752.975	24565.99
753.313	24500.91
753.651	24648.25
753.989	24491.87
754.327	24366.68
754.666	24394.47
755.004	24384.3
755.342	24384.3
755.679	24234.7
756.017	24140.47
756.355	24203.29
756.693	24136.4
757.031	24214.14
757.368	24025.44
757.706	23893.47
758.044	24006.46
758.381	23934.6
758.719	23775.73
759.056	23747.03
759.394	23718.78
759.731	23573.7
760.068	23569.18
760.405	23520.14
760.743	23356.76
761.08	23353.37
