Data from hue_120_FLMS001491_00072.txt Node
Date: Tue Feb 07 16:59:57 GMT 2017
User: dcchb
Spectrometer: FLMS00149
Trigger mode: 0
Integration Time (sec): 2.000000E-2
Scans to average: 10
Electric dark correction enabled: true
Nonlinearity correction enabled: false
Boxcar width: 0
XAxis mode: Wavelengths
Number of Pixels in Spectrum: 2048
>>>>>Begin Spectral Data<<<<<
341.393	-5.04
341.776	-5.04
342.16	-5.04
342.543	-80.52
342.927	-71.71
343.31	-54.31
343.693	-97.92
344.077	-66.51
344.46	-66.28
344.843	-55.66
345.226	-45.04
345.61	-33.06
345.993	-19.73
346.376	-14.31
346.759	8.52
347.142	11.68
347.525	49.42
347.908	71.34
348.291	85.35
348.674	105.01
349.057	121.51
349.44	102.07
349.823	151.79
350.206	184.11
350.588	178.91
350.971	197.44
351.354	236.76
351.737	246.93
352.119	263.65
352.502	245.12
352.884	264.56
353.267	292.58
353.65	283.54
354.032	300.26
354.414	314.27
354.797	317.66
355.179	321.28
355.562	338.68
355.944	319.02
356.326	334.84
356.709	324.44
357.091	335.74
357.473	352.91
357.855	326.7
358.238	341.39
358.62	335.51
359.002	345.68
359.384	330.32
359.766	344.1
360.148	321.95
360.53	331.45
360.912	330.09
361.294	342.97
361.676	328.51
362.057	319.02
362.439	325.34
362.821	337.55
363.203	331.9
363.584	345.91
363.966	322.18
364.348	332.58
364.729	317.66
365.111	322.41
365.493	328.96
365.874	334.38
366.256	310.43
366.637	324.21
367.019	319.69
367.4	325.34
367.781	319.69
368.163	315.85
368.544	310.66
368.925	314.27
369.306	312.69
369.688	308.4
370.069	301.16
370.45	335.06
370.831	307.27
371.212	324.89
371.593	313.82
371.974	328.28
372.355	330.32
372.736	332.8
373.117	314.27
373.498	317.44
373.879	307.27
374.26	311.33
374.641	306.14
375.021	308.85
375.402	320.6
375.783	312.69
376.163	334.38
376.544	335.51
376.925	335.51
377.305	323.54
377.686	340.26
378.066	337.1
378.447	335.29
378.827	325.12
379.208	335.06
379.588	340.03
379.968	340.71
380.349	348.62
380.729	329.41
381.109	325.34
381.489	335.29
381.87	337.77
382.25	330.09
382.63	346.81
383.01	349.75
383.39	340.49
383.77	342.75
384.15	359.92
384.53	336.42
384.91	325.34
385.29	348.17
385.67	354.72
386.049	369.86
386.429	355.4
386.809	364.67
387.189	368.06
387.568	389.3
387.948	364.89
388.328	380.26
388.707	372.35
389.087	367.6
389.466	386.36
389.846	364.44
390.225	379.81
390.605	375.29
390.984	379.81
391.363	377.55
391.743	392.24
392.122	382.74
392.501	403.76
392.881	359.69
393.26	382.52
393.639	391.78
394.018	383.42
394.397	385.23
394.776	393.59
395.155	412.12
395.534	413.03
395.913	402.18
396.292	383.87
396.671	395.85
397.05	402.86
397.429	414.38
397.808	381.16
398.186	400.14
398.565	411.22
398.944	406.47
399.323	410.77
399.701	437.43
400.08	415.96
400.458	407.83
400.837	433.82
401.215	407.15
401.594	397.89
401.972	439.92
402.351	429.52
402.729	414.38
403.107	436.98
403.486	408.73
403.864	433.59
404.242	429.75
404.62	449.86
404.999	435.17
405.377	436.75
405.755	446.7
406.133	456.64
406.511	445.57
406.889	469.07
407.267	441.5
407.645	433.59
408.023	455.51
408.401	458.22
408.779	444.44
409.156	461.84
409.534	500.48
409.912	481.27
410.29	455.28
410.667	488.28
411.045	514.49
411.422	483.76
411.8	502.52
412.178	502.29
412.555	496.19
412.933	492.12
413.31	506.81
413.687	515.85
414.065	509.75
414.442	527.15
414.819	516.75
415.197	517.2
415.574	544.77
415.951	527.15
416.328	533.7
416.705	529.18
417.082	537.77
417.46	542.74
417.837	551.55
418.214	546.58
418.591	547.49
418.967	545.9
419.344	548.84
419.721	535.96
420.098	577.77
420.475	558.56
420.852	569.63
421.228	574.83
421.605	599.24
421.982	567.37
422.358	603.76
422.735	589.74
423.111	596.98
423.488	598.11
423.864	609.18
424.241	617.77
424.617	612.12
424.994	608.95
425.37	636.07
425.746	624.09
426.123	622.51
426.499	609.4
426.875	657.31
427.251	624.32
427.627	658.44
428.003	657.77
428.379	649.18
428.756	649.63
429.132	676.75
429.507	668.61
429.883	676.52
430.259	695.96
430.635	670.19
431.011	704.54
431.387	711.55
431.763	707.93
432.138	714.94
432.514	733.47
432.89	721.72
433.265	741.38
433.641	751.77
434.016	760.36
434.392	759.68
434.767	775.5
435.143	782.51
435.518	767.82
435.894	792.45
436.269	796.74
436.644	828.38
437.02	801.49
437.395	818.89
437.77	846.46
438.145	847.59
438.52	825.9
438.895	843.07
439.271	824.77
439.646	839.91
440.021	874.26
440.395	886.23
440.77	859.79
441.145	868.83
441.52	870.64
441.895	897.31
442.27	900.47
442.645	884.2
443.019	909.96
443.394	926.01
443.769	928.72
444.143	921.71
444.518	937.08
444.892	941.37
445.267	923.29
445.641	964.42
446.016	979.34
446.39	954.93
446.764	956.06
447.139	963.29
447.513	988.15
447.887	980.69
448.262	986.57
448.636	990.64
449.01	1024.99
449.384	1015.95
449.758	1015.27
450.132	1029.51
450.506	1053.91
450.88	1039.9
451.254	1047.59
451.628	1051.88
452.002	1069.51
452.376	1073.8
452.75	1105.21
453.123	1117.19
453.497	1115.15
453.871	1135.49
454.244	1156.96
454.618	1125.32
454.992	1149.5
455.365	1168.03
455.739	1171.2
456.112	1193.8
456.486	1232.67
456.859	1227.69
457.232	1261.37
457.606	1224.76
457.979	1271.08
458.352	1287.58
458.725	1295.26
459.099	1296.39
459.472	1333.68
459.845	1337.07
460.218	1340.23
460.591	1362.61
460.964	1374.81
461.337	1400.34
461.71	1427.46
462.083	1448.03
462.456	1481.02
462.829	1465.88
463.201	1503.62
463.574	1492.09
463.947	1506.1
464.32	1565.09
464.692	1567.35
465.065	1604.86
465.438	1592.43
465.81	1650.28
466.183	1673.56
466.555	1695.7
466.928	1711.52
467.3	1719.66
467.672	1738.19
468.045	1801.69
468.417	1786.55
468.789	1797.85
469.161	1857.73
469.534	1885.53
469.906	1903.83
470.278	1985.87
470.65	1994.23
471.022	2028.35
471.394	2064.96
471.766	2096.82
472.138	2139.08
472.51	2183.83
472.882	2231.96
473.253	2294.33
473.625	2326.87
473.997	2400.09
474.369	2438.74
474.74	2495.91
475.112	2560.99
475.484	2589.24
475.855	2651.61
476.227	2681.21
476.598	2756.02
476.97	2818.84
477.341	2880.76
477.713	2964.82
478.084	3019.29
478.455	3101.54
478.827	3250.24
479.198	3285.04
479.569	3312.38
479.94	3487.75
480.311	3531.59
480.682	3654.07
481.053	3748.98
481.424	3837.79
481.795	3901.52
482.166	4038.69
482.537	4146.49
482.908	4239.37
483.279	4381.74
483.65	4443.2
484.021	4597.55
484.391	4738.34
484.762	4830.99
485.133	4882.96
485.503	5007.03
485.874	5182.62
486.244	5261.03
486.615	5420.58
486.985	5537.64
487.356	5742.6
487.726	5804.75
488.097	5996.38
488.467	6036.15
488.837	6259.65
489.207	6406.54
489.578	6613.31
489.948	6763.82
490.318	6874.78
490.688	6961.1
491.058	7160.19
491.428	7305.95
491.798	7456.68
492.168	7610.35
492.538	7736.68
492.908	7920.17
493.278	8123.78
493.648	8119.26
494.017	8349.99
494.387	8451.01
494.757	8676.31
495.126	8772.81
495.496	8851.45
495.866	9035.62
496.235	9152.23
496.605	9241.95
496.974	9401.49
497.344	9542.96
497.713	9687.36
498.082	9735.49
498.452	9887.13
498.821	10085.31
499.19	10150.17
499.559	10362.59
499.928	10408.47
500.298	10474.68
500.667	10636.49
501.036	10653.43
501.405	10834.45
501.774	10899.3
502.143	11015.23
502.512	11136.81
502.88	11217.94
503.249	11242.8
503.618	11339.74
503.987	11442.34
504.356	11571.38
504.724	11610.47
505.093	11699.28
505.462	11807.75
505.83	11881.42
506.199	11996.45
506.567	12152.6
506.936	12254.75
507.304	12350.57
507.672	12462.43
508.041	12518.92
508.409	12581.29
508.777	12669.88
509.145	12707.84
509.514	12787.84
509.882	12887.05
510.25	12888.86
510.618	12984.9
510.986	12982.64
511.354	13141.05
511.722	13228.51
512.09	13315.51
512.458	13315.74
512.826	13472.12
513.193	13458.78
513.561	13484.77
513.929	13659.91
514.297	13693.35
514.664	13803.86
515.032	13761.38
515.4	13965.89
515.767	13890.86
516.135	14003.4
516.502	13903.52
516.869	14056.06
517.237	14122.95
517.604	14018.09
517.972	14134.47
518.339	14226.22
518.706	14180.8
519.073	14299.89
519.44	14338.54
519.808	14402.26
520.175	14342.83
520.542	14552.54
520.909	14583.5
521.276	14571.75
521.643	14613.78
522.009	14724.29
522.376	14765.19
522.743	14748.92
523.11	14845.41
523.477	14993.43
523.843	15062.81
524.21	15124.28
524.577	15173.77
524.943	15223.71
525.31	15232.75
525.676	15333.09
526.043	15262.13
526.409	15316.81
526.776	15453.08
527.142	15397.04
527.508	15387.77
527.874	15423.25
528.241	15391.16
528.607	15536.47
528.973	15494.21
529.339	15448.34
529.705	15652.63
530.071	15649.46
530.437	15611.27
530.803	15738.72
531.169	15641.55
531.535	15632.06
531.901	15572.63
532.267	15671.83
532.632	15677.26
532.998	15732.85
533.364	15692.62
533.73	15682
534.095	15714.77
534.461	15707.54
534.826	15679.74
535.192	15695.11
535.557	15691.72
535.923	15645.17
536.288	15618.05
536.653	15651.5
537.019	15595.9
537.384	15597.94
537.749	15608.56
538.114	15656.69
538.479	15529.24
538.845	15480.43
539.21	15560.88
539.575	15448.56
539.94	15456.92
540.305	15545.28
540.67	15424.16
541.034	15489.92
541.399	15465.29
541.764	15391.39
542.129	15344.61
542.494	15287.21
542.858	15345.97
543.223	15249.92
543.587	15306.19
543.952	15188.91
544.316	15273.43
544.681	15162.02
545.045	15201.34
545.41	15179.87
545.774	15131.73
546.138	15134.67
546.503	15097.84
546.867	14985.07
547.231	15122.7
547.595	15061.45
547.959	14960.44
548.324	14942.14
548.688	14886.32
549.052	14940.55
549.416	14884.51
549.779	14881.57
550.143	14891.52
550.507	14858.75
550.871	14783.5
551.235	14783.04
551.599	14827.56
551.962	14769.48
552.326	14747.11
552.689	14674.35
553.053	14715.25
553.417	14676.15
553.78	14856.04
554.143	14607.68
554.507	14685.42
554.87	14652.43
555.234	14757.73
555.597	14624.4
555.96	14614.91
556.323	14669.6
556.686	14578.76
557.05	14630.05
557.413	14600.45
557.776	14566.55
558.139	14632.54
558.502	14648.58
558.865	14643.16
559.228	14672.09
559.59	14630.51
559.953	14555.48
560.316	14755.47
560.679	14626.89
561.041	14690.16
561.404	14619.66
561.767	14629.6
562.129	14642.71
562.492	14803.38
562.854	14698.53
563.217	14660.33
563.579	14655.36
563.941	14759.77
564.304	14795.92
564.666	14859.2
565.028	14838.64
565.39	14868.24
565.753	14785.98
566.115	14913.66
566.477	14937.62
566.839	15001.34
567.201	14942.59
567.563	14936.94
567.925	14985.3
568.287	14915.02
568.648	14997.05
569.01	14982.13
569.372	15046.09
569.734	15059.87
570.095	14991.17
570.457	15186.2
570.819	15058.74
571.18	15059.42
571.542	15212.41
571.903	15163.15
572.265	15185.97
572.626	15222.58
572.987	15247.66
573.349	15202.69
573.71	15295.8
574.071	15274.1
574.432	15323.59
574.794	15322.69
575.155	15400.65
575.516	15331.73
575.877	15346.64
576.238	15360.88
576.599	15421.44
576.96	15384.38
577.32	15311.62
577.681	15364.5
578.042	15486.08
578.403	15366.76
578.763	15404.5
579.124	15405.17
579.485	15478.39
579.845	15442.24
580.206	15481.56
580.566	15320.88
580.927	15414.67
581.287	15440.43
581.648	15385.29
582.008	15460.09
582.368	15429.81
582.728	15386.42
583.089	15421.9
583.449	15502.8
583.809	15364.95
584.169	15463.93
584.529	15374.67
584.889	15545.06
585.249	15403.82
585.609	15387.1
585.969	15382.12
586.329	15436.36
586.688	15381.45
587.048	15324.27
587.408	15392.97
587.768	15365.18
588.127	15342.8
588.487	15300.09
588.846	15450.37
589.206	15237.04
589.565	15239.53
589.925	15295.12
590.284	15257.61
590.643	15353.42
591.003	15297.38
591.362	15319.07
591.721	15324.5
592.08	15241.56
592.44	15389.58
592.799	15292.86
593.158	15299.41
593.517	15251.28
593.876	15302.8
594.235	15224.84
594.593	15302.8
594.952	15252.86
595.311	15238.85
595.67	15209.92
596.029	15259.64
596.387	15325.4
596.746	15322.69
597.104	15184.16
597.463	15206.31
597.822	15286.53
598.18	15151.85
598.538	15218.96
598.897	15310.71
599.255	15069.36
599.613	15335.12
599.972	15246.76
600.33	15277.27
600.688	15108.68
601.046	15277.72
601.404	15284.95
601.762	15146.2
602.12	15285.86
602.478	15212.64
602.836	15315.01
603.194	15218.06
603.552	15189.81
603.91	15153.88
604.268	15285.18
604.625	15171.28
604.983	15254.22
605.341	15280.66
605.698	15322.46
606.056	15346.64
606.413	15319.75
606.771	15379.19
607.128	15357.04
607.485	15195.01
607.843	15291.5
608.2	15330.15
608.557	15415.12
608.914	15324.5
609.272	15457.6
609.629	15450.82
609.986	15454.89
610.343	15399.3
610.7	15545.96
611.057	15445.85
611.414	15415.34
611.771	15487.66
612.127	15552.29
612.484	15514.1
612.841	15451.27
613.198	15462.57
613.554	15496.7
613.911	15630.03
614.267	15568.11
614.624	15544.15
614.98	15502.35
615.337	15611.27
615.693	15604.49
616.05	15558.16
616.406	15683.13
616.762	15678.16
617.118	15544.83
617.475	15626.64
617.831	15691.04
618.187	15727.43
618.543	15661.66
618.899	15735.11
619.255	15794.99
619.611	15725.62
619.967	15770.59
620.323	15821.66
620.678	15726.75
621.034	15737.14
621.39	15687.43
621.746	15760.19
622.101	15924.71
622.457	15620.31
622.812	15742.11
623.168	15767.88
623.523	15776.46
623.879	15845.61
624.234	15685.39
624.589	15811.04
624.945	15768.33
625.3	15808.33
625.655	15694.66
626.01	15731.49
626.365	15844.26
626.72	15758.84
627.075	15749.35
627.43	15743.47
627.785	15671.16
628.14	15689.01
628.495	15731.72
628.85	15774.43
629.205	15667.77
629.559	15811.94
629.914	15653.3
630.269	15630.93
630.623	15613.53
630.978	15674.55
631.332	15650.82
631.687	15704.83
632.041	15624.15
632.396	15719.52
632.75	15599.52
633.104	15660.99
633.459	15484.49
633.813	15574.44
634.167	15456.92
634.521	15464.83
634.875	15574.44
635.229	15563.81
635.583	15393.42
635.937	15423.48
636.291	15390.26
636.645	15445.17
636.999	15356.81
637.352	15376.02
637.706	15327.89
638.06	15326.76
638.413	15378.96
638.767	15261.9
639.121	15325.63
639.474	15184.16
639.828	15235.46
640.181	15305.29
640.534	15256.48
640.888	15259.87
641.241	15081.11
641.594	15165.41
641.947	15218.29
642.301	15161.34
642.654	15084.73
643.007	15136.48
643.36	15085.18
643.713	15046.31
644.066	15119.08
644.419	15002.7
644.771	14944.85
645.124	14867.11
645.477	14877.5
645.83	14660.11
646.182	14621.69
646.535	14602.03
646.888	14654.69
647.24	14600.22
647.593	14590.96
647.945	14567.68
648.298	14517.51
648.65	14590.73
649.002	14461.92
649.355	14595.48
649.707	14489.04
650.059	14648.81
650.411	14868.01
650.763	14837.05
651.115	14877.05
651.467	14822.59
651.819	14889.71
652.171	14843.61
652.523	14839.54
652.875	14850.39
653.227	14793.66
653.578	14890.39
653.93	14824.85
654.282	14854
654.633	14837.51
654.985	14895.58
655.337	14853.1
655.688	14835.92
656.039	14907.56
656.391	14855.36
656.742	14849.71
657.094	14907.79
657.445	14866.43
657.796	14828.24
658.147	14823.95
658.498	14814
658.849	14902.14
659.2	14807.45
659.551	14802.03
659.902	14860.1
660.253	14890.61
660.604	14825.75
660.955	14830.05
661.306	14897.39
661.656	14869.37
662.007	14919.09
662.358	14865.08
662.708	14929.48
663.059	14903.49
663.409	14762.25
663.76	14927.67
664.11	14875.02
664.461	14942.59
664.811	14913.66
665.161	14848.58
665.511	14867.56
665.862	14929.48
666.212	14956.82
666.562	14888.8
666.912	14941.23
667.262	14952.08
667.612	14832.53
667.962	14871.4
668.312	14896.94
668.662	14948.01
669.011	14998.41
669.361	14861.23
669.711	14883.15
670.06	14816.94
670.41	14833.89
670.76	14812.42
671.109	14928.12
671.459	14854.23
671.808	14809.03
672.157	14799.54
672.507	14797.73
672.856	14692.65
673.205	14759.32
673.554	14756.6
673.904	14697.17
674.253	14798.18
674.602	14732.2
674.951	14491.98
675.3	14445.43
675.649	14713.89
675.998	14678.87
676.346	14622.6
676.695	14579.43
677.044	14569.04
677.393	14631.18
677.741	14640.67
678.09	14651.52
678.438	14571.07
678.787	14614.69
679.135	14616.49
679.484	14462.6
679.832	14582.37
680.181	14473.22
680.529	14415.14
680.877	14450.62
681.225	14410.4
681.573	14477.74
681.922	14382.38
682.27	14274.81
682.618	14372.43
682.966	14239.33
683.314	14303.51
683.661	14368.59
684.009	14182.16
684.357	14232.55
684.705	14187.13
685.053	14223.28
685.4	14123.63
685.748	14100.12
686.095	14038.88
686.443	13964.53
686.79	13931.99
687.138	14016.74
687.485	13895.38
687.832	13920.02
688.18	13939.45
688.527	13826.23
688.874	13810.19
689.221	13770.64
689.568	13659.68
689.915	13637.99
690.262	13704.43
690.609	13608.84
690.956	13584.88
691.303	13560.02
691.65	13541.49
691.997	13469.41
692.344	13407.26
692.69	13291.78
693.037	13339.24
693.383	13291.56
693.73	13295.4
694.077	13218.56
694.423	13185.57
694.769	13121.84
695.116	13111.9
695.462	13150.09
695.808	13034.61
696.155	12932.47
696.501	12851.12
696.847	12870.33
697.193	12825.58
697.539	12814.96
697.885	12740.61
698.231	12607.28
698.577	12671.91
698.923	12673.72
699.269	12616.55
699.614	12509.66
699.96	12483.67
700.306	12538.13
700.651	12419.04
700.997	12327.29
701.342	12372.94
701.688	12349.89
702.033	12258.82
702.379	12238.7
702.724	12197.12
703.069	12122.32
703.415	12075.54
703.76	12070.57
704.105	12033.74
704.45	11993.51
704.795	11907.64
705.14	11890.69
705.485	11856.34
705.83	11785.83
706.175	11806.4
706.52	11712.62
706.865	11677.59
707.209	11701.77
707.554	11661.77
707.899	11578.16
708.243	11561.89
708.588	11555.33
708.932	11498.61
709.277	11465.84
709.621	11458.84
709.966	11408.44
710.31	11407.99
710.654	11264.27
710.998	11365.51
711.342	11370.48
711.687	11326.64
712.031	11231.95
712.375	11233.76
712.719	11241.89
713.063	11188.11
713.407	11221.56
713.75	11122.12
714.094	11158.51
714.438	11025.85
714.782	11085.06
715.125	11076.02
715.469	11036.02
715.812	10973.88
716.156	10890.72
716.499	10990.83
716.843	10962.58
717.186	10829.7
717.53	10886.2
717.873	10864.73
718.216	10870.83
718.559	10829.02
718.902	10716.48
719.246	10836.71
719.589	10796.71
719.932	10771.85
720.275	10744.28
720.617	10753.54
720.96	10712.42
721.303	10697.05
721.646	10762.36
721.989	10713.32
722.331	10735.01
722.674	10653.89
723.016	10669.25
723.359	10652.76
723.701	10655.47
724.044	10601.23
724.386	10561.91
724.729	10599.88
725.071	10545.41
725.413	10628.58
725.755	10509.03
726.097	10523.72
726.439	10553.78
726.782	10507
727.124	10538.64
727.465	10444.63
727.807	10490.28
728.149	10419.77
728.491	10482.14
728.833	10519.65
729.175	10452.76
729.516	10481.46
729.858	10462.93
730.199	10436.27
730.541	10423.38
730.882	10429.03
731.224	10501.57
731.565	10394.91
731.906	10383.39
732.248	10338.64
732.589	10363.27
732.93	10324.4
733.271	10340
733.612	10350.39
733.953	10386.77
734.294	10365.08
734.635	10327.34
734.976	10387.68
735.317	10337.74
735.658	10344.52
735.999	10367.57
736.339	10307.45
736.68	10329.15
737.021	10405.31
737.361	10272.43
737.702	10281.01
738.042	10340.22
738.383	10328.25
738.723	10377.74
739.063	10297.51
739.404	10363.5
739.744	10433.33
740.084	10352.2
740.424	10380.9
740.764	10395.59
741.104	10362.82
741.444	10305.2
741.784	10378.64
742.124	10400.56
742.464	10363.95
742.804	10422.93
743.143	10495.92
743.483	10483.04
743.823	10418.64
744.162	10504.96
744.502	10537.28
744.841	10618.63
745.181	10673.32
745.52	10621.57
745.86	10678.74
746.199	10711.51
746.538	10720.78
746.877	10761.68
747.216	10822.24
747.556	10899.08
747.895	10969.81
748.234	10922.81
748.573	10966.65
748.911	11050.71
749.25	11127.55
749.589	11128
749.928	11252.51
750.267	11345.17
750.605	11403.47
750.944	11467.88
751.283	11466.52
751.621	11659.28
751.96	11643.01
752.298	11736.8
752.636	11918.94
752.975	11987.64
753.313	12093.17
753.651	12219.04
753.989	12210.91
754.327	12260.62
754.666	12410.45
755.004	12598.69
755.342	12680.05
