Data from hue_320_FLMS001491_89.txt Node
Date: Mon Feb 06 15:47:50 GMT 2017
User: dcchb
Spectrometer: FLMS00149
Trigger mode: 0
Integration Time (sec): 2.000000E-2
Scans to average: 10
Electric dark correction enabled: true
Nonlinearity correction enabled: false
Boxcar width: 0
XAxis mode: Wavelengths
Number of Pixels in Spectrum: 2048
>>>>>Begin Spectral Data<<<<<
341.393	-13.9
341.776	-13.9
342.16	-13.9
342.543	-43.28
342.927	-80.79
343.31	-89.15
343.693	-60.68
344.077	-69.26
344.46	-65.2
344.843	-46.89
345.226	-40.11
345.61	-19.55
345.993	-30.39
346.376	-1.47
346.759	16.38
347.142	15.93
347.525	46.44
347.908	58.42
348.291	77.17
348.674	101.81
349.057	106.55
349.44	129.15
349.823	153.1
350.206	183.39
350.588	198.98
350.971	211.41
351.354	220.45
351.737	235.14
352.119	254.12
352.502	262.25
352.884	269.26
353.267	300.22
353.65	296.15
354.032	301.35
354.414	308.35
354.797	302.93
355.179	319.2
355.562	310.61
355.944	300.44
356.326	322.59
356.709	332.76
357.091	346.77
357.473	341.35
357.855	341.57
358.238	351.29
358.62	332.99
359.002	318.75
359.384	330.27
359.766	351.52
360.148	324.4
360.53	347.67
360.912	344.51
361.294	327.34
361.676	311.74
362.057	326.21
362.439	337.05
362.821	324.4
363.203	332.53
363.584	304.74
363.966	314.46
364.348	311.52
364.729	348.13
365.111	327.56
365.493	327.34
365.874	312.42
366.256	319.65
366.637	323.49
367.019	312.42
367.4	306.09
367.781	308.81
368.163	318.07
368.544	310.16
368.925	312.87
369.306	328.69
369.688	321.91
370.069	278.07
370.45	299.77
370.831	315.13
371.212	310.84
371.593	307.68
371.974	307.45
372.355	308.13
372.736	350.84
373.117	327.11
373.498	337.05
373.879	332.08
374.26	330.73
374.641	314.68
375.021	298.86
375.402	313.55
375.783	314.46
376.163	328.24
376.544	320.56
376.925	320.78
377.305	329.37
377.686	345.87
378.066	332.99
378.447	325.3
378.827	321.69
379.208	318.52
379.588	325.08
379.968	331.86
380.349	331.18
380.729	338.41
381.109	329.14
381.489	323.72
381.87	340.22
382.25	345.41
382.63	304.96
383.01	348.13
383.39	332.76
383.77	346.54
384.15	338.64
384.53	345.64
384.91	338.64
385.29	351.06
385.67	372.53
386.049	364.62
386.429	361.01
386.809	362.36
387.189	342.25
387.568	360.1
387.948	371.63
388.328	346.32
388.707	352.87
389.087	355.36
389.466	348.35
389.846	370.72
390.225	352.87
390.605	382.7
390.984	390.16
391.363	363.49
391.743	370.05
392.122	364.17
392.501	375.02
392.881	359.88
393.26	372.98
393.639	406.88
394.018	380.22
394.397	383.83
394.776	371.85
395.155	375.24
395.534	361.69
395.913	374.11
396.292	386.09
396.671	381.35
397.05	392.65
397.429	384.96
397.808	386.54
398.186	394.68
398.565	393.32
398.944	387.67
399.323	389.48
399.701	405.53
400.08	408.92
400.458	391.52
400.837	405.07
401.215	389.71
401.594	409.14
401.972	418.18
402.351	414.79
402.729	409.37
403.107	426.77
403.486	425.64
403.864	424.28
404.242	425.19
404.62	426.54
404.999	419.09
405.377	409.37
405.755	423.15
406.133	441.23
406.511	449.82
406.889	448.46
407.267	435.36
407.645	427.22
408.023	443.27
408.401	468.12
408.779	471.96
409.156	483.49
409.534	471.51
409.912	475.81
410.29	476.26
410.667	468.35
411.045	491.4
411.422	506.99
411.8	521
412.178	507.9
412.555	516.71
412.933	533.66
413.31	518.52
413.687	541.34
414.065	528.91
414.442	544.05
414.819	547.44
415.197	559.87
415.574	555.8
415.951	553.54
416.328	570.95
416.705	590.38
417.082	590.61
417.46	574.79
417.837	573.66
418.214	589.93
418.591	609.59
418.967	619.08
419.344	619.31
419.721	622.7
420.098	627.44
420.475	622.47
420.852	644.62
421.228	657.5
421.605	649.59
421.982	649.14
422.358	668.57
422.735	683.48
423.111	683.94
423.488	682.58
423.864	696.82
424.241	722.81
424.617	682.13
424.994	735.01
425.37	713.09
425.746	713.31
426.123	718.96
426.499	733.65
426.875	733.88
427.251	752.64
427.627	765.97
428.003	765.06
428.379	781.56
428.756	776.82
429.132	800.09
429.507	798.28
429.883	824.72
430.259	828.34
430.635	841.67
431.011	848.68
431.387	858.17
431.763	854.55
432.138	872.41
432.514	876.25
432.89	877.6
433.265	903.59
433.641	906.3
434.016	916.47
434.392	934.78
434.767	945.17
435.143	927.09
435.518	912.18
435.894	954.66
436.269	986.98
436.644	952.63
437.02	950.37
437.395	986.75
437.77	998.28
438.145	994.66
438.52	1042.8
438.895	1008.67
439.271	1040.76
439.646	1048.45
440.021	1045.51
440.395	1046.41
440.77	1061.55
441.145	1069.69
441.52	1083.7
441.895	1065.85
442.27	1114.43
442.645	1085.96
443.019	1059.29
443.394	1093.87
443.769	1109.46
444.143	1112.63
444.518	1132.74
444.892	1086.64
445.267	1094.32
445.641	1144.49
446.016	1132.96
446.39	1128.44
446.764	1125.73
447.139	1157.37
447.513	1167.31
447.887	1157.6
448.262	1177.03
448.636	1150.37
449.01	1171.83
449.384	1187.43
449.758	1204.15
450.132	1198.27
450.506	1188.56
450.88	1213.41
451.254	1200.08
451.628	1222.23
452.002	1227.43
452.376	1232.85
452.75	1231.04
453.123	1241.66
453.497	1238.05
453.871	1255.45
454.244	1263.81
454.618	1298.61
454.992	1295.45
455.365	1271.27
455.739	1305.16
456.112	1315.78
456.486	1321.66
456.859	1336.12
457.232	1334.32
457.606	1357.59
457.979	1373.41
458.352	1390.36
458.725	1402.11
459.099	1372.28
459.472	1435.33
459.845	1448.21
460.218	1451.15
460.591	1450.47
460.964	1457.25
461.337	1473.07
461.71	1483.92
462.083	1500.86
462.456	1485.95
462.829	1521.65
463.201	1532.73
463.574	1541.32
463.947	1532.73
464.32	1573.18
464.692	1602.78
465.065	1597.81
465.438	1598.49
465.81	1627.64
466.183	1613.63
466.555	1644.14
466.928	1648.43
467.3	1663.35
467.672	1680.07
468.045	1688.43
468.417	1690.92
468.789	1685.94
469.161	1734.53
469.534	1725.27
469.906	1800.97
470.278	1780.86
470.65	1820.63
471.022	1807.52
471.394	1848.65
471.766	1848.65
472.138	1861.76
472.51	1909.67
472.882	1894.98
473.253	1977.24
473.625	1969.1
473.997	1964.58
474.369	2015.65
474.74	2019.27
475.112	2048.65
475.484	2036.44
475.855	2108.53
476.227	2110.34
476.598	2146.27
476.97	2135.42
477.341	2184.69
477.713	2217.23
478.084	2230.11
478.455	2262.2
478.827	2281.41
479.198	2371.58
479.569	2346.04
479.94	2372.71
480.311	2391.24
480.682	2445.47
481.053	2493.15
481.424	2496.77
481.795	2507.62
482.166	2568.86
482.537	2573.83
482.908	2599.14
483.279	2630.78
483.65	2694.96
484.021	2703.32
484.391	2715.07
484.762	2733.37
485.133	2751.23
485.503	2806.37
485.874	2863.54
486.244	2901.28
486.615	2897.66
486.985	2939.02
487.356	3007.27
487.726	3001.62
488.097	3009.98
488.467	3055.85
488.837	3103.53
489.207	3167.49
489.578	3163.87
489.948	3167.04
490.318	3233.47
490.688	3255.17
491.058	3284.09
491.428	3307.37
491.798	3312.79
492.168	3394.83
492.538	3420.14
492.908	3437.99
493.278	3428.05
493.648	3497.65
494.017	3483.64
494.387	3509.85
494.757	3582.62
495.126	3571.77
495.496	3588.72
495.866	3592.56
496.235	3672.56
496.605	3699
496.974	3651.54
497.344	3717.53
497.713	3758.88
498.082	3742.39
498.452	3767.02
498.821	3746.23
499.19	3815.38
499.559	3791.2
499.928	3840.46
500.298	3848.37
500.667	3914.13
501.036	3877.3
501.405	3920.91
501.774	3920.46
502.143	3941.93
502.512	3982.61
502.88	3998.43
503.249	3961.36
503.618	3979.67
503.987	4014.7
504.356	4017.41
504.724	4021.02
505.093	4078.65
505.462	4068.25
505.83	4042.04
506.199	4126.33
506.567	4145.54
506.936	4073.9
507.304	4171.3
507.672	4219.66
508.041	4184.86
508.409	4181.47
508.777	4240.68
509.145	4274.8
509.514	4248.59
509.882	4273.22
510.25	4325.2
510.618	4263.96
510.986	4339.43
511.354	4396.61
511.722	4402.71
512.09	4425.53
512.458	4383.95
512.826	4384.18
513.193	4469.15
513.561	4436.15
513.929	4461.46
514.297	4500.33
514.664	4556.6
515.032	4526.55
515.4	4531.97
515.767	4519.09
516.135	4564.06
516.502	4511.18
516.869	4580.33
517.237	4593.21
517.604	4589.82
517.972	4679.99
518.339	4690.16
518.706	4664.17
519.073	4672.53
519.44	4666.88
519.808	4709.37
520.175	4701.46
520.542	4752.76
520.909	4762.7
521.276	4754.79
521.643	4781.91
522.009	4837.27
522.376	4853.09
522.743	4856.93
523.11	4896.03
523.477	4933.09
523.843	4923.6
524.21	5005.86
524.577	4981.45
524.943	5018.29
525.31	5062.58
525.676	5092.18
526.043	5089.24
526.409	5082.01
526.776	5150.71
527.142	5148.9
527.508	5201.78
527.874	5246.75
528.241	5258.05
528.607	5315
528.973	5354.77
529.339	5301.44
529.705	5362.68
530.071	5466.41
530.437	5391.61
530.803	5452.85
531.169	5466.41
531.535	5469.12
531.901	5461.66
532.267	5492.62
532.632	5530.59
532.998	5543.02
533.364	5597.71
533.73	5563.13
534.095	5630.02
534.461	5624.6
534.826	5666.4
535.192	5730.36
535.557	5733.97
535.923	5716.57
536.288	5746.4
536.653	5801.09
537.019	5783.69
537.384	5831.6
537.749	5862.56
538.114	5871.82
538.479	5914.53
538.845	5942.1
539.21	5921.54
539.575	6005.38
539.94	5988.2
540.305	6026.4
540.67	6054.87
541.034	6059.84
541.399	6118.82
541.764	6111.82
542.129	6087.18
542.494	6136.45
542.858	6191.14
543.223	6194.53
543.587	6256.9
543.952	6224.36
544.316	6250.34
544.681	6272.49
545.045	6295.99
545.41	6319.49
545.774	6343.22
546.138	6405.59
546.503	6362.43
546.867	6449.43
547.231	6462.54
547.595	6471.13
547.959	6411.92
548.324	6552.94
548.688	6543.22
549.052	6586.61
549.416	6552.71
549.779	6619.83
550.143	6606.49
550.507	6666.38
550.871	6679.71
551.235	6708.19
551.599	6706.83
551.962	6762.87
552.326	6777.79
552.689	6773.72
553.053	6780.05
553.417	6791.57
553.78	6876.32
554.143	6842.87
554.507	6905.47
554.87	6883.32
555.234	7030.66
555.597	7001.06
555.96	6952.47
556.323	6989.53
556.686	7022.3
557.05	7070.21
557.413	7057.55
557.776	7046.26
558.139	7089.42
558.502	7099.59
558.865	7168.29
559.228	7221.39
559.59	7205.35
559.953	7262.52
560.316	7290.09
560.679	7331.22
561.041	7371.9
561.404	7368.51
561.767	7390.88
562.129	7365.12
562.492	7423.87
562.854	7387.49
563.217	7437.21
563.579	7493.25
563.941	7487.15
564.304	7540.03
564.666	7566.69
565.028	7588.61
565.39	7608.05
565.753	7666.13
566.115	7637.43
566.477	7747.48
566.839	7709.97
567.201	7762.85
567.563	7748.84
567.925	7803.3
568.287	7892.11
568.648	7894.59
569.01	7921.49
569.372	7982.73
569.734	7882.62
570.095	7977.53
570.457	8066.34
570.819	8016.17
571.18	8070.41
571.542	8103.4
571.903	8185.21
572.265	8226.79
572.626	8222.72
572.987	8330.29
573.349	8400.34
573.71	8415.48
574.071	8361.25
574.432	8471.75
574.794	8555.14
575.155	8593.79
575.516	8608.02
575.877	8659.77
576.238	8751.3
576.599	8776.38
576.96	8884.4
577.32	8888.47
577.681	8983.83
578.042	9125.97
578.403	9127.78
578.763	9250.94
579.124	9370.26
579.485	9458.62
579.845	9564.38
580.206	9593.76
580.566	9676.02
580.927	9836.46
581.287	9979.74
581.648	10026.97
582.008	10167.98
582.368	10296.11
582.728	10443.91
583.089	10642.09
583.449	10735.65
583.809	10873.05
584.169	11013.61
584.529	11161.85
584.889	11398.91
585.249	11596.19
585.609	11706.7
585.969	11935.62
586.329	12074.82
586.688	12235.05
587.048	12496.96
587.408	12658.99
587.768	12840.45
588.127	13103.95
588.487	13265.53
588.846	13594.11
589.206	13710.71
589.565	14003.36
589.925	14336.01
590.284	14520.18
590.643	14714.3
591.003	15053.95
591.362	15334.4
591.721	15585.69
592.08	15807.83
592.44	16094.83
592.799	16319.23
593.158	16615.5
593.517	16942.94
593.876	17189.27
594.235	17429.94
594.593	17761.23
594.952	18145.85
595.311	18261.33
595.67	18634.65
596.029	19013.62
596.387	19237.35
596.746	19581.07
597.104	19757.79
597.463	20019.93
597.822	20393.25
598.18	20470.31
598.538	20847.7
598.897	21301.25
599.255	21372.66
599.613	21996.14
599.972	22145.29
600.33	22478.62
600.688	22598.61
601.046	22961.54
601.404	23295.32
601.762	23461.42
602.12	23809.88
602.478	24108.41
602.836	24396.31
603.194	24653.02
603.552	24827.03
603.91	25016.18
604.268	25410.52
604.625	25482.15
604.983	25871.52
605.341	25915.82
605.698	26392.41
606.056	26712.63
606.413	26862.68
606.771	27149
607.128	27471.48
607.485	27562.1
607.843	27755.77
608.2	28177.68
608.557	28342.64
608.914	28503.09
609.272	28878.22
609.629	29134.04
609.986	29337.42
610.343	29460.81
610.7	29775.15
611.057	29880.91
611.414	30196.16
611.771	30311.63
612.127	30604.28
612.484	30764.5
612.841	30971.05
613.198	31157.94
613.554	31298.05
613.911	31560.64
614.267	31726.51
614.624	31914.98
614.98	32091.7
615.337	32354.52
615.693	32394.74
616.05	32460.73
616.406	32820.27
616.762	32854.39
617.118	32986.59
617.475	33181.39
617.831	33301.16
618.187	33556.52
618.543	33711.77
618.899	33973.46
619.255	34008.94
619.611	34188.82
619.967	34254.58
620.323	34481.47
620.678	34521.01
621.034	34527.79
621.39	34585.42
621.746	34649.15
622.101	35022.24
622.457	34877.16
622.812	35189.02
623.168	35186.08
623.523	35492.06
623.879	35505.17
624.234	35473.53
624.589	35616.13
624.945	35804.82
625.3	35754.43
625.655	35816.57
626.01	36080.75
626.365	36007.3
626.72	36095.89
627.075	36142.67
627.43	36204.81
627.785	36210.46
628.14	36264.47
628.495	36571.13
628.85	36497.68
629.205	36407.07
629.559	36718.7
629.914	36708.07
630.269	36602.09
630.623	36603.9
630.978	36498.59
631.332	36711.01
631.687	36683.89
632.041	36822.42
632.396	36781.07
632.75	36802.08
633.104	36866.49
633.459	36699.26
633.813	36776.55
634.167	36758.92
634.521	36799.82
634.875	36808.86
635.229	36900.61
635.583	36773.38
635.937	36887.28
636.291	36718.24
636.645	36824.46
636.999	36859.26
637.352	36901.74
637.706	36667.62
638.06	36947.84
638.413	36961.18
638.767	36759.37
639.121	37002.3
639.474	36582.88
639.828	36798.69
640.181	36845.92
640.534	36807.28
640.888	36690.67
641.241	36758.24
641.594	36793.27
641.947	36806.6
642.301	36705.59
642.654	36608.87
643.007	36751.69
643.36	36701.07
643.713	36693.39
644.066	36877.79
644.419	36665.59
644.771	36434.18
645.124	36101.08
645.477	36137.24
645.83	35828.1
646.182	35817.48
646.535	35701.1
646.888	35742.45
647.24	35456.13
647.593	35759.85
647.945	35612.96
648.298	35546.3
648.65	35597.14
649.002	35474.66
649.355	35710.59
649.707	35501.55
650.059	35716.69
650.411	36173.4
650.763	36124.81
651.115	36369.55
651.467	36341.98
651.819	36318.03
652.171	36198.48
652.523	36213.85
652.875	36257.69
653.227	36135.89
653.578	36405.26
653.93	36307.86
654.282	36191.48
654.633	36025.38
654.985	36253.62
655.337	36276
655.688	36124.36
656.039	36268.09
656.391	36012.05
656.742	36101.99
657.094	36087.75
657.445	36326.84
657.796	36084.14
658.147	36008.88
658.498	36036
658.849	36175.43
659.2	36116.9
659.551	35987.87
659.902	36036.23
660.253	36020.86
660.604	36180.86
660.955	35923.69
661.306	36142.44
661.656	35963.69
662.007	36029.22
662.358	36094.98
662.708	35967.3
663.059	36039.17
663.409	35720.98
663.76	36023.35
664.11	36027.87
664.461	36056.57
664.811	35930.69
665.161	35882.11
665.511	35902.45
665.862	35918.26
666.212	36021.31
666.562	35979.05
666.912	35996.23
667.262	35967.98
667.612	35813.18
667.962	35917.36
668.312	35897.25
668.662	36142.21
669.011	35923.46
669.361	35912.84
669.711	35913.29
670.06	35857.02
670.41	35673.53
670.76	35742.68
671.109	35900.64
671.459	35771.15
671.808	35778.38
672.157	35811.15
672.507	35554.21
672.856	35588.78
673.205	35690.7
673.554	35780.42
673.904	35481.44
674.253	35852.28
674.602	35744.71
674.951	35118.96
675.3	34973.43
675.649	35570.7
675.998	35565.28
676.346	35502.23
676.695	35694.09
677.044	35494.32
677.393	35616.8
677.741	35498.61
678.09	35517.82
678.438	35329.81
678.787	35399.41
679.135	35250.94
679.484	35249.58
679.832	35396.47
680.181	35226.98
680.529	35342.91
680.877	35241.67
681.225	35178.4
681.573	35302.24
681.922	35114.67
682.27	34964.39
682.618	35050.26
682.966	34956.93
683.314	35032.64
683.661	35021.57
684.009	34785.87
684.357	34675.59
684.705	34646.21
685.053	34587.23
685.4	34485.08
685.748	34438.3
686.095	34358.31
686.443	34341.36
686.79	34287.12
687.138	34396.95
687.485	34329.15
687.832	34096.17
688.18	34179.1
688.527	34020.91
688.874	34096.84
689.221	33837.64
689.568	33771.2
689.915	33641.26
690.262	33785.44
690.609	33760.36
690.956	33569.63
691.303	33499.35
691.65	33371.44
691.997	33425
692.344	33215.06
692.69	33066.81
693.037	33233.14
693.383	33005.12
693.73	32969.19
694.077	32833.83
694.423	32911.34
694.769	32773.04
695.116	32657.56
695.462	32529.88
695.808	32629.99
696.155	32637.67
696.501	32315.65
696.847	32316.55
697.193	32117.69
697.539	32347.06
697.885	31939.16
698.231	31872.95
698.577	31877.24
698.923	31880.63
699.269	31742.56
699.614	31578.27
699.96	31496.46
700.306	31593.18
700.651	31354.32
700.997	31303.24
701.342	31213.08
701.688	31186.19
702.033	31055.57
702.379	31063.48
702.724	30989.35
703.069	31070.26
703.415	30790.26
703.76	30685.18
704.105	30789.59
704.45	30674.56
704.795	30508.24
705.14	30538.52
705.485	30401.8
705.83	30353.67
706.175	30396.6
706.52	30191.41
706.865	30103.73
707.209	30134.91
707.554	30032.09
707.899	30049.04
708.243	29932.43
708.588	29867.35
708.932	29588.71
709.277	29542.16
709.621	29627.58
709.966	29346.01
710.31	29580.8
710.654	29249.97
710.998	29174.94
711.342	29216.75
711.687	29136.3
712.031	29060.37
712.375	28973.36
712.719	29000.48
713.063	28957.09
713.407	29020.59
713.75	28917.54
714.094	28884.78
714.438	28666.7
714.782	28808.17
715.125	28598.23
715.469	28720.49
715.812	28497.67
716.156	28307.62
716.499	28384
716.843	28399.82
717.186	28238.47
717.53	28311.01
717.873	28324.34
718.216	28224.46
718.559	28186.04
718.902	27951.92
719.246	28131.35
719.589	28063.1
719.932	27818.14
720.275	27891.36
720.617	27752.15
720.96	27711.93
721.303	27767.52
721.646	27791.7
721.989	27440.52
722.331	27688.2
722.674	27574.3
723.016	27499.73
723.359	27423.8
723.701	27500.18
724.044	27224.71
724.386	27171.83
724.729	27335.67
725.071	27237.81
725.413	27227.65
725.755	27246.18
726.097	27159.62
726.439	26921.21
726.782	26951.04
727.124	27114.65
727.465	26913.53
727.807	26948.78
728.149	26894.55
728.491	26866.53
728.833	26704.27
729.175	26632.63
729.516	26604.61
729.858	26658.85
730.199	26671.28
730.541	26589.92
730.882	26495.46
731.224	26669.47
731.565	26351.96
731.906	26449.59
732.248	26394.67
732.589	26215.24
732.93	26327.1
733.271	26326.88
733.612	26397.84
733.953	26265.86
734.294	26183.15
734.635	26202.36
734.976	26251.85
735.317	25997.85
735.658	25998.3
735.999	25932.76
736.339	25878.98
736.68	26009.37
737.021	25893.67
737.361	25800.11
737.702	25819.1
738.042	25868.36
738.383	25669.49
738.723	25809.38
739.063	25636.5
739.404	25645.99
739.744	25619.1
740.084	25424.98
740.424	25538.2
740.764	25436.96
741.104	25707.69
741.444	25372.55
741.784	25314.02
742.124	25430.4
742.464	25336.17
742.804	25246.68
743.143	25243.29
743.483	25234.48
743.823	25066.35
744.162	25093.69
744.502	25145.21
744.841	25034.03
745.181	25090.3
745.52	24928.95
745.86	24992.22
746.199	24910.64
746.538	24950.19
746.877	24876.07
747.216	24862.51
747.556	24788.84
747.895	24839.23
748.234	24782.06
748.573	24715.85
748.911	24551.78
749.25	24661.39
749.589	24537.77
749.928	24525.12
750.267	24599.01
750.605	24456.19
750.944	24420.04
751.283	24344.11
751.621	24340.49
751.96	24283.32
752.298	24328.51
752.636	24119.25
752.975	24075.86
753.313	24012.14
753.651	24190.21
753.989	24081.97
754.327	24050.78
754.666	23822.31
755.004	23909.77
755.342	23856.21
755.679	23818.47
756.017	23690.34
756.355	23733.95
756.693	23656.67
757.031	23623.22
757.368	23550.45
757.706	23593.39
758.044	23314.75
758.381	23373.51
758.719	23316.79
759.056	23275.66
759.394	23280.4
