Data from hue_170_FLMS001491_00024.txt Node
Date: Tue Feb 07 16:48:27 GMT 2017
User: dcchb
Spectrometer: FLMS00149
Trigger mode: 0
Integration Time (sec): 2.000000E-2
Scans to average: 10
Electric dark correction enabled: true
Nonlinearity correction enabled: false
Boxcar width: 0
XAxis mode: Wavelengths
Number of Pixels in Spectrum: 2048
>>>>>Begin Spectral Data<<<<<
341.393	6.06
341.776	6.06
342.16	6.06
342.543	-40.72
342.927	-75.75
343.31	-84.11
343.693	-64.9
344.077	-51.34
344.46	-62.41
344.843	-38.69
345.226	-39.59
345.61	-34.62
345.993	-17.67
346.376	6.96
346.759	27.08
347.142	24.36
347.525	35.21
347.908	41.31
348.291	70.24
348.674	88.09
349.057	100.07
349.44	129.67
349.823	125.83
350.206	171.7
350.588	190.46
350.971	189.56
351.354	211.93
351.737	239.5
352.119	253.28
352.502	243.57
352.884	272.94
353.267	269.78
353.65	276.56
354.032	288.99
354.414	307.52
354.797	301.42
355.179	307.97
355.562	320.4
355.944	311.14
356.326	320.18
356.709	326.5
357.091	327.18
357.473	350.23
357.855	331.02
358.238	338.71
358.62	321.53
359.002	335.99
359.384	344.81
359.766	326.28
360.148	329.21
360.53	330.8
360.912	335.32
361.294	347.97
361.676	322.89
362.057	322.21
362.439	336.45
362.821	327.41
363.203	335.77
363.584	313.62
363.966	304.36
364.348	320.18
364.729	328.99
365.111	312.94
365.493	307.07
365.874	304.36
366.256	326.73
366.637	310.23
367.019	325.15
367.4	326.73
367.781	299.38
368.163	312.49
368.544	288.76
368.925	294.19
369.306	322.66
369.688	304.81
370.069	306.62
370.45	317.69
370.831	320.18
371.212	307.75
371.593	318.14
371.974	321.98
372.355	315.43
372.736	294.41
373.117	315.43
373.498	309.55
373.879	301.42
374.26	311.59
374.641	312.04
375.021	315.43
375.402	326.28
375.783	330.8
376.163	326.73
376.544	318.14
376.925	311.81
377.305	331.47
377.686	295.77
378.066	327.86
378.447	333.28
378.827	320.85
379.208	328.08
379.588	311.59
379.968	296.45
380.349	325.82
380.729	312.72
381.109	329.21
381.489	323.34
381.87	331.7
382.25	324.69
382.63	344.58
383.01	341.42
383.39	343.9
383.77	340.97
384.15	345.03
384.53	353.39
384.91	326.28
385.29	350.23
385.67	346.84
386.049	349.1
386.429	342.77
386.809	359.72
387.189	356.78
387.568	373.96
387.948	349.33
388.328	350.68
388.707	342.1
389.087	349.55
389.466	347.29
389.846	348.2
390.225	352.49
390.605	356.56
390.984	371.47
391.363	366.73
391.743	382.55
392.122	366.05
392.501	354.3
392.881	359.27
393.26	365.82
393.639	375.77
394.018	373.51
394.397	376.22
394.776	369.89
395.155	377.12
395.534	353.39
395.913	383.22
396.292	410.79
396.671	390.68
397.05	357.69
397.429	361.3
397.808	409.66
398.186	403.34
398.565	397.91
398.944	374.41
399.323	390.23
399.701	397.91
400.08	399.72
400.458	398.14
400.837	391.59
401.215	402.88
401.594	398.37
401.972	398.82
402.351	408.76
402.729	390.46
403.107	448.31
403.486	399.95
403.864	433.17
404.242	416.9
404.62	411.02
404.999	408.76
405.377	417.35
405.755	447.18
406.133	444.69
406.511	438.82
406.889	427.52
407.267	462.77
407.645	453.28
408.023	437.01
408.401	450.57
408.779	470.23
409.156	459.15
409.534	462.77
409.912	478.36
410.29	449.66
410.667	492.6
411.045	482.88
411.422	490.57
411.8	492.83
412.178	500.96
412.555	502.77
412.933	491.02
413.31	509.32
413.687	520.17
414.065	532.37
414.442	523.56
414.819	537.57
415.197	529.89
415.574	546.84
415.951	553.16
416.328	539.6
416.705	562.65
417.082	547.06
417.46	554.97
417.837	563.56
418.214	572.15
418.591	583.9
418.967	567.63
419.344	580.73
419.721	595.42
420.098	594.07
420.475	602.43
420.852	608.76
421.228	605.59
421.605	612.6
421.982	627.96
422.358	615.31
422.735	601.3
423.111	657.34
423.488	655.53
423.864	668.64
424.241	679.04
424.617	665.48
424.994	680.62
425.37	681.3
425.746	673.84
426.123	672.03
426.499	693.5
426.875	701.41
427.251	715.87
427.627	752.93
428.003	768.07
428.379	746.83
428.756	747.96
429.132	752.71
429.507	754.06
429.883	751.35
430.259	763.55
430.635	792.48
431.011	796.32
431.387	818.02
431.763	802.2
432.138	809.88
432.514	810.33
432.89	840.61
433.265	860.73
433.641	867.73
434.016	859.82
434.392	887.17
434.767	881.74
435.143	892.14
435.518	917.45
435.894	928.52
436.269	896.43
436.644	959.71
437.02	963.55
437.395	940.5
437.77	954.51
438.145	981.85
438.52	980.27
438.895	1012.36
439.271	1034.73
439.646	1018.01
440.021	1018.46
440.395	1060.72
440.77	1035.86
441.145	1069.31
441.52	1079.03
441.895	1103.66
442.27	1108.86
442.645	1101.62
443.019	1095.07
443.394	1126.03
443.769	1138.91
444.143	1126.93
444.518	1154.05
444.892	1141.4
445.267	1188.4
445.641	1180.27
446.016	1159.93
446.39	1167.16
446.764	1203.99
447.139	1207.61
447.513	1185.92
447.887	1222.75
448.262	1229.98
448.636	1224.11
449.01	1239.02
449.384	1258
449.758	1281.51
450.132	1277.66
450.506	1295.97
450.88	1314.27
451.254	1302.97
451.628	1318.79
452.002	1336.65
452.376	1342.97
452.75	1357.21
453.123	1373.71
453.497	1398.34
453.871	1408.73
454.244	1394.27
454.618	1448.06
454.992	1429.3
455.365	1463.2
455.739	1502.07
456.112	1530.99
456.486	1516.08
456.859	1552.23
457.232	1582.74
457.606	1584.1
457.979	1570.09
458.352	1615.51
458.725	1644.21
459.099	1662.06
459.472	1650.54
459.845	1705.45
460.218	1748.39
460.591	1733.02
460.964	1759.01
461.337	1800.59
461.71	1830.19
462.083	1859.8
462.456	1849.63
462.829	1875.16
463.201	1877.2
463.574	1890.3
463.947	1951.32
464.32	1968.27
464.692	1996.74
465.065	2041.94
465.438	2064.76
465.81	2104.54
466.183	2102.73
466.555	2160.13
466.928	2190.63
467.3	2195.38
467.672	2223.85
468.045	2283.51
468.417	2322.61
468.789	2341.36
469.161	2395.15
469.534	2428.14
469.906	2450.06
470.278	2531.87
470.65	2513.56
471.022	2592.21
471.394	2603.05
471.766	2644.41
472.138	2744.52
472.51	2784.74
472.882	2828.13
473.253	2869.71
473.625	2947.45
473.997	3009.82
474.369	3064.06
474.74	3112.19
475.112	3142.25
475.484	3214.34
475.855	3262.24
476.227	3349.7
476.598	3476.7
476.97	3487.32
477.341	3586.3
477.713	3705.85
478.084	3725.28
478.455	3836.92
478.827	3901.32
479.198	4052.51
479.569	4055.67
479.94	4232.39
480.311	4305.83
480.682	4366.85
481.053	4555.09
481.424	4623.56
481.795	4659.27
482.166	4791.7
482.537	4875.76
482.908	4977.68
483.279	5122.53
483.65	5211.35
484.021	5344
484.391	5421.74
484.762	5518.23
485.133	5608.4
485.503	5737.89
485.874	5936.52
486.244	5992.34
486.615	6127.93
486.985	6216.07
487.356	6393.46
487.726	6499.67
488.097	6636.39
488.467	6710.97
488.837	6919.78
489.207	7013.11
489.578	7184.4
489.948	7221.46
490.318	7422.81
490.688	7493.09
491.058	7615.35
491.428	7772.41
491.798	7810.15
492.168	8028
492.538	8108.22
492.908	8218.5
493.278	8383.01
493.648	8489.9
494.017	8575.33
494.387	8667.98
494.757	8789.33
495.126	8943.68
495.496	8907.07
495.866	9135.76
496.235	9112.03
496.605	9255.53
496.974	9320.62
497.344	9489.65
497.713	9554.28
498.082	9657.78
498.452	9732.81
498.821	9806.71
499.19	9853.94
499.559	9977.32
499.928	10081.27
500.298	10112.69
500.667	10186.81
501.036	10236.75
501.405	10352.91
501.774	10409.4
502.143	10554.93
502.512	10554.03
502.88	10624.54
503.249	10599.45
503.618	10728.26
503.987	10746.12
504.356	10854.59
504.724	10889.61
505.093	10994.47
505.462	10952.21
505.83	11064.53
506.199	11199.21
506.567	11290.51
506.936	11276.72
507.304	11337.51
507.672	11424.29
508.041	11445.31
508.409	11500.9
508.777	11558.75
509.145	11656.6
509.514	11650.5
509.882	11710.61
510.25	11686.43
510.618	11780.44
510.986	11847.33
511.354	11830.38
511.722	11924.39
512.09	11959.87
512.458	12077.15
512.826	12069.24
513.193	12098.4
513.561	12201.67
513.929	12173.65
514.297	12308.33
514.664	12290.48
515.032	12300.88
515.4	12384.26
515.767	12324.61
516.135	12507.65
516.502	12360.08
516.869	12497.03
517.237	12521.44
517.604	12476.92
517.972	12584.49
518.339	12589.91
518.706	12554.88
519.073	12660.19
519.44	12703.13
519.808	12665.16
520.175	12690.25
520.542	12832.16
520.909	12810.24
521.276	12803.46
521.643	12828.77
522.009	12942.44
522.376	12926.85
522.743	12922.78
523.11	13028.54
523.477	13033.29
523.843	13113.96
524.21	13120.74
524.577	13203.45
524.943	13185.37
525.31	13262.21
525.676	13292.49
526.043	13289.78
526.409	13346.73
526.776	13332.26
527.142	13367.97
527.508	13312.83
527.874	13440.96
528.241	13333.17
528.607	13376.56
528.973	13508.3
529.339	13416.78
529.705	13504.01
530.071	13517.12
530.437	13418.36
530.803	13459.04
531.169	13481.86
531.535	13469.21
531.901	13435.99
532.267	13427.4
532.632	13450.23
532.998	13409.77
533.364	13453.62
533.73	13424.69
534.095	13475.31
534.461	13443.67
534.826	13382.2
535.192	13345.6
535.557	13463.56
535.923	13394.63
536.288	13257.91
536.653	13298.59
537.019	13327.52
537.384	13285.94
537.749	13248.87
538.114	13175.88
538.479	13180.4
538.845	13250
539.21	13119.16
539.575	13069.67
539.94	13064.02
540.305	13200.74
540.67	12992.16
541.034	12955.1
541.399	12970.46
541.764	12953.97
542.129	12994.87
542.494	12902.22
542.858	12901.77
543.223	12746.74
543.587	12825.84
543.952	12673.3
544.316	12715.56
544.681	12663.58
545.045	12742
545.41	12649.12
545.774	12663.58
546.138	12530.93
546.503	12541.32
546.867	12522.34
547.231	12528.67
547.595	12413.19
547.959	12425.17
548.324	12386.3
548.688	12363.7
549.052	12309.69
549.416	12335.68
549.779	12239.86
550.143	12239.64
550.507	12173.2
550.871	12173.42
551.235	12132.07
551.599	12225.62
551.962	12114.67
552.326	12065.63
552.689	12132.97
553.053	12008.68
553.417	12002.81
553.78	12084.16
554.143	11994.22
554.507	11993.09
554.87	12045.52
555.234	12035.35
555.597	11868.35
555.96	11888.46
556.323	11899.76
556.686	11825.86
557.05	11843.94
557.413	11861.34
557.776	11779.53
558.139	11784.51
558.502	11820.44
558.865	11752.42
559.228	11795.35
559.59	11808.46
559.953	11779.53
560.316	11794.9
560.679	11740.21
561.041	11817.73
561.404	11855.47
561.767	11892.07
562.129	11712.19
562.492	11843.04
562.854	11776.6
563.217	11779.99
563.579	11859.08
563.941	11790.61
564.304	11875.35
564.666	11822.02
565.028	11868.35
565.39	11787.22
565.753	11871.51
566.115	11835.8
566.477	11863.37
566.839	11893.43
567.201	11911.96
567.563	11844.84
567.925	11921.9
568.287	11945.41
568.648	11879.87
569.01	11965.52
569.372	12045.74
569.734	11896.14
570.095	12012.98
570.457	12091.17
570.819	11981.34
571.18	11982.47
571.542	11994.9
571.903	11982.92
572.265	12051.62
572.626	12052.52
572.987	12131.62
573.349	12062.92
573.71	12091.17
574.071	12213.42
574.432	12087.1
574.794	12161.67
575.155	12128.23
575.516	12094.1
575.877	12128
576.238	12172.29
576.599	12158.96
576.96	12141.79
577.32	12151.05
577.681	12138.85
578.042	12224.72
578.403	12150.82
578.763	12234.89
579.124	12153.99
579.485	12159.19
579.845	12130.03
580.206	12128.45
580.566	12163.93
580.927	12090.94
581.287	12152.86
581.648	12139.07
582.008	12155.12
582.368	12162.58
582.728	12135.68
583.089	12127.77
583.449	12130.94
583.809	12121.9
584.169	12144.05
584.529	12105.63
584.889	12148.11
585.249	12071.5
585.609	12116.93
585.969	12106.98
586.329	12071.73
586.688	12057.72
587.048	12023.37
587.408	12039.19
587.768	12009.13
588.127	11978.63
588.487	11991.73
588.846	12033.31
589.206	11984.28
589.565	12009.13
589.925	11983.37
590.284	11954.22
590.643	11971.39
591.003	12006.65
591.362	12004.61
591.721	11917.16
592.08	11893.43
592.44	11881.68
592.799	11932.75
593.158	11921.23
593.517	11954.45
593.876	11924.62
594.235	11887.33
594.593	11869.02
594.952	11938.17
595.311	11827.9
595.67	11847.56
596.029	11932.3
596.387	11983.82
596.746	11903.15
597.104	11894.11
597.463	11857.05
597.822	11898.18
598.18	11786.99
598.538	11852.08
598.897	11871.06
599.255	11832.64
599.613	11903.37
599.972	11813.66
600.33	11819.31
600.688	11745.41
601.046	11830.38
601.404	11875.35
601.762	11893.88
602.12	11944.5
602.478	11904.28
602.836	11839.65
603.194	11867.89
603.552	11814.11
603.91	11735.24
604.268	11806.65
604.625	11772.3
604.983	11795.13
605.341	11717.39
605.698	11802.13
606.056	11839.65
606.413	11900.21
606.771	11758.29
607.128	11850.49
607.485	11781.12
607.843	11769.59
608.2	11890.49
608.557	11897.72
608.914	11853.66
609.272	11925.97
609.629	11930.27
609.986	11940.21
610.343	11870.38
610.7	11976.14
611.057	11912.64
611.414	11986.76
611.771	11928.23
612.127	11914.45
612.484	12010.72
612.841	11998.96
613.198	11906.76
613.554	12041.22
613.911	12037.38
614.267	12018.85
614.624	12006.87
614.98	12044.39
615.337	12065.4
615.693	12064.73
616.05	12052.75
616.406	12090.94
616.762	12133.42
617.118	12116.93
617.475	12045.29
617.831	12118.74
618.187	12130.71
618.543	12182.01
618.899	12138.4
619.255	12173.87
619.611	12144.27
619.967	12156.02
620.323	12252.29
620.678	12104.27
621.034	12108.11
621.39	12052.75
621.746	12135.23
622.101	12241.9
622.457	12145.18
622.812	12198.28
623.168	12123.48
623.523	12163.71
623.879	12207.77
624.234	12082.58
624.589	12132.52
624.945	12152.41
625.3	12088.23
625.655	12119.64
626.01	12113.76
626.365	12161.67
626.72	12097.04
627.075	12151.73
627.43	12119.19
627.785	12098.62
628.14	12097.04
628.495	12186.08
628.85	12133.42
629.205	12083.48
629.559	12100.66
629.914	12108.57
630.269	12101.11
630.623	12071.73
630.978	11963.48
631.332	12137.49
631.687	12119.86
632.041	11977.72
632.396	11968.91
632.75	11938.4
633.104	11953.77
633.459	11917.61
633.813	11926.65
634.167	11895.92
634.521	11887.1
634.875	11950.38
635.229	11900.66
635.583	11790.16
635.937	11853.66
636.291	11873.09
636.645	11809.82
636.999	11758.29
637.352	11808.91
637.706	11762.81
638.06	11785.86
638.413	11696.37
638.767	11675.13
639.121	11772.98
639.474	11656.37
639.828	11697.96
640.181	11662.48
640.534	11666.32
640.888	11661.12
641.241	11520.33
641.594	11577.51
641.947	11618.18
642.301	11674
642.654	11607.56
643.007	11653.21
643.36	11612.08
643.713	11564.85
644.066	11558.98
644.419	11575.02
644.771	11448.7
645.124	11317.63
645.477	11389.04
645.83	11210.51
646.182	11216.39
646.535	11238.08
646.888	11278.53
647.24	11214.8
647.593	11254.12
647.945	11202.15
648.298	11205.09
648.65	11114.92
649.002	11093.68
649.355	11111.76
649.707	11185.2
650.059	11237.18
650.411	11396.49
650.763	11296.61
651.115	11466.32
651.467	11373.44
651.819	11478.3
652.171	11460.9
652.523	11466.77
652.875	11351.52
653.227	11251.87
653.578	11443.27
653.93	11449.6
654.282	11374.57
654.633	11393.78
654.985	11386.1
655.337	11386.1
655.688	11372.77
656.039	11501.35
656.391	11387.23
656.742	11436.95
657.094	11408.7
657.445	11451.18
657.796	11459.32
658.147	11380.45
658.498	11418.19
658.849	11514.68
659.2	11428.36
659.551	11460.45
659.902	11481.69
660.253	11475.59
660.604	11506.32
660.955	11520.78
661.306	11419.77
661.656	11445.98
662.007	11475.59
662.358	11435.82
662.708	11463.39
663.059	11455.7
663.409	11410.96
663.76	11456.38
664.11	11503.61
664.461	11533.21
664.811	11503.38
665.161	11502.71
665.511	11441.69
665.862	11462.03
666.212	11485.76
666.562	11575.47
666.912	11534.12
667.262	11513.1
667.612	11461.35
667.962	11541.58
668.312	11476.49
668.662	11545.19
669.011	11484.63
669.361	11502.25
669.711	11524.17
670.06	11466.55
670.41	11371.18
670.76	11421.13
671.109	11469.49
671.459	11393.33
671.808	11393.1
672.157	11470.62
672.507	11362.37
672.856	11394.91
673.205	11377.96
673.554	11316.5
673.904	11391.07
674.253	11386.32
674.602	11373.44
674.951	11257.29
675.3	11165.09
675.649	11306.55
675.998	11320.34
676.346	11366.66
676.695	11276.5
677.044	11310.39
677.393	11285.76
677.741	11347.46
678.09	11262.03
678.438	11301.36
678.787	11252.77
679.135	11265.2
679.484	11157.18
679.832	11220.23
680.181	11135.26
680.529	11196.5
680.877	11138.2
681.225	11084.64
681.573	11147.91
681.922	11089.16
682.27	11062.27
682.618	11124.64
682.966	11025.88
683.314	11010.29
683.661	11017.75
684.009	10933
684.357	10911.08
684.705	10854.36
685.053	10910.41
685.4	10933.91
685.748	10899.56
686.095	10855.04
686.443	10837.41
686.79	10811.42
687.138	10812.78
687.485	10842.16
687.832	10698.21
688.18	10714.25
688.527	10632.22
688.874	10646.01
689.221	10642.62
689.568	10601.03
689.915	10659.79
690.262	10517.42
690.609	10486.01
690.956	10448.5
691.303	10404.88
691.65	10370.08
691.997	10356.97
692.344	10315.39
692.69	10297.99
693.037	10271.55
693.383	10133.93
693.73	10171.22
694.077	10128.28
694.423	10150.2
694.769	10087.15
695.116	10048.28
695.462	10106.58
695.808	10009.64
696.155	10010.32
696.501	9942.07
696.847	9918.57
697.193	9820.26
697.539	9866.59
697.885	9859.13
698.231	9778.46
698.577	9716.99
698.923	9730.78
699.269	9560.16
699.614	9617.11
699.96	9540.95
700.306	9511.8
700.651	9483.55
700.997	9460.27
701.342	9439.94
701.688	9451.91
702.033	9398.58
702.379	9433.38
702.724	9319.49
703.069	9299.83
703.415	9292.14
703.76	9234.97
704.105	9238.13
704.45	9243.33
704.795	9140.28
705.14	9104.35
705.485	9111.81
705.83	9071.13
706.175	9072.26
706.52	8995.43
706.865	8926.28
707.209	8956.11
707.554	8870.23
707.899	8982.77
708.243	8880.4
708.588	8858.71
708.932	8805.6
709.277	8788.88
709.621	8744.81
709.966	8686.06
710.31	8734.19
710.654	8649.45
710.998	8710.92
711.342	8690.8
711.687	8702.33
712.031	8557.47
712.375	8533.74
712.719	8591.82
713.063	8561.54
713.407	8576.46
713.75	8537.13
714.094	8484.93
714.438	8479.51
714.782	8422.79
715.125	8403.8
715.469	8518.6
715.812	8416.69
716.156	8336.69
716.499	8410.13
716.843	8427.98
717.186	8352.28
717.53	8424.37
717.873	8372.62
718.216	8351.83
718.559	8292.62
718.902	8232.06
719.246	8289.91
719.589	8277.93
719.932	8220.53
720.275	8262.11
720.617	8230.25
720.96	8195.22
721.303	8178.27
721.646	8203.81
721.989	8191.61
722.331	8210.36
722.674	8191.61
723.016	8150.03
723.359	8160.42
723.701	8180.76
724.044	8114.09
724.386	8121.33
724.729	8117.94
725.071	8146.86
725.413	8138.27
725.755	8109.57
726.097	8094.89
726.439	8015.11
726.782	8069.35
727.124	8040.65
727.465	8078.62
727.807	8091.72
728.149	8056.47
728.491	8011.95
728.833	8051.5
729.175	8016.7
729.516	8024.15
729.858	8075.68
730.199	8040.42
730.541	8016.92
730.882	7981.44
731.224	8038.16
731.565	7998.62
731.906	8015.79
732.248	8011.05
732.589	7972.86
732.93	7971.5
733.271	7981.89
733.612	7953.65
733.953	8011.72
734.294	8003.36
734.635	7959.07
734.976	7988.22
735.317	7953.42
735.658	7940.99
735.999	7929.92
736.339	7964.95
736.68	8044.94
737.021	8014.66
737.361	8034.77
737.702	8055.11
738.042	7995.23
738.383	7980.99
738.723	8016.92
739.063	8027.09
739.404	8066.64
739.744	8114.09
740.084	8057.6
740.424	8062.12
740.764	8052.85
741.104	8131.04
741.444	8037.26
741.784	8106.64
742.124	8088.33
742.464	8180.53
742.804	8140.99
743.143	8142.57
743.483	8204.94
743.823	8197.03
744.162	8244.71
744.502	8310.02
744.841	8241.32
745.181	8304.6
745.52	8355.9
745.86	8368.1
746.199	8432.5
746.538	8461.43
746.877	8502.11
747.216	8536.68
747.556	8569.45
747.895	8589.56
748.234	8649
748.573	8715.89
748.911	8782.55
749.25	8876.56
749.589	8854.64
749.928	8978.7
750.267	9060.96
750.605	9097.12
750.944	9115.2
751.283	9185.25
751.621	9319.49
751.96	9421.4
752.298	9447.39
752.636	9522.65
752.975	9607.61
753.313	9636.99
753.651	9810.32
753.989	9919.47
754.327	9999.02
754.666	10033.37
755.004	10204.89
755.342	10337.09
755.679	10374.15
756.017	10523.07
756.355	10761.71
756.693	10797.19
757.031	10946.11
757.368	11020.23
757.706	11188.36
758.044	11266.78
758.381	11478.53
758.719	11613.21
