Data from hue_38_FLMS001491_00067.txt Node
Date: Tue Feb 07 17:31:49 GMT 2017
User: dcchb
Spectrometer: FLMS00149
Trigger mode: 0
Integration Time (sec): 2.000000E-2
Scans to average: 10
Electric dark correction enabled: true
Nonlinearity correction enabled: false
Boxcar width: 0
XAxis mode: Wavelengths
Number of Pixels in Spectrum: 2048
>>>>>Begin Spectral Data<<<<<
341.393	-16.28
341.776	-16.28
342.16	-16.28
342.543	-33.23
342.927	-64.87
343.31	-59
343.693	-59
344.077	-61.26
344.46	-73.46
344.843	-43.4
345.226	-43.63
345.61	-34.82
345.993	-38.88
346.376	2.25
346.759	14.22
347.142	38.4
347.525	41.34
347.908	56.26
348.291	85.86
348.674	74.11
349.057	101
349.44	113.2
349.823	138.29
350.206	159.98
350.588	198.4
350.971	221
351.354	227.32
351.737	226.19
352.119	250.6
352.502	261.9
352.884	297.15
353.267	271.62
353.65	290.37
354.032	319.53
354.414	303.93
354.797	313.65
355.179	322.24
355.562	316.59
355.944	319.07
356.326	315.68
356.709	334.21
357.091	315.01
357.473	349.58
357.855	309.58
358.238	387.09
358.62	358.39
359.002	337.6
359.384	348.23
359.766	340.54
360.148	343.03
360.53	342.12
360.912	347.1
361.294	341.45
361.676	317.72
362.057	336.02
362.439	323.59
362.821	337.15
363.203	350.26
363.584	330.15
363.966	331.05
364.348	343.71
364.729	330.37
365.111	326.08
365.493	312.07
365.874	316.14
366.256	314.1
366.637	327.21
367.019	327.66
367.4	340.09
367.781	316.59
368.163	338.06
368.544	303.93
368.925	318.62
369.306	319.53
369.688	313.2
370.069	324.27
370.45	325.4
370.831	312.75
371.212	320.2
371.593	324.95
371.974	319.07
372.355	305.51
372.736	332.18
373.117	335.34
373.498	327.43
373.879	328.79
374.26	325.85
374.641	324.05
375.021	319.53
375.402	315.46
375.783	314.1
376.163	309.58
376.544	351.84
376.925	332.41
377.305	358.39
377.686	317.94
378.066	343.93
378.447	331.28
378.827	346.42
379.208	355.91
379.588	336.93
379.968	342.35
380.349	347.32
380.729	315.01
381.109	352.29
381.489	338.28
381.87	347.55
382.25	329.92
382.63	336.02
383.01	356.13
383.39	358.85
383.77	360.43
384.15	366.76
384.53	351.84
384.91	355.23
385.29	351.62
385.67	348.68
386.049	345.06
386.429	350.71
386.809	352.29
387.189	335.12
387.568	351.62
387.948	377.38
388.328	364.95
388.707	382.57
389.087	376.93
389.466	373.08
389.846	387.09
390.225	375.8
390.605	370.15
390.984	354.55
391.363	393.87
391.743	382.12
392.122	382.12
392.501	372.41
392.881	395.46
393.26	362.01
393.639	391.84
394.018	392.52
394.397	391.39
394.776	385.29
395.155	408.34
395.534	392.07
395.913	406.08
396.292	401.33
396.671	378.06
397.05	405.85
397.429	382.12
397.808	394.33
398.186	405.62
398.565	402.69
398.944	390.94
399.323	370.82
399.701	411.05
400.08	404.95
400.458	390.71
400.837	394.55
401.215	415.34
401.594	419.41
401.972	409.69
402.351	421.67
402.729	394.78
403.107	434.32
403.486	415.12
403.864	423.93
404.242	411.5
404.62	433.87
404.999	432.29
405.377	431.16
405.755	428
406.133	441.33
406.511	428
406.889	449.24
407.267	456.92
407.645	454.44
408.023	442.91
408.401	449.01
408.779	450.82
409.156	454.66
409.534	436.81
409.912	462.35
410.29	474.55
410.667	480.2
411.045	496.7
411.422	501.67
411.8	490.82
412.178	504.38
412.555	480.43
412.933	477.71
413.31	487.2
413.687	501.67
414.065	504.61
414.442	498.28
414.819	509.58
415.197	535.34
415.574	502.57
415.951	525.17
416.328	527.2
416.705	530.14
417.082	498.73
417.46	529.92
417.837	510.93
418.214	555.9
418.591	519.97
418.967	551.61
419.344	528.11
419.721	541.21
420.098	539.18
420.475	538.05
420.852	562
421.228	566.98
421.605	552.06
421.982	580.99
422.358	565.85
422.735	577.15
423.111	580.76
423.488	561.55
423.864	579.41
424.241	612.85
424.617	599.07
424.994	610.82
425.37	589.8
425.746	591.83
426.123	606.98
426.499	608.33
426.875	610.82
427.251	622.57
427.627	623.25
428.003	607.65
428.379	628.67
428.756	665.96
429.132	652.4
429.507	654.88
429.883	668.22
430.259	677.71
430.635	658.05
431.011	672.96
431.387	673.41
431.763	667.99
432.138	683.58
432.514	697.14
432.89	693.07
433.265	701.44
433.641	709.8
434.016	719.29
434.392	732.17
434.767	747.76
435.143	709.35
435.518	728.1
435.894	743.7
436.269	759.97
436.644	736.69
437.02	752.96
437.395	766.29
437.77	778.04
438.145	760.87
438.52	802.45
438.895	780.3
439.271	783.69
439.646	807.2
440.021	799.74
440.395	808.1
440.77	809.91
441.145	827.08
441.52	819.85
441.895	841.77
442.27	871.6
442.645	816.01
443.019	859.85
443.394	848.55
443.769	852.62
444.143	853.52
444.518	878.83
444.892	854.43
445.267	884.48
445.641	869.79
446.016	889.45
446.39	892.17
446.764	890.58
447.139	899.62
447.513	884.03
447.887	898.95
448.262	897.36
448.636	927.19
449.01	921.77
449.384	918.38
449.758	932.16
450.132	919.28
450.506	941.88
450.88	966.74
451.254	965.61
451.628	954.76
452.002	982.33
452.376	983.69
452.75	990.47
453.123	994.99
453.497	1008.77
453.871	1023.01
454.244	1009.68
454.618	1046.06
454.992	1073.63
455.365	1051.71
455.739	1064.59
456.112	1091.03
456.486	1071.82
456.859	1098.71
457.232	1094.65
457.606	1098.26
457.979	1143.68
458.352	1159.73
458.725	1166.28
459.099	1138.49
459.472	1193.17
459.845	1197.24
460.218	1187.3
460.591	1223.68
460.964	1215.55
461.337	1247.18
461.71	1268.65
462.083	1284.25
462.456	1304.36
462.829	1306.62
463.201	1317.24
463.574	1319.95
463.947	1343
464.32	1350.46
464.692	1376.22
465.065	1387.07
465.438	1431.59
465.81	1398.82
466.183	1457.57
466.555	1468.2
466.928	1487.4
467.3	1527.63
467.672	1497.12
468.045	1564.24
468.417	1553.62
468.789	1543
469.161	1618.47
469.534	1664.12
469.906	1695.31
470.278	1694.63
470.65	1698.02
471.022	1720.39
471.394	1765.59
471.766	1839.49
472.138	1828.19
472.51	1887.39
472.882	1901.86
473.253	1924
473.625	1969.65
473.997	2007.84
474.369	2038.58
474.74	2116.77
475.112	2109.99
475.484	2134.84
475.855	2189.98
476.227	2256.42
476.598	2324.44
476.97	2339.81
477.341	2423.65
477.713	2460.49
478.084	2489.19
478.455	2564.89
478.827	2598.56
479.198	2708.16
479.569	2754.04
479.94	2816.86
480.311	2849.18
480.682	2938.67
481.053	3027.48
481.424	3115.16
481.795	3158.55
482.166	3213.46
482.537	3313.35
482.908	3403.74
483.279	3455.04
483.65	3567.12
484.021	3675.14
484.391	3728.02
484.762	3802.37
485.133	3863.39
485.503	3930.96
485.874	4102.7
486.244	4133.21
486.615	4252.08
486.985	4308.57
487.356	4449.13
487.726	4533.65
488.097	4636.93
488.467	4738.62
488.837	4820.65
489.207	4978.16
489.578	5068.33
489.948	5080.98
490.318	5248.66
490.688	5362.56
491.058	5422.67
491.428	5550.57
491.798	5670.8
492.168	5754.86
492.538	5816.1
492.908	5989.43
493.278	6163.44
493.648	6141.07
494.017	6330.67
494.387	6433.94
494.757	6446.37
495.126	6636.65
495.496	6679.36
495.866	6747.15
496.235	6902.86
496.605	6967.94
496.974	7062.17
497.344	7129.97
497.713	7261.72
498.082	7448.6
498.452	7406.8
498.821	7554.82
499.19	7635.72
499.559	7741.93
499.928	7785.32
500.298	7867.58
500.667	7958.65
501.036	8022.15
501.405	8170.84
501.774	8174.46
502.143	8274.8
502.512	8334.68
502.88	8512.3
503.249	8521.57
503.618	8611.06
503.987	8695.8
504.356	8791.85
504.724	8838.62
505.093	8879.53
505.462	8952.97
505.83	9074.78
506.199	9180.54
506.567	9275.22
506.936	9303.7
507.304	9441.32
507.672	9486.74
508.041	9566.06
508.409	9679.05
508.777	9643.12
509.145	9783.01
509.514	9862.55
509.882	9921.98
510.25	9986.39
510.618	10006.05
510.986	10099.16
511.354	10190.68
511.722	10334.18
512.09	10353.39
512.458	10413.05
512.826	10533.04
513.193	10581.4
513.561	10581.4
513.929	10699.82
514.297	10831.57
514.664	10835.63
515.032	10950.21
515.4	11029.07
515.767	11123.08
516.135	11111.11
516.502	11060.71
516.869	11319.69
517.237	11342.29
517.604	11342.29
517.972	11454.83
518.339	11481.04
518.706	11589.29
519.073	11671.32
519.44	11703.86
519.808	11820.01
520.175	11836.51
520.542	11995.83
520.909	12018.88
521.276	12079.67
521.643	12189.5
522.009	12259.32
522.376	12359.89
522.743	12363.05
523.11	12464.06
523.477	12623.61
523.843	12753.32
524.21	12831.51
524.577	12901.12
524.943	13016.82
525.31	13044.61
525.676	13186.31
526.043	13200.77
526.409	13277.15
526.776	13382.23
527.142	13377.04
527.508	13432.63
527.874	13569.35
528.241	13736.12
528.607	13686.18
528.973	13794.65
529.339	13881.88
529.705	13980.64
530.071	14073.06
530.437	14103.8
530.803	14221.31
531.169	14272.38
531.535	14330.91
531.901	14433.96
532.267	14459.49
532.632	14574.29
532.998	14597.34
533.364	14682.09
533.73	14741.97
534.095	14840.05
534.461	14883.21
534.826	14988.97
535.192	15005.92
535.557	15140.15
535.923	15070.55
536.288	15258.79
536.653	15289.3
537.019	15205.91
537.384	15341.5
537.749	15352.35
538.114	15519.35
538.479	15500.37
538.845	15595.06
539.21	15593.47
539.575	15673.25
539.94	15659.24
540.305	15831.66
540.67	15850.87
541.034	15868.5
541.399	15987.81
541.764	15999.34
542.129	16050.41
542.494	16202.27
542.858	16268.48
543.223	16315.26
543.587	16382.38
543.952	16384.64
544.316	16454.69
544.681	16499.67
545.045	16612.43
545.41	16640.68
545.774	16732.2
546.138	16671.19
546.503	16858.75
546.867	16781.69
547.231	17031.63
547.595	16980.33
547.959	17079.99
548.324	17112.53
548.688	17124.28
549.052	17294.67
549.416	17305.29
549.779	17262.36
550.143	17433.65
550.507	17505.97
550.871	17600.43
551.235	17546.87
551.599	17612.63
551.962	17688.79
552.326	17765.85
552.689	17797.03
553.053	17739.41
553.417	17867.09
553.78	18070.47
554.143	18028.66
554.507	18091.71
554.87	18151.82
555.234	18281.54
555.597	18225.27
555.96	18330.13
556.323	18384.36
556.686	18370.12
557.05	18565.6
557.413	18582.55
557.776	18644.47
558.139	18756.55
558.502	18724.24
558.865	18844.01
559.228	18921.97
559.59	18968.3
559.953	19072.93
560.316	19329.2
560.679	19316.77
561.041	19424.33
561.404	19335.3
561.767	19492.13
562.129	19463.65
562.492	19631.33
562.854	19574.84
563.217	19646.93
563.579	19656.87
563.941	19929.86
564.304	19961.04
564.666	20036.97
565.028	20034.94
565.39	20136.41
565.753	20252.33
566.115	20279.23
566.477	20411.2
566.839	20428.83
567.201	20541.59
567.563	20623.4
567.925	20739.78
568.287	20717.41
568.648	20848.03
569.01	20960.79
569.372	21033.56
569.734	21048.25
570.095	21166.21
570.457	21210.05
570.819	21351.06
571.18	21409.14
571.542	21516.71
571.903	21498.63
572.265	21685.52
572.626	21763.26
572.987	21758.51
573.349	21899.3
573.71	22044.15
574.071	22079.86
574.432	22300.19
574.794	22398.94
575.155	22436.91
575.516	22343.35
575.877	22591.26
576.238	22719.16
576.599	22804.58
576.96	22841.19
577.32	23118.93
577.681	23136.33
578.042	23198.92
578.403	23324.57
578.763	23458.58
579.124	23610.21
579.485	23857.89
579.845	23977.66
580.206	24140.82
580.566	24200.48
580.927	24469.17
581.287	24601.15
581.648	24691.77
582.008	24860.58
582.368	25003.4
582.728	25203.16
583.089	25225.76
583.449	25398.64
583.809	25673.44
584.169	25809.93
584.529	25974.44
584.889	26283.81
585.249	26355.9
585.609	26434.77
585.969	26933.06
586.329	26945.49
586.688	27322.88
587.048	27229.78
587.408	27506.83
587.768	27701.4
588.127	27931.23
588.487	28235.85
588.846	28510.42
589.206	28456.64
589.565	28765.11
589.925	29055.72
590.284	29333.68
590.643	29467.69
591.003	29732.76
591.362	29978.41
591.721	30001.46
592.08	30247.78
592.44	30522.35
592.799	30711.04
593.158	30890.25
593.517	31108.32
593.876	31333.85
594.235	31506.05
594.593	31806.83
594.952	31935.42
595.311	32083.89
595.67	32267.61
596.029	32624.89
596.387	32863.08
596.746	33019.91
597.104	33173.8
597.463	33348.04
597.822	33631.64
598.18	33769.95
598.538	33843.16
598.897	34276.82
599.255	34129.71
599.613	34902.34
599.972	34739.86
600.33	35014.21
600.688	35011.72
601.046	35544.81
601.404	35616.22
601.762	35612.83
602.12	35967.4
602.478	36166.27
602.836	36290.78
603.194	36213.27
603.552	36542.3
603.91	36521.51
604.268	36814.16
604.625	36874.04
604.983	37266.35
605.341	37121.04
605.698	37489.17
606.056	37607.36
606.413	37693.46
606.771	37796.96
607.128	37952.21
607.485	38141.81
607.843	38224.97
608.2	38524.85
608.557	38655.01
608.914	38684.84
609.272	38981.33
609.629	39083.03
609.986	39181.55
610.343	39186.53
610.7	39588.32
611.057	39591.49
611.414	39726.17
611.771	39832.16
612.127	40030.12
612.484	40203
612.841	40300.62
613.198	40311.47
613.554	40268.53
613.911	40610.44
614.267	40684.11
614.624	40795.98
614.98	41007.95
615.337	41208.17
615.693	41147.15
616.05	41188.28
616.406	41599.8
616.762	41419.91
617.118	41457.65
617.475	41533.13
617.831	41733.8
618.187	41876.62
618.543	42005.89
618.899	42194.81
619.255	42146.9
619.611	42159.78
619.967	42401.58
620.323	42342.15
620.678	42395.26
621.034	42460.34
621.39	42362.04
621.746	42389.38
622.101	42955.69
622.457	42591.18
622.812	42894.23
623.168	42755.02
623.523	42936.03
623.879	43155.69
624.234	42944.85
624.589	43131.06
624.945	43253.76
625.3	43172.18
625.655	43160.43
626.01	43254.22
626.365	43351.84
626.72	43245.18
627.075	43432.74
627.43	43388.68
627.785	43362.01
628.14	43505.51
628.495	43473.42
628.85	43437.26
629.205	43413.76
629.559	43534.89
629.914	43384.83
630.269	43673.19
630.623	43339.19
630.978	43347.77
631.332	43625.28
631.687	43658.05
632.041	43551.16
632.396	43592.96
632.75	43398.84
633.104	43568.78
633.459	43437.26
633.813	43340.99
634.167	43474.55
634.521	43568.11
634.875	43684.94
635.229	43493.53
635.583	43511.16
635.937	43510.48
636.291	43280.66
636.645	43330.82
636.999	43347.32
637.352	43314.33
637.706	43425.51
638.06	43461.67
638.413	43336.47
638.767	43248.79
639.121	43277.72
639.474	43301.45
639.828	43241.56
640.181	43220.54
640.534	43225.97
640.888	43083.37
641.241	42943.49
641.594	43098.29
641.947	43181.68
642.301	43040.21
642.654	43110.49
643.007	43065.75
643.36	43018.29
643.713	43006.09
644.066	43121.34
644.419	42895.36
644.771	42703.72
645.124	42227.58
645.477	42140.35
645.83	42027.13
646.182	41767.25
646.535	41729.74
646.888	41844.99
647.24	41658.1
647.593	41956.62
647.945	41715.05
648.298	41509.18
648.65	41587.82
649.002	41520.02
649.355	41760.7
649.707	41616.97
650.059	41784.88
650.411	42227.8
650.763	42343.73
651.115	42666.89
651.467	42564.97
651.819	42507.57
652.171	42471.86
652.523	42487.68
652.875	42412.43
653.227	42138.09
653.578	42440.23
653.93	42463.5
654.282	42308.48
654.633	42169.5
654.985	42075.26
655.337	42175.37
655.688	42266.45
656.039	42437.29
656.391	42085.43
656.742	42155.26
657.094	42158.88
657.445	42370.85
657.796	42240.01
658.147	42095.15
658.498	42082.72
658.849	42172.44
659.2	42122.04
659.551	42005.66
659.902	42153.91
660.253	42132.44
660.604	42110.52
660.955	41921.14
661.306	42131.99
661.656	42048.82
662.007	41908.26
662.358	42110.74
662.708	42081.37
663.059	41990.29
663.409	41701.04
663.76	42037.07
664.11	42044.3
664.461	42013.12
664.811	42089.05
665.161	41920.24
665.511	41890.86
665.862	41869.39
666.212	42016.06
666.562	41936.06
666.912	42005.21
667.262	41902.16
667.612	41842.73
667.962	41856.29
668.312	41857.64
668.662	42018.54
669.011	41808.83
669.361	41814.03
669.711	41911.65
670.06	41820.13
670.41	41793.46
670.76	41691.09
671.109	41713.69
671.459	41647.03
671.808	41649.06
672.157	41730.87
672.507	41443.19
672.856	41546.01
673.205	41605.67
673.554	41667.36
673.904	41601.83
674.253	41733.8
674.602	41681.6
674.951	40942.41
675.3	40891.11
675.649	41538.78
675.998	41437.54
676.346	41482.96
676.695	41617.65
677.044	41336.3
677.393	41326.81
677.741	41453.13
678.09	41334.94
678.438	41326.13
678.787	41308.28
679.135	41343.31
679.484	41143.54
679.832	41276.87
680.181	41013.82
680.529	41097.89
680.877	40983.54
681.225	40982.19
681.573	41118.45
681.922	40915.52
682.27	40794.39
682.618	40812.7
682.966	40709.88
683.314	40726.37
683.661	40595.98
684.009	40462.65
684.357	40305.82
684.705	40367.96
685.053	40423.78
685.4	40278.47
685.748	40221.08
686.095	40176.1
686.443	39950.57
686.79	39948.77
687.138	40112.15
687.485	40093.85
687.832	39910.57
688.18	39806.62
688.527	39716.23
688.874	39714.42
689.221	39523.92
689.568	39575.44
689.915	39465.16
690.262	39555.56
690.609	39280.99
690.956	39055.68
691.303	39205.73
691.65	39105.62
691.997	39061.11
692.344	39002.35
692.69	38924.84
693.037	38774.56
693.383	38382.93
693.73	38705.63
694.077	38470.39
694.423	38324.85
694.769	38337.96
695.116	38184.52
695.462	38139.55
695.808	38061.58
696.155	38031.53
696.501	37860.46
696.847	37933.9
697.193	37593.57
697.539	37759.9
697.885	37522.39
698.231	37274.49
698.577	37356.97
698.923	37255.73
699.269	37129.18
699.614	36796.53
699.96	36746.82
700.306	36839.92
700.651	36745.46
700.997	36611
701.342	36513.15
701.688	36662.3
702.033	36455.52
702.379	36339.37
702.724	36303.66
703.069	36415.07
703.415	35971.92
703.76	35906.84
704.105	35967.85
704.45	36002.66
704.795	35636.79
705.14	35640.18
705.485	35668.2
705.83	35535.55
706.175	35538.03
706.52	35473.18
706.865	35320.19
707.209	35316.35
707.554	35097.59
707.899	35162.68
708.243	34949.8
708.588	34877.26
708.932	34674.55
709.277	34760.88
709.621	34675.91
709.966	34455.58
710.31	34565.86
710.654	34315.47
710.998	34557.95
711.342	34376.26
711.687	34246.32
712.031	34091.97
712.375	34119.31
712.719	34079.32
713.063	33938.75
713.407	34030.96
713.75	33888.13
714.094	33807.46
714.438	33644.75
714.782	33764.97
715.125	33628.71
715.469	33554.81
715.812	33452.44
716.156	33363.18
716.499	33316.85
716.843	33275.72
717.186	33207.25
717.53	33251.09
717.873	33308.94
718.216	33130.41
718.559	33013.36
718.902	32806.35
719.246	32817.43
719.589	32828.73
719.932	32723.65
720.275	32722.29
720.617	32625.34
720.96	32565.91
721.303	32438.23
721.646	32466.93
721.989	32328.63
722.331	32494.5
722.674	32301.51
723.016	32353.71
723.359	32199.82
723.701	32449.75
724.044	32122.53
724.386	31961.41
724.729	32180.61
725.071	32019.03
725.413	31995.08
725.755	31897.68
726.097	31719.6
726.439	31631.92
726.782	31869.88
727.124	31761.41
727.465	31612.04
727.807	31572.94
728.149	31470.57
728.491	31359.39
728.833	31443.68
729.175	31337.92
729.516	31246.85
729.858	31328.43
730.199	31215.66
730.541	31167.53
730.882	31082.78
731.224	31323.23
731.565	30895.9
731.906	30978.61
732.248	31067.19
732.589	30788.55
732.93	30744.94
733.271	30873.07
733.612	30821.77
733.953	30835.33
734.294	30730.03
734.635	30561.89
734.976	30658.84
735.317	30570.26
735.658	30530.71
735.999	30553.98
736.339	30498.39
736.68	30410.49
737.021	30397.15
737.361	30238.51
737.702	30445.29
738.042	30289.81
738.383	30234.67
738.723	30277.38
739.063	30058.18
739.404	30055.69
739.744	30085.07
740.084	29957.16
740.424	29967.33
740.764	29887.11
741.104	30109.48
741.444	29875.58
741.784	29766.89
742.124	29765.3
742.464	29606.89
742.804	29669.71
743.143	29622.48
743.483	29584.52
743.823	29643.27
744.162	29489.15
744.502	29577.74
744.841	29439.89
745.181	29509.04
745.52	29352.43
745.86	29416.16
746.199	29314.92
746.538	29325.77
746.877	29235.15
747.216	29341.59
747.556	29142.27
747.895	29197.86
748.234	29059.33
748.573	29002.39
748.911	28886.23
749.25	28949.96
749.589	28814.14
749.928	28840.36
750.267	28754.26
750.605	28771.88
750.944	28683.53
751.283	28561.95
751.621	28624.09
751.96	28472.23
752.298	28500.25
752.636	28482.63
752.975	28332.8
753.313	28204.89
753.651	28338.68
753.989	28326.7
754.327	28217.55
754.666	28126.48
755.004	28112.47
755.342	28079.25
755.679	28071.11
756.017	27817.56
756.355	27897.56
756.693	27825.47
