Data from hue_240_FLMS001491_00036.txt Node
Date: Tue Feb 07 16:35:24 GMT 2017
User: dcchb
Spectrometer: FLMS00149
Trigger mode: 0
Integration Time (sec): 2.000000E-2
Scans to average: 10
Electric dark correction enabled: true
Nonlinearity correction enabled: false
Boxcar width: 0
XAxis mode: Wavelengths
Number of Pixels in Spectrum: 2048
>>>>>Begin Spectral Data<<<<<
341.393	3.67
341.776	3.67
342.16	3.67
342.543	-46.04
342.927	-56.21
343.31	-70
343.693	-67.74
344.077	-74.29
344.46	-66.38
344.843	-51.02
345.226	-50.79
345.61	-38.81
345.993	-6.95
346.376	-8.98
346.759	27.85
347.142	42.77
347.525	47.06
347.908	66.72
348.291	46.83
348.674	100.62
349.057	103.1
349.44	132.71
349.823	139.71
350.206	156.44
350.588	179.94
350.971	191.92
351.354	212.25
351.737	224.68
352.119	265.13
352.502	239.37
352.884	265.59
353.267	264.23
353.65	299.94
354.032	286.83
354.414	301.52
354.797	302.87
355.179	292.48
355.562	291.8
355.944	299.48
356.326	327.05
356.709	318.47
357.091	333.61
357.473	326.38
357.855	326.6
358.238	312.82
358.62	304.46
359.002	345.81
359.384	321.4
359.766	336.32
360.148	337.9
360.53	326.15
360.912	347.84
361.294	324.12
361.676	332.93
362.057	327.96
362.439	333.38
362.821	335.87
363.203	323.66
363.584	308.3
363.966	321.86
364.348	296.55
364.729	315.98
365.111	306.72
365.493	322.31
365.874	325.02
366.256	319.82
366.637	304.46
367.019	302.87
367.4	316.43
367.781	300.84
368.163	302.42
368.544	305.59
368.925	307.85
369.306	306.04
369.688	299.26
370.069	280.05
370.45	301.74
370.831	298.35
371.212	316.43
371.593	326.83
371.974	309.2
372.355	306.26
372.736	300.84
373.117	303.1
373.498	310.1
373.879	299.03
374.26	302.65
374.641	297.68
375.021	303.33
375.402	338.8
375.783	306.94
376.163	330.67
376.544	300.84
376.925	305.81
377.305	322.31
377.686	313.49
378.066	315.75
378.447	316.43
378.827	324.12
379.208	298.58
379.588	329.54
379.968	323.21
380.349	318.47
380.729	342.65
381.109	344.91
381.489	355.75
381.87	323.21
382.25	333.83
382.63	314.4
383.01	330.44
383.39	354.85
383.77	314.4
384.15	330.44
384.53	335.41
384.91	327.05
385.29	341.29
385.67	340.84
386.049	348.75
386.429	353.27
386.809	337.9
387.189	348.52
387.568	352.82
387.948	341.06
388.328	341.52
388.707	337.9
389.087	358.69
389.466	349.2
389.846	375.64
390.225	351.01
390.605	382.87
390.984	370.22
391.363	367.73
391.743	351.23
392.122	368.63
392.501	376.77
392.881	362.31
393.26	366.83
393.639	356.88
394.018	364.11
394.397	350.1
394.776	386.94
395.155	383.78
395.534	390.1
395.913	384
396.292	368.18
396.671	393.27
397.05	374.96
397.429	374.06
397.808	398.01
398.186	386.94
398.565	391.68
398.944	403.21
399.323	389.88
399.701	403.44
400.08	405.7
400.458	383.32
400.837	418.8
401.215	386.94
401.594	389.88
401.972	413.83
402.351	417.9
402.729	415.64
403.107	394.62
403.486	414.51
403.864	433.49
404.242	425.81
404.62	431.68
404.999	412.02
405.377	445.47
405.755	442.3
406.133	424
406.511	441.63
406.889	439.14
407.267	445.69
407.645	442.53
408.023	444.56
408.401	445.24
408.779	448.86
409.156	466.71
409.534	468.74
409.912	469.65
410.29	474.85
410.667	495.41
411.045	474.39
411.422	513.04
411.8	513.94
412.178	515.3
412.555	522.75
412.933	523.66
413.31	564.11
413.687	562.75
414.065	553.71
414.442	542.42
414.819	536.99
415.197	579.25
415.574	580.15
415.951	580.15
416.328	574.28
416.705	591.45
417.082	563.43
417.46	591.91
417.837	597.78
418.214	613.15
418.591	586.03
418.967	614.96
419.344	620.61
419.721	619.7
420.098	614.5
420.475	631.45
420.852	645.01
421.228	645.01
421.605	653.82
421.982	694.73
422.358	677.55
422.735	694.05
423.111	701.73
423.488	701.51
423.864	720.49
424.241	751.68
424.617	718.91
424.994	746.93
425.37	764.1
425.746	753.26
426.123	767.72
426.499	786.7
426.875	772.24
427.251	812.92
427.627	825.35
428.003	824.44
428.379	835.51
428.756	824.22
429.132	838.23
429.507	848.4
429.883	837.55
430.259	855.4
430.635	855.4
431.011	892.01
431.387	888.17
431.763	902.41
432.138	904.89
432.514	965
432.89	938.34
433.265	959.58
433.641	974.49
434.016	994.15
434.392	974.72
434.767	1021.27
435.143	1025.34
435.518	1045.68
435.894	1025.11
436.269	1065.34
436.644	1094.49
437.02	1088.39
437.395	1077.99
437.77	1142.17
438.145	1151.21
438.52	1146.47
438.895	1176.07
439.271	1157.54
439.646	1206.35
440.021	1204.77
440.395	1222.17
440.77	1203.87
441.145	1237.99
441.52	1263.98
441.895	1245
442.27	1291.32
442.645	1280.93
443.019	1260.14
443.394	1286.58
443.769	1306.46
444.143	1321.15
444.518	1365.9
444.892	1317.76
445.267	1357.99
445.641	1355.73
446.016	1376.74
446.39	1381.04
446.764	1413.8
447.139	1394.14
447.513	1409.51
447.887	1401.15
448.262	1422.39
448.636	1417.19
449.01	1444.54
449.384	1492.9
449.758	1465.78
450.132	1483.63
450.506	1520.69
450.88	1487.93
451.254	1509.17
451.628	1548.94
452.002	1526.34
452.376	1570.41
452.75	1545.78
453.123	1580.81
453.497	1599.11
453.871	1600.47
454.244	1626.23
454.618	1660.35
454.992	1653.8
455.365	1665.55
455.739	1706.45
456.112	1724.08
456.486	1713.46
456.859	1756.17
457.232	1768.37
457.606	1765.21
457.979	1763.63
458.352	1867.13
458.725	1836.39
459.099	1866.45
459.472	1905.09
459.845	1891.98
460.218	1860.12
460.591	1904.19
460.964	1932.89
461.337	1953.9
461.71	1981.02
462.083	2027.8
462.456	2036.61
462.829	2040.68
463.201	2064.86
463.574	2048.14
463.947	2105.99
464.32	2184.86
464.692	2148.47
465.065	2169.72
465.438	2204.52
465.81	2243.61
466.183	2212.88
466.555	2320.9
466.928	2291.52
467.3	2280.67
467.672	2331.07
468.045	2384.4
468.417	2388.02
468.789	2415.13
469.161	2427.56
469.534	2494.45
469.906	2544.4
470.278	2506.88
470.65	2581.01
471.022	2581.91
471.394	2644.28
471.766	2684.28
472.138	2688.35
472.51	2752.53
472.882	2789.81
473.253	2774.45
473.625	2842.47
473.997	2875.91
474.369	2881.34
474.74	2913.88
475.112	2966.53
475.484	3042.01
475.855	3031.39
476.227	3095.57
476.598	3188.22
476.97	3201.1
477.341	3222.12
477.713	3280.87
478.084	3319.07
478.455	3354.09
478.827	3387.09
479.198	3474.09
479.569	3511.15
479.94	3568.78
480.311	3582.34
480.682	3651.94
481.053	3733.74
481.424	3801.09
481.795	3778.71
482.166	3874.3
482.537	3873.4
482.908	3940.97
483.279	3961.53
483.65	4050.57
484.021	4128.54
484.391	4193.39
484.762	4180.74
485.133	4222.32
485.503	4314.29
485.874	4373.5
486.244	4365.37
486.615	4480.16
486.985	4504.57
487.356	4645.13
487.726	4590.67
488.097	4643.32
488.467	4752.02
488.837	4771.46
489.207	4818.23
489.578	4832.7
489.948	4960.83
490.318	4967.84
490.688	4961.51
491.058	5031.11
491.428	5152.69
491.798	5139.58
492.168	5276.53
492.538	5272.91
492.908	5333.93
493.278	5370.31
493.648	5370.31
494.017	5416.41
494.387	5489.18
494.757	5464.09
495.126	5535.5
495.496	5552.68
495.866	5581.38
496.235	5649.85
496.605	5641.04
496.974	5700.92
497.344	5730.3
497.713	5842.61
498.082	5782.28
498.452	5857.3
498.821	5874.48
499.19	5864.31
499.559	5891.2
499.928	5976.17
500.298	6020.01
500.667	6042.61
501.036	6033.12
501.405	6057.75
501.774	6066.79
502.143	6121.93
502.512	6068.82
502.88	6209.61
503.249	6168.03
503.618	6198.31
503.987	6246.22
504.356	6240.57
504.724	6267.46
505.093	6327.57
505.462	6303.85
505.83	6380.23
506.199	6379.78
506.567	6456.16
506.936	6426.1
507.304	6467.23
507.672	6537.06
508.041	6489.6
508.409	6583.84
508.777	6580.45
509.145	6624.74
509.514	6566.66
509.882	6616.83
510.25	6647.11
510.618	6676.04
510.986	6675.81
511.354	6717.39
511.722	6761.91
512.09	6730.05
512.458	6776.38
512.826	6822.7
513.193	6841.23
513.561	6873.77
513.929	6878.97
514.297	6879.42
514.664	6948.8
515.032	6917.84
515.4	6919.65
515.767	6962.36
516.135	7018.18
516.502	6947.9
516.869	7067.22
517.237	7029.25
517.604	7039.65
517.972	7048.46
518.339	7064.28
518.706	7083.03
519.073	7028.57
519.44	7101.79
519.808	7128.68
520.175	7153.99
520.542	7156.03
520.909	7269.47
521.276	7176.14
521.643	7269.02
522.009	7265.85
522.376	7246.42
522.743	7298.17
523.11	7389.01
523.477	7402.12
523.843	7322.12
524.21	7411.16
524.577	7438.5
524.943	7441.89
525.31	7449.8
525.676	7472.63
526.043	7516.24
526.409	7549.24
526.776	7602.34
527.142	7580.65
527.508	7578.84
527.874	7608.22
528.241	7661.78
528.607	7548.56
528.973	7686.18
529.339	7588.78
529.705	7711.72
530.071	7772.73
530.437	7681.21
530.803	7739.51
531.169	7728.67
531.535	7681.66
531.901	7733.86
532.267	7698.61
532.632	7786.52
532.998	7744.26
533.364	7747.65
533.73	7733.19
534.095	7821.32
534.461	7836.46
534.826	7781.32
535.192	7844.82
535.557	7804.15
535.923	7815.67
536.288	7775.67
536.653	7775.45
537.019	7774.77
537.384	7791.94
537.749	7830.13
538.114	7803.24
538.479	7784.71
538.845	7800.98
539.21	7679.4
539.575	7785.84
539.94	7757.14
540.305	7798.27
540.67	7731.15
541.034	7792.17
541.399	7732.73
541.764	7770.02
542.129	7786.97
542.494	7765.28
542.858	7774.32
543.223	7776.8
543.587	7783.81
543.952	7784.94
544.316	7709.01
544.681	7685.28
545.045	7749.01
545.41	7708.55
545.774	7714.43
546.138	7720.31
546.503	7734.32
546.867	7670.36
547.231	7700.87
547.595	7720.08
547.959	7645.28
548.324	7636.69
548.688	7629.91
549.052	7600.31
549.416	7661.1
549.779	7655.22
550.143	7674.43
550.507	7658.84
550.871	7686.18
551.235	7656.8
551.599	7720.76
551.962	7696.13
552.326	7660.65
552.689	7681.44
553.053	7703.81
553.417	7610.03
553.78	7711.94
554.143	7670.82
554.507	7649.35
554.87	7647.31
555.234	7718.05
555.597	7612.06
555.96	7615.68
556.323	7650.25
556.686	7659.52
557.05	7738.61
557.413	7695.45
557.776	7694.09
558.139	7716.24
558.502	7719.4
558.865	7743.13
559.228	7785.84
559.59	7751.94
559.953	7753.75
560.316	7863.8
560.679	7809.34
561.041	7815.22
561.404	7827.87
561.767	7880.53
562.129	7848.21
562.492	7900.64
562.854	7875.33
563.217	7910.36
563.579	7891.83
563.941	7917.81
564.304	7977.02
564.666	7944.48
565.028	7955.33
565.39	7973.86
565.753	7954.2
566.115	8029.22
566.477	8053.86
566.839	8069
567.201	8104.48
567.563	8089.56
567.925	8157.58
568.287	8179.28
568.648	8191.25
569.01	8189.9
569.372	8227.18
569.734	8257.47
570.095	8228.31
570.457	8295.21
570.819	8275.09
571.18	8274.64
571.542	8355.99
571.903	8320.97
572.265	8317.58
572.626	8360.51
572.987	8420.85
573.349	8399.16
573.71	8381.76
574.071	8433.28
574.432	8480.96
574.794	8645.93
575.155	8520.96
575.516	8464.24
575.877	8525.71
576.238	8505.14
576.599	8575.42
576.96	8567.97
577.32	8614.75
577.681	8628.53
578.042	8648.64
578.403	8609.55
578.763	8602.54
579.124	8670.11
579.485	8693.16
579.845	8670.11
580.206	8720.51
580.566	8671.69
580.927	8707.85
581.287	8735.19
581.648	8723.67
582.008	8768.64
582.368	8707.85
582.728	8807.96
583.089	8887.73
583.449	8819.49
583.809	8833.04
584.169	8864.68
584.529	8829.88
584.889	8916.88
585.249	8805.25
585.609	8813.38
585.969	8848.19
586.329	8906.94
586.688	8944.45
587.048	8934.06
587.408	8969.09
587.768	8897.9
588.127	8950.33
588.487	8957.11
588.846	9052.47
589.206	8854.51
589.565	8966.37
589.925	8981.06
590.284	8963.89
590.643	8944.91
591.003	9050.21
591.362	9076.2
591.721	9052.02
592.08	9018.8
592.44	9116.43
592.799	9075.52
593.158	9067.84
593.517	9061.06
593.876	9022.87
594.235	9025.13
594.593	9085.69
594.952	9058.12
595.311	9065.58
595.67	9098.8
596.029	9087.5
596.387	9188.06
596.746	9143.09
597.104	9086.6
597.463	9096.77
597.822	9123.21
598.18	9135.86
598.538	9168.63
598.897	9225.8
599.255	9120.27
599.613	9225.8
599.972	9187.61
600.33	9179.7
600.688	9195.07
601.046	9211.57
601.404	9250.89
601.762	9218.35
602.12	9197.1
602.478	9211.11
602.836	9240.72
603.194	9190.32
603.552	9239.36
603.91	9156.2
604.268	9221.28
604.625	9167.05
604.983	9172.47
605.341	9221.73
605.698	9237.55
606.056	9267.38
606.413	9288.63
606.771	9254.28
607.128	9293.37
607.485	9278.91
607.843	9226.48
608.2	9338.57
608.557	9312.13
608.914	9310.32
609.272	9426.7
609.629	9397.32
609.986	9433.25
610.343	9409.3
610.7	9460.15
611.057	9440.94
611.414	9354.84
611.771	9422.86
612.127	9444.33
612.484	9350.55
612.841	9445.91
613.198	9451.33
613.554	9411.56
613.911	9427.83
614.267	9463.54
614.624	9502.41
614.98	9510.31
615.337	9517.55
615.693	9509.41
616.05	9489.3
616.406	9562.29
616.762	9530.65
617.118	9525.46
617.475	9550.09
617.831	9576.98
618.187	9615.17
618.543	9539.01
618.899	9610.88
619.255	9644.1
619.611	9621.95
619.967	9601.16
620.323	9683.87
620.678	9598.22
621.034	9599.8
621.39	9577.88
621.746	9614.49
622.101	9610.43
622.457	9602.74
622.812	9607.49
623.168	9614.72
623.523	9597.09
623.879	9641.38
624.234	9590.54
624.589	9572.91
624.945	9631.22
625.3	9572.46
625.655	9555.51
626.01	9612.91
626.365	9613.82
626.72	9590.09
627.075	9612.23
627.43	9592.57
627.785	9559.13
628.14	9582.4
628.495	9576.75
628.85	9540.37
629.205	9476.87
629.559	9536.3
629.914	9537.88
630.269	9500.15
630.623	9508.06
630.978	9482.29
631.332	9517.09
631.687	9517.77
632.041	9465.12
632.396	9483.65
632.75	9459.24
633.104	9463.08
633.459	9452.92
633.813	9378.79
634.167	9381.5
634.521	9418.11
634.875	9412.24
635.229	9388.96
635.583	9326.36
635.937	9414.27
636.291	9279.59
636.645	9341.73
636.999	9276.2
637.352	9317.33
637.706	9261.73
638.06	9372.47
638.413	9251.34
638.767	9244.33
639.121	9283.88
639.474	9220.15
639.828	9293.6
640.181	9199.14
640.534	9245.01
640.888	9218.35
641.241	9142.19
641.594	9200.04
641.947	9192.13
642.301	9188.29
642.654	9197.33
643.007	9165.47
643.36	9144.9
643.713	9116.65
644.066	9186.48
644.419	9144.45
644.771	9073.26
645.124	9005.47
645.477	8956.88
645.83	8898.13
646.182	8875.53
646.535	8846.83
646.888	8827.62
647.24	8828.52
647.593	8918.92
647.945	8843.21
648.298	8799.6
648.65	8782.2
649.002	8748.53
649.355	8790.33
649.707	8851.12
650.059	8853.83
650.411	8893.16
650.763	8835.3
651.115	9096.99
651.467	8975.19
651.819	9015.41
652.171	8995.75
652.523	8992.59
652.875	8981.06
653.227	8942.42
653.578	8957.11
653.93	9002.31
654.282	8934.06
654.633	8978.58
654.985	8904
655.337	8875.3
655.688	8970.22
656.039	8961.85
656.391	8921.86
656.742	9001.4
657.094	8870.78
657.445	8995.98
657.796	8927.05
658.147	8942.65
658.498	8942.42
658.849	8928.41
659.2	8882.99
659.551	8880.27
659.902	8849.32
660.253	8958.92
660.604	8938.8
660.955	8905.81
661.306	8867.62
661.656	8840.73
662.007	8917.79
662.358	8866.26
662.708	8897
663.059	8916.66
663.409	8819.26
663.76	8928.86
664.11	8954.17
664.461	8946.49
664.811	8900.61
665.161	8949.65
665.511	8951.23
665.862	8923.89
666.212	8939.03
666.562	8986.26
666.912	8948.75
667.262	8944.91
667.612	8915.3
667.962	8964.11
668.312	8923.21
668.662	8911.23
669.011	8897.68
669.361	8876.89
669.711	8906.94
670.06	8869.65
670.41	8865.36
670.76	8880.73
671.109	8922.99
671.459	8915.98
671.808	8862.42
672.157	8831.46
672.507	8778.13
672.856	8849.32
673.205	8829.65
673.554	8884.34
673.904	8784.91
674.253	8888.41
674.602	8795.53
674.951	8705.59
675.3	8659.94
675.649	8773.39
675.998	8736.32
676.346	8764.8
676.695	8754.4
677.044	8715.76
677.393	8704.01
677.741	8789.2
678.09	8752.82
678.438	8703.33
678.787	8753.95
679.135	8759.37
679.484	8618.13
679.832	8693.16
680.181	8615.2
680.529	8629.66
680.877	8591.24
681.225	8600.73
681.573	8677.79
681.922	8579.94
682.27	8621.3
682.618	8550.34
682.966	8565.26
683.314	8626.95
683.661	8590.34
684.009	8541.98
684.357	8488.19
684.705	8426.05
685.053	8479.83
685.4	8448.42
685.748	8422.66
686.095	8409.78
686.443	8395.99
686.79	8309.89
687.138	8333.4
687.485	8310.8
687.832	8329.55
688.18	8246.62
688.527	8281.42
688.874	8245.49
689.221	8235.32
689.568	8217.92
689.915	8187.41
690.262	8153.74
690.609	8162.55
690.956	8097.47
691.303	8104.25
691.65	8039.62
691.997	8023.12
692.344	7994.42
692.69	8001.65
693.037	7964.37
693.383	7945.61
693.73	7914.65
694.077	7925.95
694.423	7927.98
694.769	7802.11
695.116	7826.29
695.462	7854.31
695.808	7857.25
696.155	7797.59
696.501	7766.86
696.847	7696.8
697.193	7675.79
697.539	7719.18
697.885	7638.73
698.231	7629.23
698.577	7581.55
698.923	7617.94
699.269	7538.16
699.614	7488.67
699.96	7444.61
700.306	7434.66
700.651	7430.14
700.997	7420.2
701.342	7402.35
701.688	7314.44
702.033	7373.2
702.379	7350.15
702.724	7293.88
703.069	7349.69
703.415	7186.53
703.76	7184.05
704.105	7219.75
704.45	7201
704.795	7192.64
705.14	7121.68
705.485	7115.8
705.83	7130.04
706.175	7098.17
706.52	7134.11
706.865	7047.55
707.209	7066.09
707.554	7015.01
707.899	7078.97
708.243	7071.51
708.588	6965.52
708.932	6957.61
709.277	6895.92
709.621	6951.96
709.966	6863.15
710.31	6896.6
710.654	6809.14
710.998	6824.51
711.342	6814.11
711.687	6815.7
712.031	6819.99
712.375	6805.53
712.719	6810.5
713.063	6769.6
713.407	6788.13
713.75	6797.84
714.094	6775.47
714.438	6705.42
714.782	6676.27
715.125	6656.15
715.469	6675.59
715.812	6677.17
716.156	6605.08
716.499	6603.72
716.843	6650.73
717.186	6599.88
717.53	6615.25
717.873	6644.4
718.216	6610.73
718.559	6553.1
718.902	6521.01
719.246	6563.5
719.589	6538.87
719.932	6518.98
720.275	6541.35
720.617	6529.6
720.96	6486.67
721.303	6495.93
721.646	6514.46
721.989	6457.51
722.331	6567.79
722.674	6431.3
723.016	6473.33
723.359	6469.72
723.701	6485.99
724.044	6360.79
724.386	6441.92
724.729	6461.36
725.071	6434.24
725.413	6449.83
725.755	6387.01
726.097	6450.96
726.439	6314.69
726.782	6343.84
727.124	6363.73
727.465	6340.23
727.807	6370.28
728.149	6342.04
728.491	6348.82
728.833	6346.56
729.175	6340.23
729.516	6346.56
729.858	6317.86
730.199	6336.84
730.541	6291.19
730.882	6321.47
731.224	6359.89
731.565	6310.63
731.906	6370.96
732.248	6335.71
732.589	6280.12
732.93	6291.42
733.271	6297.74
733.612	6292.55
733.953	6330.06
734.294	6301.36
734.635	6250.51
734.976	6281.02
735.317	6191.98
735.658	6278.08
735.999	6244.19
736.339	6283.73
736.68	6290.29
737.021	6295.71
737.361	6211.87
737.702	6254.81
738.042	6245.32
738.383	6287.57
738.723	6226.11
739.063	6260.46
739.404	6286.9
739.744	6254.81
740.084	6254.36
740.424	6322.83
740.764	6296.61
741.104	6302.72
741.444	6268.37
741.784	6348.59
742.124	6344.52
742.464	6362.38
742.804	6340
743.143	6328.7
743.483	6355.6
743.823	6377.97
744.162	6349.04
744.502	6398.76
744.841	6402.37
745.181	6455.03
745.52	6421.58
745.86	6446.89
746.199	6483.5
746.538	6483.05
746.877	6522.37
747.216	6531.41
747.556	6571.18
747.895	6580.22
748.234	6598.3
748.573	6626.1
748.911	6617.28
749.25	6715.13
749.589	6713.1
749.928	6761.23
750.267	6771.63
750.605	6862.93
750.944	6881.91
751.283	6893.66
751.621	6967.33
751.96	7003.71
752.298	7107.44
752.636	7140.21
752.975	7190.38
753.313	7174.56
753.651	7260.2
753.989	7277.38
754.327	7365.06
754.666	7445.51
755.004	7506.53
755.342	7595.11
755.679	7653.87
756.017	7741.77
756.355	7827.42
756.693	7870.13
757.031	8029.22
757.368	8043.23
757.706	8156
758.044	8205.49
758.381	8268.54
758.719	8348.09
759.056	8481.42
759.394	8558.02
759.731	8599.83
760.068	8669.66
760.405	8803.21
760.743	8886.6
761.08	9011.8
761.417	9033.94
761.754	9155.97
762.091	9317.55
762.428	9316.65
762.765	9413.37
763.102	9489.3
763.438	9593.02
763.775	9638.45
764.112	9818.1
764.449	9873.47
764.785	10019.68
765.122	10003.41
765.458	10021.26
765.795	10117.76
766.131	10164.99
766.467	10248.83
766.804	10341.03
767.14	10468.26
767.476	10503.74
767.812	10596.84
768.148	10693.11
768.485	10709.61
768.821	10733.33
769.157	10892.2
769.492	10816.95
769.828	10938.98
