Data from hue_150_FLMS001491_00060.txt Node
Date: Tue Feb 07 16:54:15 GMT 2017
User: dcchb
Spectrometer: FLMS00149
Trigger mode: 0
Integration Time (sec): 2.000000E-2
Scans to average: 10
Electric dark correction enabled: true
Nonlinearity correction enabled: false
Boxcar width: 0
XAxis mode: Wavelengths
Number of Pixels in Spectrum: 2048
>>>>>Begin Spectral Data<<<<<
341.393	-20.54
341.776	-20.54
342.16	-20.54
342.543	-85.62
342.927	-66.86
343.31	-68.67
343.693	-78.84
344.077	-65.51
344.46	-63.02
344.843	-36.81
345.226	-45.62
345.61	-39.74
345.993	-18.95
346.376	-7.2
346.759	5.9
347.142	36.64
347.525	30.08
347.908	65.56
348.291	75.96
348.674	81.38
349.057	128.84
349.44	127.03
349.823	121.38
350.206	167.03
350.588	180.59
350.971	209.97
351.354	208.61
351.737	221.27
352.119	248.38
352.502	241.15
352.884	249.51
353.267	264.65
353.65	284.54
354.032	277.99
354.414	292.9
354.797	277.31
355.179	300.81
355.562	329.29
355.944	314.6
356.326	303.07
356.709	321.15
357.091	345.33
357.473	331.54
357.855	331.09
358.238	334.03
358.62	344.43
359.002	334.48
359.384	340.13
359.766	320.7
360.148	346.91
360.53	309.4
360.912	313.01
361.294	324.09
361.676	322.96
362.057	312.56
362.439	353.24
362.821	320.47
363.203	317.99
363.584	322.73
363.966	324.54
364.348	324.54
364.729	307.59
365.111	317.99
365.493	308.49
365.874	317.53
366.256	317.08
366.637	308.95
367.019	298.78
367.4	301.94
367.781	286.57
368.163	300.13
368.544	300.59
368.925	312.11
369.306	295.84
369.688	312.34
370.069	309.4
370.45	294.94
370.831	325.44
371.212	302.85
371.593	288.16
371.974	306.91
372.355	296.74
372.736	324.09
373.117	343.07
373.498	293.81
373.879	287.93
374.26	308.49
374.641	294.94
375.021	303.98
375.402	320.47
375.783	314.6
376.163	292.45
376.544	315.27
376.925	303.07
377.305	320.47
377.686	325.44
378.066	319.34
378.447	319.34
378.827	342.39
379.208	316.18
379.588	346.69
379.968	308.95
380.349	339.23
380.729	316.4
381.109	317.76
381.489	326.57
381.87	306.91
382.25	331.54
382.63	330.42
383.01	324.09
383.39	327.7
383.77	333.13
384.15	340.81
384.53	347.59
384.91	348.49
385.29	340.81
385.67	336.06
386.049	342.17
386.429	340.13
386.809	357.08
387.189	321.83
387.568	326.57
387.948	361.15
388.328	357.76
388.707	340.58
389.087	356.86
389.466	345.33
389.846	351.43
390.225	334.71
390.605	369.28
390.984	344.88
391.363	357.76
391.743	361.6
392.122	347.36
392.501	375.39
392.881	358.66
393.26	354.6
393.639	350.53
394.018	368.38
394.397	351.88
394.776	358.44
395.155	393.69
395.534	357.76
395.913	359.57
396.292	370.87
396.671	374.26
397.05	382.62
397.429	377.42
397.808	360.24
398.186	367.7
398.565	376.74
398.944	385.78
399.323	372.9
399.701	374.48
400.08	391.2
400.458	384.65
400.837	393.01
401.215	404.09
401.594	391.66
401.972	380.81
402.351	381.49
402.729	391.2
403.107	386.91
403.486	400.7
403.864	400.24
404.242	409.51
404.62	413.12
404.999	412.67
405.377	399.79
405.755	420.36
406.133	408.38
406.511	400.24
406.889	419.9
407.267	398.66
407.645	425.78
408.023	419.23
408.401	434.59
408.779	436.85
409.156	439.11
409.534	441.15
409.912	416.29
410.29	440.92
410.667	438.21
411.045	412.9
411.422	441.15
411.8	443.41
412.178	449.96
412.555	461.26
412.933	440.24
413.31	461.49
413.687	479.56
414.065	490.18
414.442	464.2
414.819	458.55
415.197	487.02
415.574	486.34
415.951	472.78
416.328	506.68
416.705	475.5
417.082	459.68
417.46	481.15
417.837	488.15
418.214	522.95
418.591	484.76
418.967	508.04
419.344	508.04
419.721	510.75
420.098	522.05
420.475	519.56
420.852	519.34
421.228	496.96
421.605	503.97
421.982	536.06
422.358	537.42
422.735	513.24
423.111	522.05
423.488	539.45
423.864	505.55
424.241	548.26
424.617	546.45
424.994	552.1
425.37	559.79
425.746	546
426.123	557.53
426.499	572.89
426.875	581.93
427.251	580.13
427.627	575.15
428.003	582.16
428.379	584.19
428.756	599.33
429.132	596.4
429.507	610.18
429.883	619.67
430.259	622.16
430.635	623.74
431.011	617.41
431.387	623.97
431.763	620.58
432.138	629.39
432.514	654.25
432.89	663.06
433.265	658.32
433.641	658.54
434.016	667.81
434.392	659.22
434.767	694.02
435.143	677.07
435.518	693.57
435.894	707.58
436.269	698.77
436.644	718.88
437.02	732.21
437.395	708.26
437.77	741.7
438.145	750.07
438.52	750.07
438.895	731.53
439.271	735.15
439.646	737.86
440.021	756.84
440.395	766.11
440.77	764.08
441.145	748.71
441.52	772.21
441.895	802.72
442.27	785.54
442.645	785.32
443.019	819.44
443.394	812.66
443.769	810.18
444.143	819.67
444.518	844.53
444.892	813.79
445.267	820.35
445.641	817.86
446.016	838.88
446.39	847.46
446.764	851.08
447.139	865.99
447.513	882.49
447.887	850.4
448.262	853.57
448.636	846.56
449.01	868.48
449.384	869.84
449.758	872.77
450.132	907.12
450.506	904.86
450.88	921.36
451.254	905.99
451.628	927.69
452.002	919.55
452.376	932.89
452.75	945.54
453.123	982.83
453.497	965.88
453.871	966.1
454.244	981.25
454.618	985.99
454.992	980.79
455.365	1009.49
455.739	1037.74
456.112	1013.79
456.486	1063.05
456.859	1066.21
457.232	1051.98
457.606	1054.24
457.979	1078.19
458.352	1125.87
458.725	1110.06
459.099	1110.96
459.472	1165.65
459.845	1152.54
460.218	1176.72
460.591	1172.43
460.964	1190.51
461.337	1231.86
461.71	1259.43
462.083	1237.96
462.456	1251.52
462.829	1265.98
463.201	1281.35
463.574	1284.06
463.947	1326.1
464.32	1357.05
464.692	1339.65
465.065	1352.08
465.438	1393.89
465.81	1395.25
466.183	1425.98
466.555	1438.63
466.928	1437.73
467.3	1454.91
467.672	1504.85
468.045	1535.13
468.417	1530.38
468.789	1571.74
469.161	1596.6
469.534	1609.7
469.906	1635.24
470.278	1666.2
470.65	1708.01
471.022	1727.44
471.394	1779.19
471.766	1806.31
472.138	1825.29
472.51	1860.32
472.882	1896.25
473.253	1929.47
473.625	1996.36
473.997	2038.17
474.369	2055.57
474.74	2123.14
475.112	2131.27
475.484	2208.11
475.855	2262.12
476.227	2311.83
476.598	2329.68
476.97	2402
477.341	2463.47
477.713	2529.68
478.084	2577.59
478.455	2670.01
478.827	2707.75
479.198	2798.82
479.569	2829.56
479.94	2978.03
480.311	3048.08
480.682	3109.55
481.053	3207.85
481.424	3318.81
481.795	3351.13
482.166	3437.9
482.537	3564.91
482.908	3601.29
483.279	3740.27
483.65	3836.31
484.021	3953.37
484.391	3997.66
484.762	4086.93
485.133	4198.79
485.503	4284.66
485.874	4441.04
486.244	4553.58
486.615	4651.88
486.985	4779.34
487.356	4934.14
487.726	5008.94
488.097	5191.53
488.467	5198.54
488.837	5386.1
489.207	5481.47
489.578	5609.15
489.948	5754
490.318	5897.05
490.688	5979.53
491.058	6109.25
491.428	6271.73
491.798	6394.44
492.168	6616.58
492.538	6688.21
492.908	6769.12
493.278	6952.84
493.648	7011.6
494.017	7166.39
494.387	7286.84
494.757	7405.94
495.126	7551.47
495.496	7566.61
495.866	7721.63
496.235	7840.95
496.605	8017.67
496.974	8102.87
497.344	8179.25
497.713	8293.14
498.082	8394.61
498.452	8529.07
498.821	8621.72
499.19	8725.9
499.559	8871.89
499.928	8960.02
500.298	9031.2
500.667	9181.26
501.036	9204.98
501.405	9323.4
501.774	9354.81
502.143	9433.23
502.512	9569.27
502.88	9624.18
503.249	9703.95
503.618	9799.32
503.987	9818.08
504.356	9846.55
504.724	10056.94
505.093	10039.54
505.462	10084.73
505.83	10236.6
506.199	10299.42
506.567	10443.82
506.936	10458.74
507.304	10612.86
507.672	10664.15
508.041	10662.35
508.409	10767.65
508.777	10868.44
509.145	11011.04
509.514	10960.64
509.882	11005.61
510.25	11055.33
510.618	11136.23
510.986	11168.77
511.354	11121.77
511.722	11278.6
512.09	11352.72
512.458	11376.45
512.826	11390.69
513.193	11489.22
513.561	11556.56
513.929	11532.83
514.297	11692.6
514.664	11709.1
515.032	11791.36
515.4	11822.09
515.767	11736.67
516.135	11816.21
516.502	11766.05
516.869	11929.88
517.237	11999.71
517.604	11909.09
517.972	12006.04
518.339	12072.71
518.706	12021.41
519.073	12101.18
519.44	12135.08
519.808	12225.47
520.175	12117
520.542	12250.55
520.909	12254.4
521.276	12309.99
521.643	12338.69
522.009	12381.62
522.376	12438.8
522.743	12377.1
523.11	12512.02
523.477	12623.88
523.843	12631.33
524.21	12695.06
524.577	12785.91
524.943	12730.09
525.31	12775.06
525.676	12852.57
526.043	12908.16
526.409	12822.29
526.776	12813.7
527.142	12857.54
527.508	12898.9
527.874	12961.95
528.241	12910.2
528.607	12912.68
528.973	12905.23
529.339	12949.52
529.705	12916.52
530.071	13042.4
530.437	13002.85
530.803	13051.66
531.169	13126.91
531.535	13032
531.901	12981.38
532.267	12997.43
532.632	13037.88
532.998	13013.92
533.364	13000.59
533.73	12950.2
534.095	13023.64
534.461	13033.81
534.826	13020.93
535.192	12934.6
535.557	12927.15
535.923	12912.91
536.288	12956.52
536.653	12919.91
537.019	12808.73
537.384	12862.74
537.749	12886.47
538.114	12834.49
538.479	12728.06
538.845	12803.99
539.21	12676.53
539.575	12678.11
539.94	12630.2
540.305	12692.12
540.67	12634.05
541.034	12583.43
541.399	12559.47
541.764	12501.62
542.129	12570.55
542.494	12472.92
542.858	12486.48
543.223	12486.71
543.587	12463.2
543.952	12426.14
544.316	12377.1
544.681	12320.38
545.045	12380.27
545.41	12367.16
545.774	12311.79
546.138	12261.63
546.503	12169.43
546.867	12119.94
547.231	12217.56
547.595	12147.96
547.959	12058.92
548.324	12056.66
548.688	11968.98
549.052	11987.96
549.416	11968.53
549.779	11914.52
550.143	11913.84
550.507	11964.01
550.871	11891.24
551.235	11861.41
551.599	11899.38
551.962	11781.87
552.326	11814.41
552.689	11838.14
553.053	11678.82
553.417	11703.9
553.78	11742.32
554.143	11674.3
554.507	11745.71
554.87	11639.04
555.234	11749.78
555.597	11609.67
555.96	11593.62
556.323	11651.47
556.686	11560.63
557.05	11580.97
557.413	11516.34
557.776	11572.15
558.139	11615.77
558.502	11524.47
558.865	11573.06
559.228	11543.91
559.59	11560.18
559.953	11506.39
560.316	11604.92
560.679	11508.88
561.041	11594.07
561.404	11641.3
561.767	11591.36
562.129	11577.35
562.492	11659.83
562.854	11546.84
563.217	11614.41
563.579	11561.53
563.941	11616.45
564.304	11645.37
564.666	11628.2
565.028	11613.06
565.39	11612.6
565.753	11812.15
566.115	11698.03
566.477	11707.97
566.839	11658.7
567.201	11717.46
567.563	11689.89
567.925	11747.97
568.287	11741.41
568.648	11812.6
569.01	11708.87
569.372	11740.74
569.734	11705.03
570.095	11820.96
570.457	11786.61
570.819	11822.09
571.18	11729.66
571.542	11815.76
571.903	11873.84
572.265	11899.38
572.626	11892.6
572.987	11821.64
573.349	11921.07
573.71	11889.21
574.071	11945.25
574.432	11946.61
574.794	11976.21
575.155	11990.9
575.516	11927.17
575.877	11977.11
576.238	12008.98
576.599	12006.94
576.96	11886.72
577.32	11954.06
577.681	12086.26
578.042	12037.45
578.403	11939.6
578.763	11981.41
579.124	11933.95
579.485	12028.19
579.845	12018.24
580.206	11988.87
580.566	12003.55
580.927	11996.1
581.287	11957
581.648	11895.76
582.008	12021.41
582.368	12012.37
582.728	12000.16
583.089	12042.88
583.449	11967.85
583.809	11990.45
584.169	11987.28
584.529	11860.51
584.889	11998.13
585.249	11820.73
585.609	11866.38
585.969	11899.38
586.329	11890.56
586.688	11901.41
587.048	11847.17
587.408	11835.88
587.768	11886.72
588.127	11833.39
588.487	11874.52
588.846	11827.74
589.206	11817.12
589.565	11842.43
589.925	11908.19
590.284	11761.98
590.643	11865.25
591.003	11832.03
591.362	11839.26
591.721	11818.93
592.08	11787.51
592.44	11858.25
592.799	11715.65
593.158	11748.42
593.517	11787.51
593.876	11789.55
594.235	11703.22
594.593	11677.46
594.952	11705.94
595.311	11731.02
595.67	11755.2
596.029	11807.63
596.387	11788.64
596.746	11826.61
597.104	11686.27
597.463	11726.95
597.822	11863.45
598.18	11729.66
598.538	11695.54
598.897	11907.96
599.255	11625.26
599.613	11821.64
599.972	11790.45
600.33	11819.6
600.688	11751.58
601.046	11796.33
601.404	11668.42
601.762	11691.92
602.12	11765.37
602.478	11725.82
602.836	11735.09
603.194	11733.96
603.552	11663.68
603.91	11674.52
604.268	11794.52
604.625	11663.68
604.983	11715.43
605.341	11675.65
605.698	11738.48
606.056	11687.63
606.413	11761.07
606.771	11749.78
607.128	11745.48
607.485	11739.15
607.843	11717.91
608.2	11745.48
608.557	11846.72
608.914	11824.58
609.272	11818.02
609.629	11830.9
609.986	11818.47
610.343	11784.8
610.7	12012.37
611.057	11829.77
611.414	11858.25
611.771	11877
612.127	11982.31
612.484	11863.45
612.841	11889.89
613.198	11849.43
613.554	11946.83
613.911	11943.22
614.267	11972.82
614.624	11993.61
614.98	11918.13
615.337	11997.45
615.693	11944.12
616.05	11995.42
616.406	11990.45
616.762	11978.7
617.118	11961.3
617.475	11970.11
617.831	12082.42
618.187	12002.88
618.543	12025.47
618.899	12095.3
619.255	12058.02
619.611	12026.83
619.967	12108.64
620.323	12077.9
620.678	12089.2
621.034	12026.15
621.39	12048.07
621.746	12007.62
622.101	12156.32
622.457	12043.1
622.812	12051.69
623.168	12161.52
623.523	12041.75
623.879	12081.29
624.234	12054.85
624.589	12059.37
624.945	12143.44
625.3	12045.59
625.655	12079.71
626.01	12052.37
626.365	12079.71
626.72	12098.69
627.075	11983.22
627.43	12035.64
627.785	11985.7
628.14	11993.61
628.495	12090.78
628.85	12059.82
629.205	12043.33
629.559	12093.72
629.914	11996.77
630.269	12087.62
630.623	11984.8
630.978	11909.77
631.332	12038.36
631.687	12067.51
632.041	11931.24
632.396	12014.85
632.75	11986.61
633.104	11966.72
633.459	11960.62
633.813	11860.51
634.167	11930.56
634.521	11892.37
634.875	11913.16
635.229	11851.02
635.583	11811.47
635.937	11882.43
636.291	11747.74
636.645	11823.67
636.999	11730.12
637.352	11773.73
637.706	11635.43
638.06	11731.92
638.413	11713.39
638.767	11591.14
639.121	11715.2
639.474	11646.95
639.828	11578.48
640.181	11627.07
640.534	11618.48
640.888	11624.13
641.241	11579.16
641.594	11587.29
641.947	11590.01
642.301	11613.06
642.654	11579.38
643.007	11578.25
643.36	11534.41
643.713	11547.97
644.066	11516.56
644.419	11489.67
644.771	11434.53
645.124	11295.1
645.477	11389.56
645.83	11309.34
646.182	11291.48
646.535	11239.28
646.888	11255.55
647.24	11097.82
647.593	11157.02
647.945	11179.17
648.298	11105.05
648.65	11111.83
649.002	11087.42
649.355	11119.51
649.707	11059.17
650.059	11193.18
650.411	11285.61
650.763	11288.54
651.115	11383.46
651.467	11459.16
651.819	11383.68
652.171	11408.32
652.523	11329.67
652.875	11378.94
653.227	11356.11
653.578	11430.01
653.93	11403.34
654.282	11346.17
654.633	11290.8
654.985	11343.91
655.337	11374.42
655.688	11399.73
656.039	11391.14
656.391	11271.82
656.742	11279.51
657.094	11355.89
657.445	11371.93
657.796	11371.71
658.147	11286.96
658.498	11293.29
658.849	11406.51
659.2	11366.28
659.551	11342.55
659.902	11400.63
660.253	11364.7
660.604	11442.89
660.955	11372.84
661.306	11401.54
661.656	11369.45
662.007	11373.06
662.358	11425.94
662.708	11480.86
663.059	11400.41
663.409	11329.22
663.76	11498.48
664.11	11467.98
664.461	11422.33
664.811	11376.23
665.161	11448.77
665.511	11448.99
665.862	11449.22
666.212	11395.66
666.562	11451.7
666.912	11403.57
667.262	11491.93
667.612	11416
667.962	11442.89
668.312	11397.47
668.662	11376.45
669.011	11454.19
669.361	11418.94
669.711	11360.18
670.06	11430.91
670.41	11322.22
670.76	11389.56
671.109	11436.79
671.459	11363.57
671.808	11357.47
672.157	11422.78
672.507	11262.11
672.856	11349.33
673.205	11278.15
673.554	11261.2
673.904	11360.63
674.253	11351.82
674.602	11306.62
674.951	11158.83
675.3	11109.57
675.649	11289.45
675.998	11205.38
676.346	11191.6
676.695	11283.57
677.044	11132.39
677.393	11217.59
677.741	11200.64
678.09	11200.86
678.438	11125.39
678.787	11148.44
679.135	11224.59
679.484	11148.89
679.832	11206.74
680.181	11016.69
680.529	11104.6
680.877	11025.05
681.225	11100.08
681.573	11079.28
681.922	11077.03
682.27	10987.76
682.618	10952.96
682.966	10976.24
683.314	10992.96
683.661	10917.48
684.009	10880.19
684.357	10858.73
684.705	10840.42
685.053	10849.46
685.4	10747.77
685.748	10784.38
686.095	10724.94
686.443	10689.01
686.79	10665.06
687.138	10643.59
687.485	10711.39
687.832	10677.49
688.18	10590.26
688.527	10563.59
688.874	10535.34
689.221	10530.15
689.568	10460.54
689.915	10463.48
690.262	10444.95
690.609	10431.62
690.956	10446.31
691.303	10390.72
691.65	10324.28
691.997	10296.03
692.344	10266.88
692.69	10265.75
693.037	10233.43
693.383	10216.48
693.73	10142.59
694.077	10161.79
694.423	10130.61
694.769	10115.69
695.116	10079.76
695.462	10017.39
695.808	10001.35
696.155	9948.02
696.501	9988.47
696.847	9874.8
697.193	9820.11
697.539	9834.57
697.885	9748.47
698.231	9686.78
698.577	9735.14
698.923	9685.88
699.269	9629.61
699.614	9567.23
699.96	9580.57
700.306	9587.12
700.651	9513.9
700.997	9451.08
701.342	9403.17
701.688	9448.82
702.033	9341.03
702.379	9317.3
702.724	9362.49
703.069	9315.04
703.415	9196.85
703.76	9238.2
704.105	9219.45
704.45	9204.08
704.795	9130.41
705.14	9102.16
705.485	9117.53
705.83	8990.75
706.175	9022.39
706.52	8967.02
706.865	8997.31
707.209	8976.97
707.554	8924.31
707.899	8918.44
708.243	8837.99
708.588	8842.73
708.932	8771.1
709.277	8811.77
709.621	8758.67
709.966	8729.97
710.31	8766.58
710.654	8651.55
710.998	8694.49
711.342	8679.8
711.687	8649.74
712.031	8569.52
712.375	8549.86
712.719	8599.12
713.063	8543.53
713.407	8574.49
713.75	8530.43
714.094	8559.58
714.438	8441.39
714.782	8552.12
715.125	8447.26
715.469	8518.67
715.812	8443.65
716.156	8333.37
716.499	8404.1
716.843	8414.04
717.186	8308.28
717.53	8349.87
717.873	8328.17
718.216	8356.19
718.559	8333.82
718.902	8248.17
719.246	8279.81
719.589	8261.96
719.932	8247.95
720.275	8220.6
720.617	8273.71
720.96	8206.82
721.303	8202.52
721.646	8219.02
721.989	8194.16
722.331	8181.73
722.674	8212.24
723.016	8177.21
723.359	8195.29
723.701	8198
724.044	8129.08
724.386	8191.45
724.729	8163.88
725.071	8159.14
725.413	8098.57
725.755	8099.48
726.097	8111.45
726.439	8077.78
726.782	8060.16
727.124	8094.96
727.465	8089.76
727.807	8068.29
728.149	8090.89
728.491	8030.33
728.833	8091.34
729.175	8105.35
729.516	8032.59
729.858	8027.61
730.199	8041.17
730.541	8016.99
730.882	7991.46
731.224	7979.03
731.565	7964.56
731.906	8068.52
732.248	8046.82
732.589	8027.84
732.93	7968.63
733.271	7939.71
733.612	7995.3
733.953	8038.91
734.294	7998.24
734.635	7967.73
734.976	7965.92
735.317	7948.07
735.658	7986.48
735.999	7985.36
736.339	7921.85
736.68	7979.25
737.021	8009.08
737.361	7990.1
737.702	7982.42
738.042	8023.32
738.383	7976.54
738.723	8037.78
739.063	8026.26
739.404	8086.14
739.744	8038.91
740.084	8039.82
740.424	8058.8
740.764	8025.81
741.104	8108.06
741.444	8070.78
741.784	8101.96
742.124	8098.12
742.464	8151.68
742.804	8143.32
743.143	8176.54
743.483	8199.36
743.823	8202.07
744.162	8241.39
744.502	8248.4
744.841	8231.9
745.181	8296.99
745.52	8364.1
745.86	8395.06
746.199	8404.78
746.538	8410.2
746.877	8462.63
747.216	8523.65
747.556	8545.11
747.895	8562.51
748.234	8559.13
748.573	8588.95
748.911	8671.89
749.25	8812
749.589	8761.15
749.928	8868.27
750.267	8890.19
750.605	9018.1
750.944	9043.86
751.283	9035.04
751.621	9183.06
751.96	9236.4
752.298	9366.79
752.636	9409.27
752.975	9538.99
753.313	9587.35
753.651	9634.13
753.989	9746.44
754.327	9923.84
754.666	9867.11
755.004	10132.64
755.342	10188.91
755.679	10246.54
756.017	10412.18
756.355	10578.96
756.693	10670.93
757.031	10757.03
757.368	10847.65
757.706	11063.01
758.044	11209.68
758.381	11356.11
758.719	11485.83
759.056	11728.31
759.394	11674.98
759.731	11883.33
