Data from hue_38_FLMS001491_00064.txt Node
Date: Tue Feb 07 17:31:49 GMT 2017
User: dcchb
Spectrometer: FLMS00149
Trigger mode: 0
Integration Time (sec): 2.000000E-2
Scans to average: 10
Electric dark correction enabled: true
Nonlinearity correction enabled: false
Boxcar width: 0
XAxis mode: Wavelengths
Number of Pixels in Spectrum: 2048
>>>>>Begin Spectral Data<<<<<
341.393	-12.94
341.776	-12.94
342.16	-12.94
342.543	-64.01
342.927	-73.95
343.31	-64.69
343.693	-64.46
344.077	-70.11
344.46	-45.48
344.843	-59.26
345.226	-54.97
345.61	-35.08
345.993	-36.44
346.376	-11.36
346.759	1.53
347.142	38.81
347.525	59.83
347.908	61.18
348.291	69.55
348.674	96.66
349.057	114.29
349.44	114.29
349.823	122.88
350.206	176.66
350.588	201.07
350.971	211.24
351.354	222.54
351.737	266.38
352.119	259.6
352.502	234.06
352.884	300.95
353.267	289.2
353.65	300.95
354.032	315.19
354.414	328.52
354.797	327.62
355.179	321.07
355.562	332.14
355.944	322.19
356.326	330.56
356.709	331.91
357.091	346.6
357.473	353.83
357.855	330.56
358.238	348.63
358.62	354.06
359.002	346.83
359.384	341.63
359.766	343.44
360.148	346.6
360.53	347.28
360.912	353.83
361.294	340.27
361.676	325.36
362.057	343.21
362.439	333.04
362.821	353.15
363.203	327.84
363.584	330.1
363.966	317.9
364.348	326.49
364.729	332.36
365.111	307.73
365.493	311.57
365.874	328.07
366.256	320.16
366.637	309.09
367.019	319.03
367.4	326.49
367.781	333.95
368.163	348.41
368.544	314.51
368.925	317.22
369.306	342.76
369.688	322.87
370.069	328.97
370.45	306.38
370.831	312.93
371.212	319.03
371.593	314.29
371.974	312.25
372.355	310.22
372.736	317.9
373.117	335.53
373.498	334.85
373.879	339.14
374.26	325.81
374.641	327.62
375.021	325.81
375.402	332.82
375.783	325.13
376.163	341.86
376.544	330.1
376.925	322.65
377.305	340.05
377.686	353.38
378.066	318.58
378.447	326.49
378.827	341.18
379.208	340.95
379.588	336.88
379.968	352.48
380.349	329.43
380.729	343.44
381.109	327.84
381.489	361.06
381.87	364.68
382.25	358.58
382.63	349.76
383.01	352.7
383.39	347.96
383.77	361.52
384.15	339.82
384.53	339.37
384.91	340.5
385.29	351.12
385.67	360.39
386.049	369.65
386.429	364.45
386.809	353.15
387.189	362.19
387.568	384.11
387.948	361.74
388.328	349.09
388.707	359.26
389.087	361.06
389.466	381.85
389.846	370.78
390.225	374.4
390.605	379.37
390.984	373.49
391.363	385.02
391.743	392.7
392.122	371.69
392.501	378.69
392.881	392.48
393.26	376.88
393.639	387.05
394.018	384.11
394.397	385.92
394.776	408.97
395.155	406.03
395.534	393.61
395.913	383.66
396.292	397.45
396.671	404.23
397.05	387.5
397.429	397.22
397.808	388.18
398.186	417.11
398.565	402.64
398.944	410.33
399.323	402.87
399.701	398.58
400.08	422.53
400.458	397.45
400.837	416.43
401.215	397.67
401.594	423.44
401.972	411.68
402.351	413.49
402.729	431.34
403.107	424.79
403.486	418.92
403.864	427.73
404.242	430.44
404.62	463.89
404.999	436.99
405.377	440.61
405.755	446.94
406.133	444.68
406.511	436.09
406.889	468.86
407.267	442.64
407.645	448.75
408.023	443.1
408.401	463.43
408.779	471.12
409.156	461.85
409.534	471.57
409.912	462.3
410.29	464.11
410.667	482.87
411.045	466.37
411.422	484.22
411.8	488.29
412.178	467.5
412.555	479.93
412.933	509.76
413.31	509.76
413.687	509.76
414.065	499.82
414.442	496.88
414.819	513.6
415.197	489.42
415.574	521.06
415.951	514.51
416.328	518.57
416.705	525.35
417.082	534.62
417.46	529.2
417.837	537.56
418.214	516.54
418.591	519.48
418.967	521.74
419.344	536.65
419.721	572.58
420.098	563.32
420.475	557.22
420.852	549.08
421.228	587.05
421.605	565.8
421.982	568.29
422.358	571
422.735	596.54
423.111	580.27
423.488	578.23
423.864	580.72
424.241	588.18
424.617	615.52
424.994	614.16
425.37	620.94
425.746	590.21
426.123	611.23
426.499	597.22
426.875	611
427.251	622.07
427.627	648.97
428.003	637.21
428.379	637.44
428.756	654.39
429.132	662.75
429.507	649.42
429.883	662.75
430.259	662.07
430.635	666.14
431.011	690.32
431.387	673.82
431.763	704.78
432.138	675.86
432.514	694.61
432.89	700.04
433.265	687.61
433.641	721.73
434.016	720.15
434.392	717.66
434.767	750.21
435.143	742.75
435.518	743.65
435.894	747.04
436.269	753.14
436.644	755.4
437.02	792.92
437.395	768.28
437.77	778.68
438.145	788.62
438.52	793.59
438.895	798.34
439.271	809.64
439.646	806.48
440.021	799.92
440.395	817.78
440.77	808.28
441.145	821.62
441.52	825.91
441.895	822.75
442.27	849.19
442.645	837.44
443.019	863.88
443.394	849.41
443.769	853.71
444.143	860.71
444.518	876.08
444.892	869.3
445.267	886.25
445.641	865.46
446.016	877.21
446.39	884.89
446.764	882.41
447.139	894.84
447.513	891.67
447.887	912.46
448.262	932.35
448.636	915.4
449.01	950.2
449.384	934.38
449.758	910.88
450.132	941.61
450.506	943.42
450.88	953.59
451.254	967.38
451.628	960.82
452.002	984.1
452.376	988.17
452.75	952.46
453.123	987.49
453.497	1020.48
453.871	1016.87
454.244	1038.11
454.618	1048.73
454.992	1044.44
455.365	1036.07
455.739	1081.27
456.112	1073.36
456.486	1083.08
456.859	1110.42
457.232	1138.9
457.606	1114.49
457.979	1143.19
458.352	1163.53
458.725	1180.7
459.099	1187.26
459.472	1191.55
459.845	1203.98
460.218	1198.1
460.591	1204.21
460.964	1226.58
461.337	1246.01
461.71	1273.13
462.083	1283.53
462.456	1293.24
462.829	1312
463.201	1318.55
463.574	1352.68
463.947	1361.49
464.32	1382.73
464.692	1366.91
465.065	1395.61
465.438	1425.22
465.81	1423.63
466.183	1445.78
466.555	1468.38
466.928	1482.84
467.3	1513.58
467.672	1517.42
468.045	1569.17
468.417	1549.06
468.789	1580.69
469.161	1610.97
469.534	1638.09
469.906	1695.27
470.278	1692.33
470.65	1697.98
471.022	1750.63
471.394	1779.33
471.766	1802.83
472.138	1841.7
472.51	1882.15
472.882	1909.5
473.253	1947.91
473.625	2008.25
473.997	2010.74
474.369	2021.81
474.74	2064.52
475.112	2133.9
475.484	2159.66
475.855	2210.96
476.227	2239.21
476.598	2337.51
476.97	2309.26
477.341	2415.7
477.713	2429.94
478.084	2464.51
478.455	2568.69
478.827	2628.12
479.198	2676.48
479.569	2713.09
479.94	2813.2
480.311	2842.35
480.682	2933.2
481.053	3050.94
481.424	3073.54
481.795	3174.78
482.166	3245.28
482.537	3314.66
482.908	3418.61
483.279	3465.16
483.65	3520.08
484.021	3617.7
484.391	3686.4
484.762	3791.03
485.133	3857.02
485.503	3938.37
485.874	4073.51
486.244	4122.32
486.615	4254.29
486.985	4333.39
487.356	4515.31
487.726	4506.49
488.097	4660.16
488.467	4681.18
488.837	4834.39
489.207	4970.43
489.578	5090.43
489.948	5152.8
490.318	5284.55
490.688	5359.35
491.058	5466.01
491.428	5583.98
491.798	5634.15
492.168	5804.54
492.538	5866.46
492.908	5995.27
493.278	6106.9
493.648	6195.03
494.017	6256.28
494.387	6419.44
494.757	6462.82
495.126	6602.48
495.496	6662.82
495.866	6724.96
496.235	6859.2
496.605	6999.31
496.974	7039.31
497.344	7164.05
497.713	7280.66
498.082	7385.51
498.452	7436.36
498.821	7525.4
499.19	7582.34
499.559	7679.29
499.928	7779.4
500.298	7896.46
500.667	8030.24
501.036	8033.4
501.405	8117.92
501.774	8208.77
502.143	8322.89
502.512	8388.88
502.88	8461.64
503.249	8516.56
503.618	8524.47
503.987	8737.11
504.356	8767.4
504.724	8844.46
505.093	8905.92
505.462	8999.03
505.83	9006.26
506.199	9140.72
506.567	9338.46
506.936	9323.99
507.304	9446.02
507.672	9500.26
508.041	9519.47
508.409	9635.17
508.777	9690.99
509.145	9838.1
509.514	9804.21
509.882	9960.59
510.25	10010.98
510.618	10011.43
510.986	10108.6
511.354	10219.79
511.722	10335.72
512.09	10416.39
512.458	10389.95
512.826	10440.57
513.193	10598.08
513.561	10540.68
513.929	10756.95
514.297	10809.6
514.664	10874.01
515.032	10922.37
515.4	11092.99
515.767	11077.39
516.135	11165.3
516.502	11112.87
516.869	11284.39
517.237	11314.67
517.604	11297.5
517.972	11350.61
518.339	11535.91
518.706	11515.57
519.073	11596.47
519.44	11672.63
519.808	11866.3
520.175	11776.58
520.542	11978.39
520.909	11992.62
521.276	12031.04
521.643	12161.43
522.009	12272.84
522.376	12314.42
522.743	12352.61
523.11	12525.04
523.477	12603.23
523.843	12672.83
524.21	12703.79
524.577	12906.95
524.943	12906.95
525.31	13021.97
525.676	13111.01
526.043	13190.11
526.409	13185.13
526.776	13421.96
527.142	13431.23
527.508	13404.79
527.874	13508.06
528.241	13741.05
528.607	13649.3
528.973	13755.97
529.339	13795.96
529.705	13966.81
530.071	14033.7
530.437	14134.49
530.803	14193.69
531.169	14274.6
531.535	14341.04
531.901	14309.62
532.267	14393.69
532.632	14502.84
532.998	14544.87
533.364	14759.56
533.73	14773.34
534.095	14810.4
534.461	14891.08
534.826	14987.35
535.192	15031.41
535.557	15059.66
535.923	15045.88
536.288	15164.29
536.653	15279.77
537.019	15152.99
537.384	15316.6
537.749	15436.83
538.114	15461.68
538.479	15574.45
538.845	15556.82
539.21	15475.92
539.575	15659.42
539.94	15673.66
540.305	15805.63
540.67	15746.65
541.034	15858.06
541.399	16018.51
541.764	15933.08
542.129	16089.46
542.494	16144.83
542.858	16208.33
543.223	16302.11
543.587	16355.45
543.952	16332.17
544.316	16436.8
544.681	16453.07
545.045	16582.78
545.41	16604.48
545.774	16718.15
546.138	16639.73
546.503	16837.92
546.867	16779.16
547.231	17077.91
547.595	16927.18
547.959	17040.85
548.324	17158.81
548.688	17161.75
549.052	17155.88
549.416	17212.37
549.779	17321.07
550.143	17444.68
550.507	17569.2
550.871	17475.42
551.235	17423.21
551.599	17551.8
551.962	17722.19
552.326	17702.75
552.689	17846.93
553.053	17787.5
553.417	17794.5
553.78	18107.49
554.143	17992.92
554.507	18081.73
554.87	18131.22
555.234	18259.35
555.597	18240.82
555.96	18264.1
556.323	18403.3
556.686	18306.13
557.05	18502.06
557.413	18657.98
557.776	18692.33
558.139	18731.43
558.502	18676.97
558.865	18687.36
559.228	18845.55
559.59	18950.41
559.953	18950.63
560.316	19252.77
560.679	19181.13
561.041	19283.96
561.404	19439.66
561.767	19485.98
562.129	19376.16
562.492	19553.33
562.854	19567.34
563.217	19660.9
563.579	19662.03
563.941	19784.06
564.304	19978.63
564.666	20116.48
565.028	20020.66
565.39	20111.05
565.753	20270.6
566.115	20341.56
566.477	20283.93
566.839	20313.31
567.201	20473.98
567.563	20683.47
567.925	20681.89
568.287	20726.86
568.648	20826.06
569.01	20906.51
569.372	20942.22
569.734	21054.31
570.095	21145.83
570.457	21129.33
570.819	21313.06
571.18	21357.35
571.542	21555.99
571.903	21471.47
572.265	21732.48
572.626	21685.7
572.987	21775.19
573.349	21916.43
573.71	22044.34
574.071	22051.12
574.432	22087.95
574.794	22335.63
575.155	22349.41
575.516	22296.98
575.877	22478
576.238	22714.37
576.599	22760.47
576.96	22934.26
577.32	23035.27
577.681	23091.54
578.042	23213.8
578.403	23316.17
578.763	23465.99
579.124	23554.35
579.485	23753.22
579.845	24082.93
580.206	24122.93
580.566	24197.05
580.927	24432.52
581.287	24522.01
581.648	24630.26
582.008	24969.68
582.368	24957.93
582.728	25142.79
583.089	25287.19
583.449	25470.46
583.809	25602.66
584.169	25904.8
584.529	25944.57
584.889	26351.79
585.249	26328.52
585.609	26490.55
585.969	26806.47
586.329	26985.45
586.688	27269.28
587.048	27350.18
587.408	27368.94
587.768	27726.9
588.127	27968.25
588.487	28084.4
588.846	28420.89
589.206	28491.17
589.565	28740.43
589.925	29075.79
590.284	29094.77
590.643	29459.28
591.003	29647.07
591.362	29858.37
591.721	30121.64
592.08	30237.34
592.44	30420.16
592.799	30697.89
593.158	30880.49
593.517	31029.86
593.876	31363.41
594.235	31532.22
594.593	31584.88
594.952	31931.99
595.311	32033.9
595.67	32350.28
596.029	32693.77
596.387	32985.52
596.746	33065.74
597.104	33138.73
597.463	33325.62
597.822	33574.88
598.18	33777.13
598.538	33962.89
598.897	34385.71
599.255	34079.05
599.613	34801.29
599.972	34688.52
600.33	34959.7
600.688	35011.23
601.046	35394.49
601.404	35614.6
601.762	35604.88
602.12	35856.4
602.478	36045.78
602.836	36186.79
603.194	36296.62
603.552	36413.45
603.91	36404.41
604.268	36875.36
604.625	36766.21
604.983	37100.89
605.341	37104.96
605.698	37376.14
606.056	37552.85
606.413	37682.34
606.771	37927.31
607.128	37933.18
607.485	37991.03
607.843	38123.91
608.2	38548.08
608.557	38720.73
608.914	38675.31
609.272	38876.89
609.629	39048.86
609.986	39217.22
610.343	39158.91
610.7	39593.93
611.057	39510.54
611.414	39704.66
611.771	39735.4
612.127	39900.36
612.484	40095.16
612.841	40172.67
613.198	40277.08
613.554	40241.6
613.911	40632.77
614.267	40769.94
614.624	40698.99
614.98	40893.33
615.337	41113.66
615.693	41063.5
616.05	41080.9
616.406	41452.86
616.762	41414.22
617.118	41532.86
617.475	41538.96
617.831	41589.58
618.187	41838.17
618.543	41914.1
618.899	42141.43
619.255	42135.78
619.611	42157.71
619.967	42413.29
620.323	42518.37
620.678	42350.92
621.034	42340.07
621.39	42469.11
621.746	42569.9
622.101	42984.58
622.457	42627.3
622.812	42806.05
623.168	43023.45
623.523	43064.57
623.879	43101.41
624.234	42832.26
624.589	43037.68
624.945	43152.03
625.3	43188.41
625.655	43201.75
626.01	43214.63
626.365	43249.65
626.72	43278.58
627.075	43301.86
627.43	43294.85
627.785	43277.9
628.14	43455.07
628.495	43445.58
628.85	43446.26
629.205	43274.06
629.559	43571.68
629.914	43425.92
630.269	43529.42
630.623	43454.17
630.978	43435.86
631.332	43553.15
631.687	43682.41
632.041	43491.46
632.396	43704.11
632.75	43505.92
633.104	43472.92
633.459	43383.44
633.813	43411.68
634.167	43412.59
634.521	43441.74
634.875	43482.87
635.229	43356.32
635.583	43325.81
635.937	43268.64
636.291	43323.55
636.645	43403.1
636.999	43438.35
637.352	43411.46
637.706	43137.11
638.06	43335.08
638.413	43358.58
638.767	43251.01
639.121	43323.55
639.474	43146.61
639.828	43284
640.181	43157
640.534	43162.65
640.888	42917.01
641.241	42835.43
641.594	42999.49
641.947	43158.13
642.301	43086.49
642.654	43093.05
643.007	43052.37
643.36	43049.66
643.713	43006.04
644.066	43149.09
644.419	42803.11
644.771	42419.17
645.124	42157.48
645.477	42197.25
645.83	42020.53
646.182	41849.46
646.535	41673.2
646.888	41868.22
647.24	41695.8
647.593	41839.97
647.945	41884.49
648.298	41658.06
648.65	41542.58
649.002	41532.41
649.355	41749.58
649.707	41608.79
650.059	41805.85
650.411	42152.28
650.763	42196.12
651.115	42742.77
651.467	42561.99
651.819	42479.05
652.171	42501.42
652.523	42338.72
652.875	42349.34
653.227	42216.69
653.578	42380.07
653.93	42376.68
654.282	42228.44
654.633	42107.54
654.985	42206.07
655.337	42056.92
655.688	42174.43
656.039	42386.63
656.391	42047.88
656.742	42016.69
657.094	42129.01
657.445	42223.47
657.796	42162.68
658.147	42088.55
658.498	42054.43
658.849	42119.29
659.2	42049.01
659.551	41949.35
659.902	42124.71
660.253	42036.13
660.604	42071.83
660.955	41900.08
661.306	42136.69
661.656	41982.12
662.007	42131.94
662.358	42062.79
662.708	41945.06
663.059	42023.7
663.409	41796.58
663.76	41951.83
664.11	42015.34
664.461	42100.76
664.811	41967.43
665.161	41987.99
665.511	41858.96
665.862	41779.64
666.212	42013.53
666.562	41805.17
666.912	41893.08
667.262	41759.75
667.612	41910.48
667.962	41846.98
668.312	41830.03
668.662	41977.82
669.011	41872.74
669.361	41629.13
669.711	41738.28
670.06	41688.34
670.41	41726.08
670.76	41645.4
671.109	41905.96
671.459	41708
671.808	41582.13
672.157	41773.08
672.507	41588.45
672.856	41445.18
673.205	41622.13
673.554	41625.97
673.904	41580.77
674.253	41644.72
674.602	41643.37
674.951	41132.42
675.3	40901.69
675.649	41558.4
675.998	41541
676.346	41584.61
676.695	41577.83
677.044	41273.89
677.393	41485.63
677.741	41427.33
678.09	41254.9
678.438	41277.05
678.787	41370.16
679.135	41344.62
679.484	40974.91
679.832	41240.22
680.181	40893.33
680.529	41058.52
680.877	40868.25
681.225	40899.89
681.573	40997.06
681.922	40913.9
682.27	40713.45
682.618	40837.97
682.966	40660.34
683.314	40686.11
683.661	40648.59
684.009	40526.56
684.357	40487.24
684.705	40301.03
685.053	40475.49
685.4	40377.41
685.748	40189.85
686.095	40161.15
686.443	40030.08
686.79	39985.78
687.138	40041.38
687.485	40036.4
687.832	39879.57
688.18	39881.61
688.527	39808.39
688.874	39629.18
689.221	39659.24
689.568	39499.24
689.915	39508.06
690.262	39374.05
690.609	39228.06
690.956	39171.79
691.303	39230.78
691.65	38942.42
691.997	38978.13
692.344	38821.75
692.69	38737.23
693.037	38795.53
693.383	38498.59
693.73	38559.38
694.077	38313.06
694.423	38342.89
694.769	38235.55
695.116	38189.9
695.462	38165.04
695.808	38039.17
696.155	38025.61
696.501	37732.96
696.847	37770.48
697.193	37454.1
697.539	37654.77
697.885	37356.02
698.231	37240.32
698.577	37337.94
698.923	37274.67
699.269	37003.94
699.614	36949.48
699.96	36866.54
700.306	36937.96
700.651	36613.9
700.997	36691.18
701.342	36535.03
701.688	36483.05
702.033	36259.78
702.379	36396.27
702.724	36242.61
703.069	36420.68
703.415	35923.52
703.76	35965.55
704.105	35841.94
704.45	35870.64
704.795	35629.74
705.14	35581.15
705.485	35528.27
705.83	35395.4
706.175	35497.09
706.52	35289.19
706.865	35296.42
707.209	35283.54
707.554	35159.02
707.899	35104.78
708.243	34891.23
708.588	34924.9
708.932	34785.92
709.277	34706.38
709.621	34774.62
709.966	34444.91
710.31	34620.73
710.654	34278.59
710.998	34340.06
711.342	34320.62
711.687	34202.43
712.031	34225.26
712.375	33968.54
712.719	34085.6
713.063	33807.87
713.407	34137.8
713.75	33861.43
714.094	33853.29
714.438	33731.26
714.782	33743.24
715.125	33524.71
715.469	33592.05
715.812	33368.78
716.156	33272.51
716.499	33241.56
716.843	33313.64
717.186	33143.03
717.53	33172.86
717.873	33113.2
718.216	33062.13
718.559	32999.53
718.902	32773.09
719.246	32864.62
719.589	32566.09
719.932	32622.14
720.275	32639.09
720.617	32611.06
720.96	32533.78
721.303	32418.75
721.646	32482.71
721.989	32217.85
722.331	32325.42
722.674	32332.43
723.016	32235.71
723.359	32310.05
723.701	32228.93
724.044	32091.76
724.386	32050.85
724.729	32125.65
725.071	32114.58
725.413	31981.93
725.755	31781.93
726.097	31868.48
726.439	31581.49
726.782	31562.73
727.124	31699.67
727.465	31700.58
727.807	31554.59
728.149	31481.15
728.491	31322.96
728.833	31348.27
729.175	31370.19
729.516	31343.07
729.858	31250.2
730.199	31223.08
730.541	31224.89
730.882	31102.63
731.224	31150.08
731.565	31005.68
731.906	30890.88
732.248	31002.52
732.589	30822.18
732.93	30739.02
733.271	30711.9
733.612	30727.72
733.953	30772.69
734.294	30586.48
734.635	30560.95
734.976	30682.07
735.317	30469.88
735.658	30420.39
735.999	30389.2
736.339	30455.64
736.68	30478.69
737.021	30284.34
737.361	30140.39
737.702	30496.77
738.042	30129.77
738.383	30166.38
738.723	30304.23
739.063	30047.74
739.404	30233.72
739.744	30004.13
740.084	29963.68
740.424	30018.82
740.764	29848.42
741.104	29983.56
741.444	29921.87
741.784	29694.53
742.124	29796.9
742.464	29753.74
742.804	29609.33
743.143	29621.09
743.483	29584.02
743.823	29501.09
744.162	29395.1
744.502	29478.26
744.841	29349.23
745.181	29375.22
745.52	29376.57
745.86	29496.57
746.199	29226.07
746.538	29247.99
746.877	29357.14
747.216	29182.68
747.556	29182.68
747.895	29126.86
748.234	28920.31
748.573	28948.56
748.911	28922.57
749.25	28876.47
749.589	28830.6
749.928	28806.19
750.267	28890.48
750.605	28814.33
750.944	28741.33
751.283	28480.55
751.621	28690.04
751.96	28560.32
752.298	28487.1
752.636	28419.31
752.975	28341.57
753.313	28137.28
753.651	28346.54
753.989	28217.96
754.327	28002.37
754.666	27969.15
755.004	28037.17
755.342	28050.28
755.679	28107.68
756.017	27870.62
756.355	27885.54
756.693	27794.69
