Data from hue_20_FLMS001491_81.txt Node
Date: Mon Feb 06 15:34:46 GMT 2017
User: dcchb
Spectrometer: FLMS00149
Trigger mode: 0
Integration Time (sec): 2.000000E-2
Scans to average: 10
Electric dark correction enabled: true
Nonlinearity correction enabled: false
Boxcar width: 0
XAxis mode: Wavelengths
Number of Pixels in Spectrum: 2048
>>>>>Begin Spectral Data<<<<<
341.393	-10.38
341.776	-10.38
342.16	-10.38
342.543	-44.28
342.927	-70.49
343.31	-87.89
343.693	-59.87
344.077	-72.75
344.46	-54.9
344.843	-66.65
345.226	-44.73
345.61	-13.77
345.993	-27.1
346.376	-9.25
346.759	14.93
347.142	27.81
347.525	47.02
347.908	44.53
348.291	91.99
348.674	94.93
349.057	115.72
349.44	145.55
349.823	142.61
350.206	150.29
350.588	210.4
350.971	228.71
351.354	237.97
351.737	251.31
352.119	264.64
352.502	252.66
352.884	277.52
353.267	272.1
353.65	295.6
354.032	302.83
354.414	311.64
354.797	318.88
355.179	315.71
355.562	329.72
355.944	328.82
356.326	342.38
356.709	333.56
357.091	331.76
357.473	328.37
357.855	344.19
358.238	377.18
358.62	364.52
359.002	354.13
359.384	345.99
359.766	347.58
360.148	345.09
360.53	331.98
360.912	340.12
361.294	346.22
361.676	317.07
362.057	338.54
362.439	347.58
362.821	322.94
363.203	318.42
363.584	329.72
363.966	354.36
364.348	330.4
364.729	303.28
365.111	329.72
365.493	321.14
365.874	331.76
366.256	316.16
366.637	325.66
367.019	304.64
367.4	332.66
367.781	319.1
368.163	325.2
368.544	304.64
368.925	312.32
369.306	322.49
369.688	307.58
370.069	296.5
370.45	307.12
370.831	315.03
371.212	351.64
371.593	322.49
371.974	315.71
372.355	320.68
372.736	319.33
373.117	311.64
373.498	334.69
373.879	321.14
374.26	321.81
374.641	337.63
375.021	310.06
375.402	327.24
375.783	318.88
376.163	327.46
376.544	363.62
376.925	324.07
377.305	307.35
377.686	338.08
378.066	317.07
378.447	336.73
378.827	325.88
379.208	330.17
379.588	344.41
379.968	347.58
380.349	338.76
380.729	337.41
381.109	322.72
381.489	322.72
381.87	354.36
382.25	337.18
382.63	329.27
383.01	324.3
383.39	343.28
383.77	345.32
384.15	346.9
384.53	342.83
384.91	342.38
385.29	361.81
385.67	347.8
386.049	362.26
386.429	337.86
386.809	348.03
387.189	352.55
387.568	357.97
387.948	361.13
388.328	382.38
388.707	370.63
389.087	374.47
389.466	362.04
389.846	360
390.225	370.4
390.605	396.84
390.984	355.49
391.363	362.26
391.743	378.08
392.122	369.95
392.501	370.63
392.881	386.44
393.26	362.26
393.639	385.09
394.018	375.15
394.397	385.54
394.776	385.09
395.155	379.44
395.534	391.19
395.913	397.07
396.292	383.28
396.671	374.69
397.05	368.37
397.429	408.36
397.808	395.48
398.186	382.6
398.565	377.86
398.944	383.28
399.323	396.84
399.701	409.49
400.08	387.57
400.458	414.47
400.837	419.66
401.215	434.13
401.594	378.31
401.972	399.55
402.351	404.98
402.729	398.87
403.107	409.95
403.486	389.38
403.864	411.98
404.242	427.35
404.62	428.7
404.999	431.42
405.377	425.99
405.755	430.96
406.133	414.92
406.511	426.44
406.889	439.1
407.267	436.61
407.645	441.81
408.023	412.66
408.401	427.35
408.779	436.61
409.156	450.4
409.534	440.68
409.912	449.27
410.29	467.57
410.667	459.44
411.045	446.33
411.422	463.28
411.8	460.34
412.178	472.32
412.555	464.41
412.933	485.43
413.31	496.72
413.687	448.82
414.065	475.93
414.442	491.98
414.819	492.66
415.197	492.66
415.574	482.71
415.951	482.26
416.328	512.32
416.705	492.88
417.082	489.27
417.46	509.61
417.837	498.76
418.214	523.84
418.591	516.61
418.967	516.38
419.344	509.61
419.721	518.64
420.098	513.45
420.475	519.55
420.852	532.66
421.228	546.21
421.605	523.39
421.982	542.6
422.358	541.47
422.735	537.18
423.111	511.64
423.488	564.97
423.864	544.41
424.241	552.77
424.617	557.51
424.994	578.76
425.37	548.93
425.746	564.52
426.123	565.87
426.499	569.26
426.875	571.07
427.251	574.01
427.627	562.49
428.003	581.47
428.379	604.07
428.756	616.04
429.132	596.61
429.507	606.78
429.883	622.6
430.259	591.64
430.635	590.96
431.011	623.95
431.387	614.46
431.763	616.5
432.138	603.39
432.514	645.42
432.89	647.91
433.265	669.38
433.641	657.85
434.016	650.17
434.392	662.82
434.767	670.73
435.143	680.45
435.518	675.7
435.894	676.15
436.269	676.61
436.644	698.53
437.02	691.75
437.395	713.89
437.77	724.97
438.145	710.28
438.52	719.09
438.895	725.87
439.271	720
439.646	743.27
440.021	746.89
440.395	748.7
440.77	734.68
441.145	747.34
441.52	760.67
441.895	743.27
442.27	770.16
442.645	770.39
443.019	774.01
443.394	738.07
443.769	777.62
444.143	775.59
444.518	797.96
444.892	769.94
445.267	766.32
445.641	816.04
446.016	807.45
446.39	788.24
446.764	813.78
447.139	804.96
447.513	819.2
447.887	832.76
448.262	794.8
448.636	820.11
449.01	818.07
449.384	867.34
449.758	848.58
450.132	838.86
450.506	852.2
450.88	837.28
451.254	862.82
451.628	866.43
452.002	853.78
452.376	898.75
452.75	891.97
453.123	899.43
453.497	902.82
453.871	907.56
454.244	915.7
454.618	927.67
454.992	927
455.365	943.04
455.739	941.68
456.112	972.64
456.486	951.63
456.859	985.75
457.232	986.43
457.606	986.88
457.979	1012.42
458.352	1016.94
458.725	1035.24
459.099	1002.47
459.472	1051.74
459.845	1059.65
460.218	1042.47
460.591	1064.17
460.964	1050.61
461.337	1089.7
461.71	1092.41
462.083	1113.43
462.456	1104.17
462.829	1129.93
463.201	1141.68
463.574	1155.46
463.947	1152.07
464.32	1173.77
464.692	1179.19
465.065	1188.01
465.438	1240.43
465.81	1211.28
466.183	1221.22
466.555	1242.24
466.928	1269.59
467.3	1292.18
467.672	1293.09
468.045	1320.21
468.417	1325.4
468.789	1352.07
469.161	1367.66
469.534	1388.68
469.906	1391.39
470.278	1416.93
470.65	1432.29
471.022	1468.9
471.394	1462.8
471.766	1480.88
472.138	1509.58
472.51	1538.05
472.882	1542.35
473.253	1578.96
473.625	1602.01
473.997	1612.18
474.369	1645.85
474.74	1640.2
475.112	1681.33
475.484	1700.76
475.855	1762
476.227	1739.63
476.598	1839.74
476.97	1853.3
477.341	1888.78
477.713	1880.19
478.084	1897.82
478.455	1944.82
478.827	1993.41
479.198	2049
479.569	2054.42
479.94	2072.5
480.311	2154.99
480.682	2202.22
481.053	2203.35
481.424	2271.37
481.795	2343.23
482.166	2350.01
482.537	2382.78
482.908	2465.71
483.279	2430.68
483.65	2496.9
484.021	2573.73
484.391	2633.62
484.762	2599.49
485.133	2702.77
485.503	2739.38
485.874	2742.77
486.244	2825.02
486.615	2848.3
486.985	2900.5
487.356	2960.16
487.726	2964.68
488.097	3048.97
488.467	3087.16
488.837	3162.42
489.207	3225.92
489.578	3282.87
489.948	3281.74
490.318	3348.85
490.688	3379.59
491.058	3434.95
491.428	3442.86
491.798	3487.15
492.168	3589.52
492.538	3560.6
492.908	3656.87
493.278	3687.83
493.648	3685.79
494.017	3771.67
494.387	3803.08
494.757	3845.79
495.126	3864.77
495.496	3873.36
495.866	3940.93
496.235	3966.24
496.605	4051.88
496.974	4038.1
497.344	4066.12
497.713	4125.1
498.082	4172.11
498.452	4191.54
498.821	4181.15
499.19	4258.89
499.559	4286.91
499.928	4289.17
500.298	4328.04
500.667	4378.88
501.036	4391.09
501.405	4410.07
501.774	4479.44
502.143	4441.93
502.512	4483.51
502.88	4496.62
503.249	4553.11
503.618	4549.27
503.987	4662.72
504.356	4599.44
504.724	4629.95
505.093	4669.27
505.462	4644.86
505.83	4763.28
506.199	4758.08
506.567	4815.03
506.936	4784.07
507.304	4867.68
507.672	4885.31
508.041	4907.91
508.409	4895.25
508.777	4961.92
509.145	4989.94
509.514	5021.58
509.882	5061.35
510.25	5019.32
510.618	5069.94
510.986	5070.16
511.354	5123.95
511.722	5110.16
512.09	5168.92
512.458	5148.13
512.826	5210.5
513.193	5220.44
513.561	5259.76
513.929	5255.47
514.297	5273.32
514.664	5295.02
515.032	5361.23
515.4	5398.97
515.767	5379.08
516.135	5389.25
516.502	5316.03
516.869	5464.5
517.237	5452.3
517.604	5423.37
517.972	5474.67
518.339	5523.48
518.706	5548.34
519.073	5563.48
519.44	5583.37
519.808	5624.27
520.175	5612.75
520.542	5680.99
520.909	5683.03
521.276	5720.09
521.643	5706.53
522.009	5770.03
522.376	5794.66
522.743	5895.9
523.11	5838.96
523.477	5885.51
523.843	5931.61
524.21	5948.78
524.577	5965.28
524.943	6016.13
525.31	6058.39
525.676	6112.17
526.043	6150.13
526.409	6136.58
526.776	6176.8
527.142	6172.73
527.508	6237.82
527.874	6252.96
528.241	6325.72
528.607	6311.71
528.973	6362.78
529.339	6357.14
529.705	6447.53
530.071	6437.13
530.437	6474.42
530.803	6552.16
531.169	6605.72
531.535	6590.58
531.901	6588.32
532.267	6649.78
532.632	6687.07
532.998	6672.38
533.364	6807.29
533.73	6721.19
534.095	6791.47
534.461	6819.27
534.826	6902.88
535.192	6873.96
535.557	6889.32
535.923	6912.6
536.288	6887.74
536.653	6993.05
537.019	7045.7
537.384	7035.99
537.749	7026.95
538.114	7101.52
538.479	7090.68
538.845	7094.29
539.21	7151.92
539.575	7140.62
539.94	7240.5
540.305	7308.07
540.67	7236.21
541.034	7255.42
541.399	7375.87
541.764	7332.93
542.129	7369.99
542.494	7432.36
542.858	7452.02
543.223	7496.99
543.587	7504
543.952	7487.95
544.316	7528.18
544.681	7577.89
545.045	7583.32
545.41	7601.62
545.774	7623.77
546.138	7638.46
546.503	7711
546.867	7757.55
547.231	7835.06
547.595	7770.43
547.959	7758.23
548.324	7929.07
548.688	7842.29
549.052	8005.23
549.416	7952.35
549.779	7895.85
550.143	7986.02
550.507	8026.92
550.871	8052.46
551.235	8073.02
551.599	8126.58
551.962	8163.19
552.326	8174.71
552.689	8190.31
553.053	8233.47
553.417	8245
553.78	8310.08
554.143	8290.42
554.507	8371.77
554.87	8380.36
555.234	8425.56
555.597	8341.26
555.96	8423.52
556.323	8446.35
556.686	8428.27
557.05	8495.38
557.413	8575.83
557.776	8554.59
558.139	8600.69
558.502	8592.33
558.865	8677.07
559.228	8719.11
559.59	8707.81
559.953	8741.93
560.316	8789.39
560.679	8831.87
561.041	8867.8
561.404	8917.07
561.767	8951.64
562.129	8911.42
562.492	9046.78
562.854	8997.97
563.217	9048.82
563.579	9007.91
563.941	9063.5
564.304	9126.1
564.666	9133.11
565.028	9189.83
565.39	9247.91
565.753	9237.06
566.115	9301.92
566.477	9317.51
566.839	9304.63
567.201	9421.24
567.563	9394.34
567.925	9477.51
568.287	9463.95
568.648	9490.16
569.01	9581.46
569.372	9654.22
569.734	9586.65
570.095	9685.41
570.457	9766.09
570.819	9721.11
571.18	9831.17
571.542	9820.77
571.903	9932.41
572.265	9902.13
572.626	9967.21
572.987	10046.53
573.349	10047.43
573.71	10124.04
574.071	10136.24
574.432	10209.01
574.794	10299.63
575.155	10322.45
575.516	10309.8
575.877	10459.63
576.238	10458.27
576.599	10584.14
576.96	10680.41
577.32	10699.39
577.681	10839.28
578.042	10853.51
578.403	10939.16
578.763	11003.34
579.124	11177.35
579.485	11238.14
579.845	11375.76
580.206	11383.67
580.566	11629.09
580.927	11693.94
581.287	11838.57
581.648	11945.91
582.008	12146.36
582.368	12229.98
582.728	12409.86
583.089	12594.03
583.449	12672.22
583.809	12875.16
584.169	13049.84
584.529	13215.49
584.889	13622.93
585.249	13587.68
585.609	13768.92
585.969	14108.57
586.329	14259.75
586.688	14575.45
587.048	14769.12
587.408	14978.38
587.768	15119.62
588.127	15381.53
588.487	15723.89
588.846	16046.6
589.206	16183.77
589.565	16442.52
589.925	16805.45
590.284	17026.46
590.643	17331.31
591.003	17622.38
591.362	18041.8
591.721	18171.97
592.08	18524.95
592.44	18880.42
592.799	19131.04
593.158	19485.6
593.517	19786.84
593.876	20102.31
594.235	20413.04
594.593	20712.01
594.952	21165.79
595.311	21474.25
595.67	21706.56
596.029	22331.18
596.387	22435.81
596.746	22928.22
597.104	23229.23
597.463	23394.2
597.822	23906.28
598.18	24171.36
598.538	24361.18
598.897	24965.01
599.255	25049.98
599.613	25696.97
599.972	25933.8
600.33	26242.26
600.688	26502.82
601.046	26885.86
601.404	27337.83
601.762	27575.79
602.12	28082.44
602.478	28400.62
602.836	28656.44
603.194	28743.21
603.552	29131.68
603.91	29429.97
604.268	29809.17
604.625	29965.33
604.983	30376.16
605.341	30547.69
605.698	31086.65
606.056	31483.25
606.413	31504.04
606.771	32063.58
607.128	32305.61
607.485	32419.27
607.843	32700.4
608.2	33158.46
608.557	33392.13
608.914	33536.08
609.272	33991.89
609.629	34184.88
609.986	34620.8
610.343	34740.57
610.7	35205.42
611.057	35238.86
611.414	35503.04
611.771	35782.35
612.127	36040.87
612.484	36265.5
612.841	36545.72
613.198	36566.28
613.554	36845.6
613.911	37240.39
614.267	37385.7
614.624	37543.66
614.98	37639.48
615.337	38047.83
615.693	38137.32
616.05	38346.12
616.406	38665.44
616.762	38633.12
617.118	38782.27
617.475	38987.01
617.831	39291.18
618.187	39394.91
618.543	39556.04
618.899	39985.18
619.255	40079.41
619.611	40040.32
619.967	40442.57
620.323	40495.67
620.678	40441.89
621.034	40625.61
621.39	40867.87
621.746	40817.02
622.101	41374.29
622.457	41194.64
622.812	41441.18
623.168	41431.24
623.523	41596.43
623.879	41837.33
624.234	41615.87
624.589	41913.49
624.945	42121.39
625.3	42186.25
625.655	42100.15
626.01	42192.58
626.365	42303.53
626.72	42313.25
627.075	42464.66
627.43	42470.54
627.785	42516.41
628.14	42591.44
628.495	42814.48
628.85	42771.77
629.205	42704.65
629.559	42998.66
629.914	42924.76
630.269	42974.25
630.623	42866.68
630.978	42955.72
631.332	43253.57
631.687	43259.22
632.041	43125.89
632.396	43254.7
632.75	43164.3
633.104	43328.59
633.459	43028.04
633.813	43231.19
634.167	43198.2
634.521	43263.28
634.875	43498.08
635.229	43318.88
635.583	43080.24
635.937	43315.71
636.291	43163.62
636.645	43254.02
636.999	43186.45
637.352	43450.85
637.706	42974.93
638.06	43349.16
638.413	43138.77
638.767	43193.23
639.121	43245.88
639.474	43113.23
639.828	43028.71
640.181	43143.96
640.534	43270.29
640.888	43140.35
641.241	43181.48
641.594	43128.37
641.947	43311.19
642.301	43162.95
642.654	43148.48
643.007	43193.45
643.36	43129.73
643.713	43080.24
644.066	43194.13
644.419	43011.54
644.771	42845.44
645.124	42549.18
645.477	42308.73
645.83	42145.8
646.182	42073.26
646.535	41944.67
646.888	41891.12
647.24	41721.63
647.593	41979.02
647.945	41867.61
648.298	41760.5
648.65	41784.23
649.002	41665.81
649.355	41736.32
649.707	41692.93
650.059	42001.17
650.411	42442.51
650.763	42447.49
651.115	42787.82
651.467	42729.29
651.819	42626.92
652.171	42696.07
652.523	42555.51
652.875	42582.85
653.227	42482.06
653.578	42692.68
653.93	42693.13
654.282	42466.02
654.633	42425.79
654.985	42387.15
655.337	42562.96
655.688	42464.43
656.039	42627.14
656.391	42298.56
656.742	42376.53
657.094	42488.61
657.445	42588.27
657.796	42296.3
658.147	42318.68
658.498	42426.7
658.849	42341.27
659.2	42329.52
659.551	42355.96
659.902	42475.73
660.253	42303.31
660.604	42312.8
660.955	42282.07
661.306	42296.53
661.656	42232.58
662.007	42326.81
662.358	42325.45
662.708	42237.55
663.059	42213.82
663.409	42006.82
663.76	42285
664.11	42244.78
664.461	42174.05
664.811	42313.25
665.161	42253.37
665.511	42076.87
665.862	42201.39
666.212	42319.58
666.562	42280.26
666.912	42207.27
667.262	42212.01
667.612	42060.15
667.962	42168.4
668.312	42140.15
668.662	42162.75
669.011	42123.2
669.361	42019.93
669.711	42100.6
670.06	41889.08
670.41	42052.69
670.76	41791.46
671.109	42110.55
671.459	42023.77
671.808	41962.53
672.157	42038.68
672.507	41855.86
672.856	41928.4
673.205	41963.2
673.554	42018.57
673.904	41845.47
674.253	42063.54
674.602	41765.7
674.951	41364.8
675.3	41130.23
675.649	41837.56
675.998	41722.31
676.346	41743.55
676.695	41849.76
677.044	41729.99
677.393	41709.43
677.741	41674.85
678.09	41638.02
678.438	41491.8
678.787	41502.2
679.135	41596.21
679.484	41240.74
679.832	41537.9
680.181	41272.83
680.529	41393.95
680.877	41213.39
681.225	41335.42
681.573	41416.55
681.922	41129.33
682.27	41092.94
682.618	41076.67
682.966	41015.43
683.314	40933.18
683.661	40882.55
684.009	40687.31
684.357	40752.39
684.705	40616.8
685.053	40698.38
685.4	40637.14
685.748	40507.65
686.095	40373.42
686.443	40341.55
686.79	40241.44
687.138	40299.29
687.485	40377.71
687.832	40128
688.18	40180.65
688.527	39960.55
688.874	39996.48
689.221	39823.6
689.568	39757.61
689.915	39648.46
690.262	39690.72
690.609	39475.13
690.956	39361.01
691.303	39270.62
691.65	39170.06
691.997	39285.31
692.344	39018.65
692.69	38912.66
693.037	38983.85
693.383	38693.01
693.73	38804.42
694.077	38562.62
694.423	38568.04
694.769	38578.43
695.116	38677.42
695.462	38341.6
695.808	38348.61
696.155	38386.35
696.501	38101.16
696.847	38029.75
697.193	37801.96
697.539	37964.67
697.885	37609.42
698.231	37599.03
698.577	37504.11
698.923	37470.44
699.269	37293.5
699.614	37118.81
699.96	37004.01
700.306	37087.17
700.651	36945.94
700.997	36855.32
701.342	36759.95
701.688	36629.56
702.033	36586.4
702.379	36493.97
702.724	36452.39
703.069	36538.71
703.415	36077.94
703.76	36212.85
704.105	36161.32
704.45	36016.02
704.795	35885.17
705.14	35844.95
705.485	35847.21
705.83	35642.92
706.175	35618.06
706.52	35579.87
706.865	35330.16
707.209	35436.14
707.554	35177.39
707.899	35306.43
708.243	35135.14
708.588	35126.32
708.932	34861.47
709.277	34902.15
709.621	34838.87
709.966	34588.71
710.31	34721.81
710.654	34447.7
710.998	34569.27
711.342	34542.83
711.687	34446.11
712.031	34316.85
712.375	34122.05
712.719	34207.02
713.063	34094.26
713.407	34251.32
713.75	33943.53
714.094	34071.21
714.438	33905.11
714.782	33859.69
715.125	33590.32
715.469	33767.49
715.812	33529.53
716.156	33317.1
716.499	33326.37
716.843	33356.2
717.186	33346.03
717.53	33275.3
717.873	33328.86
718.216	33216.09
718.559	33153.49
718.902	32844.8
719.246	32925.02
719.589	32869.88
719.932	32773.84
720.275	32708.76
720.617	32600.06
720.96	32574.07
721.303	32602.09
721.646	32614.3
721.989	32342.67
722.331	32534.98
722.674	32404.59
723.016	32487.97
723.359	32371.82
723.701	32491.14
724.044	32186.29
724.386	32120.53
724.729	32109.45
725.071	32218.38
725.413	32027.87
725.755	32005.27
726.097	31971.38
726.439	31712.17
726.782	31706.75
727.124	31854.32
727.465	31648.45
727.807	31771.16
728.149	31636.7
728.491	31450.03
728.833	31569.35
729.175	31410.04
729.516	31348.34
729.858	31474.21
730.199	31499.3
730.541	31354.9
730.882	31218.63
731.224	31401
731.565	31102.7
731.906	31080.33
732.248	31198.52
732.589	30895.02
732.93	30812.76
733.271	30815.25
733.612	30878.52
733.953	30902.48
734.294	30553.11
734.635	30644.18
734.976	30652.32
735.317	30502.49
735.658	30641.24
735.999	30598.98
736.339	30451.87
736.68	30660.22
737.021	30468.82
737.361	30317.18
737.702	30466.33
738.042	30360.57
738.383	30309.05
738.723	30345.2
739.063	30274.02
739.404	30228.37
739.744	30213.91
740.084	30045.1
740.424	30153.35
740.764	30095.95
741.104	30114.25
741.444	29823.18
741.784	29745.67
742.124	29835.39
742.464	29862.51
742.804	29822.96
743.143	29815.95
743.483	29709.97
743.823	29550.88
744.162	29449.18
744.502	29624.55
744.841	29418
745.181	29535.06
745.52	29328.73
745.86	29377.32
746.199	29296.42
746.538	29347.27
746.877	29429.52
747.216	29372.12
747.556	29185.01
747.895	29174.84
748.234	29085.8
748.573	29124.67
748.911	28961.74
749.25	29070.89
749.589	28890.55
749.928	28914.51
750.267	28945.24
750.605	28732.37
750.944	28790.44
751.283	28763.1
751.621	28806.71
751.96	28628.41
752.298	28632.03
752.636	28541.18
752.975	28398.14
753.313	28253.28
753.651	28506.38
753.989	28110.01
754.327	28338.03
754.666	28147.3
755.004	28275.43
755.342	28178.93
755.679	28172.61
756.017	27997.7
756.355	27985.04
756.693	27893.52
757.031	27958.6
757.368	27684.48
757.706	27777.36
758.044	27706.4
758.381	27742.34
758.719	27603.36
759.056	27653.3
759.394	27369.46
759.731	27290.14
760.068	27269.58
760.405	27185.97
