Data from hue_170_FLMS001491_00084.txt Node
Date: Tue Feb 07 16:49:18 GMT 2017
User: dcchb
Spectrometer: FLMS00149
Trigger mode: 0
Integration Time (sec): 2.000000E-2
Scans to average: 10
Electric dark correction enabled: true
Nonlinearity correction enabled: false
Boxcar width: 0
XAxis mode: Wavelengths
Number of Pixels in Spectrum: 2048
>>>>>Begin Spectral Data<<<<<
341.393	15.73
341.776	15.73
342.16	15.73
342.543	-48.45
342.927	-61.33
343.31	-80.31
343.693	-74.66
344.077	-86.86
344.46	-52.96
344.843	-53.87
345.226	-45.28
345.61	-26.07
345.993	-42.57
346.376	8.05
346.759	17.09
347.142	45.56
347.525	30.2
347.908	57.09
348.291	73.81
348.674	109.06
349.057	121.72
349.44	119.69
349.823	136.41
350.206	149.97
350.588	193.81
350.971	219.34
351.354	222.96
351.737	233.81
352.119	264.54
352.502	275.16
352.884	271.09
353.267	269.51
353.65	289.85
354.032	290.08
354.414	311.09
354.797	302.51
355.179	320.36
355.562	321.94
355.944	336.4
356.326	349.28
356.709	359.23
357.091	330.75
357.473	340.47
357.855	352
358.238	353.8
358.62	348.83
359.002	340.47
359.384	339.34
359.766	352.45
360.148	341.15
360.53	346.35
360.912	339.34
361.294	334.82
361.676	314.71
362.057	340.7
362.439	345.44
362.821	319.68
363.203	344.54
363.584	321.94
363.966	320.13
364.348	335.5
364.729	324.65
365.111	319.91
365.493	319.45
365.874	316.74
366.256	340.92
366.637	346.8
367.019	339.34
367.4	332.56
367.781	298.89
368.163	335.95
368.544	317.2
368.925	325.33
369.306	315.16
369.688	328.72
370.069	339.57
370.45	315.16
370.831	312.22
371.212	317.42
371.593	313.58
371.974	310.19
372.355	300.25
372.736	326.46
373.117	325.56
373.498	325.33
373.879	327.14
374.26	346.57
374.641	316.74
375.021	321.26
375.402	316.97
375.783	340.7
376.163	343.18
376.544	323.97
376.925	339.57
377.305	340.7
377.686	348.61
378.066	334.37
378.447	327.59
378.827	316.07
379.208	348.83
379.588	332.34
379.968	334.37
380.349	338.44
380.729	348.61
381.109	340.25
381.489	353.58
381.87	347.02
382.25	333.01
382.63	346.57
383.01	326.91
383.39	321.94
383.77	350.19
384.15	355.84
384.53	343.41
384.91	353.8
385.29	366.01
385.67	365.56
386.049	374.14
386.429	359.23
386.809	387.48
387.189	378.89
387.568	370.3
387.948	361.94
388.328	360.13
388.707	363.52
389.087	375.27
389.466	365.78
389.846	385.89
390.225	389.51
390.605	389.74
390.984	366.46
391.363	366.46
391.743	399.9
392.122	375.27
392.501	381.6
392.881	370.53
393.26	386.12
393.639	386.35
394.018	377.08
394.397	389.74
394.776	396.97
395.155	403.52
395.534	380.92
395.913	396.29
396.292	394.03
396.671	396.29
397.05	420.47
397.429	391.77
397.808	424.76
398.186	413.92
398.565	417.53
398.944	404.2
399.323	424.54
399.701	419.57
400.08	416.63
400.458	425.67
400.837	416.63
401.215	429.06
401.594	416.85
401.972	421.15
402.351	421.6
402.729	450.3
403.107	430.64
403.486	431.09
403.864	455.5
404.242	431.99
404.62	443.97
404.999	440.81
405.377	432.9
405.755	453.91
406.133	456.63
406.511	460.02
406.889	461.15
407.267	467.7
407.645	466.8
408.023	477.19
408.401	471.32
408.779	474.03
409.156	458.21
409.534	474.48
409.912	482.61
410.29	489.62
410.667	482.16
411.045	507.7
411.422	525.33
411.8	532.56
412.178	518.77
412.555	532.1
412.933	548.15
413.31	551.31
413.687	577.3
414.065	567.36
414.442	580.01
414.819	551.09
415.197	571.88
415.574	572.1
415.951	567.81
416.328	561.71
416.705	587.7
417.082	577.75
417.46	596.28
417.837	596.28
418.214	598.54
418.591	606.9
418.967	606.23
419.344	603.74
419.721	613.91
420.098	619.11
420.475	634.47
420.852	617.98
421.228	625.89
421.605	662.72
421.982	657.3
422.358	686.9
422.735	684.19
423.111	681.71
423.488	703.4
423.864	676.06
424.241	709.73
424.617	714.47
424.994	699.11
425.37	704.3
425.746	737.52
426.123	737.75
426.499	736.85
426.875	749.27
427.251	755.83
427.627	766
428.003	779.1
428.379	780.46
428.756	791.98
429.132	792.89
429.507	815.94
429.883	790.85
430.259	850.29
430.635	804.64
431.011	836.96
431.387	865.66
431.763	845.99
432.138	845.32
432.514	870.17
432.89	895.26
433.265	900.46
433.641	931.19
434.016	911.76
434.392	943.62
434.767	945.65
435.143	961.92
435.518	962.38
435.894	987.91
436.269	980
436.644	993.79
437.02	1014.13
437.395	1024.07
437.77	1036.27
438.145	1038.08
438.52	1064.07
438.895	1019.32
439.271	1044.18
439.646	1079.43
440.021	1098.19
440.395	1115.37
440.77	1100.23
441.145	1129.15
441.52	1144.52
441.895	1151.75
442.27	1134.8
442.645	1137.96
443.019	1170.28
443.394	1166.66
443.769	1205.76
444.143	1194.01
444.518	1195.14
444.892	1213.44
445.267	1235.36
445.641	1233.78
446.016	1259.77
446.39	1232.2
446.764	1263.16
447.139	1279.88
447.513	1283.5
447.887	1287.79
448.262	1283.5
448.636	1306.1
449.01	1324.85
449.384	1338.64
449.758	1332.76
450.132	1345.19
450.506	1369.37
450.88	1377.96
451.254	1371.86
451.628	1399.2
452.002	1397.17
452.376	1423.15
452.75	1443.27
453.123	1440.1
453.497	1460.67
453.871	1524.39
454.244	1499.08
454.618	1541.8
454.992	1532.3
455.365	1562.36
455.739	1592.19
456.112	1608.91
456.486	1630.38
456.859	1635.8
457.232	1671.96
457.606	1642.58
457.979	1674.22
458.352	1714.45
458.725	1761.45
459.099	1741.56
459.472	1776.37
459.845	1776.37
460.218	1819.98
460.591	1835.8
460.964	1864.27
461.337	1868.57
461.71	1923.71
462.083	1963.71
462.456	1965.51
462.829	1970.48
463.201	2012.52
463.574	2049.8
463.947	2067.66
464.32	2113.31
464.692	2106.07
465.065	2162.57
465.438	2179.74
465.81	2242.34
466.183	2221.1
466.555	2315.11
466.928	2337.25
467.3	2346.75
467.672	2423.13
468.045	2413.19
468.417	2447.31
468.789	2506.52
469.161	2546.74
469.534	2610.02
469.906	2654.31
470.278	2658.6
470.65	2719.84
471.022	2753.29
471.394	2809.11
471.766	2857.24
472.138	2904.02
472.51	2956.45
472.882	3060.63
473.253	3064.47
473.625	3116.44
473.997	3216.55
474.369	3252.26
474.74	3308.3
475.112	3424.68
475.484	3445.93
475.855	3543.1
476.227	3621.74
476.598	3688.41
476.97	3770.21
477.341	3869.64
477.713	3967.49
478.084	3970.66
478.455	4172.01
478.827	4208.39
479.198	4286.13
479.569	4340.82
479.94	4499.01
480.311	4585.11
480.682	4683.86
481.053	4850.64
481.424	4896.28
481.795	5031.87
482.166	5120.91
482.537	5268.93
482.908	5378.3
483.279	5458.75
483.65	5612.88
484.021	5776.03
484.391	5859.87
484.762	5932.87
485.133	6028.23
485.503	6191.39
485.874	6370.37
486.244	6406.07
486.615	6601.55
486.985	6674.32
487.356	6952.27
487.726	7010.35
488.097	7181.42
488.467	7216
488.837	7409.21
489.207	7529.43
489.578	7685.59
489.948	7801.07
490.318	7990.89
490.688	8037.22
491.058	8226.59
491.428	8338.68
491.798	8478.56
492.168	8623.64
492.538	8741.83
492.908	8836.97
493.278	8944.99
493.648	9070.41
494.017	9223.85
494.387	9305.21
494.757	9402.61
495.126	9593.79
495.496	9657.97
495.866	9700
496.235	9819.54
496.605	9950.84
496.974	10085.98
497.344	10184.28
497.713	10264.73
498.082	10304.5
498.452	10490.26
498.821	10525.51
499.19	10521.22
499.559	10709.69
499.928	10846.64
500.298	10976.8
500.667	11051.15
501.036	10997.82
501.405	11101.77
501.774	11154.65
502.143	11311.48
502.512	11330.46
502.88	11426.73
503.249	11495.66
503.618	11576.11
503.987	11570.46
504.356	11697.23
504.724	11763.45
505.093	11768.87
505.462	11798.7
505.83	11913.27
506.199	11940.39
506.567	12134.06
506.936	12079.82
507.304	12193.94
507.672	12211.57
508.041	12263.55
508.409	12358.69
508.777	12461.06
509.145	12534.27
509.514	12467.84
509.882	12613.14
510.25	12589.19
510.618	12722.52
510.986	12611.34
511.354	12736.3
511.722	12868.28
512.09	12950.31
512.458	12926.36
512.826	13021.49
513.193	13036.18
513.561	13060.81
513.929	13120.02
514.297	13196.86
514.664	13221.94
515.032	13206.35
515.4	13353.01
515.767	13353.24
516.135	13455.83
516.502	13244.31
516.869	13481.37
517.237	13414.93
517.604	13477.53
517.972	13514.14
518.339	13509.16
518.706	13544.87
519.073	13575.38
519.44	13523.63
519.808	13668.26
520.175	13579.9
520.542	13794.35
520.909	13784.19
521.276	13779.21
521.643	13844.52
522.009	13848.36
522.376	13896.95
522.743	13811.08
523.11	13970.4
523.477	14049.26
523.843	14031.64
524.21	14107.34
524.577	14178.53
524.943	14191.63
525.31	14197.51
525.676	14257.85
526.043	14381.91
526.409	14292.42
526.776	14420.55
527.142	14408.58
527.508	14301.23
527.874	14407.9
528.241	14411.06
528.607	14423.72
528.973	14478.63
529.339	14339.65
529.705	14478.86
530.071	14418.75
530.437	14450.16
530.803	14576.48
531.169	14528.12
531.535	14455.81
531.901	14411.51
532.267	14409.25
532.632	14512.3
532.998	14447.22
533.364	14425.75
533.73	14379.2
534.095	14458.52
534.461	14445.41
534.826	14447.22
535.192	14375.36
535.557	14390.95
535.923	14298.52
536.288	14303.72
536.653	14243.83
537.019	14232.76
537.384	14255.13
537.749	14185.08
538.114	14210.62
538.479	14064.18
538.845	14275.47
539.21	14000.23
539.575	14038.87
539.94	14026.44
540.305	14068.02
540.67	13911.64
541.034	13946.44
541.399	13915.03
541.764	13840.91
542.129	13884.97
542.494	13797.52
542.858	13787.12
543.223	13748.93
543.587	13778.08
543.952	13670.29
544.316	13660.12
544.681	13574.7
545.045	13604.08
545.41	13602.27
545.774	13538.32
546.138	13479.11
546.503	13467.58
546.867	13442.05
547.231	13430.07
547.595	13326.34
547.959	13329.96
548.324	13326.8
548.688	13313.01
549.052	13193.01
549.416	13167.93
549.779	13182.39
550.143	13095.39
550.507	13113.92
550.871	13109.85
551.235	13031.66
551.599	13080.48
551.962	12978.56
552.326	12947.37
552.689	12993.7
553.053	12850.2
553.417	12846.36
553.78	12930.2
554.143	12778.79
554.507	12808.39
554.87	12816.98
555.234	12850.2
555.597	12713.25
555.96	12736.08
556.323	12654.95
556.686	12593.03
557.05	12685.01
557.413	12691.11
557.776	12655.63
558.139	12682.75
558.502	12696.08
558.865	12651.33
559.228	12678.68
559.59	12708.96
559.953	12659.47
560.316	12725
560.679	12645.23
561.041	12756.42
561.404	12722.74
561.767	12641.84
562.129	12648.85
562.492	12759.13
562.854	12619.24
563.217	12687.27
563.579	12640.49
563.941	12725.23
564.304	12678.68
564.666	12687.27
565.028	12722.52
565.39	12708.51
565.753	12660.83
566.115	12720.71
566.477	12741.5
566.839	12741.73
567.201	12805.23
567.563	12792.35
567.925	12859.46
568.287	12859.24
568.648	12862.18
569.01	12824.89
569.372	12917.77
569.734	12825.34
570.095	12824.21
570.457	12869.63
570.819	12903.76
571.18	12873.93
571.542	12930.65
571.903	12939.24
572.265	12993.7
572.626	12902.17
572.987	12998.22
573.349	12871.67
573.71	12974.04
574.071	12934.49
574.432	12987.82
574.794	13084.99
575.155	13061.94
575.516	13030.08
575.877	13009.74
576.238	13055.39
576.599	13051.32
576.96	13012.45
577.32	12951.44
577.681	13110.53
578.042	13115.05
578.403	13098.33
578.763	13035.5
579.124	13007.71
579.485	13117.08
579.845	13030.08
580.206	13076.86
580.566	12978.78
580.927	13092.45
581.287	13071.89
581.648	13047.48
582.008	13093.13
582.368	13006.8
582.728	13080.25
583.089	13007.71
583.449	13038.22
583.809	13074.37
584.169	13075.73
584.529	12948.5
584.889	12988.73
585.249	12963.42
585.609	12959.8
585.969	12999.57
586.329	12967.03
586.688	12957.09
587.048	12953.7
587.408	12967.71
587.768	12902.85
588.127	12936.75
588.487	12869.86
588.846	12945.79
589.206	12877.09
589.565	12884.32
589.925	12881.84
590.284	12916.41
590.643	12862.85
591.003	12895.62
591.362	12948.73
591.721	12868.5
592.08	12837.09
592.44	12858.33
592.799	12822.18
593.158	12905.79
593.517	12790.77
593.876	12875.73
594.235	12733.37
594.593	12820.14
594.952	12759.35
595.311	12731.33
595.67	12762.74
596.029	12888.62
596.387	12713.71
596.746	12845.91
597.104	12714.84
597.463	12756.87
597.822	12733.59
598.18	12713.03
598.538	12695.63
598.897	12823.08
599.255	12667.15
599.613	12902.17
599.972	12680.26
600.33	12746.92
600.688	12693.82
601.046	12763.65
601.404	12805
601.762	12803.19
602.12	12785.12
602.478	12746.02
602.836	12823.53
603.194	12748.96
603.552	12775.4
603.91	12665.57
604.268	12675.51
604.625	12739.69
604.983	12781.05
605.341	12744.44
605.698	12786.02
606.056	12814.72
606.413	12715.97
606.771	12827.83
607.128	12752.12
607.485	12657.44
607.843	12733.82
608.2	12714.61
608.557	12791.67
608.914	12772.01
609.272	12785.12
609.629	12788.51
609.986	12885.45
610.343	12855.17
610.7	12890.65
611.057	12834.61
611.414	12884.77
611.771	12839.8
612.127	12924.32
612.484	12860.37
612.841	12960.93
613.198	12849.75
613.554	12861.5
613.911	13003.42
614.267	12912.34
614.624	12894.94
614.98	12907.6
615.337	12924.32
615.693	13028.05
616.05	12938.56
616.406	12997.31
616.762	12909.86
617.118	13009.06
617.475	13034.83
617.831	13044.77
618.187	12948.5
618.543	13040.7
618.899	13035.5
619.255	13040.48
619.611	12937.43
619.967	13135.84
620.323	13083.64
620.678	12943.08
621.034	13051.1
621.39	13023.3
621.746	13030.31
622.101	13094.71
622.457	13011.78
622.812	13053.81
623.168	13103.3
623.523	13117.76
623.879	13131.77
624.234	13059.46
624.589	13136.29
624.945	13079.12
625.3	13085.9
625.655	13038.22
626.01	13086.8
626.365	13077.76
626.72	13041.38
627.075	13061.72
627.43	12997.99
627.785	13060.14
628.14	13026.47
628.495	13049.97
628.85	13084.32
629.205	12893.59
629.559	13094.03
629.914	12949.63
630.269	13016.07
630.623	12890.2
630.978	12953.02
631.332	12964.55
631.687	12953.7
632.041	12924.1
632.396	12956.18
632.75	12845.23
633.104	12873.25
633.459	12862.63
633.813	12801.16
634.167	12744.21
634.521	12868.05
634.875	12842.52
635.229	12789.18
635.583	12762.97
635.937	12812.46
636.291	12697.66
636.645	12788.28
636.999	12694.04
637.352	12793.7
637.706	12654.72
638.06	12689.53
638.413	12699.02
638.767	12563.2
639.121	12590.54
639.474	12474.62
639.828	12536.31
640.181	12633.71
640.534	12638
640.888	12532.47
641.241	12499.25
641.594	12532.47
641.947	12467.38
642.301	12490.66
642.654	12533.82
643.007	12542.41
643.36	12511.68
643.713	12482.75
644.066	12548.74
644.419	12368.18
644.771	12417.44
645.124	12245.92
645.477	12233.72
645.83	12127.28
646.182	12131.57
646.535	12019.03
646.888	12089.31
647.24	11975.65
647.593	12161.86
647.945	12026.72
648.298	12024.91
648.65	11931.8
649.002	11901.52
649.355	11947.62
649.707	11905.36
650.059	12051.8
650.411	12318.91
650.763	12204.57
651.115	12339.48
651.467	12337.9
651.819	12323.43
652.171	12312.36
652.523	12303.77
652.875	12289.08
653.227	12251.8
653.578	12312.59
653.93	12298.12
654.282	12246.15
654.633	12203.21
654.985	12342.87
655.337	12246.6
655.688	12299.25
656.039	12357.78
656.391	12301.29
656.742	12267.39
657.094	12332.92
657.445	12374.73
657.796	12375.18
658.147	12372.92
658.498	12320.27
658.849	12314.17
659.2	12321.63
659.551	12341.96
659.902	12379.93
660.253	12273.94
660.604	12285.47
660.955	12319.37
661.306	12343.09
661.656	12311.23
662.007	12277.11
662.358	12275.98
662.708	12273.26
663.059	12360.49
663.409	12298.35
663.76	12411.57
664.11	12364.56
664.461	12329.08
664.811	12331.57
665.161	12354.39
665.511	12393.26
665.862	12327.73
666.212	12373.38
666.562	12376.31
666.912	12428.97
667.262	12307.61
667.612	12404.56
667.962	12354.39
668.312	12315.3
668.662	12374.05
669.011	12362.75
669.361	12384
669.711	12334.51
670.06	12297.9
670.41	12397.56
670.76	12312.81
671.109	12353.94
671.459	12313.49
671.808	12240.72
672.157	12349.2
672.507	12209.09
672.856	12296.54
673.205	12256.99
673.554	12268.07
673.904	12187.84
674.253	12340.83
674.602	12296.77
674.951	12044.8
675.3	11986.49
675.649	12180.16
675.998	12142.65
676.346	12215.19
676.695	12153.27
677.044	12116.43
677.393	12159.14
677.741	12097.68
678.09	12105.59
678.438	12084.34
678.787	12125.92
679.135	12052.25
679.484	12000.05
679.832	12001.86
680.181	11985.81
680.529	12012.71
680.877	12046.38
681.225	11920.96
681.573	11975.65
681.922	11835.99
682.27	11879.38
682.618	11883.9
682.966	11807.74
683.314	11844.8
683.661	11802.54
684.009	11703.34
684.357	11752.83
684.705	11710.12
685.053	11744.01
685.4	11726.84
685.748	11589.44
686.095	11615.43
686.443	11576.56
686.79	11499.05
687.138	11549.89
687.485	11561.19
687.832	11500.4
688.18	11466.51
688.527	11358.71
688.874	11447.3
689.221	11356.68
689.568	11393.06
689.915	11311.93
690.262	11273.52
690.609	11297.7
690.956	11225.83
691.303	11173.18
691.65	11139.74
691.997	11158.49
692.344	11096.57
692.69	11042.56
693.037	11088.89
693.383	10954.43
693.73	10958.72
694.077	10871.04
694.423	10934.99
694.769	10858.16
695.116	10789.46
695.462	10836.92
695.808	10709.69
696.155	10747.88
696.501	10598.05
696.847	10680.09
697.193	10628.11
697.539	10584.04
697.885	10583.37
698.231	10473.99
698.577	10473.76
698.923	10496.59
699.269	10391.51
699.614	10343.82
699.96	10257.72
700.306	10340.21
700.651	10262.02
700.997	10182.7
701.342	10214.79
701.688	10099.31
702.033	10097.5
702.379	10073.77
702.724	10100.89
703.069	10041.01
703.415	9916.49
703.76	9941.12
704.105	9898.41
704.45	9832.43
704.795	9782.93
705.14	9799.21
705.485	9681.69
705.83	9706.1
706.175	9766.66
706.52	9677.63
706.865	9633.11
707.209	9624.52
707.554	9632.66
707.899	9629.04
708.243	9627.46
708.588	9525.77
708.932	9463.17
709.277	9466.56
709.621	9460.91
709.966	9425.43
710.31	9441.47
710.654	9358.99
710.998	9320.12
711.342	9333.46
711.687	9305.43
712.031	9302.95
712.375	9218.88
712.719	9277.41
713.063	9255.72
713.407	9227.47
713.75	9234.7
714.094	9128.04
714.438	9135.04
714.782	9143.63
715.125	9111.99
715.469	9114.93
715.812	9092.56
716.156	8982.73
716.499	9008.72
716.843	8978.89
717.186	9006.23
717.53	9088.04
717.873	9011.2
718.216	9042.84
718.559	8933.24
718.902	8897.99
719.246	8969.62
719.589	8907.48
719.932	8841.26
720.275	8823.86
720.617	8820.93
720.96	8874.03
721.303	8853.47
721.646	8824.09
721.989	8743.64
722.331	8813.24
722.674	8769.4
723.016	8763.07
723.359	8786.8
723.701	8791.77
724.044	8733.47
724.386	8718.33
724.729	8719.01
725.071	8711.55
725.413	8754.04
725.755	8709.06
726.097	8655.96
726.439	8614.38
726.782	8632.68
727.124	8680.59
727.465	8632.46
727.807	8611.67
728.149	8636.52
728.491	8594.94
728.833	8632.91
729.175	8638.11
729.516	8619.35
729.858	8607.82
730.199	8599.24
730.541	8645.79
730.882	8588.62
731.224	8559.24
731.565	8591.33
731.906	8599.01
732.248	8621.84
732.589	8547.49
732.93	8507.49
733.271	8543.19
733.612	8558.11
733.953	8592.91
734.294	8561.72
734.635	8503.19
734.976	8562.63
735.317	8577.32
735.658	8566.92
735.999	8617.77
736.339	8527.37
736.68	8571.44
737.021	8557.2
737.361	8557.43
737.702	8529.18
738.042	8579.58
738.383	8641.95
738.723	8644.66
739.063	8598.56
739.404	8640.82
739.744	8612.57
740.084	8605.56
740.424	8633.81
740.764	8614.15
741.104	8694.38
741.444	8696.86
741.784	8645.79
742.124	8749.52
742.464	8773.7
742.804	8761.72
743.143	8789.97
743.483	8808.5
743.823	8759.91
744.162	8798.1
744.502	8814.37
744.841	8866.12
745.181	8898.21
745.52	8921.26
745.86	8940.02
746.199	9006.68
746.538	9016.4
746.877	9077.19
747.216	9104.08
747.556	9080.35
747.895	9266.11
748.234	9210.52
748.573	9258.88
748.911	9394.02
749.25	9363.51
749.589	9442.15
749.928	9476.5
750.267	9590.62
750.605	9608.7
750.944	9695.25
751.283	9824.52
751.621	9930.73
751.96	9937.96
752.298	10090.72
752.636	10082.36
752.975	10206.65
753.313	10274.45
753.651	10408.46
753.989	10580.88
754.327	10599.41
754.666	10711.5
755.004	10780.65
755.342	10943.58
755.679	11168.44
756.017	11207.53
756.355	11412.27
756.693	11491.14
757.031	11630.34
757.368	11764.58
757.706	12044.8
758.044	12033.95
