Data from hue_80_FLMS001491_85.txt Node
Date: Mon Feb 06 15:23:53 GMT 2017
User: dcchb
Spectrometer: FLMS00149
Trigger mode: 0
Integration Time (sec): 2.000000E-2
Scans to average: 10
Electric dark correction enabled: true
Nonlinearity correction enabled: false
Boxcar width: 0
XAxis mode: Wavelengths
Number of Pixels in Spectrum: 2048
>>>>>Begin Spectral Data<<<<<
341.393	-8.88
341.776	-8.88
342.16	-8.88
342.543	-61.99
342.927	-65.38
343.31	-74.64
343.693	-69.67
344.077	-60.86
344.46	-47.3
344.843	-57.47
345.226	-47.08
345.61	-21.99
345.993	-27.19
346.376	-16.12
346.759	12.36
347.142	13.94
347.525	21.85
347.908	59.14
348.291	89.64
348.674	100.94
349.057	124.45
349.44	136.42
349.823	131.23
350.206	173.48
350.588	185.24
350.971	211
351.354	223.65
351.737	213.26
352.119	249.19
352.502	261.39
352.884	270.66
353.267	279.02
353.65	273.37
354.032	278.11
354.414	266.36
354.797	288.74
355.179	306.59
355.562	320.15
355.944	315.63
356.326	304.1
356.709	316.31
357.091	337.77
357.473	336.64
357.855	313.14
358.238	327.38
358.62	332.12
359.002	346.81
359.384	324.44
359.766	320.6
360.148	313.82
360.53	336.64
360.912	339.81
361.294	326.47
361.676	329.64
362.057	307.27
362.439	333.48
362.821	323.76
363.203	331.9
363.584	329.64
363.966	306.59
364.348	326.25
364.729	323.08
365.111	315.85
365.493	328.28
365.874	335.97
366.256	293.03
366.637	301.62
367.019	295.29
367.4	310.43
367.781	306.81
368.163	295.06
368.544	302.52
368.925	302.97
369.306	313.59
369.688	312.92
370.069	309.53
370.45	307.04
370.831	313.59
371.212	293.48
371.593	292.35
371.974	304.1
372.355	295.29
372.736	320.82
373.117	313.59
373.498	309.53
373.879	315.85
374.26	308.62
374.641	305.46
375.021	306.59
375.402	326.47
375.783	323.99
376.163	301.39
376.544	312.69
376.925	322.63
377.305	307.27
377.686	312.92
378.066	325.12
378.447	331.67
378.827	329.41
379.208	312.69
379.588	330.77
379.968	329.41
380.349	315.18
380.729	337.77
381.109	321.05
381.489	318.34
381.87	328.06
382.25	302.07
382.63	333.25
383.01	332.35
383.39	332.58
383.77	359.69
384.15	346.81
384.53	330.32
384.91	325.34
385.29	340.03
385.67	340.94
386.049	343.42
386.429	356.53
386.809	349.98
387.189	351.56
387.568	369.64
387.948	347.72
388.328	334.61
388.707	346.59
389.087	345.68
389.466	352.91
389.846	349.52
390.225	345.23
390.605	338.68
390.984	341.84
391.363	345.23
391.743	356.08
392.122	347.04
392.501	363.08
392.881	365.34
393.26	352.24
393.639	367.6
394.018	377.77
394.397	375.74
394.776	379.13
395.155	387.49
395.534	363.99
395.913	353.59
396.292	378.9
396.671	377.77
397.05	358.11
397.429	377.77
397.808	371.9
398.186	357.43
398.565	384.78
398.944	370.99
399.323	352.69
399.701	364.44
400.08	387.26
400.458	394.5
400.837	391.78
401.215	379.58
401.594	375.96
401.972	391.11
402.351	400.82
402.729	391.11
403.107	374.61
403.486	389.98
403.864	398.34
404.242	393.59
404.62	403.31
404.999	399.47
405.377	392.46
405.755	382.29
406.133	400.14
406.511	397.21
406.889	405.34
407.267	409.18
407.645	399.92
408.023	406.47
408.401	422.74
408.779	412.12
409.156	387.72
409.534	411.9
409.912	403.31
410.29	426.13
410.667	415.06
411.045	425.23
411.422	433.82
411.8	412.8
412.178	419.13
412.555	439.01
412.933	422.52
413.31	438.34
413.687	472.23
414.065	462.29
414.442	462.29
414.819	457.77
415.197	444.44
415.574	459.35
415.951	494.61
416.328	455.96
416.705	465.23
417.082	451.22
417.46	454.15
417.837	475.17
418.214	484.44
418.591	480.14
418.967	465.23
419.344	470.43
419.721	495.51
420.098	495.96
420.475	494.38
420.852	474.95
421.228	498
421.605	506.13
421.982	522.85
422.358	501.84
422.735	513.59
423.111	506.36
423.488	508.84
423.864	513.36
424.241	533.7
424.617	534.15
424.994	518.56
425.37	537.54
425.746	529.41
426.123	533.93
426.499	533.7
426.875	540.03
427.251	533.02
427.627	551.55
428.003	545.23
428.379	565.56
428.756	555.62
429.132	541.38
429.507	579.8
429.883	574.15
430.259	563.3
430.635	571.21
431.011	581.16
431.387	586.13
431.763	601.95
432.138	607.37
432.514	591.55
432.89	613.02
433.265	606.47
433.641	610.08
434.016	596.98
434.392	646.47
434.767	624.55
435.143	654.38
435.518	661.83
435.894	662.06
436.269	653.92
436.644	664.09
437.02	646.01
437.395	660.7
437.77	655.73
438.145	681.72
438.52	686.47
438.895	689.4
439.271	693.24
439.646	678.78
440.021	715.62
440.395	714.26
440.77	703.41
441.145	724.43
441.52	715.16
441.895	717.42
442.27	714.03
442.645	744.32
443.019	754.94
443.394	723.3
443.769	740.93
444.143	755.84
444.518	751.77
444.892	748.61
445.267	763.3
445.641	752.68
446.016	761.49
446.39	762.62
446.764	769.85
447.139	772.79
447.513	790.42
447.887	813.69
448.262	791.1
448.636	803.52
449.01	810.3
449.384	808.5
449.758	816.86
450.132	828.61
450.506	826.8
450.88	823.41
451.254	836.74
451.628	827.93
452.002	823.41
452.376	856.63
452.75	859.79
453.123	847.59
453.497	882.62
453.871	898.66
454.244	876.74
454.618	900.24
454.992	889.17
455.365	914.03
455.739	923.29
456.112	941.6
456.486	950.41
456.859	948.38
457.232	986.12
457.606	938.66
457.979	967.59
458.352	1015.95
458.725	1013.24
459.099	983.41
459.472	1035.16
459.845	1038.55
460.218	1069.96
460.591	1049.62
460.964	1046.23
461.337	1081.03
461.71	1101.82
462.083	1115.15
462.456	1115.38
462.829	1108.83
463.201	1137.75
463.574	1135.72
463.947	1135.49
464.32	1181.14
464.692	1196.28
465.065	1199.9
465.438	1238.77
465.81	1268.82
466.183	1296.62
466.555	1286
466.928	1304.98
467.3	1298.65
467.672	1317.86
468.045	1343.4
468.417	1365.77
468.789	1418.42
469.161	1417.07
469.534	1422.72
469.906	1452.55
470.278	1483.73
470.65	1528.7
471.022	1549.27
471.394	1559.44
471.766	1599.21
472.138	1619.1
472.51	1652.09
472.882	1704.52
473.253	1717.4
473.625	1767.11
473.997	1817.73
474.369	1803.5
474.74	1855.7
475.112	1923.72
475.484	1951.06
475.855	2015.7
476.227	2036.26
476.598	2105.18
476.97	2121.46
477.341	2214.33
477.713	2239.19
478.084	2305.86
478.455	2383.6
478.827	2455.91
479.198	2552.4
479.569	2543.14
479.94	2658.62
480.311	2714.43
480.682	2773.87
481.053	2867.88
481.424	2984.71
481.795	3029
482.166	3093.63
482.537	3206.17
482.908	3305.38
483.279	3371.14
483.65	3473.74
484.021	3588.76
484.391	3676.89
484.762	3758.7
485.133	3849.55
485.503	3973.38
485.874	4103.32
486.244	4196.66
486.615	4293.15
486.985	4410.66
487.356	4539.47
487.726	4669.41
488.097	4782.63
488.467	4853.14
488.837	5045.67
489.207	5167.48
489.578	5289.96
489.948	5383.74
490.318	5536.51
490.688	5660.57
491.058	5797.29
491.428	5882.03
491.798	6050.62
492.168	6213.78
492.538	6285.41
492.908	6479.31
493.278	6620.09
493.648	6697.38
494.017	6805.63
494.387	6956.81
494.757	7113.87
495.126	7307.53
495.496	7413.97
495.866	7523.35
496.235	7671.37
496.605	7864.36
496.974	7857.8
497.344	8048.08
497.713	8125.37
498.082	8228.64
498.452	8433.15
498.821	8521.06
499.19	8558.12
499.559	8716.99
499.928	8883.09
500.298	8977.32
500.667	9121.05
501.036	9211.44
501.405	9381.6
501.774	9378.21
502.143	9551.54
502.512	9643.74
502.88	9822.95
503.249	9891.19
503.618	9964.87
503.987	10045.54
504.356	10214.12
504.724	10298.42
505.093	10313.1
505.462	10450.73
505.83	10521.23
506.199	10696.6
506.567	10845.52
506.936	10900.43
507.304	11066.98
507.672	11093.65
508.041	11155.57
508.409	11257.94
508.777	11320.99
509.145	11432.85
509.514	11519.17
509.882	11542
510.25	11667.42
510.618	11732.73
510.986	11805.49
511.354	11925.94
511.722	12039.84
512.09	12122.55
512.458	12146.05
512.826	12261.08
513.193	12263.34
513.561	12405.93
513.929	12479.38
514.297	12564.12
514.664	12658.13
515.032	12691.8
515.4	12758.46
515.767	12864
516.135	12912.58
516.502	12853.38
516.869	13122.52
517.237	13136.31
517.604	13132.92
517.972	13273.03
518.339	13348.96
518.706	13347.38
519.073	13383.76
519.44	13542.4
519.808	13548.05
520.175	13567.93
520.542	13627.82
520.909	13731.09
521.276	13745.1
521.643	13877.3
522.009	13901.71
522.376	13999.56
522.743	14022.39
523.11	14131.31
523.477	14298.08
523.843	14390.51
524.21	14412.66
524.577	14540.79
524.943	14510.06
525.31	14534.46
525.676	14719.99
526.043	14754.57
526.409	14778.3
526.776	14903.04
527.142	14871.63
527.508	14941.68
527.874	15003.6
528.241	15104.17
528.607	15121.57
528.973	15235.46
529.339	15108.46
529.705	15272.97
530.071	15407.89
530.437	15390.49
530.803	15404.04
531.169	15479.97
531.535	15337.83
531.901	15482.91
532.267	15447.66
532.632	15587.54
532.998	15589.12
533.364	15620.31
533.73	15655.56
534.095	15752.51
534.461	15734.66
534.826	15750.7
535.192	15787.31
535.557	15803.81
535.923	15614.43
536.288	15712.51
536.653	15818.04
537.019	15746.63
537.384	15754.09
537.749	15815.78
538.114	15730.14
538.479	15786.41
538.845	15864.6
539.21	15750.93
539.575	15804.71
539.94	15719.29
540.305	15907.76
540.67	15837.25
541.034	15794.09
541.399	15771.04
541.764	15767.2
542.129	15852.17
542.494	15789.57
542.858	15751.83
543.223	15799.51
543.587	15836.12
543.952	15817.82
544.316	15772.62
544.681	15782.11
545.045	15799.74
545.41	15850.59
545.774	15758.84
546.138	15721.1
546.503	15774.43
546.867	15648.11
547.231	15800.42
547.595	15824.15
547.959	15742.79
548.324	15765.62
548.688	15710.02
549.052	15825.95
549.416	15702.57
549.779	15658.05
550.143	15673.19
550.507	15658.5
550.871	15811.27
551.235	15693.98
551.599	15770.59
551.962	15770.14
552.326	15762.23
552.689	15820.08
553.053	15710.48
553.417	15639.74
553.78	15817.82
554.143	15779.63
554.507	15809.68
554.87	15847.87
555.234	15904.14
555.597	15733.08
555.96	15830.02
556.323	15812.17
556.686	15701.66
557.05	15923.8
557.413	15918.15
557.776	15846.52
558.139	15862.79
558.502	15944.37
558.865	15832.51
559.228	15981.66
559.59	15994.31
559.953	16033.18
560.316	16055.33
560.679	16001.32
561.041	16072.05
561.404	16129.9
561.767	16165.15
562.129	16152.95
562.492	16214.87
562.854	16234.08
563.217	16139.17
563.579	16225.04
563.941	16284.25
564.304	16368.31
564.666	16455.54
565.028	16437.46
565.39	16508.87
565.753	16437.01
566.115	16437.69
566.477	16604.92
566.839	16458.03
567.201	16596.33
567.563	16587.52
567.925	16648.31
568.287	16672.26
568.648	16637.68
569.01	16759.94
569.372	16797.45
569.734	16729.43
570.095	16811.46
570.457	16784.8
570.819	16813.95
571.18	16790.9
571.542	16964.91
571.903	16993.15
572.265	16942.99
572.626	16983.21
572.987	17028.86
573.349	17087.62
573.71	16999.48
574.071	17078.8
574.432	17104.56
574.794	17321.51
575.155	17172.13
575.516	17146.15
575.877	17202.41
576.238	17197.44
576.599	17293.26
576.96	17281.06
577.32	17225.01
577.681	17256.2
578.042	17364.22
578.403	17362.86
578.763	17317.21
579.124	17406.03
579.485	17352.69
579.845	17460.26
580.206	17316.99
580.566	17307.04
580.927	17399.92
581.287	17361.96
581.648	17404.9
582.008	17425.91
582.368	17428.17
582.728	17368.51
583.089	17444.44
583.449	17350.21
583.809	17410.55
584.169	17421.62
584.529	17374.39
584.889	17487.61
585.249	17284.22
585.609	17371
585.969	17446.48
586.329	17307.27
586.688	17371
587.048	17340.49
587.408	17371.68
587.768	17304.33
588.127	17369.64
588.487	17202.41
588.846	17398.34
589.206	17258.68
589.565	17275.86
589.925	17309.3
590.284	17267.27
590.643	17326.48
591.003	17303.2
591.362	17500.94
591.721	17401.73
592.08	17349.53
592.44	17392.01
592.799	17294.39
593.158	17349.76
593.517	17298.46
593.876	17411.22
594.235	17271.57
594.593	17260.27
594.952	17373.48
595.311	17236.99
595.67	17367.16
596.029	17272.24
596.387	17331.9
596.746	17339.81
597.104	17237.44
597.463	17301.62
597.822	17364.22
598.18	17250.32
598.538	17249.42
598.897	17354.05
599.255	17209.65
599.613	17416.42
599.972	17306.59
600.33	17290.55
600.688	17201.74
601.046	17281.28
601.404	17476.76
601.762	17345.46
602.12	17351.56
602.478	17388.85
602.836	17378.91
603.194	17359.47
603.552	17333.71
603.91	17286.93
604.268	17401.28
604.625	17382.07
604.983	17415.74
605.341	17291.9
605.698	17444.22
606.056	17459.81
606.413	17280.38
606.771	17340.04
607.128	17519.69
607.485	17382.98
607.843	17483.99
608.2	17448.28
608.557	17509.3
608.914	17455.06
609.272	17582.07
609.629	17531.9
609.986	17568.73
610.343	17481.5
610.7	17744.32
611.057	17544.33
611.414	17639.01
611.771	17618.45
612.127	17655.51
612.484	17648.96
612.841	17735.73
613.198	17560.82
613.554	17772.12
613.911	17768.05
614.267	17846.24
614.624	17719.24
614.98	17801.04
615.337	17841.95
615.693	17755.85
616.05	17861.83
616.406	17922.17
616.762	17792.23
617.118	17825.22
617.475	17825.22
617.831	17891.44
618.187	17981.38
618.543	17930.98
618.899	18040.36
619.255	17927.59
619.611	17986.35
619.967	18012.34
620.323	18049.4
620.678	17971.89
621.034	18018.44
621.39	18052.34
621.746	18008.5
622.101	18182.05
622.457	18008.27
622.812	18062.05
623.168	18090.75
623.523	18069.74
623.879	18116.06
624.234	17976.41
624.589	17979.12
624.945	18040.36
625.3	18089.4
625.655	18079
626.01	18060.92
626.365	18163.75
626.72	18183.41
627.075	18156.51
627.43	18182.5
627.785	18039
628.14	18047.36
628.495	18089.62
628.85	18100.24
629.205	17999.91
629.559	18057.08
629.914	17981.15
630.269	18041.04
630.623	17972.34
630.978	17978.89
631.332	18024.99
631.687	18053.69
632.041	17914.71
632.396	18000.81
632.75	17885.11
633.104	17937.76
633.459	17865.45
633.813	17923.07
634.167	17881.49
634.521	17869.06
634.875	17930.31
635.229	17837.65
635.583	17827.26
635.937	17788.39
636.291	17783.42
636.645	17708.39
636.999	17619.13
637.352	17803.53
637.706	17626.58
638.06	17757.88
638.413	17623.87
638.767	17685.11
639.121	17647.83
639.474	17625.91
639.828	17511.56
640.181	17566.47
640.534	17585.68
640.888	17526.02
641.241	17439.47
641.594	17430.66
641.947	17538.45
642.301	17453.71
642.654	17498.45
643.007	17369.19
643.36	17437.21
643.713	17394.5
644.066	17474.5
644.419	17333.48
644.771	17305.24
645.124	17072.93
645.477	17010.78
645.83	16928.98
646.182	16906.6
646.535	16830.67
646.888	16916.09
647.24	16780.96
647.593	16873.84
647.945	16831.35
648.298	16809.66
648.65	16748.19
649.002	16793.39
649.355	16817.34
649.707	16797.68
650.059	16901.18
650.411	17045.58
650.763	17097.78
651.115	17281.73
651.467	17262.98
651.819	17293.26
652.171	17183.66
652.523	17204.45
652.875	17112.25
653.227	17167.16
653.578	17267.72
653.93	17265.69
654.282	17121.29
654.633	17156.54
654.985	17107.5
655.337	17139.37
655.688	17136.2
656.039	17176.43
656.391	17102.98
656.742	17086.71
657.094	17164.45
657.445	17190.44
657.796	17108.18
658.147	17105.24
658.498	17119.25
658.849	17118.8
659.2	17124.22
659.551	17106.82
659.902	17169.42
660.253	17128.97
660.604	17149.31
660.955	17094.62
661.306	17202.87
661.656	17121.74
662.007	17182.75
662.358	17130.55
662.708	17117.45
663.059	17164.45
663.409	17074.96
663.76	17180.95
664.11	17181.85
664.461	17217.1
664.811	17244.22
665.161	17244.67
665.511	17156.99
665.862	17227.72
666.212	17299.36
666.562	17299.36
666.912	17246.26
667.262	17165.13
667.612	17216.88
667.962	17210.78
668.312	17209.19
668.662	17188.18
669.011	17149.76
669.361	17242.19
669.711	17113.38
670.06	17174.39
670.41	17104.11
670.76	17117.67
671.109	17208.74
671.459	17131.68
671.808	17124.9
672.157	17155.64
672.507	17004.45
672.856	16898.69
673.205	17103.89
673.554	17043.55
673.904	16975.98
674.253	17028.86
674.602	17025.7
674.951	16734.18
675.3	16753.39
675.649	16915.64
675.998	16933.27
676.346	16951.35
676.695	16982.76
677.044	16813.27
677.393	16851.01
677.741	16910.67
678.09	16892.14
678.438	16846.94
678.787	16767.17
679.135	16801.07
679.484	16703.9
679.832	16771.92
680.181	16689.66
680.529	16738.47
680.877	16691.47
681.225	16697.34
681.573	16800.62
681.922	16590
682.27	16521.53
682.618	16632.94
682.966	16507.52
683.314	16511.59
683.661	16431.59
684.009	16459.84
684.357	16430.23
684.705	16345.26
685.053	16298.94
685.4	16326.73
685.748	16220.07
686.095	16269.56
686.443	16121.99
686.79	16140.97
687.138	16127.87
687.485	16091.26
687.832	15961.54
688.18	16079.05
688.527	15973.52
688.874	15911.15
689.221	16001.32
689.568	15860.76
689.915	15792.73
690.262	15789.12
690.609	15806.52
690.956	15688.33
691.303	15670.03
691.65	15654.66
691.997	15682.45
692.344	15539.18
692.69	15530.14
693.037	15470.94
693.383	15335.8
693.73	15383.25
694.077	15278.4
694.423	15230.04
694.769	15222.58
695.116	15193.43
695.462	15146.42
695.808	15005.86
696.155	15115.01
696.501	14995.69
696.847	14958.41
697.193	14835.7
697.539	14803.83
697.885	14734.46
698.231	14654.23
698.577	14649.71
698.923	14665.76
699.269	14564.74
699.614	14431.87
699.96	14407.23
700.306	14493.11
700.651	14270.97
700.997	14313.45
701.342	14320.68
701.688	14252.89
702.033	14220.35
702.379	14160.46
702.724	14087.47
703.069	14044.08
703.415	13899.68
703.76	13989.17
704.105	14051.09
704.45	13956.4
704.795	13849.28
705.14	13741.49
705.485	13797.98
705.83	13648.84
706.175	13776.06
706.52	13640.47
706.865	13593.47
707.209	13604.77
707.554	13608.39
707.899	13570.65
708.243	13555.05
708.588	13421.95
708.932	13419.69
709.277	13238.68
709.621	13296.98
709.966	13175.18
710.31	13305.57
710.654	13165.46
710.998	13225.57
711.342	13142.63
711.687	13123.2
712.031	13078.91
712.375	12995.75
712.719	13102.64
713.063	12954.62
713.407	13050.43
713.75	12958.23
714.094	12890.44
714.438	12828.07
714.782	12817.45
715.125	12853.6
715.469	12860.61
715.812	12735.19
716.156	12745.36
716.499	12845.92
716.843	12713.49
717.186	12663.55
717.53	12710.78
717.873	12685.02
718.216	12548.98
718.559	12604.8
718.902	12523.89
719.246	12510.79
719.589	12562.76
719.932	12453.16
720.275	12378.36
720.617	12437.79
720.96	12448.19
721.303	12448.42
721.646	12440.96
721.989	12327.97
722.331	12433.05
722.674	12351.24
723.016	12321.19
723.359	12294.52
723.701	12397.8
724.044	12296.1
724.386	12280.51
724.729	12280.06
725.071	12256.1
725.413	12205.03
725.755	12224.24
726.097	12202.55
726.439	12169.55
726.782	12110.35
727.124	12211.81
727.465	12235.09
727.807	12141.76
728.149	12092.72
728.491	12123.68
728.833	12057.69
729.175	12134.98
729.516	12089.78
729.858	12032.38
730.199	12113.51
730.541	12023.34
730.882	12100.85
731.224	12112.38
731.565	11953.97
731.906	11972.72
732.248	12032.16
732.589	11969.33
732.93	11956.45
733.271	11958.03
733.612	11977.02
733.953	11966.17
734.294	11979.05
734.635	11945.38
734.976	12007.07
735.317	11914.64
735.658	11929.56
735.999	11939.95
736.339	11945.15
736.68	11999.16
737.021	11900.41
737.361	11855.21
737.702	12021.31
738.042	11986.73
738.383	12028.09
738.723	12012.72
739.063	11891.59
739.404	12028.54
739.744	12063.79
740.084	11957.36
740.424	12052.27
740.764	11929.79
741.104	12019.73
741.444	11962.1
741.784	12030.35
742.124	12017.47
742.464	12105.37
742.804	12052.95
743.143	12070.35
743.483	11997.35
743.823	12081.87
744.162	12065.83
744.502	12174.98
744.841	12063.57
745.181	12171.13
745.52	12232.15
745.86	12223.34
746.199	12216.78
746.538	12344.92
746.877	12382.2
747.216	12496.1
747.556	12405.93
747.895	12513.05
748.234	12487.28
748.573	12556.21
748.911	12652.25
749.25	12703.78
749.589	12744.23
749.928	12773.15
750.267	12915.07
750.605	12893.83
750.944	12957.55
751.283	13000.94
751.621	13129.3
751.96	13134.27
752.298	13186.48
752.636	13329.07
752.975	13360.93
753.313	13440.03
753.651	13547.37
753.989	13547.6
754.327	13716.18
754.666	13686.12
755.004	13820.36
755.342	13932.22
755.679	14034.36
756.017	14098.09
756.355	14352.32
756.693	14348.7
