Data from hue_150_FLMS001491_00053.txt Node
Date: Tue Feb 07 16:54:13 GMT 2017
User: dcchb
Spectrometer: FLMS00149
Trigger mode: 0
Integration Time (sec): 2.000000E-2
Scans to average: 10
Electric dark correction enabled: true
Nonlinearity correction enabled: false
Boxcar width: 0
XAxis mode: Wavelengths
Number of Pixels in Spectrum: 2048
>>>>>Begin Spectral Data<<<<<
341.393	-18.78
341.776	-18.78
342.16	-18.78
342.543	-53.81
342.927	-63.76
343.31	-50.2
343.693	-64.21
344.077	-72.57
344.46	-51.55
344.843	-56.3
345.226	-59.46
345.61	-22.63
345.993	-10.42
346.376	-0.93
346.759	24.6
347.142	24.6
347.525	22.8
347.908	68.67
348.291	69.12
348.674	75.68
349.057	102.79
349.44	125.17
349.823	164.04
350.206	158.39
350.588	205.39
350.971	222.11
351.354	213.3
351.737	255.56
352.119	258.5
352.502	259.63
352.884	273.86
353.267	284.94
353.65	279.29
354.032	307.76
354.414	307.08
354.797	327.87
355.179	313.41
355.562	327.42
355.944	320.64
356.326	335.56
356.709	331.94
357.091	344.37
357.473	336.01
357.855	338.95
358.238	354.99
358.62	351.6
359.002	337.82
359.384	328.32
359.766	337.36
360.148	334.88
360.53	327.87
360.912	333.3
361.294	335.56
361.676	322
362.057	322
362.439	331.26
362.821	313.64
363.203	306.18
363.584	330.13
363.966	313.64
364.348	322.68
364.729	298.72
365.111	323.13
365.493	319.29
365.874	310.92
366.256	315.22
366.637	311.6
367.019	310.7
367.4	315.67
367.781	317.7
368.163	316.57
368.544	313.86
368.925	310.47
369.306	343.92
369.688	311.6
370.069	319.06
370.45	316.8
370.831	307.53
371.212	330.13
371.593	316.8
371.974	322.45
372.355	312.73
372.736	306.18
373.117	317.93
373.498	333.52
373.879	318.38
374.26	320.87
374.641	314.77
375.021	307.31
375.402	295.78
375.783	335.78
376.163	319.74
376.544	340.3
376.925	343.01
377.305	303.69
377.686	313.41
378.066	327.65
378.447	311.83
378.827	344.37
379.208	331.71
379.588	321.09
379.968	327.65
380.349	320.87
380.729	340.08
381.109	325.16
381.489	338.49
381.87	332.62
382.25	322.22
382.63	350.02
383.01	350.47
383.39	340.98
383.77	316.57
384.15	339.17
384.53	331.49
384.91	347.76
385.29	333.07
385.67	354.09
386.049	353.63
386.429	322.68
386.809	352.5
387.189	347.31
387.568	366.06
387.948	332.39
388.328	352.5
388.707	353.41
389.087	367.42
389.466	357.7
389.846	351.15
390.225	362.67
390.605	363.58
390.984	351.37
391.363	374.88
391.743	369.91
392.122	360.19
392.501	366.52
392.881	376.01
393.26	359.74
393.639	356.8
394.018	345.27
394.397	358.38
394.776	392.28
395.155	378.04
395.534	385.5
395.913	375.56
396.292	363.58
396.671	373.07
397.05	362.45
397.429	378.94
397.808	369.45
398.186	395.44
398.565	391.15
398.944	390.02
399.323	389.79
399.701	398.15
400.08	376.46
400.458	390.24
400.837	406.51
401.215	367.65
401.594	383.24
401.972	406.51
402.351	417.59
402.729	409.9
403.107	424.59
403.486	419.17
403.864	397.7
404.242	416.23
404.62	411.71
404.999	425.5
405.377	410.81
405.755	420.3
406.133	425.27
406.511	414.42
406.889	428.44
407.267	439.96
407.645	450.36
408.023	446.74
408.401	429.79
408.779	441.99
409.156	442.22
409.534	434.54
409.912	431.37
410.29	448.77
410.667	438.15
411.045	451.03
411.422	455.55
411.8	472.95
412.178	453.75
412.555	449
412.933	478.38
413.31	449.9
413.687	474.08
414.065	488.55
414.442	450.36
414.819	474.08
415.197	500.3
415.574	492.39
415.951	509.56
416.328	477.47
416.705	503.24
417.082	491.48
417.46	476.34
417.837	504.14
418.214	497.36
418.591	516.34
418.967	529.22
419.344	493.74
419.721	503.01
420.098	512.5
420.475	536.91
420.852	495.55
421.228	533.29
421.605	540.3
421.982	543.46
422.358	552.5
422.735	567.19
423.111	536.91
423.488	542.33
423.864	544.59
424.241	565.15
424.617	556.12
424.994	584.36
425.37	572.61
425.746	577.81
426.123	571.26
426.499	571.71
426.875	582.78
427.251	571.03
427.627	566.74
428.003	590.92
428.379	599.28
428.756	584.59
429.132	606.74
429.507	594.31
429.883	619.39
430.259	630.46
430.635	627.07
431.011	634.76
431.387	636.57
431.763	647.86
432.138	639.5
432.514	667.3
432.89	660.07
433.265	661.65
433.641	663.68
434.016	687.41
434.392	688.77
434.767	687.41
435.143	683.8
435.518	703
435.894	710.91
436.269	691.03
436.644	711.59
437.02	710.24
437.395	712.27
437.77	742.55
438.145	746.62
438.52	733.29
438.895	740.97
439.271	734.87
439.646	743.68
440.021	760.63
440.395	784.81
440.77	767.41
441.145	769.67
441.52	793.62
441.895	782.78
442.27	788.88
442.645	803.57
443.019	813.28
443.394	829.78
443.769	808.31
444.143	807.18
444.518	813.96
444.892	823.45
445.267	839.95
445.641	843.79
446.016	856.22
446.39	839.5
446.764	867.52
447.139	858.93
447.513	865.49
447.887	859.16
448.262	877.91
448.636	868.88
449.01	887.41
449.384	905.71
449.758	897.35
450.132	898.93
450.506	909.55
450.88	922.43
451.254	926.28
451.628	931.7
452.002	923.56
452.376	938.93
452.75	945.03
453.123	971.02
453.497	980.06
453.871	951.36
454.244	998.59
454.618	990.68
454.992	1011.24
455.365	1014.18
455.739	1042.43
456.112	1025.71
456.486	1063.45
456.859	1063.22
457.232	1072.26
457.606	1102.54
457.979	1105.48
458.352	1111.13
458.725	1137.79
459.099	1149.55
459.472	1170.79
459.845	1160.17
460.218	1180.28
460.591	1203.1
460.964	1197.91
461.337	1204.91
461.71	1220.73
462.083	1242.88
462.456	1262.31
462.829	1251.69
463.201	1263.89
463.574	1305.02
463.947	1321.29
464.32	1330.56
464.692	1380.73
465.065	1368.98
465.438	1390.67
465.81	1431.57
466.183	1444.23
466.555	1456.2
466.928	1490.1
467.3	1470.44
467.672	1490.55
468.045	1564
468.417	1562.87
468.789	1559.93
469.161	1615.97
469.534	1643.54
469.906	1663.66
470.278	1655.3
470.65	1693.94
471.022	1755.63
471.394	1794.95
471.766	1805.8
472.138	1833.6
472.51	1889.87
472.882	1913.37
473.253	1909.3
473.625	1986.81
473.997	2046.25
474.369	2071.1
474.74	2082.18
475.112	2144.32
475.484	2236.3
475.855	2263.87
476.227	2305.67
476.598	2372.56
476.97	2402.39
477.341	2477.65
477.713	2516.74
478.084	2587.7
478.455	2662.5
478.827	2711.54
479.198	2834.47
479.569	2864.53
479.94	2981.36
480.311	3047.35
480.682	3105.88
481.053	3199.89
481.424	3294.57
481.795	3389.94
482.166	3490.5
482.537	3556.94
482.908	3670.84
483.279	3730.5
483.65	3849.14
484.021	3969.13
484.391	4021.11
484.762	4135.68
485.133	4251.39
485.503	4318.73
485.874	4465.39
486.244	4538.16
486.615	4724.82
486.985	4773.63
487.356	4925.04
487.726	5029.44
488.097	5138.82
488.467	5269.44
488.837	5419.04
489.207	5511.92
489.578	5654.96
489.948	5703.1
490.318	5928.4
490.688	5978.35
491.058	6180.37
491.428	6244.33
491.798	6420.37
492.168	6616.75
492.538	6743.75
492.908	6865.33
493.278	6916.17
493.648	6992.1
494.017	7213.12
494.387	7283.62
494.757	7481.58
495.126	7604.29
495.496	7656.72
495.866	7786.43
496.235	7924.74
496.605	8004.28
496.974	8150.72
497.344	8239.98
497.713	8303.48
498.082	8431.16
498.452	8618.28
498.821	8668.9
499.19	8734.66
499.559	8892.85
499.928	9048.32
500.298	9016.46
500.667	9163.57
501.036	9198.15
501.405	9379.39
501.774	9378.93
502.143	9521.76
502.512	9540.96
502.88	9695.54
503.249	9733.28
503.618	9780.28
503.987	9870.67
504.356	9931.46
504.724	10054.85
505.093	10105.92
505.462	10160.83
505.83	10236.09
506.199	10333.49
506.567	10477.44
506.936	10529.64
507.304	10650.31
507.672	10641.27
508.041	10763.76
508.409	10828.84
508.777	10921.27
509.145	11020.92
509.514	11031.55
509.882	11030.87
510.25	11051.88
510.618	11147.93
510.986	11083.3
511.354	11265.66
511.722	11286.68
512.09	11458.88
512.458	11334.14
512.826	11444.42
513.193	11440.35
513.561	11602.6
513.929	11524.64
514.297	11703.84
514.664	11725.54
515.032	11751.3
515.4	11865.42
515.767	11836.72
516.135	11848.25
516.502	11801.7
516.869	11984.97
517.237	12075.59
517.604	11967.79
517.972	12121.46
518.339	12050.5
518.706	12097.51
519.073	12119.88
519.44	12153.32
519.808	12259.54
520.175	12204.85
520.542	12351.51
520.909	12248.24
521.276	12329.59
521.643	12367.56
522.009	12438.29
522.376	12492.3
522.743	12464.73
523.11	12575.69
523.477	12611.39
523.843	12612.07
524.21	12729.81
524.577	12701.56
524.943	12723.25
525.31	12777.04
525.676	12845.06
526.043	12861.1
526.409	12906.53
526.776	12844.83
527.142	12910.14
527.508	12911.95
527.874	12954.43
528.241	12933.87
528.607	12949.46
528.973	13005.73
529.339	12938.84
529.705	13057.48
530.071	13005.96
530.437	13013.87
530.803	12986.75
531.169	13068.1
531.535	12967.99
531.901	12987.2
532.267	12967.77
532.632	13008.22
532.998	12990.82
533.364	12946.3
533.73	12961.66
534.095	12985.39
534.461	12989.69
534.826	12990.59
535.192	12909.69
535.557	13015.22
535.923	12910.14
536.288	12901.55
536.653	12930.25
537.019	12835.11
537.384	12755.34
537.749	12842.12
538.114	12804.38
538.479	12774.78
538.845	12920.08
539.21	12669.7
539.575	12684.61
539.94	12675.8
540.305	12722.8
540.67	12571.39
541.034	12564.61
541.399	12558.51
541.764	12561.45
542.129	12579.98
542.494	12585.4
542.858	12480.1
543.223	12457.72
543.587	12497.95
543.952	12429.93
544.316	12381.57
544.681	12363.04
545.045	12346.77
545.41	12297.73
545.774	12246.43
546.138	12271.74
546.503	12243.27
546.867	12102.03
547.231	12161.91
547.595	12161.69
547.959	12123.72
548.324	12017.06
548.688	12083.5
549.052	11967.57
549.416	11957.85
549.779	11916.49
550.143	11936.83
550.507	11953.33
550.871	11858.19
551.235	11844.86
551.599	11843.5
551.962	11789.94
552.326	11754.01
552.689	11767.12
553.053	11713.11
553.417	11712.43
553.78	11781.81
554.143	11697.29
554.507	11725.09
554.87	11669.5
555.234	11755.59
555.597	11587.69
555.96	11639.89
556.323	11622.94
556.686	11560.8
557.05	11589.95
557.413	11615.94
557.776	11603.06
558.139	11598.76
558.502	11528.71
558.865	11481.25
559.228	11539.78
559.59	11532.78
559.953	11505.21
560.316	11609.16
560.679	11585.66
561.041	11564.87
561.404	11569.84
561.767	11616.16
562.129	11523.28
562.492	11643.96
562.854	11586.79
563.217	11509.27
563.579	11516.05
563.941	11622.94
564.304	11565.54
564.666	11661.36
565.028	11629.72
565.39	11634.24
565.753	11646.45
566.115	11711.53
566.477	11608.71
566.839	11684.86
567.201	11671.3
567.563	11659.78
567.925	11729.83
568.287	11651.87
568.648	11741.13
569.01	11736.16
569.372	11823.84
569.734	11710.62
570.095	11793.11
570.457	11788.14
570.819	11765.54
571.18	11789.49
571.542	11826.1
571.903	11799.44
572.265	11883.28
572.626	11870.62
572.987	11927.79
573.349	11986.1
573.71	11973.89
574.071	11817.06
574.432	11879.21
574.794	11948.13
575.155	11922.82
575.516	11947.68
575.877	11893.67
576.238	11937.28
576.599	11998.3
576.96	12021.8
577.32	12005.31
577.681	11957.85
578.042	11988.81
578.403	11930.51
578.763	11972.76
579.124	11990.16
579.485	12004.63
579.845	12023.16
580.206	11972.31
580.566	11997.62
580.927	12004.18
581.287	12011.63
581.648	11825.42
582.008	11951.3
582.368	11961.47
582.728	11936.38
583.089	12003.27
583.449	11999.43
583.809	12036.94
584.169	11975.7
584.529	11884.41
584.889	12029.26
585.249	11897.74
585.609	11885.08
585.969	11919.66
586.329	11821.81
586.688	11985.19
587.048	11789.04
587.408	11856.38
587.768	11904.52
588.127	11878.76
588.487	11853.9
588.846	11886.66
589.206	11830.17
589.565	11819.32
589.925	11912.88
590.284	11820.23
590.643	11843.05
591.003	11852.32
591.362	11880.34
591.721	11709.72
592.08	11762.83
592.44	11723.28
592.799	11883.05
593.158	11807.34
593.517	11831.3
593.876	11798.76
594.235	11746.56
594.593	11777.52
594.952	11838.3
595.311	11723.28
595.67	11787.01
596.029	11772.09
596.387	11767.57
596.746	11842.15
597.104	11715.6
597.463	11718.31
597.822	11757.4
598.18	11695.03
598.538	11693.9
598.897	11783.16
599.255	11619.1
599.613	11825.2
599.972	11682.83
600.33	11722.83
600.688	11642.83
601.046	11760.79
601.404	11726.67
601.762	11744.52
602.12	11715.14
602.478	11702.26
602.836	11851.19
603.194	11754.92
603.552	11735.71
603.91	11672.21
604.268	11737.52
604.625	11701.81
604.983	11736.16
605.341	11625.88
605.698	11731.87
606.056	11715.14
606.413	11757.4
606.771	11760.57
607.128	11773.22
607.485	11670.4
607.843	11693.68
608.2	11786.55
608.557	11788.81
608.914	11769.38
609.272	11803.28
609.629	11891.18
609.986	11863.61
610.343	11769.15
610.7	11879.89
611.057	11881.24
611.414	11815.25
611.771	11826.1
612.127	11921.69
612.484	11865.42
612.841	11980.9
613.198	11818.42
613.554	11845.31
613.911	11889.6
614.267	11911.97
614.624	11801.47
614.98	11968.24
615.337	12012.54
615.693	11923.27
616.05	11987.68
616.406	11982.03
616.762	11981.8
617.118	11972.09
617.475	12028.81
617.831	11907.68
618.187	12016.15
618.543	11990.62
618.899	12039.88
619.255	11999.2
619.611	12099.99
619.967	12130.95
620.323	12073.33
620.678	11974.57
621.034	12061.8
621.39	12017.51
621.746	11982.48
622.101	12182.25
622.457	12035.36
622.812	12093.21
623.168	12081.24
623.523	12092.99
623.879	12219.31
624.234	12032.42
624.589	12109.26
624.945	12114.68
625.3	12131.4
625.655	12104.51
626.01	12082.14
626.365	12082.14
626.72	12060.9
627.075	12050.95
627.43	12070.61
627.785	11996.72
628.14	12049.37
628.495	12064.97
628.85	12015.93
629.205	12018.41
629.559	12052.76
629.914	11936.61
630.269	12044.17
630.623	12005.98
630.978	11940.22
631.332	12033.78
631.687	12000.11
632.041	11975.25
632.396	12011.86
632.75	11853.9
633.104	11951.75
633.459	11905.42
633.813	11872.2
634.167	11982.03
634.521	11914.46
634.875	11844.63
635.229	11810.06
635.583	11812.99
635.937	11760.34
636.291	11809.6
636.645	11713.34
636.999	11716.05
637.352	11840.56
637.706	11594.47
638.06	11699.55
638.413	11693.9
638.767	11644.41
639.121	11647.58
639.474	11574.81
639.828	11619.33
640.181	11614.36
640.534	11644.19
640.888	11570.29
641.241	11572.77
641.594	11595.37
641.947	11666.11
642.301	11542.27
642.654	11615.03
643.007	11585.88
643.36	11592.21
643.713	11517.64
644.066	11517.86
644.419	11495.94
644.771	11476.73
645.124	11381.59
645.477	11344.76
645.83	11273.57
646.182	11223.41
646.535	11198.55
646.888	11223.63
647.24	11151.99
647.593	11196.74
647.945	11111.77
648.298	11097.76
648.65	11136.18
649.002	11063.64
649.355	11097.99
649.707	11100.7
650.059	11178.21
650.411	11341.37
650.763	11363.97
651.115	11404.19
651.467	11323.74
651.819	11389.73
652.171	11339.33
652.523	11403.74
652.875	11374.81
653.227	11388.37
653.578	11464.3
653.93	11470.4
654.282	11391.54
654.633	11344.08
654.985	11399.45
655.337	11336.17
655.688	11314.7
656.039	11396.28
656.391	11375.04
656.742	11373.01
657.094	11366.23
657.445	11438.54
657.796	11351.76
658.147	11344.53
658.498	11370.75
658.849	11344.76
659.2	11452.33
659.551	11348.37
659.902	11410.97
660.253	11481.7
660.604	11366
660.955	11434.47
661.306	11436.96
661.656	11410.07
662.007	11415.72
662.358	11393.57
662.708	11423.4
663.059	11438.99
663.409	11359.22
663.76	11480.35
664.11	11385.44
664.461	11407.58
664.811	11404.19
665.161	11422.27
665.511	11374.14
665.862	11423.85
666.212	11416.62
666.562	11449.84
666.912	11420.46
667.262	11412.78
667.612	11368.03
667.962	11448.26
668.312	11434.7
668.662	11431.99
669.011	11448.26
669.361	11349.05
669.711	11316.51
670.06	11361.03
670.41	11350.86
670.76	11410.97
671.109	11390.86
671.459	11358.77
671.808	11354.02
672.157	11385.89
672.507	11282.16
672.856	11385.66
673.205	11324.87
673.554	11286.23
673.904	11302.05
674.253	11430.86
674.602	11323.74
674.951	11110.41
675.3	11128.72
675.649	11247.36
675.998	11194.48
676.346	11226.12
676.695	11279.68
677.044	11149.74
677.393	11222.5
677.741	11192.45
678.09	11206.46
678.438	11144.54
678.787	11232.67
679.135	11216.63
679.484	11168.04
679.832	11235.83
680.181	11093.24
680.529	11075.39
680.877	11060.92
681.225	11084.43
681.573	11131.88
681.922	11029.06
682.27	10982.73
682.618	10965.11
682.966	11033.13
683.314	10953.81
683.661	10943.86
684.009	10852.79
684.357	10902.06
684.705	10788.39
685.053	10793.36
685.4	10808.73
685.748	10753.81
686.095	10732.57
686.443	10706.58
686.79	10733.47
687.138	10694.38
687.485	10681.27
687.832	10609.86
688.18	10611.67
688.527	10614.83
688.874	10596.53
689.221	10577.77
689.568	10519.24
689.915	10499.13
690.262	10484.67
690.609	10410.55
690.956	10383.88
691.303	10407.38
691.65	10353.6
691.997	10329.87
692.344	10308.85
692.69	10276.54
693.037	10230.89
693.383	10209.19
693.73	10187.5
694.077	10078.8
694.423	10068.41
694.769	10057.79
695.116	10077.9
695.462	10033.83
695.808	10061.18
696.155	9976.66
696.501	9898.24
696.847	9905.25
697.193	9880.16
697.539	9807.85
697.885	9694.18
698.231	9649.66
698.577	9790
698.923	9639.04
699.269	9632.71
699.614	9599.04
699.96	9547.29
700.306	9568.31
700.651	9518.37
700.997	9418.71
701.342	9491.7
701.688	9441.76
702.033	9329.22
702.379	9384.58
702.724	9329.9
703.069	9358.14
703.415	9255.55
703.76	9225.49
704.105	9205.15
704.45	9265.72
704.795	9112.27
705.14	9126.06
705.485	9043.8
705.83	9115.66
706.175	9061.2
706.52	8971.94
706.865	9025.5
707.209	8926.06
707.554	8951.15
707.899	8974.88
708.243	8825.73
708.588	8904.37
708.932	8853.3
709.277	8830.7
709.621	8816.46
709.966	8741.44
710.31	8774.2
710.654	8630.25
710.998	8719.06
711.342	8696.69
711.687	8608.33
712.031	8616.02
712.375	8592.97
712.719	8652.85
713.063	8586.41
713.407	8548.67
713.75	8544.15
714.094	8522.69
714.438	8499.41
714.782	8456.25
715.125	8489.24
715.469	8472.52
715.812	8368.11
716.156	8398.17
716.499	8415.57
716.843	8370.83
717.186	8314.1
717.53	8399.98
717.873	8347.77
718.216	8335.57
718.559	8297.83
718.902	8298.74
719.246	8268.91
719.589	8261
719.932	8181.23
720.275	8219.19
720.617	8202.02
720.96	8202.24
721.303	8211.06
721.646	8217.16
721.989	8203.6
722.331	8286.08
722.674	8157.5
723.016	8203.82
723.359	8214.45
723.701	8185.75
724.044	8096.93
724.386	8081.57
724.729	8190.04
725.071	8136.03
725.413	8139.42
725.755	8145.97
726.097	8143.03
726.439	8097.16
726.782	8065.97
727.124	8135.13
727.465	8065.75
727.807	8075.69
728.149	8072.75
728.491	8021.68
728.833	8123.6
729.175	8022.13
729.516	8024.62
729.858	7950.5
730.199	8072.53
730.541	8061.91
730.882	8010.38
731.224	8061.91
731.565	8000.89
731.906	8054
732.248	7992.3
732.589	7936.26
732.93	7965.86
733.271	7935.81
733.612	7993.21
733.953	8000.89
734.294	7968.12
734.635	7921.8
734.976	8037.5
735.317	7966.54
735.658	7975.36
735.999	7966.54
736.339	7992.53
736.68	7962.25
737.021	8019.87
737.361	8000.67
737.702	8044.28
738.042	8017.16
738.383	7958.41
738.723	8033.88
739.063	7998.41
739.404	8090.83
739.744	8072.98
740.084	8027.33
740.424	8106.88
740.764	8045.86
741.104	8093.32
741.444	8048.35
741.784	8046.99
742.124	8162.02
742.464	8201.79
742.804	8158.63
743.143	8187.55
743.483	8183.71
743.823	8164.05
744.162	8210.38
744.502	8222.13
744.841	8250.6
745.181	8345.29
745.52	8380.32
745.86	8357.94
746.199	8422.35
746.538	8394.55
746.877	8457.6
747.216	8565.85
747.556	8472.97
747.895	8615.11
748.234	8600.42
748.573	8705.28
748.911	8654.43
749.25	8729.01
749.589	8743.24
749.928	8857.37
750.267	8915.44
750.605	9047.19
750.944	9045.16
751.283	9080.86
751.621	9250.58
751.96	9219.62
752.298	9320.63
752.636	9411.93
752.975	9527.86
753.313	9527.63
753.651	9682.2
753.989	9727.4
754.327	9852.59
754.666	9966.49
755.004	10017.11
755.342	10286.03
755.679	10310.44
756.017	10429.53
756.355	10492.8
756.693	10676.53
757.031	10823.64
757.368	10951.1
757.706	11053.47
758.044	11189.06
758.381	11410.52
758.719	11494.36
759.056	11682.38
759.394	11801.24
759.731	11839.89
760.068	12061.58
760.405	12174.11
