Data from hue_200_FLMS001491_00077.txt Node
Date: Tue Feb 07 16:43:55 GMT 2017
User: dcchb
Spectrometer: FLMS00149
Trigger mode: 0
Integration Time (sec): 2.000000E-2
Scans to average: 10
Electric dark correction enabled: true
Nonlinearity correction enabled: false
Boxcar width: 0
XAxis mode: Wavelengths
Number of Pixels in Spectrum: 2048
>>>>>Begin Spectral Data<<<<<
341.393	-28.21
341.776	-28.21
342.16	-28.21
342.543	-63.01
342.927	-81.31
343.31	-51.26
343.693	-56.68
344.077	-54.65
344.46	-64.81
344.843	-49.45
345.226	-32.95
345.61	-28.21
345.993	-10.8
346.376	4.79
346.759	-5.38
347.142	29.87
347.525	47.72
347.908	33.71
348.291	69.42
348.674	84.33
349.057	84.33
349.44	123.65
349.823	140.38
350.206	177.89
350.588	195.97
350.971	205.91
351.354	209.98
351.737	230.32
352.119	244.33
352.502	252.92
352.884	299.92
353.267	274.61
353.65	288.17
354.032	306.25
354.414	307.83
354.797	312.8
355.179	334.5
355.562	325.23
355.944	314.38
356.326	335.4
356.709	308.73
357.091	332.46
357.473	343.76
357.855	338.34
358.238	346.02
358.62	322.97
359.002	345.12
359.384	336.08
359.766	332.01
360.148	334.72
360.53	332.91
360.912	347.38
361.294	325.68
361.676	319.81
362.057	335.17
362.439	337.89
362.821	334.5
363.203	342.18
363.584	332.69
363.966	320.94
364.348	320.03
364.729	320.71
365.111	307.38
365.493	328.4
365.874	334.5
366.256	320.49
366.637	308.06
367.019	320.26
367.4	324.33
367.781	320.26
368.163	313.48
368.544	305.8
368.925	307.15
369.306	328.85
369.688	328.85
370.069	322.52
370.45	313.03
370.831	318.45
371.212	291.11
371.593	338.11
371.974	331.79
372.355	314.84
372.736	312.58
373.117	320.49
373.498	318
373.879	328.17
374.26	343.08
374.641	311.67
375.021	322.52
375.402	333.14
375.783	313.71
376.163	326.59
376.544	308.51
376.925	319.81
377.305	322.07
377.686	310.77
378.066	317.55
378.447	338.34
378.827	321.62
379.208	301.28
379.588	332.24
379.968	325.91
380.349	328.17
380.729	323.65
381.109	332.69
381.489	343.76
381.87	318.9
382.25	314.16
382.63	318
383.01	343.31
383.39	335.4
383.77	341.95
384.15	340.82
384.53	348.73
384.91	339.92
385.29	361.61
385.67	343.76
386.049	364.1
386.429	350.99
386.809	352.8
387.189	358.68
387.568	357.32
387.948	352.12
388.328	364.78
388.707	347.6
389.087	337.89
389.466	346.47
389.846	363.87
390.225	372.01
390.605	354.61
390.984	362.29
391.363	358.68
391.743	373.59
392.122	360.94
392.501	377.43
392.881	360.26
393.26	376.08
393.639	383.54
394.018	386.7
394.397	386.47
394.776	385.12
395.155	379.47
395.534	391.67
395.913	383.08
396.292	402.29
396.671	400.94
397.05	402.29
397.429	380.15
397.808	389.18
398.186	408.85
398.565	394.16
398.944	400.26
399.323	404.55
399.701	405.91
400.08	415.62
400.458	408.85
400.837	418.11
401.215	413.14
401.594	419.92
401.972	421.27
402.351	428.96
402.729	426.02
403.107	429.86
403.486	428.28
403.864	440.71
404.242	438.9
404.62	430.31
404.999	441.16
405.377	438.9
405.755	438.67
406.133	464.89
406.511	438.45
406.889	460.37
407.267	457.43
407.645	485.91
408.023	493.81
408.401	498.33
408.779	512.57
409.156	526.36
409.534	526.13
409.912	513.93
410.29	520.03
410.667	540.82
411.045	546.47
411.422	549.86
411.8	570.87
412.178	559.58
412.555	562.06
412.933	585.79
413.31	614.94
413.687	627.14
414.065	620.59
414.442	635.05
414.819	642.51
415.197	655.17
415.574	649.97
415.951	654.71
416.328	683.64
416.705	684.32
417.082	678.67
417.46	706.69
417.837	719.12
418.214	704.43
418.591	736.07
418.967	706.01
419.344	730.19
419.721	772.68
420.098	764.77
420.475	794.82
420.852	777.2
421.228	809.29
421.605	829.85
421.982	830.98
422.358	854.03
422.735	865.1
423.111	910.53
423.488	902.62
423.864	924.99
424.241	949.4
424.617	949.4
424.994	963.41
425.37	968.38
425.746	985.55
426.123	1009.51
426.499	997.76
426.875	1005.44
427.251	1094.48
427.627	1071.88
428.003	1073.69
428.379	1079.56
428.756	1108.94
429.132	1122.5
429.507	1134.93
429.883	1164.31
430.259	1178.09
430.635	1148.71
431.011	1178.54
431.387	1218.32
431.763	1245.66
432.138	1231.65
432.514	1255.83
432.89	1288.14
433.265	1311.42
433.641	1328.6
434.016	1392.32
434.392	1392.77
434.767	1409.95
435.143	1432.1
435.518	1469.16
435.894	1510.74
436.269	1511.64
436.644	1547.8
437.02	1555.93
437.395	1608.81
437.77	1618.53
438.145	1651.52
438.52	1696.95
438.895	1700.79
439.271	1710.28
439.646	1760.67
440.021	1796.15
440.395	1813.78
440.77	1804.97
441.145	1832.99
441.52	1876.15
441.895	1903.95
442.27	1934.91
442.645	1932.42
443.019	1940.1
443.394	1959.99
443.769	2028.24
444.143	2003.83
444.518	2028.69
444.892	2041.34
445.267	2075.69
445.641	2115.92
446.016	2112.08
446.39	2123.38
446.764	2147.1
447.139	2211.74
447.513	2175.58
447.887	2187.78
448.262	2196.82
448.636	2185.52
449.01	2224.84
449.384	2285.63
449.758	2296.25
450.132	2333.77
450.506	2356.59
450.88	2371.51
451.254	2341.9
451.628	2402.69
452.002	2430.94
452.376	2470.71
452.75	2467.55
453.123	2472.52
453.497	2565.17
453.871	2542.57
454.244	2621.44
454.618	2613.76
454.992	2633.87
455.365	2642.68
455.739	2704.6
456.112	2754.55
456.486	2773.98
456.859	2795.68
457.232	2831.38
457.606	2867.76
457.979	2863.47
458.352	2932.62
458.725	2956.12
459.099	2958.61
459.472	3032.96
459.845	3065.95
460.218	3106.85
460.591	3140.98
460.964	3160.64
461.337	3237.25
461.71	3234.99
462.083	3333.51
462.456	3308.88
462.829	3308.43
463.201	3350.69
463.574	3376
463.947	3411.7
464.32	3517.46
464.692	3545.26
465.065	3557.91
465.438	3612.83
465.81	3643.34
466.183	3691.02
466.555	3771.92
466.928	3836.78
467.3	3803.33
467.672	3875.87
468.045	4005.59
468.417	3992.48
468.789	4017.34
469.161	4065.92
469.534	4109.76
469.906	4179.14
470.278	4224.11
470.65	4246.71
471.022	4352.02
471.394	4414.16
471.766	4455.97
472.138	4507.49
472.51	4611.22
472.882	4667.94
473.253	4728.05
473.625	4759.01
473.997	4890.54
474.369	4877.65
474.74	4931.21
475.112	4990.42
475.484	5123.07
475.855	5176.63
476.227	5155.16
476.598	5335.04
476.97	5414.82
477.341	5516.73
477.713	5617.07
478.084	5604.64
478.455	5715.37
478.827	5790.85
479.198	5934.35
479.569	5921.69
479.94	6098.19
480.311	6131.18
480.682	6206.66
481.053	6418.18
481.424	6443.49
481.795	6459.31
482.166	6620.43
482.537	6763.93
482.908	6801.9
483.279	6857.04
483.65	6972.74
484.021	7107.43
484.391	7147.88
484.762	7243.92
485.133	7263.35
485.503	7356.01
485.874	7574.31
486.244	7553.06
486.615	7722.78
486.985	7744.92
487.356	7927.52
487.726	7975.88
488.097	8096.78
488.467	8110.11
488.837	8249.77
489.207	8316.89
489.578	8412.7
489.948	8540.61
490.318	8572.02
490.688	8663.54
491.058	8795.97
491.428	8836.42
491.798	8952.8
492.168	9108.73
492.538	9089.97
492.908	9144.89
493.278	9331.1
493.648	9253.13
494.017	9388.95
494.387	9379.46
494.757	9501.71
495.126	9572.22
495.496	9618.77
495.866	9628.49
496.235	9746.68
496.605	9845.89
496.974	9798.43
497.344	9904.64
497.713	9938.76
498.082	9999.78
498.452	10038.65
498.821	10043.85
499.19	10095.82
499.559	10196.61
499.928	10171.75
500.298	10241.81
500.667	10376.49
501.036	10329.04
501.405	10371.97
501.774	10360.67
502.143	10413.55
502.512	10443.84
502.88	10532.87
503.249	10527.68
503.618	10499.65
503.987	10569.71
504.356	10618.29
504.724	10660.55
505.093	10613.77
505.462	10740.1
505.83	10722.92
506.199	10774.45
506.567	10808.35
506.936	10878.4
507.304	10897.38
507.672	10910.94
508.041	10915.69
508.409	11000.66
508.777	11058.06
509.145	11032.75
509.514	11123.59
509.882	11116.36
510.25	11111.39
510.618	11084.72
510.986	11195.45
511.354	11246.3
511.722	11242.68
512.09	11282.91
512.458	11219.18
512.826	11307.54
513.193	11270.25
513.561	11281.55
513.929	11348.22
514.297	11423.47
514.664	11389.8
515.032	11430.48
515.4	11505.05
515.767	11418.73
516.135	11493.53
516.502	11410.36
516.869	11554.09
517.237	11491.49
517.604	11578.72
517.972	11489.23
518.339	11533.98
518.706	11488.33
519.073	11500.08
519.44	11544.15
519.808	11581.21
520.175	11492.62
520.542	11566.97
520.909	11635.44
521.276	11579.62
521.643	11676.8
522.009	11641.54
522.376	11747.76
522.743	11716.8
523.11	11708.44
523.477	11729.45
523.843	11752.73
524.21	11793.63
524.577	11822.56
524.943	11888.54
525.31	11842.44
525.676	11861.88
526.043	11851.48
526.409	11824.14
526.776	11903.23
527.142	11858.94
527.508	11833.86
527.874	11880.41
528.241	11918.37
528.607	11846.51
528.973	11872.05
529.339	11814.42
529.705	11900.52
530.071	11812.61
530.437	11821.43
530.803	11750.69
531.169	11844.93
531.535	11731.71
531.901	11735.33
532.267	11648.55
532.632	11733.75
532.998	11571.26
533.364	11725.61
533.73	11644.26
534.095	11612.62
534.461	11565.84
534.826	11574.88
535.192	11540.53
535.557	11565.39
535.923	11452.4
536.288	11462.34
536.653	11478.38
537.019	11433.41
537.384	11312.51
537.749	11338.5
538.114	11230.03
538.479	11229.58
538.845	11195.23
539.21	11096.7
539.575	11136.92
539.94	11025.97
540.305	11088.56
540.67	10972.86
541.034	11023.26
541.399	10950.71
541.764	10879.98
542.129	10821
542.494	10779.42
542.858	10845.86
543.223	10676.37
543.587	10692.42
543.952	10589.82
544.316	10559.54
544.681	10542.14
545.045	10489.03
545.41	10493.33
545.774	10479.31
546.138	10344.86
546.503	10354.12
546.867	10234.58
547.231	10318.19
547.595	10220.56
547.959	10221.24
548.324	10113.45
548.688	10063.73
549.052	10068.7
549.416	9997.29
549.779	9909.84
550.143	9879.1
550.507	9866.68
550.871	9817.64
551.235	9825.55
551.599	9826.68
551.962	9724.08
552.326	9668.49
552.689	9637.3
553.053	9512.79
553.417	9560.92
553.78	9641.6
554.143	9439.57
554.507	9479.34
554.87	9389.63
555.234	9498.78
555.597	9430.75
555.96	9389.17
556.323	9336.97
556.686	9290.42
557.05	9319.57
557.413	9243.42
557.776	9247.71
558.139	9228.27
558.502	9193.25
558.865	9242.96
559.228	9172.23
559.59	9174.04
559.953	9163.42
560.316	9221.04
560.679	9093.81
561.041	9117.99
561.404	9126.36
561.767	9077.77
562.129	9074.38
562.492	9058.34
562.854	9019.47
563.217	9016.53
563.579	8996.87
563.941	9007.49
564.304	8942.41
564.666	9056.53
565.028	9013.82
565.39	9046.81
565.753	9017.66
566.115	9011.56
566.477	9038.67
566.839	8986.47
567.201	9016.08
567.563	9006.36
567.925	9023.76
568.287	8955.97
568.648	8976.53
569.01	8998.68
569.372	9035.29
569.734	8904.67
570.095	8905.57
570.457	9089.07
570.819	8986.25
571.18	8995.29
571.542	8969.98
571.903	9035.29
572.265	9055.85
572.626	8969.98
572.987	9013.82
573.349	8965.46
573.71	9038.67
574.071	8995.29
574.432	9027.38
574.794	9151.21
575.155	9046.36
575.516	9009.07
575.877	8990.09
576.238	8985.34
576.599	9059.01
576.96	8970.2
577.32	9014.49
577.681	9026.47
578.042	9085.23
578.403	9010.2
578.763	9062.85
579.124	9055.17
579.485	9022.18
579.845	9008.17
580.206	9015.62
580.566	8964.55
580.927	8924.55
581.287	9077.09
581.648	9012.46
582.008	8993.48
582.368	9008.85
582.728	9004.78
583.089	8906.7
583.449	8962.97
583.809	8944.89
584.169	8998.9
584.529	8861.73
584.889	9005.23
585.249	8987.83
585.609	8982.63
585.969	8954.38
586.329	8925.46
586.688	8902.41
587.048	8898.34
587.408	8879.36
587.768	8955.06
588.127	8872.58
588.487	8818.34
588.846	8971.78
589.206	8907.15
589.565	8872.35
589.925	8971.11
590.284	8877.32
590.643	8885.01
591.003	8875.52
591.362	8913.25
591.721	8867.61
592.08	8878.68
592.44	8872.35
592.799	8855.85
593.158	8864.89
593.517	8838.68
593.876	8787.16
594.235	8797.78
594.593	8796.2
594.952	8792.81
595.311	8764.33
595.67	8765.91
596.029	8860.15
596.387	8741.73
596.746	8847.04
597.104	8716.2
597.463	8761.85
597.822	8806.59
598.18	8721.85
598.538	8735.86
598.897	8828.28
599.255	8646.14
599.613	8771.79
599.972	8743.99
600.33	8782.18
600.688	8740.38
601.046	8762.3
601.404	8742.86
601.762	8720.04
602.12	8822.41
602.478	8754.39
602.836	8737.44
603.194	8737.21
603.552	8733.6
603.91	8701.96
604.268	8692.02
604.625	8645.24
604.983	8742.41
605.341	8727.04
605.698	8682.75
606.056	8658.8
606.413	8691.34
606.771	8776.08
607.128	8727.5
607.485	8669.19
607.843	8681.85
608.2	8765.69
608.557	8728.4
608.914	8683.2
609.272	8683.88
609.629	8799.59
609.986	8733.15
610.343	8653.37
610.7	8753.71
611.057	8685.01
611.414	8720.94
611.771	8764.11
612.127	8799.13
612.484	8810.21
612.841	8741.51
613.198	8745.12
613.554	8726.82
613.911	8779.25
614.267	8807.27
614.624	8809.3
614.98	8774.27
615.337	8859.24
615.693	8808.85
616.05	8815.18
616.406	8908.06
616.762	8827.15
617.118	8827.61
617.475	8785.35
617.831	8897.89
618.187	8831.9
618.543	8822.41
618.899	8888.85
619.255	8915.97
619.611	8835.29
619.967	8894.27
620.323	8930.88
620.678	8850.21
621.034	8853.14
621.39	8800.26
621.746	8843.2
622.101	8962.07
622.457	8857.66
622.812	8933.37
623.168	8887.27
623.523	8891.33
623.879	8920.49
624.234	8853.37
624.589	8840.04
624.945	8856.31
625.3	8911.45
625.655	8852.69
626.01	8872.58
626.365	8852.92
626.72	8875.06
627.075	8832.13
627.43	8833.71
627.785	8819.02
628.14	8830.32
628.495	8865.12
628.85	8823.54
629.205	8772.02
629.559	8784.9
629.914	8786.03
630.269	8814.05
630.623	8803.43
630.978	8762.3
631.332	8832.8
631.687	8816.08
632.041	8743.54
632.396	8745.58
632.75	8695.18
633.104	8794.84
633.459	8689.31
633.813	8696.08
634.167	8697.21
634.521	8680.49
634.875	8684.56
635.229	8636.65
635.583	8654.96
635.937	8640.04
636.291	8628.52
636.645	8597.1
636.999	8584.9
637.352	8582.42
637.706	8565.92
638.06	8585.81
638.413	8556.43
638.767	8551.68
639.121	8522.76
639.474	8543.77
639.828	8544.9
640.181	8462.87
640.534	8572.02
640.888	8503.77
641.241	8481.63
641.594	8519.82
641.947	8515.3
642.301	8499.25
642.654	8460.38
643.007	8454.28
643.36	8402.53
643.713	8389.88
644.066	8506.26
644.419	8403.66
644.771	8327.28
645.124	8332.25
645.477	8295.19
645.83	8209.32
646.182	8229.88
646.535	8291.35
646.888	8203.22
647.24	8109.89
647.593	8217
647.945	8139.94
648.298	8181.52
648.65	8199.83
649.002	8090.23
649.355	8140.39
649.707	8128.19
650.059	8175.87
650.411	8290.9
650.763	8269.43
651.115	8396.88
651.467	8334.96
651.819	8316.43
652.171	8348.75
652.523	8309.43
652.875	8337.68
653.227	8259.49
653.578	8329.09
653.93	8394.85
654.282	8261.52
654.633	8266.49
654.985	8299.49
655.337	8347.85
655.688	8320.05
656.039	8334.29
656.391	8336.32
656.742	8336.77
657.094	8309.65
657.445	8428.75
657.796	8313.04
658.147	8306.04
658.498	8357.79
658.849	8334.96
659.2	8344.68
659.551	8354.4
659.902	8379.48
660.253	8371.8
660.604	8390.56
660.955	8289.54
661.306	8420.61
661.656	8395.75
662.007	8376.32
662.358	8363.66
662.708	8421.29
663.059	8439.37
663.409	8326.6
663.76	8395.08
664.11	8448.18
664.461	8419.48
664.811	8424.68
665.161	8445.02
665.511	8439.14
665.862	8393.72
666.212	8391.01
666.562	8441.85
666.912	8470.78
667.262	8377.22
667.612	8435.53
667.962	8398.69
668.312	8447.5
668.662	8473.72
669.011	8467.39
669.361	8394.85
669.711	8403.66
670.06	8394.62
670.41	8357.34
670.76	8344.68
671.109	8432.14
671.459	8351.69
671.808	8343.78
672.157	8380.84
672.507	8348.3
672.856	8353.04
673.205	8380.84
673.554	8367.73
673.904	8338.35
674.253	8389.2
674.602	8316.66
674.951	8227.17
675.3	8188.08
675.649	8260.16
675.998	8277.34
676.346	8308.07
676.695	8282.54
677.044	8304.46
677.393	8252.25
677.741	8252.71
678.09	8250.9
678.438	8253.84
678.787	8208.41
679.135	8242.99
679.484	8160.05
679.832	8168.42
680.181	8130.45
680.529	8146.72
680.877	8142.88
681.225	8146.04
681.573	8138.13
681.922	8097
682.27	8035.76
682.618	8143.78
682.966	8094.52
683.314	8103.56
683.661	8079.6
684.009	7936.1
684.357	8013.84
684.705	7975.65
685.053	8001.19
685.4	7942.66
685.748	7943.79
686.095	7879.16
686.443	7835.99
686.79	7906.73
687.138	7833.06
687.485	7800.52
687.832	7758.71
688.18	7814.07
688.527	7741.31
688.874	7691.59
689.221	7704.92
689.568	7724.13
689.915	7644.36
690.262	7621.54
690.609	7626.06
690.956	7627.64
691.303	7632.16
691.65	7552.39
691.997	7515.32
692.344	7452.28
692.69	7470.81
693.037	7438.04
693.383	7429
693.73	7440.52
694.077	7367.76
694.423	7348.78
694.769	7323.47
695.116	7327.31
695.462	7293.86
695.808	7268.33
696.155	7243.02
696.501	7240.53
696.847	7187.2
697.193	7117.37
697.539	7168.22
697.885	7067.88
698.231	7116.92
698.577	7063.59
698.923	6995.11
699.269	6997.6
699.614	6999.63
699.96	6948.33
700.306	6962.12
700.651	6900.43
700.997	6898.39
701.342	6824.04
701.688	6845.51
702.033	6808.9
702.379	6754.44
702.724	6760.09
703.069	6800.77
703.415	6683.48
703.76	6673.77
704.105	6697.49
704.45	6703.14
704.795	6615.24
705.14	6619.3
705.485	6563.26
705.83	6550.6
706.175	6558.51
706.52	6485.07
706.865	6490.04
707.209	6482.58
707.554	6446.43
707.899	6408.91
708.243	6381.8
708.588	6367.78
708.932	6390.38
709.277	6352.87
709.621	6280.78
709.966	6302.02
710.31	6317.84
710.654	6257.73
710.998	6233.78
711.342	6287.56
711.687	6220.9
712.031	6252.08
712.375	6185.19
712.719	6191.29
713.063	6163.04
713.407	6174.57
713.75	6121.46
714.094	6103.61
714.438	6155.13
714.782	6181.35
715.125	6146.77
715.469	6085.76
715.812	6113.55
716.156	6045.31
716.499	6069.26
716.843	6010.05
717.186	6024.29
717.53	6042.82
717.873	6032.88
718.216	6090.5
718.559	6030.84
718.902	5951.3
719.246	5983.16
719.589	5955.14
719.932	5956.04
720.275	5924.41
720.617	5936.38
720.96	5924.41
721.303	5940.23
721.646	5941.58
721.989	5908.81
722.331	5954.24
722.674	5938.87
723.016	5935.25
723.359	5878.53
723.701	5927.12
724.044	5848.93
724.386	5835.14
724.729	5914.92
725.071	5888.25
725.413	5870.17
725.755	5855.26
726.097	5884.63
726.439	5842.15
726.782	5804.64
727.124	5839.44
727.465	5842.6
727.807	5866.78
728.149	5791.98
728.491	5861.81
728.833	5863.62
729.175	5844.86
729.516	5819.55
729.858	5793.56
730.199	5864.97
730.541	5807.35
730.882	5835.82
731.224	5790.4
731.565	5836.5
731.906	5807.57
732.248	5851.41
732.589	5803.05
732.93	5861.13
733.271	5845.09
733.612	5832.88
733.953	5875.37
734.294	5822.94
734.635	5841.02
734.976	5879.89
735.317	5857.97
735.658	5848.25
735.999	5862.49
736.339	5834.24
736.68	5829.27
737.021	5840.34
737.361	5837.4
737.702	5860.23
738.042	5862.71
738.383	5880.57
738.723	5879.89
739.063	5858.42
739.404	5951.52
739.744	5971.18
740.084	5907.01
740.424	5951.52
740.764	5998.3
741.104	5987
741.444	6004.4
741.784	5969.83
742.124	5994.24
742.464	6023.61
742.804	6094.8
743.143	6024.52
743.483	6045.99
743.823	6080.33
744.162	6107.23
744.502	6163.72
744.841	6183.16
745.181	6232.19
745.52	6267
745.86	6318.97
746.199	6392.19
746.538	6365.98
746.877	6413.66
747.216	6430.38
747.556	6514.67
747.895	6565.97
748.234	6575.01
748.573	6641.9
748.911	6726.87
749.25	6796.02
749.589	6797.83
749.928	6862.23
750.267	6991.5
750.605	7006.64
750.944	7040.31
751.283	7183.81
751.621	7203.24
751.96	7325.05
752.298	7374.31
752.636	7522.1
752.975	7563.69
753.313	7643.23
753.651	7794.87
753.989	7864.02
754.327	8006.61
754.666	8109.66
755.004	8233.72
755.342	8372.03
755.679	8530.67
756.017	8637.56
756.355	8798.23
756.693	8891.79
757.031	9047.71
757.368	9161.38
757.706	9326.8
758.044	9518.21
758.381	9750.52
758.719	9788.26
759.056	10014.47
759.394	10127.01
759.731	10265.54
760.068	10471.63
760.405	10620.55
760.743	10783.26
761.08	10982.8
761.417	11132.86
761.754	11332.85
762.091	11497.14
762.428	11698.94
762.765	11778.72
763.102	12139.84
763.438	12264.13
763.775	12369.21
764.112	12670.22
764.449	12779.82
764.785	12992.24
765.122	13061.39
765.458	13161.05
765.795	13328.51
