Data from hue_320_FLMS001491_42.txt Node
Date: Mon Feb 06 15:47:14 GMT 2017
User: dcchb
Spectrometer: FLMS00149
Trigger mode: 0
Integration Time (sec): 2.000000E-2
Scans to average: 10
Electric dark correction enabled: true
Nonlinearity correction enabled: false
Boxcar width: 0
XAxis mode: Wavelengths
Number of Pixels in Spectrum: 2048
>>>>>Begin Spectral Data<<<<<
341.393	-8.59
341.776	-8.59
342.16	-8.59
342.543	-63.28
342.927	-71.64
343.31	-63.73
343.693	-45.2
344.077	-82.26
344.46	-56.04
344.843	-43.61
345.226	-49.94
345.61	-35.71
345.993	-7.91
346.376	-8.59
346.759	-7.01
347.142	31.19
347.525	29.83
347.908	50.62
348.291	85.2
348.674	87.68
349.057	115.48
349.44	127.45
349.823	150.73
350.206	171.75
350.588	204.51
350.971	218.53
351.354	229.6
351.737	245.42
352.119	263.27
352.502	272.08
352.884	268.24
353.267	261.69
353.65	288.81
354.032	289.94
354.414	287.22
354.797	280.67
355.179	325.87
355.562	315.47
355.944	314.34
356.326	319.09
356.709	330.84
357.091	326.55
357.473	331.29
357.855	351.18
358.238	330.84
358.62	340.78
359.002	350.27
359.384	355.92
359.766	319.31
360.148	340.78
360.53	347.79
360.912	320.22
361.294	323.61
361.676	348.01
362.057	333.32
362.439	327.45
362.821	328.58
363.203	326.09
363.584	339.43
363.966	332.65
364.348	319.09
364.729	314.34
365.111	317.96
365.493	323.83
365.874	296.72
366.256	307.11
366.637	334.91
367.019	308.47
367.4	306.21
367.781	308.24
368.163	309.6
368.544	312.53
368.925	293.1
369.306	312.53
369.688	304.85
370.069	309.14
370.45	298.07
370.831	324.06
371.212	301.24
371.593	310.73
371.974	291.97
372.355	331.97
372.736	302.82
373.117	321.35
373.498	293.33
373.879	317.28
374.26	302.14
374.641	318.86
375.021	318.18
375.402	313.44
375.783	323.38
376.163	322.48
376.544	341.69
376.925	325.64
377.305	318.18
377.686	311.86
378.066	341.01
378.447	321.35
378.827	339.2
379.208	337.17
379.588	329.03
379.968	337.39
380.349	303.95
380.729	318.86
381.109	323.61
381.489	305.75
381.87	321.35
382.25	336.49
382.63	344.4
383.01	324.51
383.39	334.23
383.77	335.13
384.15	338.3
384.53	335.81
384.91	335.36
385.29	343.27
385.67	343.04
386.049	306.66
386.429	332.42
386.809	356.83
387.189	330.39
387.568	341.23
387.948	340.1
388.328	350.95
388.707	349.37
389.087	322.25
389.466	329.48
389.846	363.15
390.225	355.7
390.605	353.44
390.984	344.4
391.363	363.15
391.743	353.21
392.122	344.4
392.501	355.7
392.881	354.79
393.26	374.68
393.639	373.55
394.018	359.09
394.397	371.06
394.776	359.09
395.155	374.23
395.534	357.05
395.913	361.12
396.292	375.36
396.671	372.42
397.05	379.88
397.429	365.64
397.808	376.49
398.186	376.94
398.565	383.49
398.944	382.14
399.323	403.15
399.701	403.15
400.08	404.51
400.458	411.06
400.837	397.28
401.215	390.5
401.594	401.57
401.972	392.76
402.351	362.48
402.729	402.48
403.107	397.05
403.486	399.54
403.864	394.79
404.242	414.45
404.62	416.26
404.999	418.75
405.377	408.12
405.755	415.36
406.133	453.55
406.511	447.9
406.889	423.04
407.267	437.5
407.645	439.08
408.023	423.49
408.401	436.6
408.779	423.04
409.156	431.85
409.534	438.18
409.912	471.17
410.29	459.42
410.667	458.07
411.045	480.67
411.422	478.63
411.8	481.12
412.178	493.32
412.555	486.31
412.933	503.72
413.31	500.1
413.687	512.3
414.065	524.51
414.442	521.79
414.819	530.83
415.197	528.57
415.574	539.65
415.951	537.39
416.328	536.26
416.705	547.56
417.082	549.14
417.46	557.73
417.837	593.43
418.214	565.86
418.591	600.44
418.967	599.98
419.344	593.2
419.721	592.98
420.098	599.98
420.475	606.76
420.852	625.29
421.228	623.03
421.605	620.77
421.982	632.3
422.358	645.18
422.735	651.51
423.111	658.29
423.488	678.63
423.864	668.46
424.241	679.3
424.617	677.27
424.994	672.98
425.37	707.55
425.746	683.82
426.123	691.51
426.499	709.36
426.875	719.53
427.251	729.92
427.627	752.07
428.003	739.42
428.379	737.38
428.756	752.3
429.132	767.89
429.507	763.14
429.883	781.67
430.259	783.71
430.635	811.96
431.011	799.3
431.387	812.63
431.763	819.64
432.138	804.95
432.514	854.67
432.89	849.02
433.265	854.89
433.641	835.23
434.016	868.68
434.392	892.41
434.767	914.1
435.143	892.86
435.518	899.19
435.894	908.9
436.269	929.92
436.644	937.83
437.02	929.24
437.395	943.03
437.77	956.59
438.145	949.81
438.52	973.76
438.895	987.77
439.271	972.4
439.646	994.1
440.021	970.6
440.395	976.7
440.77	984.61
441.145	1004.04
441.52	1032.74
441.895	991.84
442.27	1008.34
442.645	1023.02
443.019	1037.71
443.394	1046.75
443.769	1042.91
444.143	1039.52
444.518	1052.85
444.892	1065.73
445.267	1050.59
445.641	1070.93
446.016	1096.47
446.39	1056.7
446.764	1079.97
447.139	1083.59
447.513	1062.34
447.887	1092.17
448.262	1079.52
448.636	1100.54
449.01	1075.9
449.384	1099.41
449.758	1105.73
450.132	1119.74
450.506	1100.54
450.88	1143.92
451.254	1143.92
451.628	1126.07
452.002	1134.66
452.376	1140.08
452.75	1155.22
453.123	1150.7
453.497	1173.75
453.871	1187.09
454.244	1216.92
454.618	1217.6
454.992	1204.71
455.365	1218.5
455.739	1231.15
456.112	1221.89
456.486	1211.04
456.859	1224.37
457.232	1244.04
457.606	1226.41
457.979	1232.06
458.352	1266.18
458.725	1268.22
459.099	1284.49
459.472	1297.59
459.845	1299.4
460.218	1303.02
460.591	1318.38
460.964	1345.05
461.337	1354.09
461.71	1354.54
462.083	1406.06
462.456	1363.13
462.829	1368.78
463.201	1406.29
463.574	1408.32
463.947	1404.48
464.32	1432.5
464.692	1436.8
465.065	1444.26
465.438	1463.24
465.81	1470.92
466.183	1489.45
466.555	1498.49
466.928	1483.8
467.3	1528.77
467.672	1508.21
468.045	1549.11
468.417	1582.11
468.789	1545.95
469.161	1571.26
469.534	1612.84
469.906	1577.13
470.278	1622.78
470.65	1627.75
471.022	1625.27
471.394	1674.08
471.766	1667.07
472.138	1691.03
472.51	1716.34
472.882	1734.87
473.253	1771.93
473.625	1729.45
473.997	1804.25
474.369	1785.94
474.74	1822.55
475.112	1814.19
475.484	1866.84
475.855	1865.71
476.227	1884.24
476.598	1901.19
476.97	1904.58
477.341	1951.36
477.713	2010.57
478.084	1972.6
478.455	2042.66
478.827	2067.97
479.198	2045.6
479.569	2053.73
479.94	2091.92
480.311	2126.95
480.682	2149.55
481.053	2169.66
481.424	2229.77
481.795	2217.57
482.166	2264.35
482.537	2291.69
482.908	2288.08
483.279	2346.38
483.65	2348.19
484.021	2402.65
484.391	2384.8
484.762	2422.31
485.133	2437.68
485.503	2450.56
485.874	2474.74
486.244	2490.78
486.615	2540.72
486.985	2566.03
487.356	2563.1
487.726	2594.28
488.097	2642.42
488.467	2630.21
488.837	2683.09
489.207	2718.35
489.578	2752.92
489.948	2770.55
490.318	2774.62
490.688	2775.29
491.058	2847.16
491.428	2847.38
491.798	2868.85
492.168	2939.13
492.538	2933.03
492.908	2975.97
493.278	2973.93
493.648	3023.65
494.017	2996.31
494.387	3033.59
494.757	3045.34
495.126	3085.79
495.496	3048.28
495.866	3089.64
496.235	3086.7
496.605	3147.04
496.974	3169.63
497.344	3187.03
497.713	3194.94
498.082	3194.94
498.452	3215.28
498.821	3261.38
499.19	3242.85
499.559	3251.67
499.928	3307.26
500.298	3292.57
500.667	3275.85
501.036	3300.48
501.405	3304.09
501.774	3362.62
502.143	3337.09
502.512	3333.02
502.88	3383.19
503.249	3360.14
503.618	3390.19
503.987	3427.93
504.356	3455.95
504.724	3442.17
505.093	3427.03
505.462	3436.52
505.83	3456.86
506.199	3497.54
506.567	3502.28
506.936	3524.65
507.304	3537.31
507.672	3523.98
508.041	3564.2
508.409	3591.09
508.777	3599
509.145	3590.64
509.514	3616.18
509.882	3623.63
510.25	3604.2
510.618	3636.74
510.986	3663.63
511.354	3632.67
511.722	3655.5
512.09	3675.61
512.458	3671.99
512.826	3700.02
513.193	3705.89
513.561	3691.88
513.929	3713.8
514.297	3788.15
514.664	3738.66
515.032	3723.52
515.4	3774.14
515.767	3770.07
516.135	3807.36
516.502	3768.71
516.869	3803.06
517.237	3821.82
517.604	3817.75
517.972	3813.69
518.339	3823.85
518.706	3783.4
519.073	3809.62
519.44	3828.83
519.808	3874.7
520.175	3834.93
520.542	3922.38
520.909	3938.88
521.276	3910.63
521.643	3881.25
522.009	3930.29
522.376	3966.22
522.743	3928.48
523.11	3969.16
523.477	4032.21
523.843	4002.15
524.21	4010.29
524.577	4104.07
524.943	4053.45
525.31	4074.7
525.676	4098.42
526.043	4104.75
526.409	4134.13
526.776	4171.42
527.142	4174.58
527.508	4148.37
527.874	4224.3
528.241	4245.99
528.607	4221.58
528.973	4254.58
529.339	4244.41
529.705	4303.39
530.071	4391.97
530.437	4340.45
530.803	4363.73
531.169	4406.89
531.535	4396.49
531.901	4405.99
532.267	4409.6
532.632	4428.58
532.998	4485.31
533.364	4458.19
533.73	4473.1
534.095	4500.67
534.461	4580.67
534.826	4555.36
535.192	4558.98
535.557	4591.52
535.923	4591.29
536.288	4612.08
536.653	4693.44
537.019	4661.8
537.384	4657.05
537.749	4705.64
538.114	4692.53
538.479	4660.67
538.845	4740.67
539.21	4698.86
539.575	4734.11
539.94	4761
540.305	4836.26
540.67	4797.39
541.034	4803.49
541.399	4903.37
541.764	4899.76
542.129	4930.27
542.494	4908.57
542.858	4937.95
543.223	4956.93
543.587	4944.28
543.952	4971.17
544.316	5055.69
544.681	4997.83
545.045	5058.62
545.41	5128.9
545.774	5115.12
546.138	5125.06
546.503	5158.06
546.867	5151.5
547.231	5178.85
547.595	5188.56
547.959	5217.72
548.324	5216.36
548.688	5182.01
549.052	5274.66
549.416	5288
549.779	5302.01
550.143	5299.75
550.507	5359.86
550.871	5375.23
551.235	5374.55
551.599	5407.99
551.962	5423.59
552.326	5405.96
552.689	5478.27
553.053	5433.08
553.417	5445.05
553.78	5513.53
554.143	5463.13
554.507	5514.43
554.87	5510.82
555.234	5533.19
555.597	5523.47
555.96	5603.92
556.323	5558.5
556.686	5581.77
557.05	5613.64
557.413	5653.64
557.776	5660.87
558.139	5654.09
558.502	5696.8
558.865	5720.3
559.228	5732.73
559.59	5708.78
559.953	5713.52
560.316	5782.9
560.679	5761.66
561.041	5846.85
561.404	5851.15
561.767	5833.74
562.129	5841.2
562.492	5888.21
562.854	5924.59
563.217	5896.57
563.579	5935.44
563.941	5958.04
564.304	6006.85
564.666	6010.01
565.028	6041.42
565.39	5960.07
565.753	6042.1
566.115	6078.03
566.477	6094.76
566.839	6096.56
567.201	6128.88
567.563	6143.57
567.925	6162.32
568.287	6138.82
568.648	6169.56
569.01	6248.2
569.372	6293.85
569.734	6224.92
570.095	6211.81
570.457	6322.32
570.819	6376.56
571.18	6285.03
571.542	6415.2
571.903	6479.6
572.265	6476.44
572.626	6443.45
572.987	6533.16
573.349	6589.21
573.71	6620.62
574.071	6668.07
574.432	6731.8
574.794	6753.27
575.155	6916.88
575.516	6762.08
575.877	6896.99
576.238	6958.69
576.599	7085.46
576.96	7106.93
577.32	7115.52
577.681	7234.61
578.042	7301.95
578.403	7280.94
578.763	7389.18
579.124	7525.9
579.485	7603.42
579.845	7702.17
580.206	7824.43
580.566	7907.59
580.927	8066.68
581.287	8184.64
581.648	8241.37
582.008	8372.66
582.368	8484.75
582.728	8626.67
583.089	8788.47
583.449	8928.35
583.809	9095.13
584.169	9259.87
584.529	9389.13
584.889	9610.59
585.249	9750.48
585.609	9864.37
585.969	10149.79
586.329	10329.45
586.688	10515.2
587.048	10779.38
587.408	10943.89
587.768	11115.64
588.127	11381.4
588.487	11650.99
588.846	11920.14
589.206	12136.4
589.565	12288.49
589.925	12650.74
590.284	12860.9
590.643	13047.34
591.003	13368.91
591.362	13683.71
591.721	13883.48
592.08	14219.51
592.44	14488.66
592.799	14763.91
593.158	15012.49
593.517	15310.33
593.876	15594.84
594.235	15875.97
594.593	16242.51
594.952	16539
595.311	16741.71
595.67	17002.04
596.029	17400.45
596.387	17652.87
596.746	18041.79
597.104	18261.67
597.463	18474.09
597.822	18808.54
598.18	18992.72
598.538	19349.77
598.897	19709.09
599.255	19928.52
599.613	20481.5
599.972	20537.54
600.33	20948.83
600.688	21140.91
601.046	21589.49
601.404	21854.57
601.762	22072.19
602.12	22534.55
602.478	22737.48
602.836	22897.25
603.194	23142.89
603.552	23356.67
603.91	23638.47
604.268	23926.38
604.625	24112.81
604.983	24489.75
605.341	24626.92
605.698	24995.5
606.056	25290.18
606.413	25451.99
606.771	25794.12
607.128	26013.78
607.485	26084.06
607.843	26450.6
608.2	26718.39
608.557	27058.5
608.914	27117.48
609.272	27524.02
609.629	27674.75
609.986	28036.55
610.343	27971.69
610.7	28418.24
611.057	28643.99
611.414	28827.94
611.771	28888.51
612.127	29295.05
612.484	29349.06
612.841	29654.36
613.198	29680.35
613.554	29909.5
613.911	30201.47
614.267	30272.2
614.624	30498.86
614.98	30633.54
615.337	30922.58
615.693	31079.86
616.05	31141.1
616.406	31572.28
616.762	31440.98
617.118	31720.75
617.475	31811.14
617.831	32023.56
618.187	32123.9
618.543	32237.57
618.899	32541.29
619.255	32684.79
619.611	32779.25
619.967	32856.09
620.323	33124.33
620.678	33019.7
621.034	33100.6
621.39	33315.06
621.746	33262.4
622.101	33708.94
622.457	33485
622.812	33708.27
623.168	33830.75
623.523	34028.48
623.879	34210.4
624.234	34056.51
624.589	34195.49
624.945	34259.44
625.3	34372.88
625.655	34421.92
626.01	34623.95
626.365	34629.15
626.72	34695.58
627.075	34704.4
627.43	34785.98
627.785	34865.07
628.14	34938.74
628.495	35038.85
628.85	34967.89
629.205	34869.37
629.559	35078.17
629.914	35015.8
630.269	35232.75
630.623	35043.6
630.978	35185.06
631.332	35224.84
631.687	35429.35
632.041	35245.63
632.396	35434.1
632.75	35270.94
633.104	35513.87
633.459	35319.52
633.813	35217.15
634.167	35339.41
634.521	35386.64
634.875	35570.36
635.229	35548.22
635.583	35305.96
635.937	35529.46
636.291	35500.99
636.645	35496.92
636.999	35442.68
637.352	35531.95
637.706	35373.76
638.06	35495.79
638.413	35423.7
638.767	35468.45
639.121	35522.23
639.474	35224.84
639.828	35473.64
640.181	35507.09
640.534	35511.38
640.888	35428.67
641.241	35274.55
641.594	35361.56
641.947	35532.4
642.301	35321.11
642.654	35361.78
643.007	35471.38
643.36	35382.12
643.713	35303.48
644.066	35505.51
644.419	35310.26
644.771	34978.29
645.124	34800.44
645.477	34727.67
645.83	34432.09
646.182	34465.08
646.535	34449.72
646.888	34496.27
647.24	34262.83
647.593	34486.32
647.945	34341.24
648.298	34308.02
648.65	34187.58
649.002	34002.72
649.355	34285.2
649.707	34268.93
650.059	34274.58
650.411	34828.91
650.763	34776.71
651.115	35184.84
651.467	35002.24
651.819	35053.09
652.171	35077.27
652.523	34983.49
652.875	35081.34
653.227	34815.58
653.578	35080.66
653.93	34909.59
654.282	34844.51
654.633	34805.64
654.985	34856.03
655.337	34886.09
655.688	34866.2
656.039	34978.29
656.391	34732.87
656.742	34758.18
657.094	34765.19
657.445	34848.12
657.796	34722.25
658.147	34660.11
658.498	34653.1
658.849	34839.99
659.2	34752.53
659.551	34526.1
659.902	34684.51
660.253	34692.87
660.604	34802.7
660.955	34544.85
661.306	34743.72
661.656	34614.91
662.007	34743.72
662.358	34680.22
662.708	34699.65
663.059	34588.24
663.409	34509.15
663.76	34747.56
664.11	34614.01
664.461	34685.87
664.811	34708.69
665.161	34673.66
665.511	34507.12
665.862	34628.24
666.212	34714.57
666.562	34721.8
666.912	34624.17
667.262	34612.2
667.612	34595.02
667.962	34608.13
668.312	34554.35
668.662	34757.28
669.011	34707.34
669.361	34514.35
669.711	34504.18
670.06	34619.2
670.41	34437.06
670.76	34426.44
671.109	34540.11
671.459	34486.55
671.808	34363.62
672.157	34406.1
672.507	34298.53
672.856	34259.66
673.205	34305.99
673.554	34454.46
673.904	34309.15
674.253	34523.61
674.602	34331.53
674.951	33863.06
675.3	33818.77
675.649	34329.94
675.998	34200.46
676.346	34133.11
676.695	34352.09
677.044	34054.7
677.393	34144.86
677.741	34163.85
678.09	34160.68
678.438	34103.74
678.787	34097.41
679.135	34028.94
679.484	33940.12
679.832	34133.34
680.181	33786.46
680.529	33915.27
680.877	33793.46
681.225	33768.83
681.573	33958.88
681.922	33712.56
682.27	33709.17
682.618	33773.8
682.966	33529.97
683.314	33703.52
683.661	33532.23
684.009	33498.33
684.357	33343.08
684.705	33352.8
685.053	33392.79
685.4	33289.07
685.748	33283.64
686.095	33130.65
686.443	32973.37
686.79	33024.22
687.138	33138.34
687.485	33012.01
687.832	32960.04
688.18	32955.29
688.527	32742.42
688.874	32732.47
689.221	32765.24
689.568	32655.19
689.915	32616.77
690.262	32602.53
690.609	32605.02
690.956	32315.08
691.303	32363.44
691.65	32189.66
691.997	32166.84
692.344	31955.09
692.69	32013.62
693.037	32055.65
693.383	31717.81
693.73	31972.27
694.077	31622.22
694.423	31625.16
694.769	31555.55
695.116	31573.86
695.462	31445.73
695.808	31351.27
696.155	31445.05
696.501	31142.23
696.847	31158.05
697.193	30801.68
697.539	31009.58
697.885	30781.79
698.231	30756.48
698.577	30874.67
698.923	30732.98
699.269	30571.17
699.614	30348.81
699.96	30307
700.306	30450.27
700.651	30276.04
700.997	30250.73
701.342	30041.24
701.688	30078.98
702.033	30066.78
702.379	29945.65
702.724	29902.72
703.069	29894.58
703.415	29654.14
703.76	29566
704.105	29665.66
704.45	29569.39
704.795	29370.98
705.14	29267.48
705.485	29239.46
705.83	29175.96
706.175	29111.55
706.52	29022.29
706.865	29029.07
707.209	29060.93
707.554	28879.69
707.899	28996.3
708.243	28874.95
708.588	28687.61
708.932	28515.63
709.277	28613.26
709.621	28504.79
709.966	28373.94
710.31	28393.15
710.654	28366.03
710.998	28285.13
711.342	28181.63
711.687	28165.59
712.031	28124.46
712.375	27825.71
712.719	28071.35
713.063	27875.2
713.407	27959.04
713.75	27804.24
714.094	27837.01
714.438	27796.56
714.782	27769.89
715.125	27572.16
715.469	27656.22
715.812	27385.04
716.156	27432.73
716.499	27311.37
716.843	27393.86
717.186	27272.5
717.53	27385.04
717.873	27335.55
718.216	27180.53
718.559	27141.43
718.902	26961.78
719.246	26934.89
719.589	26912.74
719.932	26795.68
720.275	26857.6
720.617	26708.45
720.96	26724.5
721.303	26660.77
721.646	26764.49
721.989	26490.6
722.331	26683.37
722.674	26438.4
723.016	26571.5
723.359	26408.35
723.701	26425.97
724.044	26305.97
724.386	26183.72
724.729	26228.91
725.071	26280.21
725.413	26219.2
725.755	26227.56
726.097	26152.31
726.439	25967
726.782	25993.89
727.124	26038.41
727.465	25884.97
727.807	25856.27
728.149	25790.28
728.491	25829.83
728.833	25920.67
729.175	25777.63
729.516	25730.85
729.858	25637.97
730.199	25692.88
730.541	25567.01
730.882	25596.62
731.224	25646.78
731.565	25632.77
731.906	25489.73
732.248	25488.37
732.589	25369.5
732.93	25330.41
733.271	25355.04
733.612	25252.9
733.953	25324.76
734.294	25201.82
734.635	25137.19
734.976	25201.6
735.317	25107.59
735.658	25027.82
735.999	25063.97
736.339	24961.6
736.68	25109.62
737.021	24843.87
737.361	24883.87
737.702	24877.09
738.042	24836.41
738.383	24758.22
738.723	24880.02
739.063	24770.87
739.404	24808.39
739.744	24635.74
740.084	24573.37
740.424	24623.53
740.764	24501.73
741.104	24578.11
741.444	24473.03
741.784	24465.57
742.124	24424.44
742.464	24347.38
742.804	24377.66
743.143	24234.62
743.483	24221.28
743.823	24237.78
744.162	24155.98
744.502	24229.65
744.841	24077.33
745.181	24154.39
745.52	23976.32
745.86	24040.27
746.199	24064.9
746.538	23971.12
746.877	24049.76
747.216	24024.68
747.556	23858.58
747.895	23870.33
748.234	23807.28
748.573	23738.58
748.911	23737
749.25	23699.49
749.589	23610
749.928	23731.13
750.267	23653.16
750.605	23570.23
750.944	23460.85
751.283	23426.73
751.621	23442.32
751.96	23307.86
752.298	23368.65
752.636	23302.44
752.975	23196.68
753.313	23135.44
753.651	23172.95
753.989	23037.59
754.327	23039.17
754.666	22927.08
755.004	22863.35
755.342	22956.46
755.679	22878.72
756.017	22749.68
756.355	22796.46
756.693	22710.82
757.031	22785.39
757.368	22536.13
757.706	22623.59
758.044	22543.81
758.381	22517.15
758.719	22364.84
759.056	22393.31
759.394	22213.65
759.731	22135.46
760.068	22163.94
760.405	22175.46
