Data from hue_170_FLMS001491_00094.txt Node
Date: Tue Feb 07 16:49:31 GMT 2017
User: dcchb
Spectrometer: FLMS00149
Trigger mode: 0
Integration Time (sec): 2.000000E-2
Scans to average: 10
Electric dark correction enabled: true
Nonlinearity correction enabled: false
Boxcar width: 0
XAxis mode: Wavelengths
Number of Pixels in Spectrum: 2048
>>>>>Begin Spectral Data<<<<<
341.393	-18.77
341.776	-18.77
342.16	-18.77
342.543	-64.19
342.927	-63.52
343.31	-71.2
343.693	-44.76
344.077	-72.78
344.46	-54.93
344.843	-49.05
345.226	-46.11
345.61	-16.96
345.993	-44.53
346.376	-2.73
346.759	15.35
347.142	30.49
347.525	35.24
347.908	53.77
348.291	74.33
348.674	84.5
349.057	109.36
349.44	133.77
349.823	155.24
350.206	173.09
350.588	202.92
350.971	206.99
351.354	224.61
351.737	239.08
352.119	246.08
352.502	280.2
352.884	276.36
353.267	272.52
353.65	287.66
354.032	286.76
354.414	312.97
354.797	315.23
355.179	334.89
355.562	304.38
355.944	336.47
356.326	333.76
356.709	343.25
357.091	336.93
357.473	339.19
357.855	357.49
358.238	343.93
358.62	341.45
359.002	326.53
359.384	319.98
359.766	333.76
360.148	320.2
360.53	334.44
360.912	334.21
361.294	322.24
361.676	319.07
362.057	343.48
362.439	308
362.821	314.1
363.203	328.34
363.584	300.09
363.966	325.63
364.348	321.56
364.729	324.5
365.111	318.85
365.493	322.01
365.874	327.89
366.256	287.44
366.637	300.54
367.019	316.59
367.4	303.71
367.781	303.93
368.163	303.93
368.544	314.33
368.925	309.36
369.306	322.92
369.688	296.02
370.069	302.12
370.45	308.68
370.831	310.94
371.212	311.62
371.593	300.54
371.974	323.59
372.355	295.57
372.736	296.25
373.117	333.31
373.498	310.71
373.879	304.38
374.26	325.4
374.641	303.25
375.021	308.23
375.402	314.33
375.783	317.04
376.163	333.54
376.544	343.71
376.925	324.05
377.305	322.46
377.686	311.62
378.066	329.02
378.447	318.4
378.827	325.85
379.208	339.19
379.588	331.05
379.968	317.94
380.349	340.09
380.729	321.79
381.109	335.34
381.489	329.92
381.87	344.84
382.25	324.27
382.63	331.73
383.01	342.58
383.39	316.81
383.77	325.4
384.15	346.64
384.53	346.42
384.91	329.69
385.29	348.45
385.67	342.58
386.049	343.71
386.429	364.5
386.809	358.17
387.189	329.92
387.568	350.71
387.948	343.71
388.328	331.28
388.707	355.46
389.087	356.13
389.466	347.1
389.846	364.27
390.225	345.51
390.605	364.27
390.984	378.51
391.363	344.61
391.743	368.34
392.122	376.7
392.501	379.41
392.881	380.09
393.26	364.27
393.639	368.56
394.018	370.6
394.397	359.98
394.776	354.33
395.155	344.84
395.534	352.97
395.913	361.11
396.292	369.47
396.671	379.41
397.05	380.54
397.429	395
397.808	375.8
398.186	382.8
398.565	390.03
398.944	393.42
399.323	401.78
399.701	391.16
400.08	380.77
400.458	397.04
400.837	397.49
401.215	409.69
401.594	402.69
401.972	400.2
402.351	386.64
402.729	397.72
403.107	413.99
403.486	420.54
403.864	414.44
404.242	420.99
404.62	423.93
404.999	407.21
405.377	421.9
405.755	413.08
406.133	423.7
406.511	418.73
406.889	441.78
407.267	432.74
407.645	447.66
408.023	446.98
408.401	432.29
408.779	450.14
409.156	436.36
409.534	428.22
409.912	454.21
410.29	455.34
410.667	470.71
411.045	474.32
411.422	481.33
411.8	472.52
412.178	490.59
412.555	511.16
412.933	486.3
413.31	512.74
413.687	503.25
414.065	509.13
414.442	507.54
414.819	519.52
415.197	521.55
415.574	524.04
415.951	527.2
416.328	559.52
416.705	525.85
417.082	539.63
417.46	550.93
417.837	565.17
418.214	577.37
418.591	569.24
418.967	569.24
419.344	595.22
419.721	591.16
420.098	570.59
420.475	612.17
420.852	582.8
421.228	616.92
421.605	615.79
421.982	602.46
422.358	630.93
422.735	630.93
423.111	646.07
423.488	625.51
423.864	660.76
424.241	657.37
424.617	659.18
424.994	660.99
425.37	662.12
425.746	692.17
426.123	696.69
426.499	686.97
426.875	696.46
427.251	698.95
427.627	717.71
428.003	726.29
428.379	745.95
428.756	743.47
429.132	773.3
429.507	730.36
429.883	751.83
430.259	778.72
430.635	754.99
431.011	749.8
431.387	820.3
431.763	805.16
432.138	806.97
432.514	790.25
432.89	823.92
433.265	817.59
433.641	864.14
434.016	844.03
434.392	872.96
434.767	861.66
435.143	872.28
435.518	884.26
435.894	910.92
436.269	923.58
436.644	935.33
437.02	976.46
437.395	938.94
437.77	968.55
438.145	999.28
438.52	992.28
438.895	1004.25
439.271	1032.28
439.646	1017.59
440.021	1049.68
440.395	1022.78
440.77	1024.59
441.145	1055.33
441.52	1062.1
441.895	1048.09
442.27	1088.77
442.645	1093.74
443.019	1077.47
443.394	1092.39
443.769	1109.34
444.143	1110.69
444.518	1133.97
444.892	1147.75
445.267	1147.3
445.641	1158.6
446.016	1162.89
446.39	1181.42
446.764	1177.58
447.139	1178.49
447.513	1181.65
447.887	1209.67
448.262	1211.71
448.636	1222.33
449.01	1205.83
449.384	1242.89
449.758	1256.68
450.132	1254.42
450.506	1245.38
450.88	1294.64
451.254	1256.68
451.628	1328.09
452.002	1323.34
452.376	1353.17
452.75	1353.4
453.123	1355.2
453.497	1361.08
453.871	1376.22
454.244	1408.76
454.618	1408.31
454.992	1437.01
455.365	1444.92
455.739	1497.35
456.112	1500.74
456.486	1510.91
456.859	1525.14
457.232	1529.89
457.606	1527.4
457.979	1557.69
458.352	1616.21
458.725	1627.51
459.099	1636.33
459.472	1668.42
459.845	1699.15
460.218	1691.24
460.591	1690.34
460.964	1695.53
461.337	1760.84
461.71	1778.02
462.083	1798.36
462.456	1840.84
462.829	1820.05
463.201	1881.07
463.574	1927.84
463.947	1893.5
464.32	1961.29
464.692	1959.03
465.065	1999.03
465.438	2022.98
465.81	2065.92
466.183	2090.55
466.555	2139.36
466.928	2160.38
467.3	2188.18
467.672	2194.28
468.045	2278.8
468.417	2288.29
468.789	2294.16
469.161	2337.33
469.534	2382.07
469.906	2420.49
470.278	2489.41
470.65	2496.42
471.022	2572.35
471.394	2630.2
471.766	2637.66
472.138	2681.95
472.51	2766.47
472.882	2828.61
473.253	2828.84
473.625	2906.58
473.997	2962.17
474.369	3015.05
474.74	3051.21
475.112	3124.65
475.484	3226.34
475.855	3286.68
476.227	3319.9
476.598	3395.6
476.97	3474.02
477.341	3591.76
477.713	3613
478.084	3721.02
478.455	3776.61
478.827	3882.6
479.198	3955.81
479.569	4028.81
479.94	4169.82
480.311	4213.21
480.682	4318.52
481.053	4456.82
481.424	4524.39
481.795	4655.91
482.166	4712.18
482.537	4827.66
482.908	4980.42
483.279	5053.41
483.65	5192.62
484.021	5257.47
484.391	5385.83
484.762	5476.9
485.133	5560.52
485.503	5672.61
485.874	5866.72
486.244	5915.31
486.615	6108.98
486.985	6208.64
487.356	6315.75
487.726	6443.88
488.097	6576.08
488.467	6615.86
488.837	6795.97
489.207	6923.87
489.578	7137.43
489.948	7185.79
490.318	7296.74
490.688	7354.59
491.058	7543.06
491.428	7672.78
491.798	7821.7
492.168	7972.43
492.538	8129.49
492.908	8132.43
493.278	8295.36
493.648	8375.36
494.017	8536.71
494.387	8576.26
494.757	8683.6
495.126	8864.84
495.496	8929.69
495.866	9005.62
496.235	9145.28
496.605	9206.3
496.974	9310.25
497.344	9437.93
497.713	9468.44
498.082	9535.1
498.452	9725.15
498.821	9724.93
499.19	9825.72
499.559	9880.63
499.928	9980.29
500.298	10051.47
500.667	10183.22
501.036	10176.89
501.405	10307.51
501.774	10294.63
502.143	10427.28
502.512	10452.14
502.88	10570.33
503.249	10624.11
503.618	10710.44
503.987	10693.94
504.356	10780.27
504.724	10816.2
505.093	10951.34
505.462	10895.52
505.83	11054.38
506.199	11089.41
506.567	11191.1
506.936	11150.43
507.304	11273.59
507.672	11313.81
508.041	11335.96
508.409	11431.1
508.777	11478.1
509.145	11566.01
509.514	11550.42
509.882	11646.23
510.25	11650.98
510.618	11685.33
510.986	11751.77
511.354	11794.93
511.722	11853.23
512.09	11963.97
512.458	11939.11
512.826	11988.15
513.193	12020.91
513.561	11992.66
513.929	12104.3
514.297	12222.04
514.664	12213.68
515.032	12203.05
515.4	12290.28
515.767	12346.33
516.135	12307.01
516.502	12238.31
516.869	12410.06
517.237	12399.89
517.604	12296.39
517.972	12484.86
518.339	12411.18
518.706	12470.62
519.073	12465.19
519.44	12537.51
519.808	12572.31
520.175	12496.38
520.542	12626.32
520.909	12717.39
521.276	12687.79
521.643	12703.83
522.009	12786.32
522.376	12750.61
522.743	12892.53
523.11	12833.55
523.477	12925.97
523.843	12989.93
524.21	12938.18
524.577	12998.29
524.943	13025.86
525.31	13031.96
525.676	13070.38
526.043	13135.46
526.409	13101.79
526.776	13217.27
527.142	13172.07
527.508	13246.64
527.874	13221.56
528.241	13254.55
528.607	13207.32
528.973	13196.25
529.339	13244.84
529.705	13306.3
530.071	13196.02
530.437	13269.92
530.803	13213.65
531.169	13260.2
531.535	13183.59
531.901	13186.98
532.267	13198.28
532.632	13186.76
532.998	13173.42
533.364	13233.08
533.73	13163.93
534.095	13181.11
534.461	13222.24
534.826	13128.45
535.192	13101.79
535.557	13215.91
535.923	13139.98
536.288	13079.87
536.653	13002.81
537.019	12953.09
537.384	13020.21
537.749	12948.57
538.114	12928.91
538.479	12888.23
538.845	12799.42
539.21	12761.46
539.575	12777.28
539.94	12730.27
540.305	12805.3
540.67	12672.42
541.034	12615.47
541.399	12729.37
541.764	12622.03
542.129	12635.36
542.494	12564.85
542.858	12553.33
543.223	12479.21
543.587	12500.67
543.952	12429.04
544.316	12443.05
544.681	12384.29
545.045	12306.55
545.41	12331.64
545.774	12227.69
546.138	12184.52
546.503	12146.33
546.867	12071.76
547.231	12232.88
547.595	12134.36
547.959	12069.95
548.324	11971.87
548.688	11986.34
549.052	11923.06
549.416	11969.16
549.779	11904.76
550.143	11847.58
550.507	11855.72
550.871	11831.77
551.235	11770.52
551.599	11775.27
551.962	11612.56
552.326	11643.75
552.689	11619.12
553.053	11632.9
553.417	11573.92
553.78	11625.44
554.143	11588.16
554.507	11492.79
554.87	11533.92
555.234	11551.55
555.597	11474.94
555.96	11524.43
556.323	11498.89
556.686	11426.13
557.05	11434.94
557.413	11415.05
557.776	11401.27
558.139	11364.43
558.502	11321.5
558.865	11327.6
559.228	11363.75
559.59	11392.91
559.953	11288.5
560.316	11299.12
560.679	11362.85
561.041	11283.98
561.404	11302.29
561.767	11237.88
562.129	11287.6
562.492	11333.47
562.854	11305.9
563.217	11269.52
563.579	11327.6
563.941	11335.51
564.304	11363.3
564.666	11349.07
565.028	11307.03
565.39	11362.4
565.753	11323.76
566.115	11420.02
566.477	11384.32
566.839	11333.25
567.201	11404.43
567.563	11364.88
567.925	11402.62
568.287	11366.24
568.648	11375.05
569.01	11427.26
569.372	11466.13
569.734	11408.5
570.095	11414.6
570.457	11483.75
570.819	11383.19
571.18	11415.5
571.542	11489.63
571.903	11395.39
572.265	11431.55
572.626	11469.51
572.987	11514.03
573.349	11477.42
573.71	11504.99
574.071	11443.98
574.432	11501.6
574.794	11617.08
575.155	11507.03
575.516	11519.01
575.877	11554.03
576.238	11593.35
576.599	11569.85
576.96	11565.33
577.32	11581.83
577.681	11524.43
578.042	11544.77
578.403	11489.63
578.763	11500.02
579.124	11528.95
579.485	11510.87
579.845	11613.47
580.206	11518.78
580.566	11482.62
580.927	11495.73
581.287	11529.63
581.648	11394.49
582.008	11532.11
582.368	11503.86
582.728	11496.41
583.089	11472.68
583.449	11491.66
583.809	11516.97
584.169	11458.89
584.529	11391.78
584.889	11455.28
585.249	11450.98
585.609	11361.5
585.969	11402.17
586.329	11426.8
586.688	11384.32
587.048	11345.9
587.408	11327.82
587.768	11361.72
588.127	11403.08
588.487	11328.5
588.846	11361.04
589.206	11352.68
589.565	11293.93
589.925	11361.5
590.284	11274.49
590.643	11318.56
591.003	11313.59
591.362	11297.54
591.721	11311.33
592.08	11265.23
592.44	11306.13
592.799	11309.52
593.158	11276.07
593.517	11293.93
593.876	11257.54
594.235	11163.99
594.593	11179.35
594.952	11222.29
595.311	11206.7
595.67	11207.15
596.029	11320.37
596.387	11271.55
596.746	11237.2
597.104	11205.11
597.463	11148.17
597.822	11216.19
598.18	11147.94
598.538	11166.7
598.897	11181.39
599.255	11129.41
599.613	11229.75
599.972	11176.87
600.33	11174.61
600.688	11084.21
601.046	11201.73
601.404	11238.79
601.762	11129.86
602.12	11234.72
602.478	11172.12
602.836	11147.94
603.194	11062.29
603.552	11150.88
603.91	11110.88
604.268	11117.89
604.625	11093.48
604.983	11118.11
605.341	11091.45
605.698	11171.22
606.056	11147.72
606.413	11182.74
606.771	11219.35
607.128	11140.71
607.485	11069.07
607.843	11170.99
608.2	11253.7
608.557	11160.6
608.914	11106.81
609.272	11201.27
609.629	11232.46
609.986	11168.28
610.343	11140.94
610.7	11248.28
611.057	11206.92
611.414	11206.24
611.771	11232.91
612.127	11239.24
612.484	11233.36
612.841	11297.54
613.198	11278.33
613.554	11266.36
613.911	11300.48
614.267	11254.61
614.624	11246.24
614.98	11264.32
615.337	11293.7
615.693	11288.5
616.05	11326.47
616.406	11403.08
616.762	11324.66
617.118	11295.73
617.475	11331.89
617.831	11386.58
618.187	11342.51
618.543	11385.22
618.899	11349.29
619.255	11343.87
619.611	11283.53
619.967	11392.68
620.323	11416.41
620.678	11397.88
621.034	11396.3
621.39	11360.37
621.746	11312.23
622.101	11464.54
622.457	11350.65
622.812	11321.95
623.168	11391.78
623.523	11460.93
623.879	11438.78
624.234	11386.58
624.589	11404.21
624.945	11414.6
625.3	11440.59
625.655	11415.96
626.01	11416.63
626.365	11433.58
626.72	11450.98
627.075	11429.06
627.43	11337.77
627.785	11361.72
628.14	11342.06
628.495	11404.66
628.85	11307.03
629.205	11336.86
629.559	11382.29
629.914	11273.14
630.269	11321.27
630.623	11309.52
630.978	11261.38
631.332	11232.91
631.687	11254.83
632.041	11277.43
632.396	11307.26
632.75	11253.48
633.104	11251.67
633.459	11200.82
633.813	11224.55
634.167	11242.18
634.521	11226.81
634.875	11246.24
635.229	11191.33
635.583	11105.68
635.937	11162.18
636.291	11145.23
636.645	11151.56
636.999	11060.49
637.352	11150.43
637.706	11036.31
638.06	11134.16
638.413	11037.66
638.767	11030.88
639.121	11008.96
639.474	10901.62
639.828	11010.77
640.181	10966.93
640.534	10946.36
640.888	10886.71
641.241	10909.08
641.594	10937.33
641.947	10950.88
642.301	10922.64
642.654	10928.29
643.007	10876.54
643.36	10855.07
643.713	10861.4
644.066	10905.69
644.419	10839.02
644.771	10791.34
645.124	10731.46
645.477	10627.73
645.83	10657.11
646.182	10592.7
646.535	10499.82
646.888	10563.1
647.24	10595.64
647.593	10560.61
647.945	10549.99
648.298	10487.17
648.65	10531.23
649.002	10432.48
649.355	10592.02
649.707	10569.43
650.059	10559.93
650.411	10730.33
650.763	10717.44
651.115	10839.93
651.467	10738.91
651.819	10766.26
652.171	10772.13
652.523	10769.65
652.875	10706.6
653.227	10700.27
653.578	10765.58
653.93	10773.26
654.282	10613.27
654.633	10710.44
654.985	10721.06
655.337	10756.77
655.688	10727.16
656.039	10819.36
656.391	10727.16
656.742	10761.06
657.094	10783.66
657.445	10841.73
657.796	10786.37
658.147	10740.72
658.498	10814.62
658.849	10858.01
659.2	10862.75
659.551	10855.07
659.902	10875.86
660.253	10775.52
660.604	10933.71
660.955	10774.17
661.306	10840.6
661.656	10780.27
662.007	10784.34
662.358	10848.29
662.708	10817.33
663.059	10854.39
663.409	10856.88
663.76	10837.22
664.11	10836.76
664.461	10908.85
664.811	10830.66
665.161	10917.21
665.511	10821.62
665.862	10851.9
666.212	10865.46
666.562	10891.9
666.912	10893.03
667.262	10909.53
667.612	10894.61
667.962	10903.43
668.312	10836.54
668.662	10927.38
669.011	10888.97
669.361	10872.02
669.711	10875.63
670.06	10842.86
670.41	10852.36
670.76	10865.91
671.109	10826.14
671.459	10849.19
671.808	10781.85
672.157	10867.27
672.507	10785.69
672.856	10775.97
673.205	10771
673.554	10840.15
673.904	10808.29
674.253	10896.42
674.602	10756.09
674.951	10621.18
675.3	10581.18
675.649	10755.64
675.998	10763.54
676.346	10789.31
676.695	10719.93
677.044	10624.34
677.393	10715.18
677.741	10716.77
678.09	10658.69
678.438	10634.28
678.787	10632.25
679.135	10681.51
679.484	10627.73
679.832	10633.15
680.181	10534.85
680.529	10612.81
680.877	10565.81
681.225	10493.72
681.573	10571.91
681.922	10493.27
682.27	10424.8
682.618	10438.36
682.966	10399.26
683.314	10446.04
683.661	10418.02
684.009	10314.29
684.357	10295.53
684.705	10346.15
685.053	10360.62
685.4	10290.56
685.748	10246.72
686.095	10231.36
686.443	10182.09
686.79	10157.46
687.138	10190
687.485	10143.67
687.832	10102.32
688.18	10146.39
688.527	10061.87
688.874	10028.87
689.221	9993.4
689.568	9943.23
689.915	9980.74
690.262	10041.3
690.609	9887.86
690.956	9888.31
691.303	9855.77
691.65	9766.73
691.997	9783.46
692.344	9744.14
692.69	9721.76
693.037	9684.48
693.383	9576.91
693.73	9676.34
694.077	9568.77
694.423	9560.86
694.769	9496.69
695.116	9448.1
695.462	9446.74
695.808	9417.59
696.155	9438.16
696.501	9332.62
696.847	9390.02
697.193	9256.24
697.539	9275.22
697.885	9174.21
698.231	9208.78
698.577	9138.73
698.923	9170.37
699.269	9090.59
699.614	9046.75
699.96	9028.22
700.306	9023.93
700.651	9028.68
700.997	8964.04
701.342	8914.55
701.688	8856.93
702.033	8825.52
702.379	8853.09
702.724	8797.72
703.069	8788.46
703.415	8702.81
703.76	8593.88
704.105	8691.28
704.45	8612.41
704.795	8642.92
705.14	8526.99
705.485	8571.06
705.83	8480.44
706.175	8577.61
706.52	8491.97
706.865	8486.09
707.209	8388.47
707.554	8379.88
707.899	8452.19
708.243	8345.3
708.588	8423.95
708.932	8287
709.277	8268.02
709.621	8277.73
709.966	8273.89
710.31	8276.6
710.654	8170.39
710.998	8159.77
711.342	8152.77
711.687	8129.72
712.031	8112.09
712.375	8052.66
712.719	8093.33
713.063	8093.33
713.407	8127.23
713.75	8030.74
714.094	8014.01
714.438	8037.74
714.782	8011.98
715.125	7967.91
715.469	7985.99
715.812	7895.82
716.156	7829.84
716.499	7886.33
716.843	7849.5
717.186	7837.52
717.53	7891.53
717.873	7859.44
718.216	7870.51
718.559	7829.84
718.902	7778.54
719.246	7792.1
719.589	7706.45
719.932	7758.43
720.275	7760.69
720.617	7691.54
720.96	7680.46
721.303	7727.69
721.646	7692.89
721.989	7714.36
722.331	7662.61
722.674	7683.17
723.016	7659.9
723.359	7629.84
723.701	7685.21
724.044	7658.99
724.386	7583.97
724.729	7694.02
725.071	7600.24
725.413	7560.69
725.755	7624.87
726.097	7602.95
726.439	7558.88
726.782	7556.4
727.124	7616.28
727.465	7573.12
727.807	7556.4
728.149	7562.05
728.491	7608.37
728.833	7563.85
729.175	7506.46
729.516	7495.61
729.858	7546.23
730.199	7517.53
730.541	7543.74
730.882	7530.18
731.224	7523.4
731.565	7458.55
731.906	7579
732.248	7546.45
732.589	7582.84
732.93	7456.51
733.271	7543.52
733.612	7526.34
733.953	7580.58
734.294	7506.23
734.635	7560.01
734.976	7510.75
735.317	7534.93
735.658	7521.82
735.999	7540.8
736.339	7471.88
736.68	7568.83
737.021	7537.87
737.361	7543.52
737.702	7574.02
738.042	7578.09
738.383	7605.66
738.723	7563.85
739.063	7544.19
739.404	7570.18
739.744	7644.76
740.084	7576.06
740.424	7625.77
740.764	7656.73
741.104	7695.38
741.444	7638.2
741.784	7688.82
742.124	7722.27
742.464	7753.45
742.804	7797.29
743.143	7757.97
743.483	7779.22
743.823	7795.94
744.162	7807.01
744.502	7879.1
744.841	7839.33
745.181	7900.34
745.52	7913.22
745.86	8003.84
746.199	8041.36
746.538	8029.83
746.877	8131.75
747.216	8178.53
747.556	8208.13
747.895	8246.32
748.234	8274.12
748.573	8330.39
748.911	8468.92
749.25	8473.21
749.589	8528.58
749.928	8578.52
750.267	8679.31
750.605	8678.4
750.944	8778.74
751.283	8860.09
751.621	8929.47
751.96	9000.2
752.298	9068.9
752.636	9264.38
752.975	9234.09
753.313	9343.69
753.651	9513.63
753.989	9578.72
754.327	9664.14
754.666	9804.93
755.004	9894.87
755.342	9950.01
755.679	10184.58
756.017	10293.05
756.355	10425.93
756.693	10583.66
757.031	10671.34
757.368	10757.22
757.706	10912.92
758.044	11083.08
758.381	11326.92
758.719	11342.29
759.056	11519.68
