Data from hue_340_FLMS001491_82.txt Node
Date: Mon Feb 06 15:43:43 GMT 2017
User: dcchb
Spectrometer: FLMS00149
Trigger mode: 0
Integration Time (sec): 2.000000E-2
Scans to average: 10
Electric dark correction enabled: true
Nonlinearity correction enabled: false
Boxcar width: 0
XAxis mode: Wavelengths
Number of Pixels in Spectrum: 2048
>>>>>Begin Spectral Data<<<<<
341.393	-26.95
341.776	-26.95
342.16	-26.95
342.543	-42.32
342.927	-63.33
343.31	-56.78
343.693	-72.14
344.077	-68.76
344.46	-67.4
344.843	-50.45
345.226	-53.84
345.61	-39.6
345.993	-16.1
346.376	8.98
346.759	1.98
347.142	11.24
347.525	53.05
347.908	59.15
348.291	82.43
348.674	81.75
349.057	126.49
349.44	128.08
349.823	145.93
350.206	163.56
350.588	183.22
350.971	199.71
351.354	242.87
351.737	242.65
352.119	242.65
352.502	258.92
352.884	258.69
353.267	281.52
353.65	291.01
354.032	308.41
354.414	332.14
354.797	296.43
355.179	316.77
355.562	332.36
355.944	315.64
356.326	334.62
356.709	341.4
357.091	355.87
357.473	331.23
357.855	335.75
358.238	314.96
358.62	348.41
359.002	338.92
359.384	369.2
359.766	346.38
360.148	348.63
360.53	344.34
360.912	342.76
361.294	338.69
361.676	320.84
362.057	298.69
362.439	318.13
362.821	325.81
363.203	332.59
363.584	336.88
363.966	329.65
364.348	320.16
364.729	325.13
365.111	337.56
365.493	307.73
365.874	335.53
366.256	308.41
366.637	303.44
367.019	325.36
367.4	321.29
367.781	303.66
368.163	311.57
368.544	318.35
368.925	300.5
369.306	314.51
369.688	281.97
370.069	296.88
370.45	311.57
370.831	299.82
371.212	305.47
371.593	300.95
371.974	315.19
372.355	304.34
372.736	315.64
373.117	326.26
373.498	326.94
373.879	310.67
374.26	311.8
374.641	312.48
375.021	315.19
375.402	324.23
375.783	315.19
376.163	328.75
376.544	312.03
376.925	313.83
377.305	301.4
377.686	312.03
378.066	335.98
378.447	328.07
378.827	313.38
379.208	334.17
379.588	326.26
379.968	319.26
380.349	316.32
380.729	322.42
381.109	348.18
381.489	315.19
381.87	327.17
382.25	345.7
382.63	325.81
383.01	311.35
383.39	351.12
383.77	345.47
384.15	336.66
384.53	351.12
384.91	353.83
385.29	333.04
385.67	339.6
386.049	332.14
386.429	351.12
386.809	360.61
387.189	354.28
387.568	339.37
387.948	350.22
388.328	345.7
388.707	358.13
389.087	354.51
389.466	351.57
389.846	350.44
390.225	353.61
390.605	358.58
390.984	361.74
391.363	343.44
391.743	355.19
392.122	373.49
392.501	378.69
392.881	361.97
393.26	345.47
393.639	376.43
394.018	371.69
394.397	364.23
394.776	355.19
395.155	359.48
395.534	360.16
395.913	358.8
396.292	383.21
396.671	377.79
397.05	368.07
397.429	383.44
397.808	380.95
398.186	398.13
398.565	391.35
398.944	357.67
399.323	375.07
399.701	379.82
400.08	388.86
400.458	380.95
400.837	414.4
401.215	394.51
401.594	403.1
401.972	415.3
402.351	378.46
402.729	390.67
403.107	418.46
403.486	399.93
403.864	404.45
404.242	406.26
404.62	388.41
404.999	413.49
405.377	411.91
405.755	402.87
406.133	422.53
406.511	439.48
406.889	431.34
407.267	431.34
407.645	425.7
408.023	432.7
408.401	427.05
408.779	451.46
409.156	440.38
409.534	449.42
409.912	452.81
410.29	427.95
410.667	445.81
411.045	453.49
411.422	450.55
411.8	448.52
412.178	476.99
412.555	459.59
412.933	503.21
413.31	444.23
413.687	480.16
414.065	488.07
414.442	490.78
414.819	476.77
415.197	493.94
415.574	518.12
415.951	481.96
416.328	498.91
416.705	518.57
417.082	508.4
417.46	524.68
417.837	495.52
418.214	524.22
418.591	518.12
418.967	533.71
419.344	529.42
419.721	540.95
420.098	547.27
420.475	546.37
420.852	545.47
421.228	550.89
421.605	551.57
421.982	568.29
422.358	565.58
422.735	573.49
423.111	588.18
423.488	579.82
423.864	584.11
424.241	583.21
424.617	577.56
424.994	598.35
425.37	619.36
425.746	621.85
426.123	593.37
426.499	613.26
426.875	610.77
427.251	634.28
427.627	632.02
428.003	648.74
428.379	636.31
428.756	628.4
429.132	630.89
429.507	641.28
429.883	659.59
430.259	690.77
430.635	693.48
431.011	654.62
431.387	697.78
431.763	659.59
432.138	673.15
432.514	712.24
432.89	721.73
433.265	716.99
433.641	711.79
434.016	713.15
434.392	733.03
434.767	743.2
435.143	743.65
435.518	751.79
435.894	744.56
436.269	767.38
436.644	790.21
437.02	775.52
437.395	796.98
437.77	795.4
438.145	803.09
438.52	807.38
438.895	832.24
439.271	797.21
439.646	825.46
440.021	852.8
440.395	843.76
440.77	844.67
441.145	828.62
441.52	867.27
441.895	832.01
442.27	862.75
442.645	843.09
443.019	870.2
443.394	848.96
443.769	847.6
444.143	861.84
444.518	858
444.892	872.24
445.267	893.25
445.641	894.61
446.016	908.17
446.39	880.37
446.764	904.33
447.139	895.97
447.513	904.78
447.887	921.95
448.262	918.11
448.636	892.12
449.01	926.25
449.384	936.64
449.758	935.06
450.132	943.2
450.506	952.46
450.88	929.86
451.254	942.52
451.628	939.35
452.002	961.27
452.376	954.72
452.75	991.56
453.123	983.19
453.497	983.65
453.871	992.46
454.244	1015.74
454.618	1008.96
454.992	1003.98
455.365	1020.48
455.739	1055.28
456.112	1043.53
456.486	1061.61
456.859	1068.39
457.232	1080.82
457.606	1083.76
457.979	1076.53
458.352	1083.98
458.725	1106.36
459.099	1134.6
459.472	1116.52
459.845	1128.5
460.218	1153.59
460.591	1140.25
460.964	1158.56
461.337	1179.35
461.71	1156.98
462.083	1186.35
462.456	1208.5
462.829	1207.6
463.201	1214.6
463.574	1178.9
463.947	1248.95
464.32	1226.8
464.692	1273.13
465.065	1262.74
465.438	1303.64
465.81	1307.03
466.183	1307.93
466.555	1351.32
466.928	1331.89
467.3	1328.95
467.672	1355.84
468.045	1364.88
468.417	1361.26
468.789	1387.7
469.161	1421.15
469.534	1422.28
469.906	1468.38
470.278	1460.92
470.65	1443.75
471.022	1499.11
471.394	1526.01
471.766	1535.95
472.138	1525.1
472.51	1561.03
472.882	1579.34
473.253	1596.51
473.625	1623.4
473.997	1642.84
474.369	1672.67
474.74	1663.4
475.112	1707.92
475.484	1712.21
475.855	1743.17
476.227	1758.09
476.598	1808.94
476.97	1834.7
477.341	1828.82
477.713	1876.96
478.084	1876.73
478.455	1934.36
478.827	1947.24
479.198	2003.05
479.569	1970.06
479.94	2084.86
480.311	2071.98
480.682	2090.06
481.053	2113.33
481.424	2149.94
481.795	2187
482.166	2229.72
482.537	2248.7
482.908	2295.7
483.279	2322.59
483.65	2326.44
484.021	2391.52
484.391	2420.67
484.762	2434.68
485.133	2459.77
485.503	2455.25
485.874	2530.72
486.244	2556.71
486.615	2617.95
486.985	2616.6
487.356	2672.19
487.726	2677.39
488.097	2726.88
488.467	2738.63
488.837	2791.51
489.207	2835.12
489.578	2875.57
489.948	2914.9
490.318	2939.75
490.688	2907.66
491.058	2957.83
491.428	3029.24
491.798	3044.84
492.168	3139.75
492.538	3089.13
492.908	3123.25
493.278	3142.46
493.648	3207.77
494.017	3247.09
494.387	3249.35
494.757	3255
495.126	3315.56
495.496	3309.91
495.866	3366.86
496.235	3423.58
496.605	3390.14
496.974	3446.41
497.344	3424.71
497.713	3479.17
498.082	3500.87
498.452	3508.78
498.821	3534.31
499.19	3551.04
499.559	3583.58
499.928	3604.14
500.298	3620.41
500.667	3658.83
501.036	3620.87
501.405	3681.2
501.774	3685.95
502.143	3756.68
502.512	3703.57
502.88	3740.64
503.249	3807.98
503.618	3811.82
503.987	3792.61
504.356	3814.98
504.724	3851.37
505.093	3863.34
505.462	3858.15
505.83	3913.51
506.199	3907.41
506.567	3923.91
506.936	3918.03
507.304	3929.33
507.672	4002.32
508.041	4009.1
508.409	3996.9
508.777	4002.32
509.145	4058.59
509.514	4035.32
509.882	4112.83
510.25	4054.75
510.618	4094.98
510.986	4119.16
511.354	4144.69
511.722	4171.36
512.09	4177.01
512.458	4160.96
512.826	4202.54
513.193	4211.58
513.561	4216.56
513.929	4250
514.297	4263.11
514.664	4265.82
515.032	4293.62
515.4	4327.74
515.767	4333.16
516.135	4318.25
516.502	4327.74
516.869	4399.38
517.237	4383.33
517.604	4376.33
517.972	4386.49
518.339	4451.13
518.706	4432.82
519.073	4442.31
519.44	4408.42
519.808	4475.31
520.175	4470.33
520.542	4502.42
520.909	4555.3
521.276	4563.67
521.643	4569.31
522.009	4595.53
522.376	4633.95
522.743	4634.4
523.11	4664.91
523.477	4654.28
523.843	4678.24
524.21	4718.69
524.577	4769.08
524.943	4772.47
525.31	4849.99
525.676	4835.75
526.043	4835.3
526.409	4855.41
526.776	4904.22
527.142	4866.48
527.508	4929.31
527.874	4937.67
528.241	4965.24
528.607	5033.03
528.973	5061.05
529.339	5022.41
529.705	5086.82
530.071	5131.11
530.437	5175.63
530.803	5164.55
531.169	5158.45
531.535	5179.02
531.901	5262.63
532.267	5232.35
532.632	5228.73
532.998	5272.35
533.364	5307.6
533.73	5307.15
534.095	5387.37
534.461	5364.32
534.826	5374.94
535.192	5387.37
535.557	5457.2
535.923	5448.39
536.288	5465.34
536.653	5469.4
537.019	5470.99
537.384	5479.35
537.749	5578.55
538.114	5587.14
538.479	5593.92
538.845	5636.41
539.21	5631.66
539.575	5652.9
539.94	5674.37
540.305	5718.89
540.67	5697.42
541.034	5745.1
541.399	5764.54
541.764	5816.97
542.129	5790.3
542.494	5806.12
542.858	5802.73
543.223	5802.28
543.587	5931.31
543.952	5898.77
544.316	5924.08
544.681	5969.05
545.045	5950.07
545.41	6035.49
545.774	6082.72
546.138	6028.26
546.503	6086.34
546.867	6065.32
547.231	6144.19
547.595	6160.91
547.959	6194.13
548.324	6152.1
548.688	6163.62
549.052	6218.31
549.416	6237.07
549.779	6293.79
550.143	6242.49
550.507	6346.44
550.871	6347.12
551.235	6389.61
551.599	6430.06
551.962	6388.25
552.326	6394.58
552.689	6435.71
553.053	6397.74
553.417	6465.54
553.78	6526.55
554.143	6524.52
554.507	6524.74
554.87	6567.68
555.234	6602.48
555.597	6594.57
555.96	6595.93
556.323	6619.66
556.686	6680.45
557.05	6711.41
557.413	6672.76
557.776	6777.62
558.139	6742.14
558.502	6789.37
558.865	6761.8
559.228	6801.8
559.59	6811.97
559.953	6853.1
560.316	6876.15
560.679	6923.38
561.041	6898.75
561.404	6947.56
561.767	6965.64
562.129	6941.46
562.492	7028.91
562.854	6990.04
563.217	7024.17
563.579	7079.31
563.941	7064.39
564.304	7140.55
564.666	7128.8
565.028	7138.51
565.39	7204.95
565.753	7188.91
566.115	7256.25
566.477	7289.7
566.839	7249.02
567.201	7291.5
567.563	7302.8
567.925	7463.7
568.287	7378.51
568.648	7371.73
569.01	7405.85
569.372	7457.83
569.734	7484.72
570.095	7543.93
570.457	7561.78
570.819	7588.9
571.18	7670.7
571.542	7642.45
571.903	7673.19
572.265	7715.22
572.626	7792.96
572.987	7855.1
573.349	7840.42
573.71	7873.63
574.071	7941.66
574.432	7981.43
574.794	8067.08
575.155	8133.51
575.516	8106.4
575.877	8172.38
576.238	8244.02
576.599	8337.58
576.96	8380.29
577.32	8486.27
577.681	8515.43
578.042	8572.15
578.403	8613.5
578.763	8730.79
579.124	8808.53
579.485	8947.73
579.845	9097.78
580.206	9083.32
580.566	9186.59
580.927	9327.83
581.287	9485.8
581.648	9592.23
582.008	9671.33
582.368	9847.82
582.728	9989.74
583.089	9998.55
583.449	10195.61
583.809	10383.4
584.169	10518.31
584.529	10671.08
584.889	10819.09
585.249	10904.06
585.609	11142.02
585.969	11349.48
586.329	11567.32
586.688	11716.02
587.048	11889.8
587.408	12138.16
587.768	12246.4
588.127	12546.51
588.487	12802.09
588.846	13101.52
589.206	13135.64
589.565	13372.02
589.925	13738.34
590.284	13997.77
590.643	14233.02
591.003	14494.48
591.362	14804.3
591.721	14904.86
592.08	15157.06
592.44	15510.04
592.799	15804.27
593.158	16017.83
593.517	16273.87
593.876	16593.18
594.235	16776.23
594.593	17150.23
594.952	17418.47
595.311	17516.32
595.67	17963.09
596.029	18301.38
596.387	18538.21
596.746	18907.47
597.104	19035.15
597.463	19460.67
597.822	19676.71
598.18	19942.7
598.538	20109.25
598.897	20480.31
599.255	20665.84
599.613	21285.94
599.972	21389.66
600.33	21620.39
600.688	21893.15
601.046	22193.94
601.404	22478.45
601.762	22786.46
602.12	23058.32
602.478	23306.9
602.836	23551.41
603.194	23806.1
603.552	24080.89
603.91	24273.43
604.268	24616.7
604.625	24779.63
604.983	25158.38
605.341	25169.9
605.698	25570.8
606.056	25878.59
606.413	25919.26
606.771	26302.98
607.128	26522.18
607.485	26652.12
607.843	26835.4
608.2	27227.7
608.557	27563.29
608.914	27748.14
609.272	27940.23
609.629	28180.22
609.986	28443.26
610.343	28449.82
610.7	28968.9
611.057	28975.23
611.414	29135.67
611.771	29323.69
612.127	29632.84
612.484	29604.59
612.841	29971.13
613.198	30112.15
613.554	30116.89
613.911	30516.88
614.267	30658.57
614.624	30764.78
614.98	30937.44
615.337	31440.7
615.693	31404.77
616.05	31491.09
616.406	31837.3
616.762	31697.87
617.118	32015.15
617.475	32082.72
617.831	32403.61
618.187	32425.53
618.543	32418.98
618.899	32823.49
619.255	32838.18
619.611	32973.54
619.967	33246.98
620.323	33399.07
620.678	33315
621.034	33240.88
621.39	33515.22
621.746	33597.48
622.101	33829.56
622.457	33768.32
622.812	33980.29
623.168	34157.46
623.523	34131.02
623.879	34414.41
624.234	34263.68
624.589	34377.57
624.945	34555.19
625.3	34578.92
625.655	34651.01
626.01	34763.78
626.365	34962.19
626.72	34857.33
627.075	35023.66
627.43	34927.39
627.785	34971.68
628.14	35073.82
628.495	35173.03
628.85	35206.02
629.205	35151.11
629.559	35449.41
629.914	35247.15
630.269	35474.26
630.623	35308.85
630.978	35278.79
631.332	35502.51
631.687	35579.35
632.041	35594.94
632.396	35631.32
632.75	35502.96
633.104	35656.63
633.459	35523.98
633.813	35611.89
634.167	35547.94
634.521	35613.24
634.875	35717.42
635.229	35705.22
635.583	35447.6
635.937	35596.3
636.291	35533.7
636.645	35686.91
636.999	35585
637.352	35667.03
637.706	35484.21
638.06	35743.64
638.413	35624.77
638.767	35654.6
639.121	35713.58
639.474	35448.73
639.828	35500.7
640.181	35522.17
640.534	35609.4
640.888	35564.88
641.241	35376.87
641.594	35472.01
641.947	35579.35
642.301	35407.15
642.654	35543.64
643.007	35592.23
643.36	35510.2
643.713	35451.21
644.066	35634.03
644.419	35270.65
644.771	35097.33
645.124	34875.41
645.477	34844.9
645.83	34601.97
646.182	34500.05
646.535	34486.27
646.888	34534.4
647.24	34221.64
647.593	34473.84
647.945	34398.81
648.298	34378.93
648.65	34223.68
649.002	34272.26
649.355	34369.21
649.707	34274.3
650.059	34404.91
650.411	34816.43
650.763	34877.9
651.115	35301.16
651.467	35250.32
651.819	35184.33
652.171	35114.5
652.523	34927.84
652.875	35047.38
653.227	34820.72
653.578	35209.87
653.93	35150.43
654.282	35035.18
654.633	34986.37
654.985	35064.33
655.337	34954.73
655.688	34903.43
656.039	35133.93
656.391	34751.8
656.742	34862.3
657.094	34839.03
657.445	34905.24
657.796	34920.38
658.147	34788.41
658.498	34773.04
658.849	34930.1
659.2	34857.33
659.551	34637.68
659.902	34910.21
660.253	34897.33
660.604	34864.56
660.955	34655.76
661.306	34787.73
661.656	34764.68
662.007	34678.58
662.358	34796.09
662.708	34688.07
663.059	34681.52
663.409	34404.24
663.76	34759.71
664.11	34729.43
664.461	34719.03
664.811	34731.01
665.161	34680.84
665.511	34585.93
665.862	34634.06
666.212	34740.05
666.562	34702.53
666.912	34632.93
667.262	34622.08
667.612	34641.29
667.962	34679.48
668.312	34629.54
668.662	34790.89
669.011	34647.85
669.361	34649.43
669.711	34612.59
670.06	34556.1
670.41	34438.13
670.76	34407.85
671.109	34600.62
671.459	34503.22
671.808	34430.22
672.157	34426.38
672.507	34316.1
672.856	34424.58
673.205	34424.12
673.554	34490.56
673.904	34527.4
674.253	34645.81
674.602	34410.56
674.951	34017.58
675.3	33857.36
675.649	34430.22
675.998	34384.8
676.346	34366.5
676.695	34484.01
677.044	34032.95
677.393	34317.46
677.741	34321.3
678.09	34179.61
678.438	34169.44
678.787	34219.83
679.135	34192.04
679.484	33933.29
679.832	34205.82
680.181	33836.34
680.529	34140.74
680.877	33909.11
681.225	33845.38
681.573	34156.56
681.922	33819.39
682.27	33852.16
682.618	33874.31
682.966	33630.02
683.314	33727.64
683.661	33674.76
684.009	33514.77
684.357	33444.49
684.705	33520.64
685.053	33345.28
685.4	33434.09
685.748	33172.18
686.095	33174.89
686.443	33093.08
686.79	33025.74
687.138	33154.55
687.485	33133.08
687.832	33030.04
688.18	33063.03
688.527	32825.97
688.874	32763.38
689.221	32827.55
689.568	32656.49
689.915	32464.17
690.262	32468.92
690.609	32334.01
690.956	32300.79
691.303	32199.1
691.65	32071.87
691.997	32218.08
692.344	32063.28
692.69	31949.39
693.037	32064.64
693.383	31718.43
693.73	31769.5
694.077	31760.24
694.423	31713.91
694.769	31590.07
695.116	31579.9
695.462	31518.89
695.808	31438.44
696.155	31416.74
696.501	31278.22
696.847	31259.23
697.193	31012.01
697.539	31081.16
697.885	30920.49
698.231	30861.73
698.577	30740.15
698.923	30716.88
699.269	30593.94
699.614	30461.06
699.96	30532.25
700.306	30455.64
700.651	30294.51
700.997	30251.8
701.342	30175.42
701.688	30188.75
702.033	30074.63
702.379	29994.18
702.724	29863.57
703.069	29975.43
703.415	29602.55
703.76	29694.98
704.105	29676.23
704.45	29607.07
704.795	29412.73
705.14	29362.34
705.485	29288.89
705.83	29275.78
706.175	29235.11
706.52	29211.6
706.865	29159.18
707.209	29112.62
707.554	28916.92
707.899	29036.92
708.243	28925.06
708.588	28729.81
708.932	28604.39
709.277	28667.66
709.621	28608.46
709.966	28428.57
710.31	28553.54
710.654	28234
710.998	28361.01
711.342	28287.11
711.687	28293.44
712.031	28074.23
712.375	28054.57
712.719	28056.38
713.063	28088.7
713.407	27940.9
713.75	27951.98
714.094	27799.44
714.438	27701.81
714.782	27794.47
715.125	27630.86
715.469	27531.2
715.812	27530.07
716.156	27346.57
716.499	27375.49
716.843	27533.91
717.186	27250.98
717.53	27363.29
717.873	27407.81
718.216	27344.54
718.559	27085.11
718.902	27000.59
719.246	27093.69
719.589	27056.63
719.932	26907.03
720.275	26944.09
720.617	26857.09
720.96	26771.89
721.303	26743.65
721.646	26733.25
721.989	26556.08
722.331	26586.14
722.674	26621.62
723.016	26582.07
723.359	26488.29
723.701	26594.95
724.044	26316.31
724.386	26264.79
724.729	26415.75
725.071	26260.95
725.413	26325.58
725.755	26270.89
726.097	26158.58
726.439	26103.66
726.782	26069.31
727.124	26199.48
727.465	25964.91
727.807	25999.71
728.149	25905.03
728.491	25875.87
728.833	25889.66
729.175	25838.36
729.516	25699.83
729.858	25754.52
730.199	25663
730.541	25654.18
730.882	25702.54
731.224	25724.01
731.565	25490.35
731.906	25410.57
732.248	25441.76
732.589	25391.59
732.93	25319.73
733.271	25505.49
733.612	25321.09
733.953	25342.55
734.294	25174.87
734.635	25151.15
734.976	25296
735.317	25012.17
735.658	25123.58
735.999	25060.98
736.339	24985.28
736.68	25114.54
737.021	24938.72
737.361	24802.46
737.702	25054.65
738.042	24869.35
738.383	24841.32
738.723	24937.14
739.063	24887.65
739.404	24967.42
739.744	24760.65
740.084	24691.95
740.424	24740.99
740.764	24711.16
741.104	24696.24
741.444	24515.23
741.784	24458.74
742.124	24606.3
742.464	24391.17
742.804	24411.51
743.143	24294.9
743.483	24385.29
743.823	24313.2
744.162	24138.07
744.502	24228.23
744.841	24223.71
745.181	24219.65
745.52	24211.96
745.86	24254.67
746.199	24054
746.538	24071.4
746.877	24105.07
747.216	24226.43
747.556	23899.88
747.895	23940.1
748.234	23838.64
748.573	23785.76
748.911	23751.41
749.25	23799.32
749.589	23740.79
749.928	23665.08
750.267	23692.65
750.605	23621.92
750.944	23625.99
751.283	23449.5
751.621	23493.11
751.96	23383.06
752.298	23354.36
752.636	23411.53
752.975	23236.85
753.313	23192.78
753.651	23318.43
753.989	23226.45
754.327	23183.97
754.666	23102.84
755.004	22972.22
755.342	23093.12
755.679	22981.49
756.017	22833.92
756.355	22843.86
756.693	22818.33
757.031	22837.54
757.368	22627.15
757.706	22724.77
758.044	22685
758.381	22583.53
758.719	22641.16
759.056	22519.13
759.394	22373.37
759.731	22224.22
760.068	22287.49
760.405	22262.63
760.743	22165.01
761.08	22241.62
