Data from hue_10_FLMS001491_43.txt Node
Date: Mon Feb 06 15:31:58 GMT 2017
User: dcchb
Spectrometer: FLMS00149
Trigger mode: 0
Integration Time (sec): 2.000000E-2
Scans to average: 10
Electric dark correction enabled: true
Nonlinearity correction enabled: false
Boxcar width: 0
XAxis mode: Wavelengths
Number of Pixels in Spectrum: 2048
>>>>>Begin Spectral Data<<<<<
341.393	-3.6
341.776	-3.6
342.16	-3.6
342.543	-58.97
342.927	-48.57
343.31	-54.67
343.693	-77.5
344.077	-60.78
344.46	-76.59
344.843	-49.48
345.226	-22.58
345.61	-30.72
345.993	-4.28
346.376	-1.34
346.759	5.21
347.142	15.15
347.525	40.47
347.908	46.79
348.291	84.76
348.674	79.11
349.057	106.45
349.44	110.52
349.823	142.16
350.206	160.24
350.588	186.45
350.971	209.5
351.354	223.96
351.737	242.49
352.119	254.47
352.502	262.61
352.884	278.65
353.267	285.66
353.65	283.62
354.032	313
354.414	314.58
354.797	312.77
355.179	305.32
355.562	297.86
355.944	331.53
356.326	330.85
356.709	351.19
357.091	353.68
357.473	336.28
357.855	362.94
358.238	346.45
358.62	330.85
359.002	345.77
359.384	353.45
359.766	331.76
360.148	347.12
360.53	316.16
360.912	306.22
361.294	338.08
361.676	338.54
362.057	324.75
362.439	336.73
362.821	312.77
363.203	350.06
363.584	338.99
363.966	324.53
364.348	330.17
364.729	343.28
365.111	316.84
365.493	337.18
365.874	311.87
366.256	305.54
366.637	314.58
367.019	318.65
367.4	302.38
367.781	305.32
368.163	317.29
368.544	320.91
368.925	321.14
369.306	299.89
369.688	312.77
370.069	309.84
370.45	300.57
370.831	298.31
371.212	301.02
371.593	320.01
371.974	301.93
372.355	323.62
372.736	325.88
373.117	322.04
373.498	314.13
373.879	318.88
374.26	317.97
374.641	315.49
375.021	316.39
375.402	316.84
375.783	344.86
376.163	330.63
376.544	311.42
376.925	321.81
377.305	306.45
377.686	301.7
378.066	310.06
378.447	318.2
378.827	314.36
379.208	328.59
379.588	337.41
379.968	340.8
380.349	321.81
380.729	316.84
381.109	329.95
381.489	334.24
381.87	320.01
382.25	340.12
382.63	338.08
383.01	325.43
383.39	342.83
383.77	335.6
384.15	329.95
384.53	337.41
384.91	358.42
385.29	348.48
385.67	346.45
386.049	364.07
386.429	351.19
386.809	335.82
387.189	346.67
387.568	359.78
387.948	344.19
388.328	351.87
388.707	342.15
389.087	342.38
389.466	376.95
389.846	358.2
390.225	361.13
390.605	348.71
390.984	331.08
391.363	350.74
391.743	352.1
392.122	357.29
392.501	366.11
392.881	373.34
393.26	368.14
393.639	378.31
394.018	367.46
394.397	360.46
394.776	372.89
395.155	354.13
395.534	356.39
395.913	352.55
396.292	372.66
396.671	388.03
397.05	387.8
397.429	393.22
397.808	380.34
398.186	365.88
398.565	382.6
398.944	398.42
399.323	390.96
399.701	381.02
400.08	398.42
400.458	394.13
400.837	393.22
401.215	384.18
401.594	373.79
401.972	376.05
402.351	374.24
402.729	378.31
403.107	393.22
403.486	396.61
403.864	380.57
404.242	414.01
404.62	406.78
404.999	374.24
405.377	392.32
405.755	390.74
406.133	401.81
406.511	404.3
406.889	426.9
407.267	419.89
407.645	394.35
408.023	395.26
408.401	398.65
408.779	394.13
409.156	414.47
409.534	414.69
409.912	409.04
410.29	415.82
410.667	426.67
411.045	432.09
411.422	432.09
411.8	428.25
412.178	457.4
412.555	426.22
412.933	436.84
413.31	457.86
413.687	423.05
414.065	457.18
414.442	459.21
414.819	449.95
415.197	460.12
415.574	426.67
415.951	442.94
416.328	461.02
416.705	451.08
417.082	468.93
417.46	475.71
417.837	498.76
418.214	488.14
418.591	476.84
418.967	466.22
419.344	470.51
419.721	490.85
420.098	495.14
420.475	476.84
420.852	510.74
421.228	514.8
421.605	498.08
421.982	508.48
422.358	508.93
422.735	481.36
423.111	508.7
423.488	534.46
423.864	508.02
424.241	499.66
424.617	505.76
424.994	509.83
425.37	515.93
425.746	509.15
426.123	548.02
426.499	530.85
426.875	542.6
427.251	541.02
427.627	546.89
428.003	555.93
428.379	531.98
428.756	562.71
429.132	550.51
429.507	549.83
429.883	565.87
430.259	561.36
430.635	582.6
431.011	576.72
431.387	571.98
431.763	584.18
432.138	583.95
432.514	605.65
432.89	606.33
433.265	597.96
433.641	610.17
434.016	615.82
434.392	596.38
434.767	594.8
435.143	620.11
435.518	639.77
435.894	632.99
436.269	643.39
436.644	663.5
437.02	650.39
437.395	655.36
437.77	676.83
438.145	650.84
438.52	672.54
438.895	670.5
439.271	674.8
439.646	662.82
440.021	673.22
440.395	682.93
440.77	655.59
441.145	708.24
441.52	697.4
441.895	694.69
442.27	689.26
442.645	692.2
443.019	692.43
443.394	701.24
443.769	710.5
444.143	712.09
444.518	705.76
444.892	736.49
445.267	719.77
445.641	705.76
446.016	745.53
446.39	748.47
446.764	728.13
447.139	748.47
447.513	738.98
447.887	731.52
448.262	759.32
448.636	750.28
449.01	752.54
449.384	763.16
449.758	776.49
450.132	759.99
450.506	785.53
450.88	771.29
451.254	756.15
451.628	754.12
452.002	767.23
452.376	788.92
452.75	818.98
453.123	775.81
453.497	820.78
453.871	813.55
454.244	817.17
454.618	841.35
454.992	824.63
455.365	845.87
455.739	849.26
456.112	882.02
456.486	870.95
456.859	865.08
457.232	873.89
457.606	872.53
457.979	888.13
458.352	926.32
458.725	896.04
459.099	908.69
459.472	936.26
459.845	921.35
460.218	905.75
460.591	960.67
460.964	958.41
461.337	956.83
461.71	990.95
462.083	972.19
462.456	991.85
462.829	997.28
463.201	1011.74
463.574	1004.51
463.947	1022.59
464.32	1041.79
464.692	1034.34
465.065	1060.78
465.438	1057.61
465.81	1087.67
466.183	1105.97
466.555	1104.17
466.928	1120.44
467.3	1101.23
467.672	1139.42
468.045	1154.33
468.417	1165.41
468.789	1139.42
469.161	1172.86
469.534	1204.05
469.906	1206.31
470.278	1238.17
470.65	1268
471.022	1262.81
471.394	1268.91
471.766	1284.05
472.138	1290.83
472.51	1347.1
472.882	1335.57
473.253	1354.78
473.625	1393.88
473.997	1408.34
474.369	1423.25
474.74	1461.67
475.112	1499.86
475.484	1526.53
475.855	1540.76
476.227	1510.93
476.598	1587.77
476.97	1557.94
477.341	1621.21
477.713	1634.1
478.084	1661.89
478.455	1734.88
478.827	1732.17
479.198	1788.44
479.569	1779.85
479.94	1828.89
480.311	1890.13
480.682	1889.68
481.053	1956.57
481.424	1973.52
481.795	2033.63
482.166	2055.55
482.537	2063.91
482.908	2130.13
483.279	2168.77
483.65	2187.3
484.021	2231.82
484.391	2244.7
484.762	2284.47
485.133	2309.56
485.503	2318.15
485.874	2405.15
486.244	2433.85
486.615	2479.72
486.985	2484.02
487.356	2582.55
487.726	2553.85
488.097	2600.17
488.467	2671.58
488.837	2764.69
489.207	2777.57
489.578	2839.94
489.948	2832.71
490.318	2860.5
490.688	2922.88
491.058	2954.29
491.428	2997.68
491.798	3027.28
492.168	3071.12
492.538	3092.81
492.908	3141.17
493.278	3199.93
493.648	3207.39
494.017	3214.39
494.387	3288.97
494.757	3303.66
495.126	3392.24
495.496	3360.38
495.866	3411.9
496.235	3418.23
496.605	3510.43
496.974	3521.05
497.344	3539.13
497.713	3528.28
498.082	3576.19
498.452	3672.01
498.821	3616.87
499.19	3669.52
499.559	3650.31
499.928	3725.57
500.298	3732.57
500.667	3771.44
501.036	3811.44
501.405	3807.37
501.774	3829.29
502.143	3887.82
502.512	3887.37
502.88	3908.61
503.249	3953.58
503.618	3965.56
503.987	3949.51
504.356	3998.78
504.724	4011.66
505.093	4094.14
505.462	4040.36
505.83	4098.66
506.199	4126.91
506.567	4146.8
506.936	4144.99
507.304	4190.86
507.672	4196.51
508.041	4229.28
508.409	4264.08
508.777	4259.34
509.145	4326.68
509.514	4314.25
509.882	4298.66
510.25	4334.36
510.618	4341.59
510.986	4362.16
511.354	4395.15
511.722	4389.5
512.09	4452.55
512.458	4413.46
512.826	4486.22
513.193	4460.46
513.561	4487.13
513.929	4516.73
514.297	4562.38
514.664	4576.39
515.032	4625.66
515.4	4612.55
515.767	4596.5
516.135	4613.45
516.502	4553.57
516.869	4665.2
517.237	4629.72
517.604	4670.17
517.972	4703.17
518.339	4671.53
518.706	4720.57
519.073	4729.61
519.44	4758.99
519.808	4765.54
520.175	4782.26
520.542	4784.75
520.909	4834.24
521.276	4852.09
521.643	4880.79
522.009	4883.73
522.376	4931.64
522.743	4955.14
523.11	4954.91
523.477	4984.74
523.843	5039.2
524.21	5076.94
524.577	5119.65
524.943	5052.08
525.31	5147.9
525.676	5164.62
526.043	5211.63
526.409	5239.42
526.776	5230.39
527.142	5194.23
527.508	5274.23
527.874	5345.18
528.241	5303.6
528.607	5322.36
528.973	5360.33
529.339	5395.35
529.705	5338.4
530.071	5427.44
530.437	5499.98
530.803	5499.3
531.169	5529.13
531.535	5518.29
531.901	5526.2
532.267	5551.05
532.632	5626.76
532.998	5610.04
533.364	5669.92
533.73	5692.75
534.095	5735.46
534.461	5723.93
534.826	5735.23
535.192	5777.72
535.557	5830.37
535.923	5883.25
536.288	5844.83
536.653	5846.41
537.019	5832.86
537.384	5833.53
537.749	5878.05
538.114	5937.26
538.479	5932.74
538.845	5979.52
539.21	6018.39
539.575	6020.87
539.94	6060.65
540.305	6039.4
540.67	6061.32
541.034	6129.34
541.399	6159.4
541.764	6171.15
542.129	6208.89
542.494	6186.74
542.858	6243.01
543.223	6254.09
543.587	6280.3
543.952	6290.24
544.316	6332.28
544.681	6319.17
545.045	6336.8
545.41	6474.87
545.774	6421.99
546.138	6481.2
546.503	6489.56
546.867	6529.79
547.231	6550.58
547.595	6527.75
547.959	6606.17
548.324	6598.94
548.688	6634.19
549.052	6707.63
549.416	6655.43
549.779	6696.79
550.143	6716.22
550.507	6763
550.871	6775.43
551.235	6799.38
551.599	6820.63
551.962	6838.93
552.326	6894.3
552.689	6869.89
553.053	6868.08
553.417	6836.67
553.78	6949.66
554.143	6941.07
554.507	7024.24
554.87	6949.21
555.234	7123.22
555.597	6968.64
555.96	7113.05
556.323	7072.82
556.686	7054.07
557.05	7132.71
557.413	7135.19
557.776	7208.64
558.139	7239.15
558.502	7209.77
558.865	7230.11
559.228	7298.81
559.59	7292.7
559.953	7253.38
560.316	7289.77
560.679	7407.73
561.041	7347.39
561.404	7453.6
561.767	7490.21
562.129	7440.5
562.492	7502.19
562.854	7541.96
563.217	7522.53
563.579	7559.14
563.941	7620.83
564.304	7696.76
564.666	7641.85
565.028	7642.53
565.39	7680.26
565.753	7740.38
566.115	7819.7
566.477	7744.9
566.839	7813.37
567.201	7856.98
567.563	7873.03
567.925	7905.12
568.287	7913.48
568.648	7893.82
569.01	7972.23
569.372	8009.52
569.734	7982.86
570.095	8062.63
570.457	8223.75
570.819	8171.32
571.18	8224.2
571.542	8220.81
571.903	8314.6
572.265	8270.76
572.626	8306.24
572.987	8367.7
573.349	8480.47
573.71	8393.01
574.071	8527.7
574.432	8523.63
574.794	8656.28
575.155	8691.54
575.516	8762.5
575.877	8820.12
576.238	8910.06
576.599	8904.64
576.96	8942.38
577.32	9068.93
577.681	9225.99
578.042	9202.03
578.403	9341.24
578.763	9393.21
579.124	9453.55
579.485	9597.28
579.845	9764.28
580.206	9801.34
580.566	9865.07
580.927	10119.3
581.287	10169.69
581.648	10274.55
582.008	10508.66
582.368	10584.82
582.728	10754.31
583.089	10884.93
583.449	11109.55
583.809	11280.4
584.169	11424.12
584.529	11584.12
584.889	11768.07
585.249	11951.11
585.609	12161.95
585.969	12411.21
586.329	12645.33
586.688	12791.99
587.048	13059.33
587.408	13265.88
587.768	13508.36
588.127	13738.64
588.487	14021.57
588.846	14371.84
589.206	14559.18
589.565	14744.49
589.925	15097.24
590.284	15381.08
590.643	15560.06
591.003	15954.62
591.362	16202.07
591.721	16514.38
592.08	16865.56
592.44	17190.07
592.799	17437.3
593.158	17885.19
593.517	18085.19
593.876	18503.03
594.235	18864.15
594.593	19063.02
594.952	19517.69
595.311	19675.43
595.67	20130.11
596.029	20501.62
596.387	20858.67
596.746	21221.83
597.104	21591.99
597.463	21810.74
597.822	22248.92
598.18	22518.52
598.538	22875.12
598.897	23269.46
599.255	23445.5
599.613	23956.67
599.972	24221.52
600.33	24605.02
600.688	24873.48
601.046	25236.86
601.404	25698.1
601.762	25926.56
602.12	26365.42
602.478	26709.59
602.836	26874.79
603.194	26971.06
603.552	27374.66
603.91	27643.58
604.268	28145.71
604.625	28389.55
604.983	28697.79
605.341	28851.46
605.698	29279.47
606.056	29553.14
606.413	29839.23
606.771	30356.28
607.128	30612.54
607.485	30631.53
607.843	30869.03
608.2	31319.64
608.557	31721.89
608.914	31892.28
609.272	32274.65
609.629	32567.75
609.986	32974.06
610.343	32869.66
610.7	33425.58
611.057	33609.98
611.414	33828.5
611.771	33941.72
612.127	34347.13
612.484	34494.25
612.841	34915.03
613.198	34859.89
613.554	35149.37
613.911	35456.48
614.267	35458.29
614.624	35702.35
614.98	35924.95
615.337	36394.54
615.693	36467.98
616.05	36642.89
616.406	37016.22
616.762	36945.03
617.118	37160.62
617.475	37326.26
617.831	37550.44
618.187	37765.12
618.543	37765.35
618.899	38210.99
619.255	38309.29
619.611	38377.31
619.967	38648.49
620.323	38769.62
620.678	38756.28
621.034	38835.38
621.39	39112.43
621.746	39169.15
622.101	39563.72
622.457	39370.05
622.812	39459.09
623.168	39860.89
623.523	39887.33
623.879	40149.69
624.234	39790.38
624.589	39971.62
624.945	40275.79
625.3	40406.18
625.655	40440.76
626.01	40603.92
626.365	40713.29
626.72	40663.13
627.075	40799.39
627.43	40837.81
627.785	40851.82
628.14	41024.7
628.495	41245.71
628.85	41078.48
629.205	40937.02
629.559	41286.39
629.914	41259.72
630.269	41318.7
630.623	41291.36
630.978	41258.36
631.332	41572.03
631.687	41390.56
632.041	41422.2
632.396	41575.64
632.75	41373.39
633.104	41695.87
633.459	41457
633.813	41505.82
634.167	41601.86
634.521	41580.84
634.875	41782.64
635.229	41593.27
635.583	41536.32
635.937	41480.73
636.291	41435.53
636.645	41613.61
636.999	41496.78
637.352	41579.49
637.706	41501.3
638.06	41713.49
638.413	41642.76
638.767	41552.82
639.121	41639.82
639.474	41577.9
639.828	41444.12
640.181	41664.91
640.534	41540.62
640.888	41519.15
641.241	41361.86
641.594	41509.43
641.947	41554.63
642.301	41475.99
642.654	41567.96
643.007	41516.66
643.36	41508.3
643.713	41451.13
644.066	41688.86
644.419	41275.76
644.771	41194.19
645.124	40876.91
645.477	40767.08
645.83	40517.59
646.182	40584.26
646.535	40165.74
646.888	40459.97
647.24	40149.24
647.593	40491.38
647.945	40273.53
648.298	40184.95
648.65	40225.4
649.002	39871.73
649.355	40133.2
649.707	40170.48
650.059	40183.14
650.411	40775.21
650.763	40808.43
651.115	41306.27
651.467	41143.57
651.819	41185.82
652.171	41079.39
652.523	40910.8
652.875	41045.94
653.227	40716.91
653.578	41039.84
653.93	40980.86
654.282	40769.34
654.633	40666.29
654.985	40865.15
655.337	40768.89
655.688	40777.92
656.039	41063.79
656.391	40701.99
656.742	40680.53
657.094	40637.82
657.445	40820.86
657.796	40776.34
658.147	40619.29
658.498	40609.34
658.849	40922.33
659.2	40820.18
659.551	40587.87
659.902	40724.37
660.253	40717.59
660.604	40724.14
660.955	40587.42
661.306	40763.91
661.656	40701.77
662.007	40677.81
662.358	40763.46
662.708	40621.32
663.059	40685.05
663.409	40381.78
663.76	40749
664.11	40735.21
664.461	40641.88
664.811	40637.36
665.161	40605.5
665.511	40615.9
665.862	40706.74
666.212	40644.37
666.562	40841.88
666.912	40734.99
667.262	40574.99
667.612	40546.74
667.962	40563.47
668.312	40543.81
668.662	40744.71
669.011	40551.49
669.361	40506.29
669.711	40563.92
670.06	40457.26
670.41	40438.27
670.76	40139.98
671.109	40585.84
671.459	40439.4
671.808	40332.51
672.157	40531.15
672.507	40219.52
672.856	40320.76
673.205	40192.63
673.554	40572.28
673.904	40282.8
674.253	40476.69
674.602	40260.88
674.951	39779.08
675.3	39530.27
675.649	40085.06
675.998	40152.63
676.346	40134.1
676.695	40335.9
677.044	40002.13
677.393	40270.59
677.741	40077.38
678.09	40030.37
678.438	39918.96
678.787	40093.65
679.135	40087.77
679.484	39767.56
679.832	39869.7
680.181	39734.79
680.529	39863.82
680.877	39754
681.225	39714.9
681.573	39868.34
681.922	39560.33
682.27	39561.91
682.618	39342.48
682.966	39467
683.314	39369.83
683.661	39450.5
684.009	39164.63
684.357	39189.94
684.705	39101.36
685.053	39147.91
685.4	39009.61
685.748	38915.38
686.095	38896.17
686.443	38739.33
686.79	38755.15
687.138	38792.21
687.485	38687.58
687.832	38574.82
688.18	38711.76
688.527	38472.67
688.874	38385.9
689.221	38365.56
689.568	38281.72
689.915	38239.23
690.262	38210.31
690.609	38000.14
690.956	38106.13
691.303	37915.4
691.65	37810.09
691.997	37853.48
692.344	37535.07
692.69	37542.98
693.037	37488.75
693.383	37215.53
693.73	37426.37
694.077	37155.2
694.423	37027.97
694.769	37067.51
695.116	36890.57
695.462	36814.87
695.808	36763.34
696.155	36911.81
696.501	36510.24
696.847	36634.08
697.193	36385.72
697.539	36283.13
697.885	36245.61
698.231	36111.61
698.577	36102.34
698.923	36108.22
699.269	35834.78
699.614	35755.91
699.96	35592.07
700.306	35711.62
700.651	35567.89
700.997	35430.95
701.342	35457.61
701.688	35161.58
702.033	35184.63
702.379	35075.7
702.724	34967.46
703.069	34973.78
703.415	34730.85
703.76	34697.41
704.105	34652.21
704.45	34618.31
704.795	34474.59
705.14	34248.38
705.485	34380.81
705.83	34099.68
706.175	34282.5
706.52	34135.16
706.865	34019.68
707.209	33969.52
707.554	33867.6
707.899	33926.13
708.243	33788.5
708.588	33782.85
708.932	33329.31
709.277	33384
709.621	33495.18
709.966	33195.98
710.31	33303.77
710.654	33080.5
710.998	33167.5
711.342	33166.37
711.687	32965.25
712.031	32863.78
712.375	32858.36
712.719	32755.09
713.063	32777.23
713.407	32872.14
713.75	32789.89
714.094	32641.64
714.438	32463.34
714.782	32585.15
715.125	32404.59
715.469	32465.15
715.812	32196
716.156	32066.74
716.499	32182.9
716.843	32230.13
717.186	31890.93
717.53	32087.76
717.873	32175.21
718.216	31909.91
718.559	31838.27
718.902	31659.29
719.246	31808.9
719.589	31534.1
719.932	31455.68
720.275	31643.48
720.617	31466.98
720.96	31462.92
721.303	31502.46
721.646	31367.32
721.989	31077.39
722.331	31319.42
722.674	31130.27
723.016	31182.02
723.359	31042.36
723.701	31138.86
724.044	30820.22
724.386	30676.95
724.729	30854.8
725.071	30890.28
725.413	30675.14
725.755	30777.96
726.097	30538.87
726.439	30508.82
726.782	30462.26
727.124	30573.22
727.465	30507.91
727.807	30502.71
728.149	30240.35
728.491	30219.78
728.833	30259.11
729.175	30185.21
729.516	30044.87
729.858	30113.12
730.199	30108.83
730.541	30022.05
730.882	30006.91
731.224	30031.77
731.565	29847.59
731.906	29920.81
732.248	29847.14
732.589	29616.86
732.93	29639.01
733.271	29705.45
733.612	29636.97
733.953	29667.48
734.294	29517.66
734.635	29442.86
734.976	29537.32
735.317	29500.03
735.658	29429.07
735.999	29434.49
736.339	29314.95
736.68	29367.83
737.021	29228.17
737.361	29180.72
737.702	29222.75
738.042	29259.58
738.383	29053.26
738.723	29170.55
739.063	28952.93
739.404	28960.83
739.744	28884
740.084	28869.54
740.424	28828.41
740.764	28773.27
741.104	28838.8
741.444	28680.39
741.784	28627.28
742.124	28708.19
742.464	28601.3
742.804	28548.87
743.143	28457.34
743.483	28569.88
743.823	28319.95
744.162	28217.8
744.502	28383.22
744.841	28297.58
745.181	28351.81
745.52	28172.61
745.86	28251.93
746.199	28126.96
746.538	28225.49
746.877	28278.37
747.216	28251.93
747.556	28070.01
747.895	28084.25
748.234	28020.07
748.573	27955.44
748.911	27897.81
749.25	27830.24
749.589	27773.75
749.928	27775.55
750.267	27783.92
750.605	27750.7
750.944	27654.2
751.283	27647.42
751.621	27778.72
751.96	27489.91
752.298	27373.08
752.636	27535.79
752.975	27354.32
753.313	27141.9
753.651	27432.74
753.989	27210.15
754.327	27147.1
754.666	27063.03
755.004	27138.74
755.342	26951.85
755.679	26913.2
756.017	26780.1
756.355	26981.23
756.693	26737.39
757.031	26839.53
757.368	26690.16
757.706	26687.45
758.044	26511.41
758.381	26698.3
758.719	26471.18
759.056	26539.43
759.394	26442.03
759.731	26236.16
760.068	26219.66
760.405	26112.32
760.743	26004.08
761.08	26218.99
