Data from hue_22_FLMS001491_00047.txt Node
Date: Tue Feb 07 17:10:11 GMT 2017
User: dcchb
Spectrometer: FLMS00149
Trigger mode: 0
Integration Time (sec): 2.000000E-2
Scans to average: 10
Electric dark correction enabled: true
Nonlinearity correction enabled: false
Boxcar width: 0
XAxis mode: Wavelengths
Number of Pixels in Spectrum: 2048
>>>>>Begin Spectral Data<<<<<
341.393	-7.66
341.776	-7.66
342.16	-7.66
342.543	-78.16
342.927	-69.12
343.31	-61.44
343.693	-71.83
344.077	-73.87
344.46	-67.77
344.843	-51.04
345.226	-47.43
345.61	-29.12
345.993	-23.47
346.376	-2.68
346.759	0.48
347.142	36.64
347.525	51.33
347.908	56.98
348.291	70.76
348.674	109.18
349.057	103.3
349.44	126.35
349.823	162.28
350.206	161.83
350.588	206.58
350.971	216.97
351.354	227.37
351.737	238.89
352.119	235.95
352.502	260.59
352.884	278.89
353.267	302.39
353.65	303.07
354.032	320.7
354.414	303.3
354.797	316.4
355.179	342.39
355.562	351.21
355.944	324.77
356.326	326.8
356.709	324.31
357.091	315.05
357.473	327.03
357.855	345.33
358.238	345.1
358.62	329.29
359.002	340.13
359.384	340.36
359.766	343.97
360.148	331.09
360.53	339.45
360.912	348.27
361.294	357.76
361.676	332.67
362.057	329.96
362.439	348.27
362.821	332.22
363.203	322.05
363.584	317.31
363.966	341.71
364.348	332.45
364.729	332
365.111	315.73
365.493	302.62
365.874	315.27
366.256	309.4
366.637	315.27
367.019	315.5
367.4	312.56
367.781	330.19
368.163	320.25
368.544	312.34
368.925	315.95
369.306	318.44
369.688	306.91
370.069	311.43
370.45	318.89
370.831	313.69
371.212	315.95
371.593	317.53
371.974	312.11
372.355	314.6
372.736	328.61
373.117	314.37
373.498	323.41
373.879	321.83
374.26	330.42
374.641	328.61
375.021	317.31
375.402	307.14
375.783	336.74
376.163	320.02
376.544	326.12
376.925	322.51
377.305	315.27
377.686	310.53
378.066	323.64
378.447	322.73
378.827	343.07
379.208	329.06
379.588	343.07
379.968	336.29
380.349	335.61
380.729	325.9
381.109	332.45
381.489	360.24
381.87	320.7
382.25	339.91
382.63	340.13
383.01	332
383.39	345.33
383.77	341.94
384.15	345.78
384.53	362.96
384.91	357.53
385.29	332.9
385.67	367.7
386.049	339.68
386.429	358.66
386.809	367.7
387.189	349.85
387.568	347.14
387.948	369.28
388.328	364.31
388.707	372.22
389.087	384.65
389.466	368.15
389.846	364.09
390.225	379.45
390.605	348.72
390.984	360.92
391.363	379.68
391.743	359.79
392.122	356.18
392.501	356.4
392.881	398.66
393.26	375.84
393.639	384.42
394.018	372.67
394.397	368.61
394.776	381.04
395.155	390.53
395.534	371.32
395.913	383.52
396.292	391.2
396.671	383.75
397.05	391.2
397.429	392.79
397.808	379
398.186	376.52
398.565	388.04
398.944	400.47
399.323	401.37
399.701	407.93
400.08	394.37
400.458	397.08
400.837	396.18
401.215	396.85
401.594	374.48
401.972	419.9
402.351	416.06
402.729	407.25
403.107	392.56
403.486	420.58
403.864	426.23
404.242	416.06
404.62	405.67
404.999	433.69
405.377	400.47
405.755	449.96
406.133	419.68
406.511	421.03
406.889	419.23
407.267	434.59
407.645	414.48
408.023	443.41
408.401	428.27
408.779	430.53
409.156	444.31
409.534	449.06
409.912	436.17
410.29	457.19
410.667	428.72
411.045	443.63
411.422	446.34
411.8	462.39
412.178	448.38
412.555	431.2
412.933	467.36
413.31	450.86
413.687	471.2
414.065	447.93
414.442	484.99
414.819	451.77
415.197	495.38
415.574	489.05
415.951	478.43
416.328	473.01
416.705	486.34
417.082	487.93
417.46	481.82
417.837	474.59
418.214	489.28
418.591	524.53
418.967	515.72
419.344	502.84
419.721	509.85
420.098	511.43
420.475	515.49
420.852	524.08
421.228	520.24
421.605	507.36
421.982	533.57
422.358	524.76
422.735	535.83
423.111	510.3
423.488	522.95
423.864	539.22
424.241	529.73
424.617	555.72
424.994	556.4
425.37	551.43
425.746	561.14
426.123	561.37
426.499	555.04
426.875	552.56
427.251	554.59
427.627	597.07
428.003	594.14
428.379	589.17
428.756	559.11
429.132	620.35
429.507	592.78
429.883	621.93
430.259	616.51
430.635	583.06
431.011	624.19
431.387	630.29
431.763	635.04
432.138	637.98
432.514	641.82
432.89	639.79
433.265	660.8
433.641	654.02
434.016	644.53
434.392	672.1
434.767	675.26
435.143	661.25
435.518	691.08
435.894	677.07
436.269	677.52
436.644	690.86
437.02	694.25
437.395	701.48
437.77	701.03
438.145	690.63
438.52	672.78
438.895	692.21
439.271	705.55
439.646	725.21
440.021	731.31
440.395	757.3
440.77	731.99
441.145	739.67
441.52	754.58
441.895	752.1
442.27	763.17
442.645	739.9
443.019	768.82
443.394	766.11
443.769	781.48
444.143	778.31
444.518	775.6
444.892	799.33
445.267	781.02
445.641	795.04
446.016	811.98
446.39	788.71
446.764	783.06
447.139	791.19
447.513	790.06
447.887	809.05
448.262	814.24
448.636	820.12
449.01	819.89
449.384	820.57
449.758	822.61
450.132	834.13
450.506	847.92
450.88	856.28
451.254	839.33
451.628	877.07
452.002	870.06
452.376	870.97
452.75	885.43
453.123	884.75
453.497	903.06
453.871	918.87
454.244	917.97
454.618	910.29
454.992	920
455.365	939.66
455.739	940.57
456.112	947.12
456.486	932.89
456.859	943.96
457.232	977.63
457.606	990.74
457.979	994.58
458.352	1001.81
458.725	1030.74
459.099	1017.18
459.472	1061.92
459.845	1051.07
460.218	1056.95
460.591	1072.09
460.964	1074.58
461.337	1108.93
461.71	1084.75
462.083	1118.64
462.456	1118.42
462.829	1147.12
463.201	1149.6
463.574	1146.21
463.947	1125.87
464.32	1192.31
464.692	1180.56
465.065	1201.58
465.438	1210.62
465.81	1223.05
466.183	1240.67
466.555	1263.05
466.928	1242.26
467.3	1265.08
467.672	1295.81
468.045	1292.65
468.417	1329.26
468.789	1335.36
469.161	1317.51
469.534	1374.46
469.906	1369.94
470.278	1399.99
470.65	1419.65
471.022	1447.67
471.394	1437.5
471.766	1482.25
472.138	1491.51
472.51	1531.51
472.882	1546.65
473.253	1568.12
473.625	1566.31
473.997	1627.1
474.369	1627.33
474.74	1663.26
475.112	1683.83
475.484	1722.02
475.855	1759.76
476.227	1762.92
476.598	1800.21
476.97	1844.73
477.341	1859.41
477.713	1900.54
478.084	1942.8
478.455	1937.38
478.827	1985.51
479.198	2057.83
479.569	2055.57
479.94	2132.18
480.311	2136.47
480.682	2190.25
481.053	2204.49
481.424	2269.12
481.795	2283.81
482.166	2328.55
482.537	2386.86
482.908	2396.58
483.279	2461.21
483.65	2500.08
484.021	2518.61
484.391	2604.71
484.762	2602.45
485.133	2619.62
485.503	2694.42
485.874	2717.7
486.244	2777.81
486.615	2844.93
486.985	2886.73
487.356	2917.24
487.726	2945.71
488.097	3041.08
488.467	3075.2
488.837	3096.9
489.207	3175.54
489.578	3225.93
489.948	3229.32
490.318	3273.84
490.688	3292.37
491.058	3384.12
491.428	3429.32
491.798	3424.8
492.168	3509.09
492.538	3541.86
492.908	3580.73
493.278	3629.09
493.648	3638.58
494.017	3692.13
494.387	3734.17
494.757	3779.82
495.126	3805.58
495.496	3808.06
495.866	3890.1
496.235	3911.56
496.605	3939.13
496.974	3949.53
497.344	4009.19
497.713	4051.22
498.082	4049.19
498.452	4118.56
498.821	4149.07
499.19	4128.96
499.559	4209.18
499.928	4235.85
500.298	4262.74
500.667	4319.46
501.036	4336.19
501.405	4393.36
501.774	4386.35
502.143	4397.43
502.512	4454.83
502.88	4456.18
503.249	4487.59
503.618	4513.13
503.987	4551.32
504.356	4544.77
504.724	4565.78
505.093	4586.35
505.462	4596.97
505.83	4661.15
506.199	4702.96
506.567	4724.42
506.936	4736.85
507.304	4782.5
507.672	4810.52
508.041	4824.31
508.409	4837.87
508.777	4886.23
509.145	4922.38
509.514	4888.94
509.882	4944.53
510.25	4953.34
510.618	4996.51
510.986	5012.1
511.354	5007.58
511.722	5062.95
512.09	5111.08
512.458	5110.63
512.826	5140.46
513.193	5128.71
513.561	5173.45
513.929	5135.71
514.297	5236.05
514.664	5242.83
515.032	5264.75
515.4	5316.05
515.767	5305.43
516.135	5342.49
516.502	5329.38
516.869	5416.61
517.237	5427.23
517.604	5382.49
517.972	5424.07
518.339	5462.71
518.706	5468.81
519.073	5507.45
519.44	5526.66
519.808	5549.26
520.175	5528.02
520.542	5611.18
520.909	5633.1
521.276	5674
521.643	5716.49
522.009	5683.27
522.376	5708.58
522.743	5814.34
523.11	5815.24
523.477	5899.08
523.843	5921.45
524.21	5906.77
524.577	5985.63
524.943	5982.24
525.31	6002.36
525.676	6035.35
526.043	6073.31
526.409	6093.65
526.776	6181.11
527.142	6223.82
527.508	6185.85
527.874	6239.86
528.241	6278.51
528.607	6307.66
528.973	6314.66
529.339	6326.64
529.705	6442.34
530.071	6435.11
530.437	6478.73
530.803	6485.51
531.169	6495.68
531.535	6467.43
531.901	6575.67
532.267	6621.1
532.632	6628.78
532.998	6653.19
533.364	6692.06
533.73	6708.55
534.095	6720.98
534.461	6809.79
534.826	6796.46
535.192	6855.44
535.557	6893.86
535.923	6887.53
536.288	6897.93
536.653	6910.81
537.019	6924.82
537.384	6949.22
537.749	7051.14
538.114	7033.29
538.479	7087.98
538.845	7045.04
539.21	7066.06
539.575	7146.96
539.94	7122.33
540.305	7187.86
540.67	7264.47
541.034	7253.4
541.399	7287.07
541.764	7311.25
542.129	7341.3
542.494	7323.9
542.858	7440.96
543.223	7398.93
543.587	7437.57
543.952	7460.85
544.316	7490.45
544.681	7490.23
545.045	7539.94
545.41	7585.14
545.774	7589.21
546.138	7635.08
546.503	7654.52
546.867	7696.78
547.231	7717.11
547.595	7735.64
547.959	7755.3
548.324	7818.81
548.688	7812.7
549.052	7848.41
549.416	7830.56
549.779	7853.61
550.143	7907.39
550.507	7893.38
550.871	7987.16
551.235	7969.76
551.599	8085.01
551.962	8069.87
552.326	8085.47
552.689	8074.62
553.053	8132.7
553.417	8156.42
553.78	8267.83
554.143	8174.95
554.507	8201.62
554.87	8301.73
555.234	8376.08
555.597	8287.49
555.96	8322.75
556.323	8416.53
556.686	8395.06
557.05	8425.12
557.413	8523.19
557.776	8456.08
558.139	8536.07
558.502	8548.05
558.865	8560.48
559.228	8647.48
559.59	8604.55
559.953	8669.63
560.316	8718.9
560.679	8763.19
561.041	8754.15
561.404	8802.06
561.767	8846.12
562.129	8795.5
562.492	8948.49
562.854	8840.93
563.217	8868.04
563.579	8936.74
563.941	9030.98
564.304	9041.37
564.666	9129.73
565.028	9098.32
565.39	9193.01
565.753	9188.49
566.115	9170.18
566.477	9160.47
566.839	9274.81
567.201	9313
567.563	9316.39
567.925	9402.94
568.287	9375.6
568.648	9471.87
569.01	9487.24
569.372	9503.96
569.734	9531.76
570.095	9533.11
570.457	9658.53
570.819	9640.23
571.18	9699.43
571.542	9701.92
571.903	9786.21
572.265	9812.88
572.626	9887.68
572.987	9863.27
573.349	9922.71
573.71	10001.57
574.071	10064.85
574.432	10095.58
574.794	10189.14
575.155	10124.51
575.516	10277.27
575.877	10390.49
576.238	10406.76
576.599	10463.48
576.96	10532.41
577.32	10628.9
577.681	10677.04
578.042	10749.35
578.403	10817.37
578.763	10943.47
579.124	10993.64
579.485	11123.8
579.845	11192.95
580.206	11309.11
580.566	11394.53
580.927	11494.64
581.287	11642.21
581.648	11678.82
582.008	11850.11
582.368	11942.09
582.728	12123.1
583.089	12281.29
583.449	12401.06
583.809	12592.47
584.169	12744.78
584.529	12905.45
584.889	13196.07
585.249	13254.59
585.609	13385.21
585.969	13660.69
586.329	13802.15
586.688	14069.04
587.048	14218.64
587.408	14415.02
587.768	14645.07
588.127	14928.45
588.487	15076.69
588.846	15387.87
589.206	15582.9
589.565	15838.71
589.925	16120.51
590.284	16337
590.643	16659.48
591.003	17012.01
591.362	17219.24
591.721	17478.21
592.08	17694.25
592.44	18072.77
592.799	18308.02
593.158	18638.18
593.517	18908.68
593.876	19272.74
594.235	19534.2
594.593	19769.45
594.952	20193.62
595.311	20441.98
595.67	20789.31
596.029	21156.31
596.387	21407.37
596.746	21809.4
597.104	22045.1
597.463	22349.27
597.822	22688.25
598.18	22910.84
598.538	23210.72
598.897	23604.61
599.255	23721.44
599.613	24377.47
599.972	24659.49
600.33	24914.4
600.688	25017.68
601.046	25542.63
601.404	25803.87
601.762	26119.79
602.12	26512.1
602.478	26769.27
602.836	27199.09
603.194	27197.73
603.552	27590.94
603.91	27744.84
604.268	28214.88
604.625	28376.68
604.983	28785.03
605.341	28874.75
605.698	29358.13
606.056	29595.41
606.413	29869.07
606.771	30176.18
607.128	30457.76
607.485	30592.9
607.843	30755.38
608.2	31194.46
608.557	31510.39
608.914	31692.75
609.272	31969.81
609.629	32293.19
609.986	32583.13
610.343	32644.59
610.7	33005.71
611.057	33265.59
611.414	33346.5
611.771	33601.63
612.127	33926.59
612.484	34008.85
612.841	34318.9
613.198	34393.25
613.554	34637.54
613.911	34988.94
614.267	35091.53
614.624	35332.88
614.98	35442.26
615.337	35875.92
615.693	35875.47
616.05	36037.95
616.406	36386.42
616.762	36369.69
617.118	36512.29
617.475	36800.42
617.831	37043.12
618.187	37156.57
618.543	37285.15
618.899	37499.61
619.255	37619.83
619.611	37722.65
619.967	37935.08
620.323	38069.76
620.678	38157.67
621.034	38177.78
621.39	38360.15
621.746	38214.84
622.101	38949.96
622.457	38745.45
622.812	38817.09
623.168	39048.72
623.523	39286
623.879	39451.65
624.234	39176.17
624.589	39459.56
624.945	39469.5
625.3	39571.87
625.655	39723.28
626.01	39718.08
626.365	39902.03
626.72	39905.42
627.075	40089.37
627.43	39989.49
627.785	40001.46
628.14	40288.01
628.495	40250.5
628.85	40257.5
629.205	40233.77
629.559	40473.31
629.914	40376.14
630.269	40472.41
630.623	40408.68
630.978	40450.72
631.332	40589.7
631.687	40708.56
632.041	40629.92
632.396	40731.16
632.75	40676.7
633.104	40813.19
633.459	40592.63
633.813	40662.01
634.167	40634.21
634.521	40807.54
634.875	40749.92
635.229	40841.67
635.583	40760.76
635.937	40715.12
636.291	40695.23
636.645	40658.62
636.999	40728.45
637.352	40770.03
637.706	40733.19
638.06	40870.82
638.413	40678.28
638.767	40563.03
639.121	40761.67
639.474	40530.26
639.828	40703.36
640.181	40789.46
640.534	40842.12
640.888	40661.78
641.241	40654.55
641.594	40779.29
641.947	40712.63
642.301	40703.82
642.654	40729.58
643.007	40863.13
643.36	40688.9
643.713	40636.7
644.066	40766.87
644.419	40507.44
644.771	40255.01
645.124	40044.4
645.477	39928.92
645.83	39756.72
646.182	39616.16
646.535	39502.49
646.888	39521.93
647.24	39407.13
647.593	39701.81
647.945	39460.91
648.298	39308.83
648.65	39403.74
649.002	39325.32
649.355	39364.87
649.707	39420.23
650.059	39628.36
650.411	40064.51
650.763	40087.11
651.115	40344.73
651.467	40173.21
651.819	40275.58
652.171	40179.99
652.523	40154.68
652.875	40180.89
653.227	40197.84
653.578	40291.17
653.93	40313.77
654.282	39999.65
654.633	39955.81
654.985	40089.6
655.337	40205.52
655.688	40142.25
656.039	40287.56
656.391	39915.59
656.742	39935.25
657.094	40030.16
657.445	40065.64
657.796	40144.28
658.147	39908.58
658.498	39926.44
658.849	40054.12
659.2	39975.25
659.551	39767.57
659.902	39966.21
660.253	40011.63
660.604	40007.79
660.955	39675.6
661.306	40017.06
661.656	39966.44
662.007	40021.8
662.358	39906.78
662.708	39953.33
663.059	39974.34
663.409	39642.6
663.76	40036.94
664.11	39926.89
664.461	39922.59
664.811	40040.33
665.161	39863.84
665.511	39863.16
665.862	39932.09
666.212	39873.33
666.562	39882.6
666.912	39845.99
667.262	39782.71
667.612	39787.23
667.962	39704.97
668.312	39768.7
668.662	39925.76
669.011	39893.67
669.361	39814.8
669.711	39902.71
670.06	39838.08
670.41	39801.47
670.76	39728.7
671.109	39818.42
671.459	39819.55
671.808	39714.24
672.157	39796.27
672.507	39645.31
672.856	39461.82
673.205	39528.71
673.554	39775.48
673.904	39479.22
674.253	39766.67
674.602	39590.17
674.951	38942.51
675.3	38831.1
675.649	39533
675.998	39507.24
676.346	39293.68
676.695	39456.39
677.044	39292.1
677.393	39254.59
677.741	39410.52
678.09	39475.83
678.438	39298.43
678.787	39210.07
679.135	39285.32
679.484	39045.33
679.832	39256.4
680.181	39041.94
680.529	39199.22
680.877	39072.45
681.225	38888.05
681.573	39229.96
681.922	38820.48
682.27	38775.96
682.618	38877.88
682.966	38789.06
683.314	38688.5
683.661	38671.78
684.009	38630.65
684.357	38409.19
684.705	38411.22
685.053	38525.79
685.4	38497.77
685.748	38214.84
686.095	38327.16
686.443	38175.52
686.79	37966.71
687.138	38241.73
687.485	38166.93
687.832	37907.51
688.18	38098.69
688.527	37722.43
688.874	37733.95
689.221	37617.57
689.568	37539.15
689.915	37545.26
690.262	37523.56
690.609	37553.17
690.956	37199.73
691.303	37251.48
691.65	37100.3
691.997	37242.44
692.344	36874.31
692.69	36952.28
693.037	36897.14
693.383	36516.36
693.73	36703.02
694.077	36552.29
694.423	36373.76
694.769	36379.18
695.116	36400.43
695.462	36197.49
695.808	36129.02
696.155	36203.6
696.501	36025.75
696.847	35956.82
697.193	35625.53
697.539	35807.67
697.885	35573.78
698.231	35593.67
698.577	35561.81
698.923	35352.77
699.269	35186
699.614	34938.54
699.96	35136.05
700.306	35034.36
700.651	34853.35
700.997	34840.69
701.342	34803.86
701.688	34702.84
702.033	34583.3
702.379	34539.46
702.724	34451.55
703.069	34487.26
703.415	34087.49
703.76	34288.62
704.105	34166.36
704.45	34069.64
704.795	33944.45
705.14	33831.23
705.485	33882.75
705.83	33720.05
706.175	33663.32
706.52	33618.58
706.865	33342.43
707.209	33514.63
707.554	33316.89
707.899	33365.25
708.243	33196.67
708.588	33131.59
708.932	33077.12
709.277	32890.91
709.621	32926.39
709.966	32721.43
710.31	32856.57
710.654	32556.69
710.998	32614.31
711.342	32547.65
711.687	32464.71
712.031	32216.81
712.375	32327.99
712.719	32392.62
713.063	32242.12
713.407	32392.62
713.75	32242.12
714.094	32124.61
714.438	31970.49
714.782	32025.85
715.125	31908.12
715.469	31899.53
715.812	31654.11
716.156	31580.67
716.499	31606.2
716.843	31589.93
717.186	31428.81
717.53	31610.5
717.873	31507
718.216	31582.02
718.559	31390.39
718.902	31207.57
719.246	31231.52
719.589	31138.42
719.932	31019.33
720.275	30930.06
720.617	31000.8
720.96	30889.61
721.303	30950.63
721.646	30919.89
721.989	30711.09
722.331	30888.48
722.674	30730.97
723.016	30833.12
723.359	30673.8
723.701	30594.7
724.044	30498.66
724.386	30306.12
724.729	30484.65
725.071	30310.87
725.413	30300.93
725.755	30298.44
726.097	30204.43
726.439	30088.5
726.782	30061.84
727.124	30257.09
727.465	30009.41
727.807	30075.62
728.149	29936.19
728.491	29695.52
728.833	29813.26
729.175	29840.6
729.516	29772.8
729.858	29809.64
730.199	29851.9
730.541	29601.96
730.882	29514.28
731.224	29644.67
731.565	29407.62
731.906	29419.14
732.248	29442.64
732.589	29251.91
732.93	29269.99
733.271	29277
733.612	29357.22
733.953	29324.45
734.294	29107.29
734.635	29099.6
734.976	29242.65
735.317	28954.97
735.658	29046.5
735.999	28991.13
736.339	29015.08
736.68	28945.48
737.021	28723.34
737.361	28877.46
737.702	28750.01
738.042	28800.17
738.383	28737.13
738.723	28846.05
739.063	28643.34
739.404	28731.25
739.744	28565.15
740.084	28538.71
740.424	28438.6
740.764	28383.24
741.104	28627.98
741.444	28360.64
741.784	28214.2
742.124	28362.22
742.464	28372.16
742.804	28188.67
743.143	28198.83
743.483	28224.6
743.823	27966.75
744.162	28128.78
744.502	28109.8
744.841	28099.4
745.181	27982.34
745.52	27932.4
745.86	27904.15
746.199	27803.82
746.538	27842.91
746.877	27787.32
747.216	27889.24
747.556	27827.77
747.895	27697.61
748.234	27606.76
748.573	27720.66
748.911	27613.54
749.25	27648.57
749.589	27437.05
749.928	27523.15
750.267	27524.05
750.605	27555.69
750.944	27464.39
751.283	27305.98
751.621	27312.3
751.96	27296.94
752.298	27304.4
752.636	27279.76
752.975	27128.58
753.313	26996.38
753.651	27074.12
753.989	26916.38
754.327	26934.69
754.666	26771.75
755.004	26784.18
755.342	26860.56
755.679	26753.68
756.017	26682.26
756.355	26629.84
756.693	26515.72
757.031	26603.4
757.368	26534.92
757.706	26383.74
758.044	26414.47
758.381	26442.27
758.719	26360.24
759.056	26301.03
759.394	26185.33
759.731	26076.4
760.068	26018.78
760.405	26005.9
