Data from hue_240_FLMS001491_00068.txt Node
Date: Tue Feb 07 16:35:48 GMT 2017
User: dcchb
Spectrometer: FLMS00149
Trigger mode: 0
Integration Time (sec): 2.000000E-2
Scans to average: 10
Electric dark correction enabled: true
Nonlinearity correction enabled: false
Boxcar width: 0
XAxis mode: Wavelengths
Number of Pixels in Spectrum: 2048
>>>>>Begin Spectral Data<<<<<
341.393	-9.76
341.776	-9.76
342.16	-9.76
342.543	-71.45
342.927	-78.68
343.31	-62.64
343.693	-84.79
344.077	-63.09
344.46	-77.55
344.843	-67.39
345.226	-54.28
345.61	-45.46
345.993	4.93
346.376	-5.69
346.759	19.39
347.142	30.01
347.525	55.78
347.908	71.14
348.291	71.59
348.674	85.38
349.057	122.67
349.44	109.33
349.823	135.1
350.206	157.69
350.588	171.03
350.971	198.37
351.354	200.4
351.737	225.94
352.119	237.24
352.502	255.32
352.884	289.89
353.267	277.46
353.65	283.79
354.032	290.8
354.414	311.14
354.797	306.39
355.179	325.37
355.562	295.54
355.944	318.82
356.326	342.1
356.709	313.4
357.091	319.5
357.473	351.81
357.855	317.24
358.238	322.44
358.62	342.1
359.002	328.99
359.384	307.97
359.766	333.06
360.148	333.06
360.53	321.53
360.912	318.59
361.294	332.15
361.676	337.35
362.057	320.63
362.439	301.19
362.821	305.94
363.203	326.95
363.584	305.03
363.966	324.92
364.348	324.47
364.729	317.01
365.111	301.42
365.493	327.63
365.874	313.17
366.256	310.91
366.637	291.48
367.019	312.27
367.4	309.33
367.781	293.51
368.163	296.67
368.544	306.62
368.925	321.53
369.306	295.32
369.688	317.92
370.069	311.59
370.45	300.06
370.831	291.02
371.212	318.14
371.593	289.44
371.974	304.13
372.355	303.9
372.736	302.32
373.117	311.36
373.498	299.84
373.879	314.3
374.26	291.93
374.641	303
375.021	305.71
375.402	305.26
375.783	327.18
376.163	321.31
376.544	302.77
376.925	321.53
377.305	328.31
377.686	325.15
378.066	324.69
378.447	309.33
378.827	311.81
379.208	304.58
379.588	317.69
379.968	325.82
380.349	321.53
380.729	329.44
381.109	333.51
381.489	334.64
381.87	333.28
382.25	330.34
382.63	344.58
383.01	336.9
383.39	340.06
383.77	345.26
384.15	345.26
384.53	350.23
384.91	353.85
385.29	342.55
385.67	350.68
386.049	336.22
386.429	331.93
386.809	339.16
387.189	344.81
387.568	354.3
387.948	340.74
388.328	325.15
388.707	353.39
389.087	351.36
389.466	350.91
389.846	379.38
390.225	351.13
390.605	372.15
390.984	350
391.363	369.89
391.743	374.64
392.122	355.65
392.501	368.76
392.881	363.34
393.26	379.38
393.639	368.08
394.018	382.09
394.397	372.6
394.776	354.3
395.155	357.46
395.534	389.78
395.913	388.2
396.292	397.69
396.671	388.65
397.05	392.04
397.429	365.15
397.808	377.57
398.186	391.81
398.565	382.32
398.944	383
399.323	406.5
399.701	383.22
400.08	404.47
400.458	393.17
400.837	419.83
401.215	406.95
401.594	400.4
401.972	383.22
402.351	393.62
402.729	409.21
403.107	412.15
403.486	416.22
403.864	431.36
404.242	430.45
404.62	430.45
404.999	434.3
405.377	429.78
405.755	433.62
406.133	471.36
406.511	448.31
406.889	457.57
407.267	466.16
407.645	455.09
408.023	448.53
408.401	467.74
408.779	457.8
409.156	483.79
409.534	489.89
409.912	487.4
410.29	487.85
410.667	488.98
411.045	491.7
411.422	505.48
411.8	503.67
412.178	499.61
412.555	541.86
412.933	532.82
413.31	537.34
413.687	531.92
414.065	557.46
414.442	544.8
414.819	552.03
415.197	580.51
415.574	574.86
415.951	573.73
416.328	573.28
416.705	567.17
417.082	611.69
417.46	593.16
417.837	604.91
418.214	630
418.591	611.24
418.967	617.12
419.344	639.49
419.721	631.58
420.098	633.61
420.475	669.77
420.852	669.77
421.228	654.86
421.605	656.66
421.982	709.32
422.358	701.41
422.735	705.48
423.111	710.9
423.488	698.92
423.864	727.17
424.241	733.72
424.617	723.78
424.994	725.14
425.37	770.33
425.746	759.03
426.123	794.06
426.499	796.77
426.875	776.66
427.251	795.64
427.627	809.65
428.003	805.59
428.379	837.9
428.756	816.43
429.132	827.05
429.507	862.99
429.883	856.66
430.259	884
430.635	878.8
431.011	871.12
431.387	914.28
431.763	900.72
432.138	926.71
432.514	935.98
432.89	942.98
433.265	951.35
433.641	988.18
434.016	974.17
434.392	1001.06
434.767	1029.54
435.143	1016.65
435.518	1077.44
435.894	1069.76
436.269	1092.13
436.644	1099.59
437.02	1119.7
437.395	1114.96
437.77	1122.19
438.145	1123.32
438.52	1179.36
438.895	1174.39
439.271	1174.84
439.646	1184.79
440.021	1190.43
440.395	1220.94
440.77	1225.91
441.145	1236.54
441.52	1280.83
441.895	1278.57
442.27	1290.55
442.645	1287.83
443.019	1286.7
443.394	1299.13
443.769	1314.5
444.143	1305.91
444.518	1335.74
444.892	1363.76
445.267	1360.37
445.641	1361.73
446.016	1397.66
446.39	1383.2
446.764	1385.23
447.139	1378.9
447.513	1418.9
447.887	1409.86
448.262	1444.44
448.636	1427.04
449.01	1456.87
449.384	1447.38
449.758	1485.57
450.132	1481.05
450.506	1488.73
450.88	1500.03
451.254	1506.13
451.628	1526.92
452.002	1561.27
452.376	1571.89
452.75	1546.81
453.123	1577.54
453.497	1618.9
453.871	1609.86
454.244	1637.2
454.618	1664.09
454.992	1672.46
455.365	1688.05
455.739	1713.13
456.112	1721.95
456.486	1733.02
456.859	1741.15
457.232	1796.75
457.606	1770.31
457.979	1809.18
458.352	1823.19
458.725	1837.2
459.099	1855.95
459.472	1875.16
459.845	1933.01
460.218	1931.66
460.591	1936.18
460.964	1978.44
461.337	1980.7
461.71	2002.84
462.083	2015.72
462.456	2059.34
462.829	2030.86
463.201	2088.04
463.574	2115.16
463.947	2127.36
464.32	2143.18
464.692	2158.54
465.065	2178.66
465.438	2222.27
465.81	2248.03
466.183	2257.53
466.555	2322.16
466.928	2308.37
467.3	2316.73
467.672	2354.47
468.045	2391.99
468.417	2408.03
468.789	2396.96
469.161	2451.87
469.534	2493
469.906	2544.98
470.278	2540
470.65	2563.73
471.022	2608.93
471.394	2656.38
471.766	2679.21
472.138	2671.53
472.51	2738.19
472.882	2799.21
473.253	2812.99
473.625	2807.34
473.997	2883.72
474.369	2901.58
474.74	2913.55
475.112	2991.97
475.484	3008.01
475.855	3019.99
476.227	3084.4
476.598	3126.43
476.97	3163.04
477.341	3218.4
477.713	3279.19
478.084	3281.23
478.455	3398.06
478.827	3416.36
479.198	3502.24
479.569	3500.43
479.94	3572.29
480.311	3574.55
480.682	3693.65
481.053	3769.8
481.424	3776.81
481.795	3821.55
482.166	3893.41
482.537	3939.52
482.908	4015.9
483.279	4015.67
483.65	4070.36
484.021	4144.48
484.391	4220.41
484.762	4238.72
485.133	4242.56
485.503	4252.05
485.874	4424.47
486.244	4401.2
486.615	4436
486.985	4491.59
487.356	4586.28
487.726	4578.37
488.097	4688.42
488.467	4754.41
488.837	4803
489.207	4849.77
489.578	4946.27
489.948	4949.21
490.318	5055.64
490.688	5033.27
491.058	5052.71
491.428	5130.22
491.798	5183.1
492.168	5245.02
492.538	5281.4
492.908	5351.68
493.278	5382.19
493.648	5451.34
494.017	5470.32
494.387	5485.69
494.757	5577.44
495.126	5580.83
495.496	5552.81
495.866	5629.41
496.235	5700.15
496.605	5712.58
496.974	5747.83
497.344	5769.07
497.713	5822.63
498.082	5802.29
498.452	5894.94
498.821	5920.25
499.19	5870.76
499.559	6013.58
499.928	5997.99
500.298	6019.69
500.667	6057.65
501.036	6078.22
501.405	6086.58
501.774	6150.53
502.143	6191.43
502.512	6154.6
502.88	6236.86
503.249	6245.22
503.618	6285.44
503.987	6241.83
504.356	6320.47
504.724	6366.34
505.093	6324.09
505.462	6342.39
505.83	6420.58
506.199	6412.44
506.567	6501.48
506.936	6460.58
507.304	6547.58
507.672	6582.84
508.041	6616.05
508.409	6609.95
508.777	6617.64
509.145	6689.5
509.514	6652.66
509.882	6651.99
510.25	6692.66
510.618	6762.27
510.986	6744.87
511.354	6808.59
511.722	6873.45
512.09	6789.16
512.458	6867.12
512.826	6894.92
513.193	6878.19
513.561	6943.96
513.929	6938.31
514.297	6984.18
514.664	7075.7
515.032	7017.63
515.4	7029.15
515.767	7086.55
516.135	7137.62
516.502	6979.89
516.869	7123.16
517.237	7096.27
517.604	7136.04
517.972	7151.63
518.339	7140.79
518.706	7186.66
519.073	7163.61
519.44	7230.95
519.808	7231.18
520.175	7254.68
520.542	7274.79
520.909	7306.43
521.276	7294
521.643	7335.13
522.009	7329.26
522.376	7374.68
522.743	7429.37
523.11	7479.99
523.477	7476.82
523.843	7537.16
524.21	7576.71
524.577	7549.82
524.943	7594.11
525.31	7595.69
525.676	7612.86
526.043	7689.47
526.409	7686.99
526.776	7685.86
527.142	7724.95
527.508	7741.22
527.874	7699.19
528.241	7809.02
528.607	7780.32
528.973	7865.97
529.339	7777.61
529.705	7898.06
530.071	7884.5
530.437	7860.99
530.803	7912.97
531.169	7908
531.535	7874.78
531.901	7892.63
532.267	7840.43
532.632	7884.5
532.998	7849.02
533.364	7947.09
533.73	7957.71
534.095	8061.44
534.461	7952.97
534.826	8011.5
535.192	7948.68
535.557	7983.25
535.923	8006.53
536.288	7976.02
536.653	8011.5
537.019	7975.12
537.384	7940.09
537.749	7960.88
538.114	7986.41
538.479	7952.29
538.845	8048.33
539.21	7874.33
539.575	7942.8
539.94	7943.48
540.305	7972.18
540.67	7926.98
541.034	7936.02
541.399	7904.61
541.764	7928.11
542.129	7913.2
542.494	7924.5
542.858	7920.88
543.223	7865.51
543.587	7971.95
543.952	7931.27
544.316	7879.98
544.681	7872.29
545.045	7889.47
545.41	7917.94
545.774	7863.48
546.138	7868
546.503	7867.55
546.867	7898.51
547.231	7910.03
547.595	7878.39
547.959	7896.93
548.324	7887.66
548.688	7878.39
549.052	7847.43
549.416	7910.71
549.779	7853.76
550.143	7821.22
550.507	7866.19
550.871	7853.08
551.235	7820.77
551.599	7847.21
551.962	7860.32
552.326	7873.87
552.689	7842.46
553.053	7790.94
553.417	7799.75
553.78	7910.71
554.143	7817.61
554.507	7855.12
554.87	7875.46
555.234	7919.07
555.597	7852.18
555.96	7874.55
556.323	7887.66
556.686	7835.91
557.05	7894.89
557.413	7884.27
557.776	7923.37
558.139	7980.09
558.502	7906.19
558.865	7926.08
559.228	7946.64
559.59	7970.14
559.953	7954.32
560.316	7986.19
560.679	8047.66
561.041	8053.98
561.404	8045.62
561.767	8076.36
562.129	8021.67
562.492	8083.81
562.854	8085.39
563.217	8020.99
563.579	8094.66
563.941	8160.42
564.304	8189.12
564.666	8221.44
565.028	8167.65
565.39	8216.24
565.753	8196.35
566.115	8260.08
566.477	8282.68
566.839	8277.93
567.201	8372.39
567.563	8343.24
567.925	8406.52
568.287	8371.26
568.648	8383.92
569.01	8443.13
569.372	8429.11
569.734	8458.04
570.095	8417.82
570.457	8521.32
570.819	8452.84
571.18	8527.64
571.542	8548.21
571.903	8565.38
572.265	8575.33
572.626	8588.66
572.987	8642.67
573.349	8633.63
573.71	8713.4
574.071	8709.33
574.432	8666.62
574.794	8753.17
575.155	8723.8
575.516	8734.87
575.877	8786.62
576.238	8771.7
576.599	8797.69
576.96	8792.72
577.32	8788.65
577.681	8833.85
578.042	8879.05
578.403	8907.97
578.763	8881.98
579.124	8940.51
579.485	8884.24
579.845	8918.37
580.206	8944.81
580.566	8943.9
580.927	8960.4
581.287	8963.56
581.648	8962.21
582.008	8973.73
582.368	9010.12
582.728	9021.42
583.089	9008.31
583.449	9089.66
583.809	9013.73
584.169	9069.78
584.529	9044.47
584.889	9141.41
585.249	9029.32
585.609	9079.72
585.969	9126.72
586.329	9025.03
586.688	9120.17
587.048	9080.17
587.408	9126.5
587.768	9177.57
588.127	9097.12
588.487	9147.06
588.846	9213.5
589.206	9143.22
589.565	9165.37
589.925	9194.29
590.284	9178.25
590.643	9194.07
591.003	9210.11
591.362	9266.83
591.721	9247.4
592.08	9222.99
592.44	9196.78
592.799	9258.47
593.158	9262.54
593.517	9245.59
593.876	9329.43
594.235	9262.54
594.593	9339.83
594.952	9247.85
595.311	9210.56
595.67	9276.32
596.029	9336.66
596.387	9347.51
596.746	9338.92
597.104	9332.37
597.463	9314.97
597.822	9340.73
598.18	9312.26
598.538	9336.21
598.897	9455.75
599.255	9336.89
599.613	9406.94
599.972	9384.12
600.33	9448.97
600.688	9395.87
601.046	9449.2
601.404	9394.74
601.762	9403.78
602.12	9497.34
602.478	9436.09
602.836	9429.77
603.194	9416.43
603.552	9446.49
603.91	9479.48
604.268	9546.15
604.625	9379.6
604.983	9441.52
605.341	9479.71
605.698	9446.71
606.056	9569.88
606.413	9447.17
606.771	9467.28
607.128	9509.31
607.485	9485.81
607.843	9408.98
608.2	9542.08
608.557	9571.23
608.914	9539.82
609.272	9537.56
609.629	9538.69
609.986	9600.61
610.343	9512.02
610.7	9673.38
611.057	9574.17
611.414	9579.14
611.771	9655.97
612.127	9613.49
612.484	9637.44
612.841	9636.99
613.198	9674.96
613.554	9622.76
613.911	9731.45
614.267	9667.73
614.624	9676.09
614.98	9654.17
615.337	9702.75
615.693	9743.66
616.05	9693.71
616.406	9771.68
616.762	9705.47
617.118	9655.07
617.475	9752.7
617.831	9728.52
618.187	9709.08
618.543	9823.2
618.899	9797.21
619.255	9817.1
619.611	9766.03
619.967	9762.64
620.323	9860.72
620.678	9785.69
621.034	9758.57
621.39	9763.77
621.746	9771.68
622.101	9968.74
622.457	9812.35
622.812	9796.08
623.168	9810.32
623.523	9861.39
623.879	9820.26
624.234	9773.71
624.589	9774.16
624.945	9770.1
625.3	9888.74
625.655	9758.12
626.01	9799.47
626.365	9804.67
626.72	9779.81
627.075	9802.41
627.43	9748.85
627.785	9775.97
628.14	9812.13
628.495	9806.25
628.85	9785.24
629.205	9788.17
629.559	9719.25
629.914	9746.37
630.269	9747.95
630.623	9742.3
630.978	9691.91
631.332	9754.28
631.687	9749.76
632.041	9684
632.396	9725.13
632.75	9689.42
633.104	9727.16
633.459	9684.22
633.813	9607.61
634.167	9609.87
634.521	9588.63
634.875	9667.05
635.229	9575.3
635.583	9614.62
635.937	9593.83
636.291	9501.4
636.645	9559.93
636.999	9505.02
637.352	9575.3
637.706	9496.88
638.06	9506.83
638.413	9545.7
638.767	9428.41
639.121	9497.79
639.474	9414.85
639.828	9389.09
640.181	9432.03
640.534	9445.58
640.888	9393.16
641.241	9357
641.594	9414.17
641.947	9407.62
642.301	9394.51
642.654	9414.4
643.007	9419.82
643.36	9381.86
643.713	9399.26
644.066	9407.62
644.419	9417.34
644.771	9282.88
645.124	9182.99
645.477	9156.78
645.83	9063.45
646.182	9059.61
646.535	9065.03
646.888	9078.36
647.24	8980.06
647.593	9014.18
647.945	9065.93
648.298	9007.86
648.65	9038.14
649.002	9004.69
649.355	9029.78
649.707	8999.72
650.059	9052.6
650.411	9168.08
650.763	9106.38
651.115	9276.78
651.467	9231.35
651.819	9213.05
652.171	9203.33
652.523	9201.07
652.875	9208.98
653.227	9154.07
653.578	9189.77
653.93	9169.21
654.282	9173.73
654.633	9092.83
654.985	9127.63
655.337	9216.44
655.688	9110.68
656.039	9145.48
656.391	9121.75
656.742	9167.17
657.094	9208.3
657.445	9177.8
657.796	9132.15
658.147	9101.87
658.498	9132.15
658.849	9138.93
659.2	9165.14
659.551	9118.59
659.902	9166.27
660.253	9194.07
660.604	9228.42
660.955	9072.49
661.306	9160.62
661.656	9093.73
662.007	9229.09
662.358	9148.64
662.708	9193.61
663.059	9128.76
663.409	9085.37
663.76	9180.73
664.11	9164.46
664.461	9127.63
664.811	9133.5
665.161	9198.59
665.511	9154.97
665.862	9098.48
666.212	9173.73
666.562	9170.56
666.912	9124.92
667.262	9099.61
667.612	9170.34
667.962	9155.65
668.312	9162.88
668.662	9159.49
669.011	9131.24
669.361	9119.49
669.711	9146.38
670.06	9097.57
670.41	9120.85
670.76	9172.37
671.109	9085.59
671.459	9089.89
671.808	9064.35
672.157	9152.71
672.507	9016.67
672.856	9052.83
673.205	9048.31
673.554	9124.24
673.904	9128.98
674.253	9131.92
674.602	9114.29
674.951	8941.42
675.3	8930.34
675.649	8993.39
675.998	9033.17
676.346	8995.65
676.695	9005.14
677.044	8960.4
677.393	9050.79
677.741	9042.43
678.09	8992.04
678.438	8998.59
678.787	8977.8
679.135	8966.5
679.484	8861.87
679.832	8935.32
680.181	8904.81
680.529	8917.24
680.877	8882.66
681.225	8920.18
681.573	8856.67
681.922	8795.88
682.27	8770.12
682.618	8727.64
682.966	8737.58
683.314	8776.22
683.661	8755.21
684.009	8648.77
684.357	8671.14
684.705	8695.1
685.053	8690.12
685.4	8678.6
685.748	8633.63
686.095	8608.09
686.443	8574.42
686.79	8563.8
687.138	8570.13
687.485	8547.76
687.832	8472.96
688.18	8547.53
688.527	8493.75
688.874	8425.27
689.221	8432.5
689.568	8445.61
689.915	8359.29
690.262	8370.81
690.609	8326.29
690.956	8386.18
691.303	8291.04
691.65	8300.3
691.997	8244.26
692.344	8240.42
692.69	8265.5
693.037	8180.99
693.383	8127.88
693.73	8190.93
694.077	8082.46
694.423	8063.47
694.769	8087.2
695.116	8070.48
695.462	8042.01
695.808	7966.08
696.155	8040.88
696.501	7950.94
696.847	7880.88
697.193	7908.9
697.539	7925.85
697.885	7857.38
698.231	7847.66
698.577	7796.36
698.923	7739.42
699.269	7719.08
699.614	7664.61
699.96	7664.16
700.306	7681.34
700.651	7612.19
700.997	7648.8
701.342	7649.25
701.688	7585.97
702.033	7572.64
702.379	7564.5
702.724	7572.19
703.069	7493.55
703.415	7452.64
703.76	7452.87
704.105	7377.84
704.45	7403.15
704.795	7363.15
705.14	7341.23
705.485	7340.1
705.83	7269.82
706.175	7263.95
706.52	7275.02
706.865	7204.74
707.209	7244.51
707.554	7205.64
707.899	7192.54
708.243	7139.43
708.588	7145.31
708.932	7131.75
709.277	7128.58
709.621	7087.68
709.966	7012.65
710.31	7114.8
710.654	7025.54
710.998	7037.96
711.342	6998.42
711.687	6962.71
712.031	6934.46
712.375	6929.04
712.719	6965.42
713.063	6935.82
713.407	6931.3
713.75	6890.4
714.094	6870.06
714.438	6882.71
714.782	6897.18
715.125	6824.18
715.469	6869.61
715.812	6830.96
716.156	6768.59
716.499	6788.93
716.843	6786.9
717.186	6792.1
717.53	6802.04
717.873	6830.51
718.216	6803.39
718.559	6742.61
718.902	6710.74
719.246	6747.12
719.589	6674.36
719.932	6616.28
720.275	6610.18
720.617	6668.48
720.96	6630.97
721.303	6645.88
721.646	6699.89
721.989	6593.68
722.331	6664.42
722.674	6612.67
723.016	6593.91
723.359	6675.49
723.701	6613.8
724.044	6573.34
724.386	6524.53
724.729	6552.78
725.071	6504.42
725.413	6513.23
725.755	6513.91
726.097	6524.53
726.439	6539.67
726.782	6533.12
727.124	6553.23
727.465	6528.83
727.807	6501.71
728.149	6475.04
728.491	6558.88
728.833	6494.93
729.175	6452.22
729.516	6496.06
729.858	6536.96
730.199	6440.69
730.541	6531.31
730.882	6427.81
731.224	6472.1
731.565	6421.03
731.906	6442.5
732.248	6462.39
732.589	6388.94
732.93	6406.79
733.271	6416.29
733.612	6414.7
733.953	6389.39
734.294	6389.39
734.635	6404.76
734.976	6401.82
735.317	6365.44
735.658	6373.35
735.999	6442.73
736.339	6387.36
736.68	6399.79
737.021	6427.13
737.361	6396.85
737.702	6387.13
738.042	6355.72
738.383	6453.57
738.723	6441.82
739.063	6409.05
739.404	6413.8
739.744	6444.53
740.084	6441.6
740.424	6425.33
740.764	6420.81
741.104	6410.86
741.444	6415.16
741.784	6440.01
742.124	6475.95
742.464	6471.65
742.804	6515.27
743.143	6484.31
743.483	6494.25
743.823	6487.02
744.162	6483.4
744.502	6539.9
744.841	6542.84
745.181	6570.41
745.52	6529.73
745.86	6562.95
746.199	6631.42
746.538	6586.68
746.877	6656.73
747.216	6701.02
747.556	6669.39
747.895	6730.18
748.234	6730.63
748.573	6776.05
748.911	6823.73
749.25	6863.51
749.589	6899.89
749.928	6848.82
750.267	6970.17
750.605	6957.51
750.944	7032.32
751.283	7110.73
751.621	7133.56
751.96	7118.19
752.298	7166.77
752.636	7273.89
752.975	7310.05
753.313	7321.8
753.651	7459.87
753.989	7422.81
754.327	7392.76
754.666	7558.4
755.004	7677.27
755.342	7710.49
755.679	7850.6
756.017	7816.93
756.355	8013.08
756.693	7983.7
757.031	8081.33
757.368	8094.21
757.706	8176.24
758.044	8268.21
758.381	8452.84
758.719	8507.08
759.056	8610.35
759.394	8698.71
759.731	8747.07
760.068	8806.51
760.405	8870.23
760.743	9009.66
761.08	9125.14
761.417	9208.76
761.754	9252.37
762.091	9319.26
762.428	9429.09
762.765	9463.89
763.102	9701.85
763.438	9684.45
763.775	9761.96
764.112	9886.7
764.449	9993.59
764.785	10015.06
765.122	10037.43
765.458	10154.27
765.795	10209.41
766.131	10309.97
766.467	10321.27
766.804	10457.76
767.14	10471.32
767.476	10523.75
767.812	10691.2
768.148	10698.66
768.485	10771.88
768.821	10755.16
769.157	10847.36
769.492	10912.67
769.828	10980.46
