Data from hue_330_FLMS001491_47.txt Node
Date: Mon Feb 06 15:45:27 GMT 2017
User: dcchb
Spectrometer: FLMS00149
Trigger mode: 0
Integration Time (sec): 2.000000E-2
Scans to average: 10
Electric dark correction enabled: true
Nonlinearity correction enabled: false
Boxcar width: 0
XAxis mode: Wavelengths
Number of Pixels in Spectrum: 2048
>>>>>Begin Spectral Data<<<<<
341.393	3.77
341.776	3.77
342.16	3.77
342.543	-57.92
342.927	-60.41
343.31	-76.45
343.693	-66.74
344.077	-63.57
344.46	-41.88
344.843	-54.31
345.226	-33.97
345.61	-31.26
345.993	-18.15
346.376	-26.74
346.759	17.78
347.142	18.91
347.525	61.85
347.908	56.43
348.291	76.99
348.674	69.08
349.057	112.02
349.44	145.69
349.823	140.49
350.206	154.05
350.588	184.56
350.971	203.77
351.354	246.93
351.737	246.48
352.119	256.19
352.502	260.94
352.884	285.57
353.267	280.6
353.65	281.05
354.032	310.88
354.414	304.33
354.797	303.42
355.179	321.28
355.562	317.89
355.944	328.73
356.326	332.58
356.709	323.99
357.091	339.13
357.473	360.82
357.855	320.6
358.238	319.69
358.62	362.18
359.002	339.13
359.384	357.21
359.766	337.1
360.148	331.9
360.53	326.47
360.912	333.71
361.294	333.48
361.676	329.19
362.057	327.15
362.439	322.41
362.821	328.96
363.203	330.77
363.584	312.92
363.966	310.66
364.348	330.54
364.729	319.69
365.111	330.77
365.493	330.09
365.874	298.68
366.256	330.32
366.637	314.72
367.019	315.18
367.4	319.24
367.781	321.95
368.163	314.95
368.544	319.69
368.925	279.47
369.306	318.11
369.688	322.18
370.069	315.63
370.45	311.33
370.831	318.57
371.212	304.55
371.593	323.76
371.974	338.68
372.355	323.99
372.736	315.4
373.117	330.09
373.498	317.66
373.879	312.46
374.26	294.61
374.641	313.82
375.021	321.5
375.402	305.01
375.783	305.91
376.163	319.24
376.544	316.76
376.925	312.92
377.305	308.4
377.686	335.06
378.066	322.18
378.447	317.89
378.827	342.29
379.208	335.51
379.588	334.38
379.968	326.7
380.349	336.19
380.729	315.18
381.109	329.86
381.489	311.56
381.87	344.1
382.25	344.33
382.63	331.22
383.01	343.42
383.39	333.25
383.77	365.8
384.15	337.55
384.53	357.66
384.91	352.24
385.29	355.17
385.67	329.64
386.049	344.78
386.429	333.93
386.809	345.46
387.189	349.98
387.568	362.41
387.948	326.25
388.328	350.65
388.707	333.93
389.087	361.95
389.466	359.02
389.846	347.04
390.225	350.88
390.605	358.11
390.984	364.67
391.363	366.02
391.743	374.16
392.122	379.58
392.501	378.45
392.881	390.2
393.26	372.57
393.639	363.08
394.018	373.48
394.397	364.67
394.776	372.57
395.155	375.29
395.534	379.58
395.913	366.25
396.292	385.91
396.671	375.51
397.05	381.61
397.429	373.03
397.808	380.03
398.186	376.64
398.565	389.98
398.944	389.3
399.323	382.97
399.701	383.65
400.08	387.26
400.458	405.57
400.837	394.95
401.215	385.46
401.594	397.21
401.972	410.54
402.351	417.32
402.729	416.19
403.107	390.2
403.486	417.32
403.864	422.29
404.242	419.13
404.62	441.5
404.999	405.12
405.377	412.8
405.755	434.27
406.133	429.52
406.511	430.43
406.889	451.44
407.267	447.83
407.645	438.11
408.023	449.86
408.401	446.92
408.779	439.47
409.156	466.58
409.534	456.19
409.912	466.36
410.29	459.13
410.667	453.7
411.045	480.14
411.422	484.66
411.8	472.01
412.178	487.15
412.555	506.36
412.933	489.41
413.31	523.08
413.687	526.24
414.065	526.24
414.442	536.64
414.819	506.81
415.197	541.61
415.574	540.93
415.951	547.49
416.328	554.94
416.705	561.5
417.082	550.2
417.46	579.12
417.837	574.83
418.214	572.12
418.591	572.12
418.967	592.46
419.344	608.73
419.721	594.26
420.098	610.99
420.475	584.77
420.852	627.03
421.228	613.7
421.605	616.86
421.982	634.71
422.358	652.57
422.735	657.31
423.111	629.29
423.488	654.15
423.864	662.96
424.241	667.71
424.617	668.39
424.994	671.55
425.37	679.01
425.746	683.3
426.123	693.24
426.499	702.74
426.875	705.9
427.251	726.01
427.627	718.78
428.003	728.72
428.379	731.44
428.756	719.23
429.132	722.17
429.507	755.84
429.883	768.95
430.259	777.54
430.635	765.33
431.011	773.69
431.387	793.35
431.763	811.21
432.138	793.58
432.514	801.49
432.89	803.52
433.265	834.03
433.641	843.97
434.016	843.97
434.392	853.01
434.767	859.12
435.143	842.17
435.518	883.97
435.894	877.19
436.269	884.43
436.644	893.69
437.02	914.48
437.395	888.95
437.77	928.94
438.145	902.28
438.52	934.59
438.895	978.66
439.271	959
439.646	978.21
440.021	940.92
440.395	957.42
440.77	982.28
441.145	972.33
441.52	992.9
441.895	1000.36
442.27	1000.58
442.645	999
443.019	1024.08
443.394	1002.16
443.769	1009.17
444.143	1008.04
444.518	1026.8
444.892	1029.96
445.267	1037.19
445.641	1049.62
446.016	1017.08
446.39	1042.39
446.764	1046.91
447.139	1077.64
447.513	1048.49
447.887	1090.07
448.262	1091.43
448.636	1060.24
449.01	1093.46
449.384	1081.03
449.758	1107.7
450.132	1101.14
450.506	1126.23
450.88	1094.14
451.254	1108.15
451.628	1114.02
452.002	1125.32
452.376	1147.47
452.75	1144.76
453.123	1131.88
453.497	1140.69
453.871	1151.09
454.244	1190.86
454.618	1187.24
454.992	1176.62
455.365	1195.6
455.739	1233.34
456.112	1212.55
456.486	1188.6
456.859	1220.46
457.232	1235.6
457.606	1251.65
457.979	1258.43
458.352	1290.97
458.725	1277.41
459.099	1256.62
459.472	1288.94
459.845	1305.43
460.218	1328.93
460.591	1347.92
460.964	1336.62
461.337	1346.33
461.71	1368.71
462.083	1390.4
462.456	1371.19
462.829	1384.07
463.201	1405.99
463.574	1405.09
463.947	1414.36
464.32	1426.78
464.692	1472.89
465.065	1447.12
465.438	1488.48
465.81	1506.33
466.183	1493.45
466.555	1529.38
466.928	1542.71
467.3	1546.33
467.672	1546.56
468.045	1601.02
468.417	1585.65
468.789	1593.11
469.161	1614.58
469.534	1647.8
469.906	1620
470.278	1664.29
470.65	1650.28
471.022	1680.11
471.394	1727.34
471.766	1718.98
472.138	1725.31
472.51	1742.48
472.882	1792.2
473.253	1814.12
473.625	1829.49
473.997	1862.71
474.369	1849.82
474.74	1902.7
475.112	1932.53
475.484	1926.43
475.855	1972.53
476.227	1982.93
476.598	2006.88
476.97	2028.12
477.341	2066.09
477.713	2086.65
478.084	2074
478.455	2145.18
478.827	2150.83
479.198	2216.14
479.569	2196.48
479.94	2289.36
480.311	2259.53
480.682	2311.73
481.053	2389.7
481.424	2370.49
481.795	2408.45
482.166	2407.32
482.537	2445.29
482.908	2492.29
483.279	2529.58
483.65	2540.88
484.021	2597.38
484.391	2582.01
484.762	2622.46
485.133	2666.75
485.503	2725.06
485.874	2755.11
486.244	2746.98
486.615	2766.64
486.985	2817.71
487.356	2848.22
487.726	2887.09
488.097	2953.52
488.467	2955.11
488.837	2991.72
489.207	2993.07
489.578	3009.12
489.948	3073.97
490.318	3089.79
490.688	3095.89
491.058	3159.17
491.428	3191.26
491.798	3211.6
492.168	3232.84
492.538	3261.54
492.908	3294.76
493.278	3345.83
493.648	3372.5
494.017	3402.78
494.387	3419.05
494.757	3395.32
495.126	3436.22
495.496	3433.29
495.866	3476
496.235	3522.1
496.605	3565.03
496.974	3587.63
497.344	3584.92
497.713	3597.57
498.082	3623.56
498.452	3643.9
498.821	3689.1
499.19	3685.71
499.559	3687.52
499.928	3685.48
500.298	3743.79
500.667	3742.2
501.036	3748.31
501.405	3824.69
501.774	3792.37
502.143	3810.68
502.512	3829.66
502.88	3864.69
503.249	3841.41
503.618	3888.64
503.987	3878.7
504.356	3898.81
504.724	3960.05
505.093	3913.72
505.462	3922.31
505.83	3934.97
506.199	3979.94
506.567	4015.64
506.936	4055.87
507.304	4080.73
507.672	4081.63
508.041	4046.15
508.409	4108.3
508.777	4097.67
509.145	4109.88
509.514	4095.87
509.882	4132.93
510.25	4182.19
510.618	4186.26
510.986	4151.46
511.354	4240.04
511.722	4200.5
512.09	4235.98
512.458	4257.22
512.826	4277.56
513.193	4272.36
513.561	4274.39
513.929	4283.66
514.297	4302.19
514.664	4330.66
515.032	4311.23
515.4	4372.47
515.767	4408.18
516.135	4388.06
516.502	4380.15
516.869	4468.51
517.237	4472.81
517.604	4452.24
517.972	4456.54
518.339	4450.21
518.706	4443.43
519.073	4523.88
519.44	4524.33
519.808	4513.26
520.175	4553.26
520.542	4585.35
520.909	4539.47
521.276	4576.08
521.643	4617.89
522.009	4647.94
522.376	4656.3
522.743	4661.95
523.11	4714.61
523.477	4752.35
523.843	4751.44
524.21	4754.38
524.577	4820.82
524.943	4796.19
525.31	4850.42
525.676	4804.32
526.043	4898.78
526.409	4866.92
526.776	4914.15
527.142	4923.87
527.508	4936.52
527.874	5011.78
528.241	5012
528.607	5037.76
528.973	5057.65
529.339	5072.34
529.705	5117.76
530.071	5200.02
530.437	5178.1
530.803	5135.61
531.169	5212.45
531.535	5180.36
531.901	5222.16
532.267	5278.66
532.632	5270.75
532.998	5280.92
533.364	5332.22
533.73	5387.81
534.095	5369.05
534.461	5383.74
534.826	5431.88
535.192	5474.59
535.557	5477.98
535.923	5475.72
536.288	5510.97
536.653	5524.98
537.019	5510.74
537.384	5578.99
537.749	5579.22
538.114	5605.88
538.479	5588.26
538.845	5641.36
539.21	5611.99
539.575	5696.28
539.94	5682.04
540.305	5721.81
540.67	5716.62
541.034	5771.3
541.399	5775.14
541.764	5824.63
542.129	5827.8
542.494	5870.28
542.858	5874.58
543.223	5910.73
543.587	5904.41
543.952	6005.87
544.316	5962.71
544.681	5998.64
545.045	6034.57
545.41	6041.8
545.774	6040.22
546.138	6111.41
546.503	6077.96
546.867	6113.67
547.231	6199.54
547.595	6140.11
547.959	6235.02
548.324	6163.61
548.688	6207.45
549.052	6271.85
549.416	6268.47
549.779	6264.85
550.143	6289.71
550.507	6356.82
550.871	6397.95
551.235	6372.64
551.599	6418.74
551.962	6435.92
552.326	6427.56
552.689	6492.41
553.053	6414.68
553.417	6462.81
553.78	6539.19
554.143	6559.08
554.507	6558.63
554.87	6548.91
555.234	6606.08
555.597	6630.26
555.96	6652.41
556.323	6658.74
556.686	6717.27
557.05	6683.14
557.413	6743.93
557.776	6816.7
558.139	6827.32
558.502	6726.53
558.865	6816.47
559.228	6814.21
559.59	6884.04
559.953	6860.99
560.316	6955.23
560.679	6996.58
561.041	6945.51
561.404	7023.25
561.767	7062.79
562.129	6985.51
562.492	7083.81
562.854	7051.04
563.217	7045.39
563.579	7144.15
563.941	7186.86
564.304	7155
564.666	7198.38
565.028	7184.15
565.39	7226.86
565.753	7239.74
566.115	7241.09
566.477	7272.51
566.839	7254.43
567.201	7360.41
567.563	7301.43
567.925	7410.81
568.287	7377.59
568.648	7483.35
569.01	7444.93
569.372	7484.93
569.734	7509.34
570.095	7597.92
570.457	7623.91
570.819	7620.75
571.18	7669.33
571.542	7765.15
571.903	7757.47
572.265	7810.35
572.626	7816.9
572.987	7882.89
573.349	7935.77
573.71	7968.08
574.071	7999.49
574.432	8086.27
574.794	8132.14
575.155	8237.68
575.516	8146.38
575.877	8257.57
576.238	8305.02
576.599	8400.16
576.96	8418.69
577.32	8544.79
577.681	8619.82
578.042	8653.71
578.403	8806.03
578.763	8778.46
579.124	8937.77
579.485	9035.62
579.845	9083.53
580.206	9193.59
580.566	9290.53
580.927	9447.36
581.287	9569.85
581.648	9676.51
582.008	9806
582.368	9911.31
582.728	10085.31
583.089	10214.58
583.449	10299.09
583.809	10531.18
584.169	10745.64
584.529	10826.31
584.889	11149.92
585.249	11160.31
585.609	11401.44
585.969	11650.47
586.329	11749.45
586.688	12064.47
587.048	12231.47
587.408	12450
587.768	12629.43
588.127	12799.37
588.487	13099.47
588.846	13420.82
589.206	13558.44
589.565	13844.76
589.925	14084.53
590.284	14305.54
590.643	14593.44
591.003	14786.21
591.362	15233.2
591.721	15379.86
592.08	15629.57
592.44	15994.99
592.799	16227.07
593.158	16413.06
593.517	16712.26
593.876	17189.53
594.235	17249.19
594.593	17592.46
594.952	17879.23
595.311	18113.58
595.67	18482.38
596.029	18772.32
596.387	19161.23
596.746	19469.47
597.104	19555.57
597.463	19768.68
597.822	20253.41
598.18	20491.37
598.538	20704.92
598.897	21114.4
599.255	21214.29
599.613	21784.44
599.972	22048.39
600.33	22242.06
600.688	22477.98
601.046	22699.9
601.404	23235.25
601.762	23348.02
602.12	23776.25
602.478	24002.46
602.836	24200.2
603.194	24467.08
603.552	24783.68
603.91	24928.31
604.268	25305.7
604.625	25427.28
604.983	25847.16
605.341	25971
605.698	26199.01
606.056	26541.6
606.413	26792.9
606.771	26983.4
607.128	27275.6
607.485	27331.19
607.843	27747
608.2	27943.38
608.557	28280.77
608.914	28346.75
609.272	28775.22
609.629	28957.13
609.986	29191.93
610.343	29262.89
610.7	29675.53
611.057	29790.33
611.414	29955.3
611.771	30117.78
612.127	30544.21
612.484	30588.73
612.841	30820.59
613.198	30889.74
613.554	31078.43
613.911	31269.16
614.267	31613.11
614.624	31609.49
614.98	31843.39
615.337	32105.98
615.693	32194.79
616.05	32449.25
616.406	32665.06
616.762	32613.08
617.118	32687.88
617.475	32929.23
617.831	33254.42
618.187	33266.17
618.543	33426.4
618.899	33759.72
619.255	33796.33
619.611	33955.19
619.967	34044.46
620.323	34211.01
620.678	34143.44
621.034	34269.31
621.39	34328.52
621.746	34333.94
622.101	34913.81
622.457	34707.49
622.812	34947.71
623.168	35049.4
623.523	35095.73
623.879	35337.31
624.234	35164.43
624.589	35332.33
624.945	35387.25
625.3	35674.02
625.655	35500.24
626.01	35697.07
626.365	35698.2
626.72	35809.38
627.075	35794.92
627.43	35822.49
627.785	36010.06
628.14	36082.6
628.495	36118.75
628.85	36104.74
629.205	36198.53
629.559	36285.08
629.914	36231.97
630.269	36307.22
630.623	36206.21
630.978	36288.92
631.332	36316.94
631.687	36519.42
632.041	36458.63
632.396	36566.65
632.75	36353.78
633.104	36556.71
633.459	36303.16
633.813	36485.3
634.167	36611.85
634.521	36540.66
634.875	36571.17
635.229	36518.97
635.583	36541.12
635.937	36450.95
636.291	36488.46
636.645	36498.4
636.999	36598.74
637.352	36677.61
637.706	36359.65
638.06	36583.83
638.413	36565.75
638.767	36523.94
639.121	36397.16
639.474	36332.76
639.828	36382.7
640.181	36488.46
640.534	36491.17
640.888	36358.07
641.241	36365.75
641.594	36314.23
641.947	36492.76
642.301	36436.49
642.654	36357.62
643.007	36485.3
643.36	36471.51
643.713	36412.31
644.066	36486.2
644.419	36233.55
644.771	36130.28
645.124	35781.59
645.477	35855.94
645.83	35489.39
646.182	35485.1
646.535	35444.42
646.888	35536.4
647.24	35270.41
647.593	35479.67
647.945	35453.23
648.298	35217.53
648.65	35231.09
649.002	35104.09
649.355	35326.91
649.707	35230.87
650.059	35375.72
650.411	35725.77
650.763	35862.94
651.115	36169.37
651.467	36067
651.819	35934.58
652.171	35995.82
652.523	35949.94
652.875	35864.07
653.227	35792.89
653.578	36005.99
653.93	36142.48
654.282	35812.77
654.633	35824.3
654.985	35837.86
655.337	35791.76
655.688	35914.24
656.039	36010.51
656.391	35654.81
656.742	35698.88
657.094	35865.43
657.445	35864.3
657.796	35854.58
658.147	35750.4
658.498	35666.34
658.849	35823.85
659.2	35794.02
659.551	35625.21
659.902	35845.09
660.253	35578.43
660.604	35814.81
660.955	35666.56
661.306	35777.29
661.656	35549.96
662.007	35654.81
662.358	35663.4
662.708	35629.95
663.059	35574.14
663.409	35456.4
663.76	35711.76
664.11	35605.09
664.461	35797.41
664.811	35606.9
665.161	35604.42
665.511	35570.07
665.862	35542.95
666.212	35709.95
666.562	35680.12
666.912	35636.05
667.262	35582.04
667.612	35506.11
667.962	35521.93
668.312	35441.71
668.662	35735.26
669.011	35547.7
669.361	35430.64
669.711	35601.03
670.06	35338.44
670.41	35395.83
670.76	35437.64
671.109	35468.6
671.459	35414.82
671.808	35403.74
672.157	35367.59
672.507	35275.61
672.856	35290.3
673.205	35379.56
673.554	35456.62
673.904	35208.95
674.253	35441.26
674.602	35366.91
674.951	34758.11
675.3	34599.02
675.649	35232.45
675.998	35283.07
676.346	35246.69
676.695	35346.57
677.044	34963.53
677.393	35225.44
677.741	35182.96
678.09	35163.98
678.438	34910.65
678.787	35085.79
679.135	35079.01
679.484	34828.17
679.832	35048.5
680.181	34740.94
680.529	34883.76
680.877	34800.37
681.225	34757.89
681.573	34872.01
681.922	34694.61
682.27	34579.81
682.618	34596.99
682.966	34472.24
683.314	34621.39
683.661	34459.14
684.009	34270.44
684.357	34320.38
684.705	34174.62
685.053	34225.7
685.4	34201.74
685.748	34107.96
686.095	34019.83
686.443	33982.09
686.79	33881.3
687.138	33998.13
687.485	33924.01
687.832	33915.65
688.18	33899.38
688.527	33673.85
688.874	33590.01
689.221	33550.01
689.568	33599.72
689.915	33369.22
690.262	33470.69
690.609	33402.67
690.956	33326.74
691.303	33258.49
691.65	33069.34
691.997	33111.6
692.344	32782.8
692.69	33009.91
693.037	32919.74
693.383	32642.69
693.73	32745.74
694.077	32644.27
694.423	32601.56
694.769	32427.33
695.116	32405.41
695.462	32377.61
695.808	32242.25
696.155	32409.92
696.501	31998.64
696.847	32109.14
697.193	31849.71
697.539	31891.07
697.885	31623.05
698.231	31622.83
698.577	31657.18
698.923	31510.51
699.269	31400.23
699.614	31252.21
699.96	31366.79
700.306	31377.18
700.651	31198.66
700.997	30964.76
701.342	31024.65
701.688	31032.79
702.033	30960.25
702.379	30889.96
702.724	30758.44
703.069	30768.84
703.415	30439.81
703.76	30456.3
704.105	30539.69
704.45	30400.94
704.795	30162.3
705.14	30231.22
705.485	30046.6
705.83	30022.87
706.175	30009.08
706.52	29955.07
706.865	29797.56
707.209	29738.58
707.554	29727.28
707.899	29752.14
708.243	29614.97
708.588	29546.72
708.932	29411.36
709.277	29401.42
709.621	29257.24
709.966	29237.35
710.31	29340.85
710.654	29016.12
710.998	29052.95
711.342	29217.24
711.687	28932.28
712.031	28813.41
712.375	28734.09
712.719	28941.09
713.063	28812.96
713.407	28776.12
713.75	28648.22
714.094	28697.93
714.438	28614.32
714.782	28570.48
715.125	28404.83
715.469	28404.61
715.812	28269.47
716.156	28089.59
716.499	28233.99
716.843	28161.9
717.186	28013.2
717.53	28055.46
717.873	28083.94
718.216	27956.71
718.559	27931.17
718.902	27777.73
719.246	27804.85
719.589	27764.4
719.932	27597.62
720.275	27629.03
720.617	27639.65
720.96	27368.93
721.303	27451.64
721.646	27493.44
721.989	27404.18
722.331	27474.69
722.674	27372.32
723.016	27327.8
723.359	27318.31
723.701	27260.23
724.044	27050.52
724.386	26947.7
724.729	27105.88
725.071	26998.77
725.413	26915.83
725.755	26905.66
726.097	26956.73
726.439	26717.42
726.782	26751.54
727.124	26808.49
727.465	26681.71
727.807	26599.68
728.149	26574.82
728.491	26593.35
728.833	26575.5
729.175	26426.35
729.516	26320.37
729.858	26389.97
730.199	26345.23
730.541	26341.16
730.882	26320.82
731.224	26401.27
731.565	26152.01
731.906	26112.46
732.248	26174.61
732.589	26058.91
732.93	25973.48
733.271	26017.55
733.612	26100.26
733.953	26037.44
734.294	25867.95
734.635	25835.41
734.976	25887.38
735.317	25759.03
735.658	25766.26
735.999	25700.5
736.339	25620.5
736.68	25776.43
737.021	25624.34
737.361	25537.79
737.702	25556.77
738.042	25480.16
738.383	25489.2
738.723	25452.59
739.063	25346.16
739.404	25459.82
739.744	25383.67
740.084	25250.56
740.424	25263.9
740.764	25277
741.104	25324.01
741.444	25215.09
741.784	24979.39
742.124	25058.48
742.464	25064.81
742.804	25049.44
743.143	24930.12
743.483	25027.97
743.823	24834.98
744.162	24854.42
744.502	24966.96
744.841	24830.69
745.181	24802.67
745.52	24679.28
745.86	24741.88
746.199	24656
746.538	24615.33
746.877	24648.09
747.216	24577.81
747.556	24436.35
747.895	24468.44
748.234	24385.05
748.573	24427.76
748.911	24329.46
749.25	24367.2
749.589	24186.41
749.928	24215.79
750.267	24319.52
750.605	24182.12
750.944	24103.25
751.283	23979.86
751.621	24083.36
751.96	23998.17
752.298	23960.43
752.636	23973.54
752.975	23768.8
753.313	23766.54
753.651	23843.82
753.989	23707.33
754.327	23582.13
754.666	23568.35
755.004	23563.38
755.342	23574.45
755.679	23467.33
756.017	23327.9
756.355	23347.11
756.693	23306.44
757.031	23431.4
757.368	23197.51
757.706	23102.15
758.044	23059.66
758.381	23093.33
758.719	23018.53
759.056	23098.08
759.394	22918.65
759.731	22788.26
760.068	22768.82
