Data from hue_20_FLMS001491_9.txt Node
Date: Mon Feb 06 15:33:33 GMT 2017
User: dcchb
Spectrometer: FLMS00149
Trigger mode: 0
Integration Time (sec): 2.000000E-2
Scans to average: 10
Electric dark correction enabled: true
Nonlinearity correction enabled: false
Boxcar width: 0
XAxis mode: Wavelengths
Number of Pixels in Spectrum: 2048
>>>>>Begin Spectral Data<<<<<
341.393	-16.3
341.776	-16.3
342.16	-16.3
342.543	-42.06
342.927	-84.09
343.31	-83.64
343.693	-59.91
344.077	-65.34
344.46	-63.53
344.843	-42.74
345.226	-43.42
345.61	-42.29
345.993	-6.36
346.376	-3.42
346.759	6.3
347.142	17.6
347.525	29.35
347.908	68.67
348.291	75.45
348.674	93.3
349.057	119.97
349.44	119.97
349.823	136.69
350.206	162.45
350.588	168.33
350.971	202
351.354	217.14
351.737	239.29
352.119	238.84
352.502	230.7
352.884	253.75
353.267	285.61
353.65	270.93
354.032	293.75
354.414	305.27
354.797	303.01
355.179	300.75
355.562	314.09
355.944	330.58
356.326	317.25
356.709	307.76
357.091	332.84
357.473	326.52
357.855	329.23
358.238	324.03
358.62	312.28
359.002	342.11
359.384	346.4
359.766	327.65
360.148	323.13
360.53	339.17
360.912	301.43
361.294	316.8
361.676	319.74
362.057	328.55
362.439	308.44
362.821	314.77
363.203	305.95
363.584	332.39
363.966	311.6
364.348	312.28
364.729	310.25
365.111	326.29
365.493	323.58
365.874	300.3
366.256	320.19
366.637	299.4
367.019	327.42
367.4	288.1
367.781	308.89
368.163	305.05
368.544	301.88
368.925	313.64
369.306	297.82
369.688	300.53
370.069	325.84
370.45	329.45
370.831	308.44
371.212	293.75
371.593	313.18
371.974	319.51
372.355	320.87
372.736	316.35
373.117	284.71
373.498	307.53
373.879	312.28
374.26	318.61
374.641	316.12
375.021	297.14
375.402	308.21
375.783	304.6
376.163	306.86
376.544	319.74
376.925	315.67
377.305	328.78
377.686	316.35
378.066	332.17
378.447	295.56
378.827	327.19
379.208	317.93
379.588	323.13
379.968	301.88
380.349	319.74
380.729	322.22
381.109	331.26
381.489	319.51
381.87	343.24
382.25	333.52
382.63	346.18
383.01	328.1
383.39	325.61
383.77	336.23
384.15	354.09
384.53	347.31
384.91	331.49
385.29	337.36
385.67	323.81
386.049	350.02
386.429	329.23
386.809	330.13
387.189	340.75
387.568	328.78
387.948	320.42
388.328	342.56
388.707	325.39
389.087	325.84
389.466	353.86
389.846	353.18
390.225	354.09
390.605	346.63
390.984	347.08
391.363	351.37
391.743	350.92
392.122	351.15
392.501	338.72
392.881	371.04
393.26	365.84
393.639	356.12
394.018	337.59
394.397	352.5
394.776	360.19
395.155	359.28
395.534	365.84
395.913	371.94
396.292	354.09
396.671	376.91
397.05	375.78
397.429	370.58
397.808	377.36
398.186	357.7
398.565	369
398.944	360.64
399.323	368.55
399.701	366.97
400.08	398.83
400.458	387.76
400.837	394.99
401.215	390.24
401.594	382.56
401.972	378.49
402.351	390.02
402.729	383.46
403.107	389.57
403.486	377.36
403.864	377.59
404.242	390.02
404.62	403.8
404.999	365.84
405.377	391.6
405.755	391.6
406.133	407.64
406.511	409
406.889	406.51
407.267	421.2
407.645	392.28
408.023	413.29
408.401	422.79
408.779	410.58
409.156	416.23
409.534	403.12
409.912	431.37
410.29	425.95
410.667	433.18
411.045	439.28
411.422	427.76
411.8	431.6
412.178	431.6
412.555	429.79
412.933	430.47
413.31	452.39
413.687	450.36
414.065	455.1
414.442	455.78
414.819	458.94
415.197	471.82
415.574	444.71
415.951	433.86
416.328	453.75
416.705	458.04
417.082	462.11
417.46	464.82
417.837	438.15
418.214	474.99
418.591	477.47
418.967	467.53
419.344	495.1
419.721	498.04
420.098	457.13
420.475	460.07
420.852	492.84
421.228	486.51
421.605	501.65
421.982	502.78
422.358	494.65
422.735	486.96
423.111	519.28
423.488	524.25
423.864	512.73
424.241	514.08
424.617	513.4
424.994	514.99
425.37	505.5
425.746	521.31
426.123	508.88
426.499	505.04
426.875	522.9
427.251	531.94
427.627	525.83
428.003	547.08
428.379	541.88
428.756	556.12
429.132	547.98
429.507	552.27
429.883	550.47
430.259	573.06
430.635	555.44
431.011	593.63
431.387	572.39
431.763	580.52
432.138	554.99
432.514	590.46
432.89	596.57
433.265	591.14
433.641	580.75
434.016	615.77
434.392	618.94
434.767	588.43
435.143	613.51
435.518	627.75
435.894	610.58
436.269	622.55
436.644	628.2
437.02	620.07
437.395	630.46
437.77	635.89
438.145	662.33
438.52	647.86
438.895	647.64
439.271	667.3
439.646	674.53
440.021	652.38
440.395	668.2
440.77	671.14
441.145	680.86
441.52	705.94
441.895	676.79
442.27	690.8
442.645	705.26
443.019	699.16
443.394	707.75
443.769	714.76
444.143	705.04
444.518	720.86
444.892	700.52
445.267	736.22
445.641	722.44
446.016	706.39
446.39	703.91
446.764	737.81
447.139	745.71
447.513	727.64
447.887	733.96
448.262	745.94
448.636	722.21
449.01	764.92
449.384	759.27
449.758	753.17
450.132	751.82
450.506	763.79
450.88	767.64
451.254	778.48
451.628	786.17
452.002	785.04
452.376	791.82
452.75	778.26
453.123	816
453.497	824.81
453.871	825.94
454.244	832.94
454.618	829.1
454.992	845.15
455.365	848.31
455.739	827.75
456.112	839.5
456.486	881.53
456.859	892.15
457.232	890.12
457.606	871.59
457.979	898.71
458.352	917.91
458.725	916.11
459.099	945.48
459.472	921.98
459.845	943
460.218	963.34
460.591	990
460.964	953.39
461.337	987.29
461.71	997.91
462.083	1009.44
462.456	988.65
462.829	1014.86
463.201	1001.3
463.574	1002.43
463.947	1029.1
464.32	1046.05
464.692	1087.17
465.065	1067.74
465.438	1089.66
465.81	1080.62
466.183	1087.17
466.555	1098.47
466.928	1111.58
467.3	1133.73
467.672	1129.89
468.045	1182.09
468.417	1150
468.789	1206.04
469.161	1185.03
469.534	1213.95
469.906	1237.23
470.278	1260.5
470.65	1250.11
471.022	1256.66
471.394	1297.11
471.766	1288.3
472.138	1308.19
472.51	1382.08
472.882	1365.59
473.253	1405.81
473.625	1405.81
473.997	1415.75
474.369	1434.06
474.74	1435.19
475.112	1501.18
475.484	1528.97
475.855	1506.6
476.227	1584.56
476.598	1593.6
476.97	1615.07
477.341	1620.95
477.713	1677.89
478.084	1719.25
478.455	1724.67
478.827	1745.46
479.198	1797.89
479.569	1792.92
479.94	1844.22
480.311	1848.96
480.682	1885.12
481.053	1936.19
481.424	1999.92
481.795	2021.39
482.166	2004.44
482.537	2064.32
482.908	2106.13
483.279	2134.15
483.65	2180.25
484.021	2221.83
484.391	2257.31
484.762	2251.21
485.133	2286.92
485.503	2326.92
485.874	2408.27
486.244	2402.39
486.615	2421.38
486.985	2485.1
487.356	2530.53
487.726	2570.75
488.097	2652.33
488.467	2612.78
488.837	2695.49
489.207	2730.52
489.578	2790.86
489.948	2796.96
490.318	2854.13
490.688	2877.41
491.058	2937.52
491.428	2995.15
491.798	2980.91
492.168	3067.46
492.538	3092.09
492.908	3111.75
493.278	3179.55
493.648	3174.58
494.017	3208.25
494.387	3233.56
494.757	3263.16
495.126	3316.95
495.496	3352.88
495.866	3321.24
496.235	3447.11
496.605	3472.42
496.974	3474.68
497.344	3522.14
497.713	3575.92
498.082	3583.38
498.452	3604.62
498.821	3633.55
499.19	3631.51
499.559	3675.36
499.928	3679.42
500.298	3721.68
500.667	3743.83
501.036	3740.66
501.405	3826.31
501.774	3808.46
502.143	3779.53
502.512	3887.1
502.88	3905.41
503.249	3897.95
503.618	3903.6
503.987	3996.93
504.356	3970.94
504.724	3986.53
505.093	3998.28
505.462	4057.72
505.83	4095.68
506.199	4103.14
506.567	4119.41
506.936	4134.78
507.304	4179.52
507.672	4126.64
508.041	4234.21
508.409	4272.18
508.777	4254.1
509.145	4318.28
509.514	4308.33
509.882	4346.98
510.25	4325.28
510.618	4367.99
510.986	4393.3
511.354	4416.58
511.722	4401.89
512.09	4452.96
512.458	4453.87
512.826	4497.71
513.193	4502
513.561	4544.03
513.929	4531.6
514.297	4611.38
514.664	4593.07
515.032	4600.3
515.4	4646.18
515.767	4673.3
516.135	4691.37
516.502	4690.92
516.869	4742.9
517.237	4719.85
517.604	4709.9
517.972	4781.54
518.339	4817.25
518.706	4741.99
519.073	4808.21
519.44	4828.32
519.808	4873.06
520.175	4868.09
520.542	4958.26
520.909	4916
521.276	4905.38
521.643	4967.75
522.009	5052.04
522.376	5005.04
522.743	5054.98
523.11	5094.53
523.477	5083.23
523.843	5106.96
524.21	5175.65
524.577	5211.13
524.943	5191.25
525.31	5246.39
525.676	5332.71
526.043	5308.53
526.409	5370.45
526.776	5423.11
527.142	5353.05
527.508	5370
527.874	5441.64
528.241	5506.95
528.607	5526.83
528.973	5547.85
529.339	5498.36
529.705	5592.14
530.071	5645.47
530.437	5653.83
530.803	5671.24
531.169	5671.24
531.535	5683.44
531.901	5702.42
532.267	5794.85
532.632	5856.54
532.998	5873.04
533.364	5871.23
533.73	5875.52
534.095	5863.55
534.461	5878.46
534.826	5979.93
535.192	5964.33
535.557	6048.17
535.923	6016.08
536.288	6041.62
536.653	6046.37
537.019	6051.34
537.384	6092.47
537.749	6106.7
538.114	6131.34
538.479	6179.24
538.845	6132.24
539.21	6183.76
539.575	6204.33
539.94	6256.98
540.305	6300.15
540.67	6313.03
541.034	6320.03
541.399	6315.74
541.764	6346.02
542.129	6413.81
542.494	6430.99
542.858	6435.06
543.223	6461.27
543.587	6510.76
543.952	6464.89
544.316	6544.43
544.681	6557.54
545.045	6542.62
545.41	6625.56
545.774	6600.7
546.138	6634.37
546.503	6716.18
546.867	6644.54
547.231	6784.88
547.595	6761.15
547.959	6791.66
548.324	6753.47
548.688	6824.43
549.052	6837.98
549.416	6884.54
549.779	6910.07
550.143	6871.88
550.507	6931.77
550.871	7000.92
551.235	6999.56
551.599	7027.36
551.962	7058.77
552.326	7023.97
552.689	7080.24
553.053	7094.93
553.417	7061.71
553.78	7188.26
554.143	7154.59
554.507	7186
554.87	7200.69
555.234	7308.25
555.597	7196.84
555.96	7275.03
556.323	7275.03
556.686	7372.43
557.05	7367.69
557.413	7318.2
557.776	7377.18
558.139	7393.68
558.502	7433.22
558.865	7498.08
559.228	7532.2
559.59	7520
559.953	7509.38
560.316	7593.9
560.679	7590.73
561.041	7701.01
561.404	7690.39
561.767	7703.72
562.129	7735.81
562.492	7799.99
562.854	7858.52
563.217	7721.35
563.579	7832.08
563.941	7889.71
564.304	7857.17
564.666	7945.75
565.028	7976.26
565.39	7966.54
565.753	8037.05
566.115	8025.3
566.477	8131.06
566.839	8030.72
567.201	8170.83
567.563	8188.68
567.925	8193.65
568.287	8185.29
568.648	8228.68
569.01	8289.47
569.372	8334.89
569.734	8276.82
570.095	8385.74
570.457	8483.14
570.819	8438.85
571.18	8472.97
571.542	8524.04
571.903	8575.11
572.265	8588.45
572.626	8625.06
572.987	8621.89
573.349	8723.81
573.71	8739.63
574.071	8801.32
574.432	8860.3
574.794	8955.67
575.155	8941.66
575.516	8938.27
575.877	9034.99
576.238	9072.28
576.599	9176.45
576.96	9181.2
577.32	9255.77
577.681	9359.05
578.042	9477.24
578.403	9519.27
578.763	9557.91
579.124	9604.69
579.485	9842.2
579.845	9808.75
580.206	9873.84
580.566	9955.19
580.927	10073.15
581.287	10255.3
581.648	10360.15
582.008	10470.66
582.368	10556.08
582.728	10668.62
583.089	10746.13
583.449	11039.46
583.809	11094.14
584.169	11235.38
584.529	11406.23
584.889	11674.92
585.249	11727.12
585.609	11978.87
585.969	12195.36
586.329	12346.31
586.688	12485.97
587.048	12708.79
587.408	12829.69
587.768	13007.09
588.127	13188.55
588.487	13417.47
588.846	13699.95
589.206	13908.31
589.565	14050.68
589.925	14394.4
590.284	14504.68
590.643	14880.71
591.003	15107.6
591.362	15367.93
591.721	15578.55
592.08	15874.58
592.44	16100.57
592.799	16498.97
593.158	16675.69
593.517	17010.6
593.876	17235.45
594.235	17448.55
594.593	17845.38
594.952	18104.35
595.311	18317.46
595.67	18653.49
596.029	18974.61
596.387	19433.36
596.746	19628.83
597.104	19756.51
597.463	20107.92
597.822	20401.47
598.18	20624.74
598.538	21005.3
598.897	21361.67
599.255	21500.88
599.613	22098.37
599.972	22206.39
600.33	22543.56
600.688	22651.81
601.046	23030.1
601.404	23439.13
601.762	23635.73
602.12	23931.55
602.478	24243.85
602.836	24506.22
603.194	24665.76
603.552	24970.61
603.91	25260.1
604.268	25617.83
604.625	25761.55
604.983	26070.25
605.341	26304.14
605.698	26584.36
606.056	26916.33
606.413	26987.96
606.771	27446.26
607.128	27735.97
607.485	27833.14
607.843	28029.52
608.2	28415.5
608.557	28798.54
608.914	28669.73
609.272	29105.42
609.629	29253.89
609.986	29651.85
610.343	29740.43
610.7	30282.11
611.057	30243.47
611.414	30325.05
611.771	30616.57
612.127	31035.31
612.484	31048.19
612.841	31392.82
613.198	31402.31
613.554	31627.84
613.911	32107.15
614.267	32126.58
614.624	32247.26
614.98	32438.67
615.337	32770.18
615.693	32744.65
616.05	32951.2
616.406	33258.76
616.762	33287.46
617.118	33446.1
617.475	33506.66
617.831	33788.46
618.187	33923.6
618.543	33963.37
618.899	34400.88
619.255	34506.41
619.611	34548.67
619.967	34658.95
620.323	34869.56
620.678	34850.35
621.034	34876.79
621.39	34906.4
621.746	35028.43
622.101	35609.66
622.457	35307.29
622.812	35471.81
623.168	35651.46
623.523	35753.38
623.879	35945.69
624.234	35806.94
624.589	35984.56
624.945	36163.54
625.3	36261.84
625.655	36304.33
626.01	36461.16
626.365	36608.5
626.72	36476.75
627.075	36565.56
627.43	36647.14
627.785	36672
628.14	36760.81
628.495	36939.34
628.85	37004.2
629.205	36833.13
629.559	37125.32
629.914	37065.89
630.269	37064.31
630.623	37003.29
630.978	36883.3
631.332	37268.14
631.687	37351.08
632.041	37303.4
632.396	37223.17
632.75	37246
633.104	37284.64
633.459	37112.44
633.813	37228.6
634.167	37248.26
634.521	37177.53
634.875	37323.28
635.229	37255.72
635.583	37204.87
635.937	37174.59
636.291	37375.03
636.645	37382.04
636.999	37255.94
637.352	37417.07
637.706	37268.82
638.06	37365.09
638.413	37293.91
638.767	37251.42
639.121	37402.38
639.474	37183.4
639.828	37360.57
640.181	37283.74
640.534	37272.89
640.888	37123.74
641.241	37189.05
641.594	37232.67
641.947	37371.42
642.301	37310.18
642.654	37303.17
643.007	37295.94
643.36	37234.02
643.713	37152.44
644.066	37229.73
644.419	37031.77
644.771	36839.68
645.124	36633.13
645.477	36582.74
645.83	36326.93
646.182	36332.8
646.535	36174.61
646.888	36288.51
647.24	36023.66
647.593	36291.22
647.945	36172.81
648.298	36037.89
648.65	36051.45
649.002	35912.93
649.355	36061.4
649.707	36167.61
650.059	36209.19
650.411	36560.82
650.763	36587.48
651.115	37065.44
651.467	36716.97
651.819	36823.18
652.171	36846.23
652.523	36723.98
652.875	36724.43
653.227	36588.61
653.578	36760.36
653.93	36728.72
654.282	36702.28
654.633	36597.88
654.985	36640.36
655.337	36690.08
655.688	36605.11
656.039	36678.56
656.391	36399.24
656.742	36555.85
657.094	36500.71
657.445	36735.28
657.796	36566.92
658.147	36436.98
658.498	36541.84
658.849	36505
659.2	36471.1
659.551	36402.4
659.902	36610.08
660.253	36570.54
660.604	36527.6
660.955	36261.17
661.306	36463.87
661.656	36441.73
662.007	36389.3
662.358	36365.34
662.708	36368.96
663.059	36389.98
663.409	36216.42
663.76	36438.11
664.11	36390.2
664.461	36391.33
664.811	36335.97
665.161	36288.51
665.511	36276.76
665.862	36458.67
666.212	36393.59
666.562	36453.25
666.912	36230.66
667.262	36317.43
667.612	36446.7
667.962	36423.42
668.312	36354.72
668.662	36577.54
669.011	36290.99
669.361	36343.87
669.711	36247.83
670.06	36215.97
670.41	36178
670.76	36148.85
671.109	36377.09
671.459	36276.08
671.808	36203.54
672.157	36269.75
672.507	35994.96
672.856	36017.1
673.205	36194.95
673.554	36048.52
673.904	36061.62
674.253	36288.51
674.602	36150.21
674.951	35613.27
675.3	35465.93
675.649	36145.69
675.998	35983.88
676.346	35986.14
676.695	36112.47
677.044	35903.66
677.393	35959.48
677.741	35908.63
678.09	35878.8
678.438	35727.85
678.787	35813.04
679.135	35826.83
679.484	35646.94
679.832	35742.99
680.181	35556.1
680.529	35771.91
680.877	35651.24
681.225	35499.83
681.573	35668.41
681.922	35445.37
682.27	35350.91
682.618	35514.97
682.966	35373.5
683.314	35392.04
683.661	35251.47
684.009	35120.86
684.357	35106.62
684.705	34978.71
685.053	34945.49
685.4	34994.31
685.748	34779.17
686.095	34754.54
686.443	34574.66
686.79	34656.69
687.138	34823.01
687.485	34828.43
687.832	34525.17
688.18	34617.59
688.527	34446.07
688.874	34250.6
689.221	34404.94
689.568	34269.13
689.915	34189.13
690.262	34094.67
690.609	34069.13
690.956	33898.74
691.303	34039.75
691.65	33773.55
691.997	33890.83
692.344	33617.39
692.69	33619.88
693.037	33631.4
693.383	33340.79
693.73	33518.41
694.077	33313.67
694.423	33274.13
694.769	33300.57
695.116	33109.84
695.462	32965.43
695.808	32959.33
696.155	33052.21
696.501	32731.54
696.847	32820.58
697.193	32565.67
697.539	32550.53
697.885	32311.66
698.231	32261.95
698.577	32315.73
698.923	32129.07
699.269	32200.26
699.614	31937.89
699.96	31964.1
700.306	31884.33
700.651	31732.92
700.997	31681.85
701.342	31623.32
701.688	31709.42
702.033	31534.74
702.379	31564.34
702.724	31389.43
703.069	31374.51
703.415	31037.35
703.76	31142.88
704.105	31190.79
704.45	30845.26
704.795	30750.12
705.14	30815.66
705.485	30685.27
705.83	30670.8
706.175	30535.89
706.52	30612.95
706.865	30424.26
707.209	30464.71
707.554	30254.09
707.899	30474.65
708.243	30228.56
708.588	30315.33
708.932	29930.71
709.277	29836.02
709.621	29910.37
709.966	29618.85
710.31	29765.06
710.654	29558.74
710.998	29618.18
711.342	29773.88
711.687	29538.86
712.031	29436.94
712.375	29261.12
712.719	29396.71
713.063	29375.92
713.407	29502.25
713.75	29084.4
714.094	29201.46
714.438	29082.37
714.782	29185.42
715.125	29060.9
715.469	29062.03
715.812	28890.29
716.156	28676.05
716.499	28802.15
716.843	28688.26
717.186	28643.29
717.53	28808.71
717.873	28659.11
718.216	28534.81
718.559	28552.67
718.902	28246.23
719.246	28401.48
719.589	28255.95
719.932	28168.5
720.275	28124.66
720.617	28126.24
720.96	28099.35
721.303	28063.41
721.646	27954.49
721.989	27868.62
722.331	27993.59
722.674	27799.92
723.016	27912.01
723.359	27723.08
723.701	27837.21
724.044	27581.17
724.386	27484.9
724.729	27655.97
725.071	27577.33
725.413	27462.07
725.755	27415.3
726.097	27324.23
726.439	27365.81
726.782	27216.43
727.124	27373.94
727.465	27217.34
727.807	27229.76
728.149	27169.43
728.491	26981.86
728.833	27134.4
729.175	26946.61
729.516	26886.72
729.858	26923.33
730.199	26911.81
730.541	26911.35
730.882	26854.18
731.224	26901.64
731.565	26628.42
731.906	26771.25
732.248	26777.12
732.589	26628.65
732.93	26525.15
733.271	26497.13
733.612	26617.58
733.953	26550.69
734.294	26474.3
734.635	26372.16
734.976	26511.59
735.317	26272.05
735.658	26288.77
735.999	26326.51
736.339	26154.76
736.68	26221.2
737.021	26182.11
737.361	26063.02
737.702	26194.99
738.042	26065.05
738.383	25960.42
738.723	26023.47
739.063	26015.56
739.404	26015.33
739.744	25926.75
740.084	25831.38
740.424	25868.44
740.764	25915
741.104	25982.34
741.444	25733.76
741.784	25646.08
742.124	25702.8
742.464	25558.4
742.804	25630.71
743.143	25612.63
743.483	25613.99
743.823	25439.53
744.162	25359.53
744.502	25370.38
744.841	25306.88
745.181	25427.55
745.52	25389.13
745.86	25301
746.199	25302.13
746.538	25248.35
746.877	25252.42
747.216	25221
747.556	25110.05
747.895	25046.09
748.234	24985.53
748.573	25066.43
748.911	25010.39
749.25	25029.37
749.589	24825.31
749.928	24967.9
750.267	24929.49
750.605	24789.6
750.944	24777.63
751.283	24665.54
751.621	24744.18
751.96	24546.22
752.298	24545.09
752.636	24551.87
752.975	24366.11
753.313	24436.39
753.651	24447.46
753.989	24353.91
754.327	24303.29
754.666	24287.92
755.004	24346
755.342	24210.63
755.679	24195.04
756.017	24080.47
756.355	24218.54
756.693	24032.33
757.031	24107.59
757.368	23876.41
757.706	23872.34
758.044	23856.97
758.381	23835.28
758.719	23705.11
759.056	23701.72
759.394	23620.59
759.731	23489.3
760.068	23560.71
760.405	23432.8
760.743	23416.08
761.08	23369.3
761.417	23193.03
761.754	23194.16
