Data from hue_80_FLMS001491_12.txt Node
Date: Mon Feb 06 15:22:32 GMT 2017
User: dcchb
Spectrometer: FLMS00149
Trigger mode: 0
Integration Time (sec): 2.000000E-2
Scans to average: 10
Electric dark correction enabled: true
Nonlinearity correction enabled: false
Boxcar width: 0
XAxis mode: Wavelengths
Number of Pixels in Spectrum: 2048
>>>>>Begin Spectral Data<<<<<
341.393	-39.5
341.776	-39.5
342.16	-39.5
342.543	-81.99
342.927	-79.05
343.31	-81.76
343.693	-71.14
344.077	-64.36
344.46	-70.24
344.843	-60.97
345.226	-30.69
345.61	-11.71
345.993	-14.19
346.376	-4.93
346.759	18.35
347.142	20.38
347.525	24.9
347.908	51.34
348.291	78.01
348.674	84.56
349.057	132.47
349.44	124.56
349.823	136.08
350.206	181.51
350.588	188.74
350.971	190.32
351.354	210.66
351.737	227.83
352.119	257.21
352.502	252.92
352.884	262.41
353.267	299.02
353.65	273.26
354.032	304.44
354.414	283.65
354.797	317.32
355.179	299.02
355.562	313.93
355.944	337.21
356.326	357.55
356.709	341.5
357.091	353.93
357.473	333.82
357.855	339.92
358.238	344.44
358.62	321.62
359.002	326.81
359.384	323.2
359.766	334.72
360.148	324.33
360.53	338.11
360.912	330.2
361.294	331.56
361.676	322.52
362.057	330.88
362.439	321.84
362.821	327.27
363.203	322.97
363.584	302.41
363.966	306.47
364.348	327.72
364.729	326.14
365.111	328.62
365.493	328.62
365.874	325.23
366.256	322.52
366.637	308.28
367.019	298.79
367.4	319.58
367.781	308.73
368.163	293.37
368.544	304.89
368.925	293.37
369.306	315.06
369.688	302.86
370.069	315.29
370.45	306.25
370.831	288.62
371.212	312.58
371.593	307.6
371.974	310.54
372.355	311.45
372.736	308.06
373.117	313.93
373.498	325.46
373.879	311.45
374.26	294.27
374.641	326.14
375.021	309.64
375.402	307.15
375.783	308.51
376.163	320.94
376.544	295.18
376.925	323.42
377.305	325.46
377.686	332.24
378.066	319.36
378.447	330.66
378.827	331.56
379.208	315.74
379.588	330.43
379.968	328.62
380.349	326.14
380.729	319.36
381.109	338.56
381.489	328.85
381.87	338.56
382.25	333.82
382.63	336.98
383.01	300.37
383.39	337.66
383.77	352.8
384.15	340.37
384.53	334.5
384.91	346.93
385.29	343.54
385.67	335.85
386.049	370.2
386.429	341.73
386.809	343.31
387.189	345.57
387.568	346.25
387.948	363.2
388.328	349.19
388.707	357.1
389.087	355.51
389.466	344.89
389.846	338.56
390.225	337.89
390.605	358.68
390.984	349.41
391.363	356.87
391.743	343.31
392.122	351.22
392.501	359.13
392.881	375.17
393.26	360.71
393.639	354.38
394.018	362.97
394.397	368.62
394.776	348.06
395.155	374.5
395.534	360.48
395.913	374.72
396.292	386.92
396.671	373.82
397.05	372.91
397.429	399.13
397.808	350.09
398.186	373.82
398.565	361.16
398.944	383.08
399.323	393.7
399.701	374.72
400.08	378.79
400.458	374.27
400.837	373.37
401.215	394.38
401.594	385.12
401.972	397.55
402.351	398.68
402.729	388.96
403.107	386.02
403.486	389.86
403.864	383.76
404.242	402.74
404.62	422.86
404.999	398.45
405.377	404.55
405.755	414.49
406.133	426.02
406.511	415.85
406.889	410.88
407.267	425.34
407.645	428.51
408.023	398.68
408.401	435.51
408.779	423.99
409.156	419.92
409.534	434.16
409.912	404.1
410.29	433.25
410.667	424.66
411.045	421.05
411.422	424.66
411.8	428.73
412.178	460.82
412.555	438
412.933	455.17
413.31	435.06
413.687	454.72
414.065	476.64
414.442	473.7
414.819	477.77
415.197	470.09
415.574	465.34
415.951	456.98
416.328	464.66
416.705	454.95
417.082	469.63
417.46	467.83
417.837	478.22
418.214	459.69
418.591	512.35
418.967	485
419.344	490.65
419.721	493.59
420.098	494.49
420.475	505.34
420.852	502.85
421.228	493.81
421.605	493.14
421.982	481.39
422.358	496.98
422.735	505.57
423.111	530.65
423.488	524.55
423.864	527.71
424.241	507.6
424.617	521.61
424.994	531.1
425.37	521.61
425.746	546.92
426.123	541.72
426.499	551.44
426.875	556.19
427.251	572.68
427.627	569.29
428.003	558.45
428.379	548.28
428.756	581.95
429.132	559.8
429.507	576.07
429.883	575.39
430.259	588.28
430.635	574.94
431.011	581.5
431.387	626.92
431.763	620.14
432.138	621.49
432.514	597.54
432.89	626.24
433.265	623.53
433.641	612.91
434.016	609.29
434.392	642.96
434.767	642.29
435.143	623.53
435.518	667.37
435.894	661.04
436.269	639.57
436.644	649.97
437.02	693.36
437.395	680.25
437.77	688.61
438.145	683.19
438.52	689.74
438.895	698.1
439.271	692.68
439.646	705.33
440.021	708.72
440.395	723.41
440.77	722.74
441.145	716.18
441.52	732.9
441.895	710.08
442.27	742.4
442.645	720.48
443.019	730.42
443.394	772.23
443.769	748.05
444.143	739.23
444.518	760.47
444.892	773.13
445.267	782.17
445.641	797.76
446.016	765.45
446.39	768.61
446.764	764.32
447.139	793.69
447.513	792.34
447.887	788.04
448.262	811.09
448.636	787.37
449.01	806.12
449.384	817.42
449.758	804.09
450.132	839.79
450.506	840.25
450.88	851.32
451.254	832.56
451.628	849.74
452.002	883.63
452.376	873.92
452.75	859.23
453.123	884.76
453.497	871.43
453.871	885.22
454.244	912.11
454.618	892.22
454.992	894.48
455.365	920.47
455.739	940.81
456.112	952.11
456.486	928.15
456.859	940.58
457.232	970.41
457.606	978.1
457.979	983.52
458.352	981.49
458.725	1027.13
459.099	997.3
459.472	1052.67
459.845	1047.25
460.218	1029.39
460.591	1070.97
460.964	1082.5
461.337	1107.13
461.71	1125.66
462.083	1137.41
462.456	1139.67
462.829	1135.38
463.201	1144.19
463.574	1141.93
463.947	1199.78
464.32	1210.18
464.692	1217.19
465.065	1216.06
465.438	1247.24
465.81	1258.99
466.183	1280.01
466.555	1308.26
466.928	1316.39
467.3	1331.76
467.672	1338.54
468.045	1363.85
468.417	1366.33
468.789	1385.99
469.161	1442.26
469.534	1445.88
469.906	1474.81
470.278	1517.52
470.65	1506.44
471.022	1539.21
471.394	1576.5
471.766	1622.15
472.138	1616.95
472.51	1670.51
472.882	1703.73
473.253	1738.75
473.625	1754.12
473.997	1818.98
474.369	1835.25
474.74	1894.23
475.112	1902.82
475.484	1970.39
475.855	1974.23
476.227	2039.76
476.598	2119.08
476.97	2119.31
477.341	2200.44
477.713	2246.76
478.084	2281.79
478.455	2339.19
478.827	2400.43
479.198	2524.95
479.569	2536.7
479.94	2623.7
480.311	2667.99
480.682	2771.49
481.053	2819.18
481.424	2926.29
481.795	2990.25
482.166	3078.38
482.537	3151.82
482.908	3211.26
483.279	3315.44
483.65	3433.17
484.021	3504.13
484.391	3576.9
484.762	3711.58
485.133	3762.2
485.503	3878.13
485.874	4001.52
486.244	4096.43
486.615	4250.78
486.985	4328.97
487.356	4504.33
487.726	4499.36
488.097	4681.95
488.467	4753.14
488.837	4890.99
489.207	5017.54
489.578	5162.17
489.948	5268.6
490.318	5436.96
490.688	5490.52
491.058	5656.39
491.428	5788.14
491.798	5923.28
492.168	6060.9
492.538	6167.34
492.908	6332.08
493.278	6451.4
493.648	6602.13
494.017	6684.39
494.387	6796.02
494.757	7011.16
495.126	7116.01
495.496	7159.4
495.866	7315.56
496.235	7493.18
496.605	7549
496.974	7698.15
497.344	7835.99
497.713	7984.47
498.082	8049.77
498.452	8271.46
498.821	8348.52
499.19	8423.78
499.559	8574.73
499.928	8667.61
500.298	8776.31
500.667	8954.38
501.036	8932.01
501.405	9086.81
501.774	9180.82
502.143	9355.95
502.512	9404.77
502.88	9548.72
503.249	9575.38
503.618	9807.69
503.987	9849.5
504.356	9913.68
504.724	10019.21
505.093	10076.84
505.462	10178.08
505.83	10347.11
506.199	10417.4
506.567	10598.86
506.936	10637.73
507.304	10792.75
507.672	10846.31
508.041	10841.79
508.409	10988.68
508.777	11153.65
509.145	11248.56
509.514	11276.13
509.882	11418.05
510.25	11448.78
510.618	11499.63
510.986	11527.87
511.354	11644.26
511.722	11732.84
512.09	11904.14
512.458	11792.95
512.826	12037.69
513.193	12023.23
513.561	12144.81
513.929	12201.53
514.297	12307.29
514.664	12425.48
515.032	12447.62
515.4	12549.99
515.767	12666.6
516.135	12636.77
516.502	12667.05
516.869	12764.9
517.237	12914.51
517.604	12926.26
517.972	12981.4
518.339	13052.35
518.706	13078.34
519.073	13133.71
519.44	13203.09
519.808	13334.38
520.175	13227.49
520.542	13389.07
520.909	13436.75
521.276	13446.24
521.643	13653.69
522.009	13649.63
522.376	13821.83
522.743	13822.05
523.11	13849.85
523.477	14026.79
523.843	14064.98
524.21	14140.01
524.577	14281.7
524.943	14207.8
525.31	14341.59
525.676	14409.38
526.043	14503.62
526.409	14375.26
526.776	14621.35
527.142	14622.03
527.508	14622.26
527.874	14718.53
528.241	14698.64
528.607	14740.22
528.973	14911.97
529.339	14834.45
529.705	14953.55
530.071	14957.39
530.437	15050.49
530.803	15091.4
531.169	15010.27
531.535	15081.91
531.901	15149.7
532.267	15125.52
532.632	15231.73
532.998	15254.78
533.364	15257.95
533.73	15339.53
534.095	15361.22
534.461	15293.88
534.826	15375.91
535.192	15318.06
535.557	15513.53
535.923	15382.69
536.288	15452.97
536.653	15451.84
537.019	15417.49
537.384	15374.33
537.749	15534.55
538.114	15427.21
538.479	15526.41
538.845	15469.92
539.21	15443.25
539.575	15504.04
539.94	15497.49
540.305	15523.25
540.67	15441.67
541.034	15499.07
541.399	15542.23
541.764	15406.42
542.129	15509.92
542.494	15520.31
542.858	15590.37
543.223	15451.61
543.587	15464.49
543.952	15497.49
544.316	15344.05
544.681	15526.19
545.045	15433.31
545.41	15525.06
545.774	15448.68
546.138	15443.48
546.503	15520.31
546.867	15490.26
547.231	15526.64
547.595	15488.22
547.959	15435.57
548.324	15443.7
548.688	15479.41
549.052	15413.65
549.416	15378.17
549.779	15387.21
550.143	15397.15
550.507	15498.62
550.871	15526.41
551.235	15362.8
551.599	15507.21
551.962	15435.79
552.326	15430.6
552.689	15438.96
553.053	15485.28
553.417	15466.08
553.78	15621.55
554.143	15430.37
554.507	15494.55
554.87	15476.7
555.234	15604.6
555.597	15459.52
555.96	15545.85
556.323	15550.59
556.686	15456.13
557.05	15564.15
557.413	15561.22
557.776	15562.57
558.139	15646.86
558.502	15721.44
558.865	15679.18
559.228	15643.02
559.59	15624.94
559.953	15709.69
560.316	15829.68
560.679	15821.1
561.041	15836.24
561.404	15830.81
561.767	15896.57
562.129	15768.89
562.492	15998.27
562.854	15974.54
563.217	15899.96
563.579	15998.94
563.941	15921.88
564.304	15959.62
564.666	16090.24
565.028	16142.22
565.39	16008.44
565.753	16141.76
566.115	16066.51
566.477	16199.16
566.839	16145.15
567.201	16282.33
567.563	16238.49
567.925	16343.34
568.287	16373.85
568.648	16296.56
569.01	16353.06
569.372	16475.77
569.734	16361.19
570.095	16442.1
570.457	16550.79
570.819	16520.96
571.18	16648.64
571.542	16572.94
571.903	16708.53
572.265	16723.22
572.626	16719.6
572.987	16749.21
573.349	16778.36
573.71	16718.25
574.071	16772.71
574.432	16789.66
574.794	16825.14
575.155	16923.67
575.516	16805.48
575.877	16898.81
576.238	16975.19
576.599	16845.48
576.96	16923.67
577.32	16847.73
577.681	17007.05
578.042	17009.31
578.403	16997.56
578.763	16965.25
579.124	16964.57
579.485	17026.04
579.845	17179.7
580.206	17032.36
580.566	17096.77
580.927	17002.53
581.287	17080.72
581.648	17015.19
582.008	17007.5
582.368	17037.33
582.728	17037.11
583.089	17000.27
583.449	17053.61
583.809	17092.02
584.169	17010.22
584.529	17004.12
584.889	17086.15
585.249	16983.55
585.609	16894.29
585.969	17043.89
586.329	17012.25
586.688	16960.73
587.048	17073.04
587.408	16992.59
587.768	16990.56
588.127	16935.19
588.487	16900.61
588.846	17004.79
589.206	16898.13
589.565	16866.72
589.925	16992.14
590.284	16924.8
590.643	16995.08
591.003	16943.33
591.362	16998.47
591.721	16927.73
592.08	16936.09
592.44	17019.93
592.799	16961.4
593.158	16951.01
593.517	16924.34
593.876	16972.03
594.235	16918.69
594.593	16884.57
594.952	16920.5
595.311	16925.93
595.67	16910.78
596.029	16848.86
596.387	16973.83
596.746	16931.35
597.104	16845.7
597.463	16886.83
597.822	16842.54
598.18	16884.57
598.538	16808.64
598.897	16918.47
599.255	16879.6
599.613	17055.87
599.972	16910.33
600.33	16885.25
600.688	16948.07
601.046	16986.71
601.404	17003.66
601.762	16976.09
602.12	17019.03
602.478	16981.29
602.836	16958.69
603.194	16937.9
603.552	16985.36
603.91	16946.26
604.268	17002.99
604.625	16920.05
604.983	16984.45
605.341	16906.49
605.698	16961.63
606.056	16999.37
606.413	16990.78
606.771	17095.64
607.128	17088.86
607.485	16913.95
607.843	16951.46
608.2	17071.01
608.557	17108.52
608.914	17009.76
609.272	17194.62
609.629	17140.38
609.986	17209.31
610.343	17164.11
610.7	17367.04
611.057	17206.6
611.414	17196.43
611.771	17203.88
612.127	17292.7
612.484	17302.86
612.841	17263.54
613.198	17334.05
613.554	17297.21
613.911	17367.72
614.267	17344.45
614.624	17336.31
614.98	17436.87
615.337	17454.5
615.693	17453.14
616.05	17401.84
616.406	17513.03
616.762	17465.35
617.118	17454.27
617.475	17480.03
617.831	17494.05
618.187	17539.69
618.543	17577.21
618.899	17663.76
619.255	17555.96
619.611	17601.39
619.967	17689.29
620.323	17631.44
620.678	17585.12
621.034	17519.36
621.39	17526.14
621.746	17490.88
622.101	17638.9
622.457	17637.77
622.812	17675.96
623.168	17761.16
623.523	17622.86
623.879	17714.15
624.234	17510.77
624.589	17727.49
624.945	17661.95
625.3	17754.15
625.655	17706.92
626.01	17701.27
626.365	17635.74
626.72	17615.62
627.075	17755.96
627.43	17611.1
627.785	17607.04
628.14	17668.73
628.495	17680.93
628.85	17708.96
629.205	17634.38
629.559	17766.13
629.914	17617.43
630.269	17607.71
630.623	17566.36
630.978	17521.16
631.332	17626.7
631.687	17588.96
632.041	17529.98
632.396	17592.57
632.75	17472.8
633.104	17612.91
633.459	17485.01
633.813	17473.03
634.167	17470.32
634.521	17426.48
634.875	17454.95
635.229	17418.12
635.583	17293.6
635.937	17312.13
636.291	17272.13
636.645	17339.02
636.999	17306.71
637.352	17363.43
637.706	17270.32
638.06	17282.75
638.413	17289.08
638.767	17247.05
639.121	17283.2
639.474	17166.6
639.828	17217.89
640.181	17073.72
640.534	17185.13
640.888	17111.23
641.241	16988.52
641.594	17050.22
641.947	17116.65
642.301	17064.23
642.654	17158.91
643.007	17146.03
643.36	17130.44
643.713	17059.93
644.066	17089.31
644.419	16887.96
644.771	16944.23
645.124	16672.15
645.477	16673.5
645.83	16624.69
646.182	16583.79
646.535	16466.28
646.888	16558.7
647.24	16405.94
647.593	16490.68
647.945	16411.59
648.298	16372.49
648.65	16333.17
649.002	16374.98
649.355	16433.73
649.707	16389.67
650.059	16510.57
650.411	16646.16
650.763	16728.19
651.115	16822.88
651.467	16825.81
651.819	16828.75
652.171	16773.16
652.523	16798.7
652.875	16654.97
653.227	16618.59
653.578	16814.97
653.93	16765.93
654.282	16656.55
654.633	16673.5
654.985	16691.35
655.337	16734.52
655.688	16763.67
656.039	16734.97
656.391	16726.61
656.742	16663.56
657.094	16710.34
657.445	16819.94
657.796	16686.16
658.147	16713.28
658.498	16706.04
658.849	16773.39
659.2	16725.7
659.551	16638.47
659.902	16802.76
660.253	16790.56
660.604	16823.33
660.955	16673.95
661.306	16833.5
661.656	16722.09
662.007	16646.38
662.358	16814.52
662.708	16797.79
663.059	16756.44
663.409	16748.75
663.76	16865.36
664.11	16745.14
664.461	16827.85
664.811	16894.74
665.161	16866.72
665.511	16793.73
665.862	16805.7
666.212	16877.79
666.562	16839.83
666.912	16840.05
667.262	16812.93
667.612	16787.85
667.962	16887.06
668.312	16896.32
668.662	16904.46
669.011	16796.44
669.361	16766.16
669.711	16772.93
670.06	16795.98
670.41	16760.51
670.76	16745.14
671.109	16828.75
671.459	16778.58
671.808	16640.96
672.157	16818.58
672.507	16641.86
672.856	16681.64
673.205	16715.31
673.554	16667.63
673.904	16647.51
674.253	16715.08
674.602	16645.48
674.951	16508.31
675.3	16294.3
675.649	16719.6
675.998	16531.36
676.346	16612.94
676.695	16599.61
677.044	16579.49
677.393	16505.37
677.741	16570
678.09	16548.08
678.438	16454.07
678.787	16534.07
679.135	16491.81
679.484	16397.13
679.832	16402.1
680.181	16389.44
680.529	16320.07
680.877	16379.5
681.225	16273.96
681.573	16450.01
681.922	16296.79
682.27	16300.63
682.618	16225.15
682.966	16211.14
683.314	16253.17
683.661	16088.66
684.009	16088.66
684.357	16007.08
684.705	16037.36
685.053	16013.18
685.4	16008.44
685.748	15830.36
686.095	15905.84
686.443	15877.82
686.79	15803.69
687.138	15795.33
687.485	15822.9
687.832	15782.9
688.18	15824.49
688.527	15610.48
688.874	15615.68
689.221	15543.81
689.568	15479.86
689.915	15509.24
690.262	15452.52
690.609	15435.34
690.956	15328.9
691.303	15337.49
691.65	15354.67
691.997	15286.19
692.344	15176.82
692.69	15221.79
693.037	15112.87
693.383	15006.65
693.73	15004.62
694.077	14979.99
694.423	14979.54
694.769	14920.55
695.116	14824.29
695.462	14810.5
695.808	14765.98
696.155	14754.91
696.501	14703.38
696.847	14672.2
697.193	14510.4
697.539	14600.56
697.885	14461.58
698.231	14317.18
698.577	14397.86
698.923	14339.78
699.269	14243.06
699.614	14154.92
699.96	14111.99
700.306	14061.14
700.651	14084.42
700.997	13966
701.342	13958.77
701.688	13959.45
702.033	13788.61
702.379	13842.84
702.724	13754.03
703.069	13858.21
703.415	13680.59
703.76	13654.6
704.105	13668.38
704.45	13641.04
704.795	13506.13
705.14	13476.07
705.485	13482.63
705.83	13453.93
706.175	13430.88
706.52	13385.68
706.865	13314.95
707.209	13316.53
707.554	13206.47
707.899	13249.19
708.243	13147.72
708.588	13200.15
708.932	13067.95
709.277	13057.1
709.621	13006.03
709.966	12925.13
710.31	12984.33
710.654	12863.43
710.998	12872.02
711.342	12853.94
711.687	12864.79
712.031	12741.18
712.375	12691.01
712.719	12761.97
713.063	12690.1
713.407	12800.38
713.75	12677.68
714.094	12661.18
714.438	12604.23
714.782	12529.43
715.125	12535.53
715.469	12652.14
715.812	12417.57
716.156	12363.56
716.499	12435.87
716.843	12426.16
717.186	12453.27
717.53	12464.35
717.873	12377.57
718.216	12396.78
718.559	12370.56
718.902	12214.18
719.246	12207.63
719.589	12267.97
719.932	12103.9
720.275	12218.25
720.617	12171.93
720.96	12183.68
721.303	12205.15
721.646	12223.9
721.989	12086.05
722.331	12079.27
722.674	12153.85
723.016	12070.69
723.359	12065.04
723.701	12064.13
724.044	12024.81
724.386	11950.46
724.729	11971.03
725.071	12014.19
725.413	11985.04
725.755	11933.29
726.097	11845.38
726.439	11902.78
726.782	11845.38
727.124	12012.38
727.465	11937.36
727.807	11816.45
728.149	11822.33
728.491	11863.91
728.833	11841.09
729.175	11718.15
729.516	11810.35
729.858	11819.17
730.199	11853.74
730.541	11804.03
730.882	11767.64
731.224	11818.71
731.565	11698.94
731.906	11766.74
732.248	11829.79
732.589	11716.12
732.93	11685.84
733.271	11797.02
733.612	11731.49
733.953	11803.12
734.294	11715.21
734.635	11723.35
734.976	11759.51
735.317	11666.63
735.658	11604.93
735.999	11684.03
736.339	11621.21
736.68	11746.4
737.021	11684.48
737.361	11774.42
737.702	11767.87
738.042	11657.14
738.383	11747.08
738.723	11730.13
739.063	11685.84
739.404	11806.74
739.744	11771.26
740.084	11741.65
740.424	11757.47
740.764	11797.47
741.104	11799.96
741.444	11806.96
741.784	11770.13
742.124	11810.35
742.464	11881.99
742.804	11861.2
743.143	11833.86
743.483	11901.2
743.823	11904.59
744.162	11912.5
744.502	11974.87
744.841	11898.03
745.181	11999.05
745.52	11964.7
745.86	12088.54
746.199	12114.3
746.538	12008.99
746.877	12155.65
747.216	12216.22
747.556	12160.4
747.895	12230.68
748.234	12276.78
748.573	12300.74
748.911	12342.09
749.25	12472.71
749.589	12402.88
749.928	12583.21
750.267	12574.85
750.605	12653.72
750.944	12720.39
751.283	12740.5
751.621	12860.27
751.96	12837.22
752.298	13002.86
752.636	13138.91
752.975	13088.29
753.313	13074.27
753.651	13361.95
753.989	13301.39
754.327	13388.84
754.666	13515.85
755.004	13643.98
755.342	13752.9
755.679	13834.25
756.017	13758.1
756.355	14023.85
756.693	14087.58
