Data from hue_50_FLMS001491_39.txt Node
Date: Mon Feb 06 15:10:03 GMT 2017
User: dcchb
Spectrometer: FLMS00149
Trigger mode: 0
Integration Time (sec): 2.000000E-2
Scans to average: 10
Electric dark correction enabled: true
Nonlinearity correction enabled: false
Boxcar width: 0
XAxis mode: Wavelengths
Number of Pixels in Spectrum: 2048
>>>>>Begin Spectral Data<<<<<
341.393	-25.42
341.776	-25.42
342.16	-25.42
342.543	-44.41
342.927	-64.07
343.31	-88.25
343.693	-49.6
344.077	-82.14
344.46	-44.41
344.843	-66.55
345.226	-32.88
345.61	-25.42
345.993	-18.87
346.376	-2.37
346.759	0.56
347.142	43.95
347.525	33.78
347.908	50.06
348.291	88.02
348.674	71.75
349.057	122.37
349.44	128.7
349.823	128.02
350.206	175.48
350.588	186.32
350.971	235.14
351.354	209.6
351.737	235.59
352.119	257.06
352.502	269.94
352.884	273.1
353.267	284.17
353.65	276.72
354.032	295.7
354.414	319.88
354.797	316.26
355.179	327.11
355.562	313.33
355.944	321.46
356.326	338.86
356.709	326.66
357.091	339.09
357.473	332.31
357.855	349.03
358.238	361.91
358.62	343.83
359.002	339.77
359.384	335.92
359.766	335.25
360.148	322.82
360.53	343.38
360.912	343.83
361.294	329.14
361.676	331.86
362.057	321.01
362.439	322.36
362.821	351.74
363.203	324.85
363.584	314
363.966	321.23
364.348	304.96
364.729	340.89
365.111	315.81
365.493	322.36
365.874	304.06
366.256	314.91
366.637	322.59
367.019	281.46
367.4	320.78
367.781	320.33
368.163	325.98
368.544	326.66
368.925	302.25
369.306	316.49
369.688	335.02
370.069	302.7
370.45	318.07
370.831	334.57
371.212	324.62
371.593	304.96
371.974	306.32
372.355	274.23
372.736	335.02
373.117	316.71
373.498	311.97
373.879	333.44
374.26	311.29
374.641	302.48
375.021	331.18
375.402	327.34
375.783	318.75
376.163	326.88
376.544	308.58
376.925	334.12
377.305	325.08
377.686	327.34
378.066	343.83
378.447	329.6
378.827	351.97
379.208	338.64
379.588	323.04
379.968	322.36
380.349	352.42
380.729	334.34
381.109	330.73
381.489	332.31
381.87	326.66
382.25	331.63
382.63	340.44
383.01	329.14
383.39	341.35
383.77	328.47
384.15	325.98
384.53	337.05
384.91	345.64
385.29	354.91
385.67	343.61
386.049	339.77
386.429	344.74
386.809	331.86
387.189	330.73
387.568	349.71
387.948	334.79
388.328	321.23
388.707	342.93
389.087	364.4
389.466	356.94
389.846	353.78
390.225	355.36
390.605	370.72
390.984	350.84
391.363	364.17
391.743	349.71
392.122	367.79
392.501	359.88
392.881	367.33
393.26	339.09
393.639	363.49
394.018	372.76
394.397	371.63
394.776	350.61
395.155	372.98
395.534	363.49
395.913	364.4
396.292	356.49
396.671	354
397.05	367.56
397.429	381.8
397.808	399.65
398.186	371.63
398.565	371.18
398.944	389.03
399.323	365.98
399.701	363.72
400.08	384.06
400.458	395.36
400.837	388.13
401.215	401.46
401.594	376.83
401.972	369.37
402.351	379.76
402.729	401.46
403.107	394.45
403.486	412.98
403.864	388.8
404.242	370.05
404.62	386.77
404.999	392.42
405.377	404.17
405.755	410.5
406.133	377.05
406.511	398.75
406.889	416.6
407.267	416.15
407.645	396.26
408.023	409.37
408.401	398.75
408.779	413.21
409.156	403.72
409.534	417.96
409.912	413.21
410.29	429.25
410.667	424.96
411.045	431.97
411.422	432.87
411.8	441.01
412.178	428.12
412.555	432.64
412.933	417.73
413.31	434
413.687	446.43
414.065	460.44
414.442	449.82
414.819	484.62
415.197	461.34
415.574	455.92
415.951	444.17
416.328	457.05
416.705	466.77
417.082	458.63
417.46	477.16
417.837	483.49
418.214	451.17
418.591	458.63
418.967	469.93
419.344	476.26
419.721	498.18
420.098	481.23
420.475	485.75
420.852	484.39
421.228	490.27
421.605	485.07
421.982	463.15
422.358	477.16
422.735	509.03
423.111	490.72
423.488	499.99
423.864	501.57
424.241	510.61
424.617	514.22
424.994	502.7
425.37	504.96
425.746	517.39
426.123	516.71
426.499	492.08
426.875	521.68
427.251	533.43
427.627	522.81
428.003	518.74
428.379	529.82
428.756	544.73
429.132	554.45
429.507	554.67
429.883	551.74
430.259	562.36
430.635	558.29
431.011	542.47
431.387	584.05
431.763	578.4
432.138	555.35
432.514	600.78
432.89	596.03
433.265	585.63
433.641	588.8
434.016	596.71
434.392	583.6
434.767	617.27
435.143	623.6
435.518	606.2
435.894	602.58
436.269	596.48
436.644	628.8
437.02	633.99
437.395	648.68
437.77	647.33
438.145	646.2
438.52	656.59
438.895	651.85
439.271	649.36
439.646	667.21
440.021	673.32
440.395	668.34
440.77	673.99
441.145	637.84
441.52	646.42
441.895	667.89
442.27	685.97
442.645	675.58
443.019	700.66
443.394	678.74
443.769	710.6
444.143	701.79
444.518	695.24
444.892	696.59
445.267	708.12
445.641	722.58
446.016	729.59
446.39	721.9
446.764	740.21
447.139	735.01
447.513	725.07
447.887	724.84
448.262	717.16
448.636	735.91
449.01	760.32
449.384	736.59
449.758	733.88
450.132	793.99
450.506	750.15
450.88	782.24
451.254	756.48
451.628	770.26
452.002	759.19
452.376	796.7
452.75	780.43
453.123	793.31
453.497	795.12
453.871	800.77
454.244	811.84
454.618	817.04
454.992	811.39
455.365	806.42
455.739	816.36
456.112	858.4
456.486	844.16
456.859	861.56
457.232	887.1
457.606	866.08
457.979	868.56
458.352	885.74
458.725	881.9
459.099	907.21
459.472	919.86
459.845	937.72
460.218	965.51
460.591	965.51
460.964	956.25
461.337	986.98
461.71	979.3
462.083	997.6
462.456	994.89
462.829	1002.35
463.201	1032.63
463.574	1022.46
463.947	1042.12
464.32	1048.22
464.692	1062.91
465.065	1069.46
465.438	1081.89
465.81	1104.49
466.183	1104.04
466.555	1106.98
466.928	1171.61
467.3	1138.84
467.672	1162.34
468.045	1214.77
468.417	1194.21
468.789	1228.56
469.161	1266.07
469.534	1269.46
469.906	1316.46
470.278	1300.19
470.65	1325.95
471.022	1336.58
471.394	1371.6
471.766	1384.03
472.138	1406.18
472.51	1465.61
472.882	1489.57
473.253	1522.56
473.625	1557.81
473.997	1605.95
474.369	1602.56
474.74	1609.34
475.112	1669.45
475.484	1701.31
475.855	1781.54
476.227	1801.87
476.598	1855.66
476.97	1889.55
477.341	1922.55
477.713	2003.9
478.084	1993.96
478.455	2096.1
478.827	2109.44
479.198	2234.4
479.569	2254.52
479.94	2342.88
480.311	2401.86
480.682	2496.32
481.053	2561.63
481.424	2632.13
481.795	2673.04
482.166	2728.4
482.537	2807.27
482.908	2927.49
483.279	2989.64
483.65	3081.39
484.021	3147.6
484.391	3244.77
484.762	3329.97
485.133	3434.15
485.503	3537.2
485.874	3639.79
486.244	3714.37
486.615	3854.47
486.985	3983.06
487.356	4103.96
487.726	4162.04
488.097	4297.63
488.467	4361.81
488.837	4517.51
489.207	4624.62
489.578	4762.7
489.948	4844.73
490.318	4976.71
490.688	5117.04
491.058	5261.9
491.428	5371.72
491.798	5519.29
492.168	5629.8
492.538	5724.48
492.908	5840.41
493.278	6026.17
493.648	6088.54
494.017	6250.57
494.387	6354.3
494.757	6454.63
495.126	6620.73
495.496	6700.95
495.866	6829.54
496.235	6994.73
496.605	7087.61
496.974	7262.52
497.344	7370.99
497.713	7480.14
498.082	7641.95
498.452	7733.24
498.821	7830.87
499.19	7980.47
499.559	8135.49
499.928	8234.92
500.298	8279.67
500.667	8423.17
501.036	8511.3
501.405	8677.4
501.774	8730.05
502.143	8901.35
502.512	8978.86
502.88	9129.82
503.249	9168.69
503.618	9311.51
503.987	9450.49
504.356	9571.16
504.724	9632.18
505.093	9690.71
505.462	9760.08
505.83	9973.41
506.199	10042.11
506.567	10237.81
506.936	10302.21
507.304	10444.13
507.672	10497.46
508.041	10599.61
508.409	10678.25
508.777	10815.42
509.145	10956.89
509.514	11026.26
509.882	11146.03
510.25	11206.6
510.618	11324.11
510.986	11349.19
511.354	11550.77
511.722	11640.94
512.09	11784.89
512.458	11823.76
512.826	11950.76
513.193	12032.11
513.561	12060.81
513.929	12256.97
514.297	12300.58
514.664	12435.49
515.032	12561.36
515.4	12690.17
515.767	12693.34
516.135	12845.42
516.502	12813.79
516.869	13078.87
517.237	13123.16
517.604	13090.39
517.972	13269.59
518.339	13445.86
518.706	13462.36
519.073	13498.74
519.44	13692.63
519.808	13772.41
520.175	13836.59
520.542	13931.05
520.909	14069.57
521.276	14104.15
521.643	14234.99
522.009	14390.47
522.376	14464.37
522.743	14530.35
523.11	14640.86
523.477	14847.63
523.843	14925.14
524.21	15115.87
524.577	15168.75
524.943	15342.08
525.31	15339.14
525.676	15493.94
526.043	15603.77
526.409	15681.51
526.776	15869.53
527.142	15940.48
527.508	16060.26
527.874	16102.74
528.241	16234.49
528.607	16290.08
528.973	16439.23
529.339	16447.14
529.705	16725.77
530.071	16809.61
530.437	16840.8
530.803	16897.97
531.169	17088.93
531.535	17090.29
531.901	17121.7
532.267	17300.45
532.632	17361.24
532.998	17460.67
533.364	17507.45
533.73	17678.52
534.095	17684.62
534.461	17789.7
534.826	17876.25
535.192	17921.9
535.557	18118.51
535.923	18083.25
536.288	18174.32
536.653	18254.77
537.019	18226.75
537.384	18436.46
537.749	18480.98
538.114	18478.05
538.479	18512.17
538.845	18692.95
539.21	18652.28
539.575	18696.12
539.94	18888.2
540.305	18927.52
540.67	18898.83
541.034	18988.54
541.399	19135.43
541.764	19094.3
542.129	19372.48
542.494	19408.64
542.858	19417.68
543.223	19479.83
543.587	19569.99
543.952	19616.32
544.316	19560.95
544.681	19682.53
545.045	19783.32
545.41	19786.26
545.774	19909.87
546.138	19994.62
546.503	20005.69
546.867	20009.98
547.231	20221.73
547.595	20170.43
547.959	20339.47
548.324	20286.13
548.688	20414.72
549.052	20480.03
549.416	20590.76
549.779	20633.47
550.143	20608.61
550.507	20769.06
550.871	20857.64
551.235	20873.46
551.599	21016.51
551.962	21012.67
552.326	21080.46
552.689	21189.16
553.053	21187.58
553.417	21172.21
553.78	21647.91
554.143	21344.41
554.507	21577.17
554.87	21569.04
555.234	21883.61
555.597	21726.32
555.96	21838.18
556.323	21908.92
556.686	21934.68
557.05	22093.09
557.413	22088.12
557.776	22192.07
558.139	22416.92
558.502	22445.4
558.865	22496.24
559.228	22568.11
559.59	22764.03
559.953	22688.33
560.316	22992.05
560.679	22927.87
561.041	23061.65
561.404	23172.84
561.767	23262.78
562.129	23189.56
562.492	23474.75
562.854	23490.34
563.217	23527.63
563.579	23599.49
563.941	23771.47
564.304	23856.21
564.666	23877.45
565.028	24086.71
565.39	24098.69
565.753	24293.03
566.115	24356.31
566.477	24490.09
566.839	24515.63
567.201	24696.64
567.563	24739.8
567.925	24990.64
568.287	24803.08
568.648	25069.96
569.01	25172.78
569.372	25321.48
569.734	25225.21
570.095	25377.52
570.457	25535.26
570.819	25589.72
571.18	25660.46
571.542	25881.47
571.903	25843.95
572.265	25898.19
572.626	26017.06
572.987	26082.37
573.349	26187.67
573.71	26281.23
574.071	26355.8
574.432	26512.41
574.794	26647.77
575.155	26609.58
575.516	26624.72
575.877	26859.52
576.238	26925.73
576.599	26934.32
576.96	27040.76
577.32	27029.01
577.681	27228.55
578.042	27352.61
578.403	27421.76
578.763	27429.22
579.124	27578.6
579.485	27737.24
579.845	27840.96
580.206	27846.16
580.566	27969.1
580.927	28072.82
581.287	28268.52
581.648	28172.71
582.008	28417.9
582.368	28315.07
582.728	28448.63
583.089	28490.44
583.449	28613.37
583.809	28750.77
584.169	28855.17
584.529	28779.02
584.889	29267.59
585.249	29050.42
585.609	29050.65
585.969	29425.33
586.329	29320.02
586.688	29559.56
587.048	29724.53
587.408	29678.43
587.768	29783.28
588.127	29838.42
588.487	29936.95
588.846	30139.89
589.206	30021.7
589.565	30185.76
589.925	30387.79
590.284	30452.19
590.643	30613.77
591.003	30662.13
591.362	30833.2
591.721	30936.02
592.08	31032.97
592.44	31183.7
592.799	31138.96
593.158	31260.76
593.517	31392.28
593.876	31413.07
594.235	31505.05
594.593	31544.59
594.952	31778.26
595.311	31625.95
595.67	31883.12
596.029	32120.85
596.387	32166.5
596.746	32294.41
597.104	32197.91
597.463	32327.62
597.822	32522.87
598.18	32395.87
598.538	32531.69
598.897	32778.46
599.255	32543.89
599.613	33189.3
599.972	32938.23
600.33	33057.1
600.688	33049.19
601.046	33258.45
601.404	33350.87
601.762	33422.29
602.12	33600.81
602.478	33705.44
602.836	33762.39
603.194	33602.62
603.552	33727.14
603.91	33718.1
604.268	33979.78
604.625	33973.91
604.983	34075.38
605.341	34142.72
605.698	34245.31
606.056	34393.33
606.413	34394.91
606.771	34651.63
607.128	34632.2
607.485	34528.02
607.843	34554.46
608.2	34804.85
608.557	34925.3
608.914	34888.91
609.272	35035.58
609.629	35184.5
609.986	35171.39
610.343	35222.92
610.7	35387.43
611.057	35375.45
611.414	35473.08
611.771	35508.78
612.127	35771.15
612.484	35772.73
612.841	36013.4
613.198	35765.27
613.554	35891.82
613.911	36011.6
614.267	36150.57
614.624	36079.16
614.98	36222.21
615.337	36376.78
615.693	36311.93
616.05	36316.9
616.406	36654.06
616.762	36440.74
617.118	36475.76
617.475	36581.98
617.831	36681.18
618.187	36651.13
618.543	36766.6
618.899	37051.12
619.255	36935.41
619.611	36993.26
619.967	37112.13
620.323	37205.46
620.678	37198
621.034	37031.46
621.39	37107.61
621.746	37167.5
622.101	37533.36
622.457	37242.75
622.812	37310.77
623.168	37519.8
623.523	37479.81
623.879	37602.06
624.234	37414.95
624.589	37460.82
624.945	37601.16
625.3	37647.71
625.655	37597.32
626.01	37702.62
626.365	37720.93
626.72	37630.08
627.075	37644.32
627.43	37514.38
627.785	37530.88
628.14	37752.11
628.495	37838.67
628.85	37696.52
629.205	37478.22
629.559	37889.06
629.914	37616.07
630.269	37830.98
630.623	37744.21
630.978	37530.43
631.332	37838.89
631.687	37784.2
632.041	37730.19
632.396	37800.25
632.75	37727.93
633.104	37725.67
633.459	37680.03
633.813	37649.07
634.167	37653.81
634.521	37660.37
634.875	37620.37
635.229	37652
635.583	37452.91
635.937	37583.53
636.291	37489.07
636.645	37505.34
636.999	37295.86
637.352	37617.88
637.706	37416.53
638.06	37469.18
638.413	37352.13
638.767	37369.75
639.121	37486.81
639.474	37164.11
639.828	37254.27
640.181	37173.15
640.534	37476.87
640.888	37261.05
641.241	37154.84
641.594	37155.07
641.947	37253.37
642.301	37164.11
642.654	37092.25
643.007	37096.99
643.36	37077.56
643.713	37062.87
644.066	37169.98
644.419	36893.15
644.771	36685.93
645.124	36418.59
645.477	36310.8
645.83	36126.39
646.182	35911.03
646.535	35846.63
646.888	35944.03
647.24	35824.71
647.593	35940.18
647.945	35868.55
648.298	35805.73
648.65	35796.23
649.002	35546.07
649.355	35754.65
649.707	35670.59
650.059	35861.09
650.411	36207.07
650.763	36246.39
651.115	36626.27
651.467	36509.89
651.819	36487.52
652.171	36394.18
652.523	36372.49
652.875	36444.13
653.227	36091.59
653.578	36587.17
653.93	36405.94
654.282	36344.92
654.633	36278.26
654.985	36152.83
655.337	36195.32
655.688	36171.37
656.039	36284.36
656.391	35947.87
656.742	36167.07
657.094	36032.61
657.445	36266.73
657.796	36267.18
658.147	36106.28
658.498	35990.58
658.849	36043.91
659.2	36196.22
659.551	36017.92
659.902	36006.17
660.253	36128.88
660.604	36084.14
660.955	35816.8
661.306	36022.67
661.656	35927.98
662.007	35919.39
662.358	35854.76
662.708	35931.37
663.059	35930.47
663.409	35744.48
663.76	35997.36
664.11	35897.25
664.461	36009.79
664.811	35896.12
665.161	35977.7
665.511	35869.68
665.862	35790.81
666.212	36024.93
666.562	35928.66
666.912	35953.97
667.262	35806.86
667.612	35858.38
667.962	35805.73
668.312	35798.72
668.662	36006.4
669.011	35893.86
669.361	35765.73
669.711	35835.55
670.06	35756.23
670.41	35637.82
670.76	35677.14
671.109	35881.2
671.459	35788.55
671.808	35656.8
672.157	35778.16
672.507	35588.78
672.856	35600.08
673.205	35652.06
673.554	35565.28
673.904	35570.48
674.253	35767.99
674.602	35665.16
674.951	35161.45
675.3	34940.89
675.649	35442.34
675.998	35439.63
676.346	35427.2
676.695	35554.43
677.044	35210.94
677.393	35305.85
677.741	35504.94
678.09	35255.68
678.438	35260.43
678.787	35191.73
679.135	35212.07
679.484	35100.66
679.832	35190.15
680.181	34983.6
680.529	35193.99
680.877	35055.91
681.225	34932.53
681.573	35197.61
681.922	34836.03
682.27	34815.47
682.618	34819.08
682.966	34768.01
683.314	34813.66
683.661	34658.41
684.009	34597.62
684.357	34591.75
684.705	34391.07
685.053	34630.39
685.4	34551.29
685.748	34329.15
686.095	34276.05
686.443	34157.86
686.79	34250.29
687.138	34167.12
687.485	34154.47
687.832	34085.32
688.18	34126.45
688.527	33978.43
688.874	34086.9
689.221	33814.82
689.568	33809.62
689.915	33620.92
690.262	33634.26
690.609	33605.78
690.956	33419.35
691.303	33495.96
691.65	33253.02
691.997	33248.96
692.344	33001.51
692.69	33106.36
693.037	33099.13
693.383	32840.83
693.73	32900.04
694.077	32678.35
694.423	32857.78
694.769	32583.66
695.116	32533.27
695.462	32625.24
695.808	32480.61
696.155	32502.54
696.501	32205.59
696.847	32217.34
697.193	32009.44
697.539	32144.8
697.885	32042.43
698.231	31761.09
698.577	31840.18
698.923	31876.79
699.269	31634.76
699.614	31500.75
699.96	31353.86
700.306	31500.08
700.651	31222.57
700.997	31210.82
701.342	31279.06
701.688	31113.87
702.033	31082.46
702.379	31050.14
702.724	30955.68
703.069	31039.52
703.415	30657.39
703.76	30584.62
704.105	30568.12
704.45	30627.33
704.795	30279.54
705.14	30222.82
705.485	30235.7
705.83	30212.88
706.175	30224.85
706.52	30058.31
706.865	30014.47
707.209	29952.77
707.554	29800.01
707.899	29863.73
708.243	29801.14
708.588	29747.35
708.932	29682.04
709.277	29511.43
709.621	29457.42
709.966	29388.04
710.31	29423.97
710.654	29231.89
710.998	29284.77
711.342	29263.07
711.687	29191.21
712.031	29035.51
712.375	28909.18
712.719	28997.32
713.063	28963.65
713.407	28880.94
713.75	28775.63
714.094	28744.89
714.438	28602.75
714.782	28601.85
715.125	28527.05
715.469	28580.83
715.812	28385.13
716.156	28315.98
716.499	28330.22
716.843	28360.05
717.186	28135.64
717.53	28375.64
717.873	28266.71
718.216	28171.12
718.559	27964.35
718.902	27784.69
719.246	27935.65
719.589	27812.49
719.932	27684.81
720.275	27665.83
720.617	27659.95
720.96	27538.6
721.303	27729.78
721.646	27603.45
721.989	27409.79
722.331	27560.29
722.674	27420.41
723.016	27438.71
723.359	27417.47
723.701	27413.63
724.044	27147.65
724.386	27020.19
724.729	27262.67
725.071	27109.23
725.413	27103.36
725.755	27092.51
726.097	26914.21
726.439	26756.7
726.782	26794.89
727.124	26976.13
727.465	26781.33
727.807	26805.74
728.149	26787.43
728.491	26681.22
728.833	26611.16
729.175	26447.78
729.516	26505.18
729.858	26455.01
730.199	26433.32
730.541	26493.88
730.882	26398.97
731.224	26566.19
731.565	26325.75
731.906	26221.34
732.248	26243.04
732.589	26164.85
732.93	26003.5
733.271	26090.5
733.612	26154.23
733.953	26096.6
734.294	26011.86
734.635	25963.27
734.976	26037.62
735.317	25867.91
735.658	25774.12
735.999	25813.9
736.339	25678.76
736.68	25860
737.021	25580.68
737.361	25577.52
737.702	25826.78
738.042	25658.2
738.383	25596.28
738.723	25625.65
739.063	25544.75
739.404	25398.77
739.744	25475.6
740.084	25399.22
740.424	25369.84
740.764	25380.91
741.104	25347.92
741.444	25311.09
741.784	25186.34
742.124	25254.82
742.464	25196.96
742.804	25222.27
743.143	25050.98
743.483	25075.16
743.823	24912.23
744.162	24936.41
744.502	24945.45
744.841	24855.05
745.181	24802.85
745.52	24794.72
745.86	24781.61
746.199	24759.69
746.538	24781.83
746.877	24808.5
747.216	24712.23
747.556	24730.31
747.895	24700.03
748.234	24503.2
748.573	24480.15
748.911	24507.49
749.25	24327.83
749.589	24323.54
749.928	24410.54
750.267	24367.61
750.605	24346.59
750.944	24249.64
751.283	24127.39
751.621	24252.36
751.96	24068.63
752.298	24011.01
752.636	24009.2
752.975	23937.34
753.313	23823.44
753.651	23951.8
753.989	23817.57
754.327	23792.26
754.666	23638.36
755.004	23610.34
755.342	23658.25
755.679	23651.24
756.017	23430.68
756.355	23535.31
756.693	23315.21
