Data from hue_60_FLMS001491_83.txt Node
Date: Mon Feb 06 15:18:02 GMT 2017
User: dcchb
Spectrometer: FLMS00149
Trigger mode: 0
Integration Time (sec): 2.000000E-2
Scans to average: 10
Electric dark correction enabled: true
Nonlinearity correction enabled: false
Boxcar width: 0
XAxis mode: Wavelengths
Number of Pixels in Spectrum: 2048
>>>>>Begin Spectral Data<<<<<
341.393	4.05
341.776	4.05
342.16	4.05
342.543	-65.78
342.927	-49.05
343.31	-61.03
343.693	-42.05
344.077	-73.23
344.46	-58.54
344.843	-49.73
345.226	-41.82
345.61	-33.01
345.993	-20.35
346.376	4.51
346.759	6.31
347.142	17.39
347.525	36.37
347.908	36.82
348.291	83.15
348.674	99.87
349.057	95.35
349.44	136.25
349.823	146.2
350.206	169.47
350.588	214.44
350.971	211.73
351.354	237.27
351.737	252.86
352.119	247.89
352.502	261
352.884	278.62
353.267	272.07
353.65	286.31
354.032	290.37
354.414	298.74
354.797	312.52
355.179	338.06
355.562	325.18
355.944	312.07
356.326	332.86
356.709	321.56
357.091	349.13
357.473	334.67
357.855	331.05
358.238	331.95
358.62	332.18
359.002	338.96
359.384	343.93
359.766	338.51
360.148	338.96
360.53	352.52
360.912	336.93
361.294	340.77
361.676	359.52
362.057	342.58
362.439	328.11
362.821	326.3
363.203	333.08
363.584	352.74
363.966	342.35
364.348	341.67
364.729	325.18
365.111	341.22
365.493	315.46
365.874	319.98
366.256	325.4
366.637	325.85
367.019	318.4
367.4	322.92
367.781	322.46
368.163	326.3
368.544	306.42
368.925	298.28
369.306	324.72
369.688	310.03
370.069	326.98
370.45	328.79
370.831	333.99
371.212	311.16
371.593	325.4
371.974	312.07
372.355	306.19
372.736	300.99
373.117	316.36
373.498	319.3
373.879	319.53
374.26	328.79
374.641	307.32
375.021	326.3
375.402	329.24
375.783	319.75
376.163	314.78
376.544	330.6
376.925	325.63
377.305	325.63
377.686	335.12
378.066	327.66
378.447	330.15
378.827	341.67
379.208	332.18
379.588	336.25
379.968	342.35
380.349	338.28
380.729	346.19
381.109	328.56
381.489	338.28
381.87	361.56
382.25	352.07
382.63	331.05
383.01	339.19
383.39	338.06
383.77	347.55
384.15	332.41
384.53	345.97
384.91	336.7
385.29	328.56
385.67	338.06
386.049	345.74
386.429	351.39
386.809	347.1
387.189	352.74
387.568	350.26
387.948	377.6
388.328	365.4
388.707	368.11
389.087	354.78
389.466	359.52
389.846	375.12
390.225	366.08
390.605	350.26
390.984	346.19
391.363	376.25
391.743	360.65
392.122	364.95
392.501	369.69
392.881	360.88
393.26	380.99
393.639	373.08
394.018	373.99
394.397	370.6
394.776	355
395.155	374.21
395.534	384.83
395.913	381.22
396.292	376.25
396.671	379.64
397.05	366.76
397.429	381.22
397.808	377.38
398.186	387.55
398.565	390.03
398.944	392.52
399.323	389.58
399.701	377.15
400.08	384.61
400.458	401.56
400.837	398.39
401.215	403.37
401.594	401.56
401.972	417.38
402.351	392.74
402.729	389.58
403.107	377.83
403.486	404.72
403.864	401.56
404.242	395.91
404.62	410.14
404.999	422.8
405.377	409.47
405.755	404.5
406.133	415.79
406.511	391.84
406.889	392.97
407.267	423.25
407.645	404.27
408.023	417.83
408.401	416.02
408.779	439.52
409.156	442.46
409.534	398.85
409.912	416.7
410.29	440.2
410.667	433.65
411.045	445.4
411.422	438.62
411.8	446.75
412.178	423.25
412.555	452.86
412.933	468.22
413.31	440.2
413.687	450.6
414.065	454.89
414.442	437.26
414.819	459.18
415.197	463.93
415.574	475.23
415.951	468.9
416.328	489.01
416.705	471.39
417.082	454.21
417.46	461.67
417.837	502.57
418.214	474.32
418.591	495.79
418.967	475.91
419.344	487.43
419.721	504.15
420.098	487.2
420.475	509.8
420.852	504.15
421.228	505.96
421.605	519.97
421.982	496.24
422.358	512.29
422.735	511.38
423.111	494.44
423.488	524.27
423.864	527.88
424.241	529.01
424.617	545.73
424.994	514.55
425.37	547.09
425.746	540.76
426.123	545.51
426.499	548.45
426.875	522.23
427.251	527.88
427.627	562.23
428.003	566.07
428.379	558.16
428.756	560.2
429.132	564.04
429.507	571.95
429.883	574.21
430.259	574.66
430.635	597.03
431.011	601.1
431.387	580.76
431.763	601.78
432.138	581.44
432.514	606.3
432.89	605.39
433.265	622.57
433.641	610.59
434.016	606.07
434.392	622.12
434.767	625.05
435.143	649.01
435.518	627.31
435.894	624.83
436.269	645.84
436.644	646.75
437.02	664.6
437.395	676.8
437.77	665.51
438.145	661.21
438.52	663.25
438.895	680.87
439.271	682.68
439.646	699.85
440.021	702.57
440.395	701.66
440.77	702.57
441.145	702.79
441.52	728.55
441.895	726.97
442.27	723.81
442.645	737.59
443.019	721.32
443.394	724.49
443.769	728.78
444.143	756.8
444.518	728.1
444.892	740.31
445.267	737.59
445.641	759.97
446.016	773.98
446.39	765.84
446.764	755.67
447.139	761.55
447.513	782.11
447.887	762.45
448.262	774.65
448.636	777.37
449.01	799.96
449.384	787.54
449.758	760.42
450.132	807.65
450.506	810.13
450.88	825.73
451.254	817.37
451.628	806.97
452.002	822.79
452.376	824.6
452.75	837.48
453.123	848.55
453.497	876.57
453.871	857.14
454.244	862.56
454.618	858.04
454.992	898.72
455.365	872.51
455.739	898.04
456.112	917.48
456.486	915.67
456.859	931.26
457.232	923.35
457.606	913.63
457.979	955.21
458.352	948.21
458.725	959.06
459.099	982.33
459.472	1001.32
459.845	1022.33
460.218	1013.97
460.591	1014.65
460.964	1023.46
461.337	1039.05
461.71	1062.56
462.083	1080.41
462.456	1085.61
462.829	1093.74
463.201	1112.27
463.574	1096.45
463.947	1107.98
464.32	1141.42
464.692	1171.25
465.065	1159.96
465.438	1176
465.81	1203.34
466.183	1213.51
466.555	1245.15
466.928	1247.18
467.3	1261.42
467.672	1307.75
468.045	1325.6
468.417	1331.02
468.789	1356.56
469.161	1338.03
469.534	1384.58
469.906	1395.66
470.278	1419.61
470.65	1470.23
471.022	1504.58
471.394	1546.39
471.766	1538.48
472.138	1566.72
472.51	1614.18
472.882	1651.69
473.253	1651.92
473.625	1674.29
473.997	1768.07
474.369	1775.08
474.74	1811.92
475.112	1866.15
475.484	1900.05
475.855	1983.44
476.227	1978.01
476.598	2045.58
476.97	2087.61
477.341	2150.21
477.713	2169.19
478.084	2246.48
478.455	2319.25
478.827	2382.07
479.198	2493.93
479.569	2500.03
479.94	2583.42
480.311	2695.28
480.682	2742.51
481.053	2849.85
481.424	2928.04
481.795	3027.7
482.166	3080.81
482.537	3188.83
482.908	3257.98
483.279	3368.03
483.65	3460.91
484.021	3576.61
484.391	3649.83
484.762	3785.2
485.133	3833.33
485.503	3989.94
485.874	4099.09
486.244	4197.16
486.615	4303.6
486.985	4411.17
487.356	4603.93
487.726	4681.44
488.097	4824.49
488.467	4947.43
488.837	5097.03
489.207	5247.98
489.578	5361.2
489.948	5458.83
490.318	5654.98
490.688	5756.67
491.058	5943.56
491.428	6089.54
491.798	6216.77
492.168	6417.44
492.538	6544.67
492.908	6664.9
493.278	6874.38
493.648	6965.45
494.017	7126.35
494.387	7287.03
494.757	7478.66
495.126	7660.12
495.496	7725.43
495.866	7922.04
496.235	8057.85
496.605	8204.97
496.974	8368.81
497.344	8567.44
497.713	8748
498.082	8816.25
498.452	8972.63
498.821	9140.54
499.19	9286.75
499.559	9410.59
499.928	9553.63
500.298	9712.5
500.667	9894.41
501.036	9941.65
501.405	10144.35
501.774	10206.72
502.143	10465.25
502.512	10528.52
502.88	10791.34
503.249	10838.12
503.618	10984.56
503.987	11098.9
504.356	11254.83
504.724	11386.35
505.093	11556.52
505.462	11570.53
505.83	11807.81
506.199	11948.15
506.567	12180.23
506.936	12310.4
507.304	12468.36
507.672	12542.03
508.041	12715.58
508.409	12886.88
508.777	13015.46
509.145	13145.63
509.514	13245.06
509.882	13418.39
510.25	13416.81
510.618	13683.69
510.986	13813.63
511.354	13988.77
511.722	13998.26
512.09	14291.81
512.458	14234.64
512.826	14471.47
513.193	14557.12
513.561	14760.05
513.929	14868.07
514.297	14997.78
514.664	15140.38
515.032	15252.47
515.4	15444.1
515.767	15578.56
516.135	15603.87
516.502	15602.74
516.869	15912.11
517.237	16079.34
517.604	16012.45
517.972	16317.07
518.339	16465.09
518.706	16498.31
519.073	16637.51
519.44	16700.34
519.808	16911.18
520.175	17032.76
520.542	17296.71
520.909	17431.39
521.276	17482.01
521.643	17684.27
522.009	17761.1
522.376	17961.55
522.743	18066.63
523.11	18296.68
523.477	18493.74
523.843	18510.01
524.21	18743.22
524.577	18913.39
524.943	18909.77
525.31	19154.74
525.676	19370.1
526.043	19428.63
526.409	19537.33
526.776	19823.65
527.142	19856.19
527.508	19994.26
527.874	20070.64
528.241	20262.73
528.607	20380.24
528.973	20574.81
529.339	20575.72
529.705	20817.74
530.071	20945.65
530.437	20983.84
530.803	21161.01
531.169	21303.38
531.535	21297.73
531.901	21432.64
532.267	21525.75
532.632	21672.86
532.998	21733.88
533.364	21994.21
533.73	21998.28
534.095	22047.77
534.461	22245.95
534.826	22356.23
535.192	22464.93
535.557	22651.59
535.923	22754.87
536.288	22626.51
536.653	22864.02
537.019	22793.28
537.384	22960.96
537.749	23025.82
538.114	23166.61
538.479	23193.95
538.845	23215.42
539.21	23303.1
539.575	23435.53
539.94	23483.21
540.305	23630.55
540.67	23660.38
541.034	23658.35
541.399	23862.64
541.764	23944.22
542.129	23989.19
542.494	24025.12
542.858	24122.74
543.223	24178.79
543.587	24336.3
543.952	24368.16
544.316	24417.65
544.681	24473.92
545.045	24630.75
545.41	24813.34
545.774	24786.68
546.138	24731.54
546.503	24867.35
546.867	24904.42
547.231	25241.36
547.595	25224.41
547.959	25226.22
548.324	25368.13
548.688	25392.09
549.052	25381.24
549.416	25454.01
549.779	25576.26
550.143	25583.95
550.507	25737.39
550.871	25817.61
551.235	26010.83
551.599	26192.52
551.962	26275.45
552.326	26261.67
552.689	26415.79
553.053	26291.27
553.417	26376.02
553.78	26729.68
554.143	26748.66
554.507	26804.03
554.87	26794.54
555.234	27133.74
555.597	26990.46
555.96	27126.05
556.323	27345.48
556.686	27228.65
557.05	27545.93
557.413	27587.06
557.776	27613.95
558.139	27838.12
558.502	27826.15
558.865	27880.83
559.228	28131
559.59	28247.38
559.953	28268.17
560.316	28523.53
560.679	28598.1
561.041	28725.11
561.404	28909.96
561.767	28995.16
562.129	29038.77
562.492	29269.72
562.854	29257.75
563.217	29367.8
563.579	29507.68
563.941	29642.37
564.304	29875.58
564.666	30043.94
565.028	30204.39
565.39	30171.17
565.753	30417.49
566.115	30468.56
566.477	30555.57
566.839	30638.95
567.201	30821.77
567.563	30883.24
567.925	31065.38
568.287	31040.3
568.648	31120.52
569.01	31385.38
569.372	31554.86
569.734	31454.3
570.095	31682.77
570.457	31739.26
570.819	31899.71
571.18	31902.42
571.542	32039.6
571.903	32105.81
572.265	32358.23
572.626	32393.94
572.987	32338.34
573.349	32502.63
573.71	32706.7
574.071	32681.39
574.432	32851.33
574.794	33129.51
575.155	32981.49
575.516	32991.21
575.877	33123.86
576.238	33064.2
576.599	33374.93
576.96	33306.68
577.32	33439.33
577.681	33572.66
578.042	33527.24
578.403	33685.88
578.763	33628.25
579.124	33817.85
579.485	33875.03
579.845	33976.49
580.206	33896.27
580.566	33836.38
580.927	33902.6
581.287	34056.72
581.648	33852.66
582.008	34027.57
582.368	34158.41
582.728	34127.68
583.089	34219.65
583.449	34244.74
583.809	34279.54
584.169	34338.07
584.529	34239.54
584.889	34579.19
585.249	34347.56
585.609	34119.99
585.969	34410.38
586.329	34453.09
586.688	34411.28
587.048	34459.64
587.408	34344.62
587.768	34491.51
588.127	34389.82
588.487	34298.52
588.846	34416.93
589.206	34279.76
589.565	34537.38
589.925	34482.02
590.284	34516.59
590.643	34565.63
591.003	34677.04
591.362	34784.61
591.721	34651.73
592.08	34764.27
592.44	34769.02
592.799	34822.12
593.158	34717.72
593.517	34734.67
593.876	34917.26
594.235	34809.69
594.593	34747.77
594.952	34810.82
595.311	34781.44
595.67	34792.07
596.029	35058.27
596.387	35073.87
596.746	35153.41
597.104	35103.02
597.463	34952.06
597.822	35222.11
598.18	35175.11
598.538	35097.14
598.897	35292.84
599.255	35086.97
599.613	35470.47
599.972	35251.94
600.33	35391.37
600.688	35274.54
601.046	35477.47
601.404	35621.65
601.762	35504.82
602.12	35653.96
602.478	35704.36
602.836	35767.86
603.194	35607.41
603.552	35724.24
603.91	35704.58
604.268	35883.79
604.625	35628.2
604.983	35907.29
605.341	35659.39
605.698	35910
606.056	36084.23
606.413	36102.99
606.771	36237.9
607.128	36291.01
607.485	36094.4
607.843	36114.06
608.2	36441.74
608.557	36479.25
608.914	36382.31
609.272	36468.86
609.629	36621.17
609.986	36774.39
610.343	36608.74
610.7	36865.01
611.057	36877.21
611.414	36854.61
611.771	36931.44
612.127	37069.52
612.484	37030.2
612.841	37167.14
613.198	37126.92
613.554	37112.91
613.911	37398.1
614.267	37358.33
614.624	37332.56
614.98	37483.07
615.337	37641.48
615.693	37524.42
616.05	37391.77
616.406	37794.02
616.762	37610.07
617.118	37599
617.475	37629.28
617.831	37699.11
618.187	37812.55
618.543	37894.81
618.899	38077.85
619.255	38085.76
619.611	38106.1
619.967	38172.77
620.323	38267.23
620.678	38236.49
621.034	38013.9
621.39	38196.95
621.746	38087.12
622.101	38604.17
622.457	38364.63
622.812	38366.89
623.168	38459.77
623.523	38465.64
623.879	38586.99
624.234	38256.38
624.589	38475.58
624.945	38497.73
625.3	38542.93
625.655	38653.88
626.01	38599.87
626.365	38673.55
626.72	38719.42
627.075	38696.14
627.43	38538.86
627.785	38663.38
628.14	38681.23
628.495	38699.31
628.85	38666.31
629.205	38496.37
629.559	38843.03
629.914	38620.44
630.269	38791.73
630.623	38579.31
630.978	38545.19
631.332	38595.36
631.687	38709.02
632.041	38705.41
632.396	38595.58
632.75	38533.89
633.104	38733.43
633.459	38455.7
633.813	38584.73
634.167	38583.38
634.521	38454.57
634.875	38490.73
635.229	38406.66
635.583	38334.35
635.937	38380.45
636.291	38442.82
636.645	38365.76
636.999	38153.11
637.352	38306.78
637.706	38075.59
638.06	38233.78
638.413	38114.92
638.767	38275.36
639.121	38242.37
639.474	38019.78
639.828	37968.93
640.181	38089.61
640.534	38077.85
640.888	38102.94
641.241	38001.92
641.594	38110.85
641.947	38056.84
642.301	37855.49
642.654	37921.7
643.007	37897.29
643.36	37920.34
643.713	37759.9
644.066	38024.75
644.419	37770.97
644.771	37495.05
645.124	37159.69
645.477	36999.69
645.83	36876.08
646.182	36770.77
646.535	36614.62
646.888	36734.39
647.24	36571.45
647.593	36809.87
647.945	36697.33
648.298	36494.62
648.65	36493.26
649.002	36385.92
649.355	36630.44
649.707	36422.08
650.059	36660.72
650.411	37038.79
650.763	36978.45
651.115	37462.28
651.467	37284.43
651.819	37166.01
652.171	37266.58
652.523	37105.9
652.875	37158.78
653.227	37052.34
653.578	37307.25
653.93	37162.62
654.282	37073.81
654.633	37057.77
654.985	37017.77
655.337	37020.93
655.688	36936.42
656.039	37140.25
656.391	36797.89
656.742	36901.16
657.094	37026.58
657.445	36975.96
657.796	36919.24
658.147	36838.57
658.498	36780.94
658.849	37034.27
659.2	36833.59
659.551	36766.48
659.902	36954.95
660.253	36853.71
660.604	36846.02
660.955	36857.77
661.306	36831.79
661.656	36775.74
662.007	36686.7
662.358	36773.26
662.708	36768.96
663.059	36845.57
663.409	36496.43
663.76	36756.99
664.11	36787.49
664.461	36742.52
664.811	36740.94
665.161	36812.58
665.511	36597.44
665.862	36628.18
666.212	36676.76
666.562	36772.13
666.912	36836.53
667.262	36653.49
667.612	36661.85
667.962	36570.1
668.312	36528.29
668.662	36676.99
669.011	36663.2
669.361	36606.71
669.711	36580.94
670.06	36501.85
670.41	36567.61
670.76	36481.06
671.109	36528.52
671.459	36486.48
671.808	36428.18
672.157	36591.34
672.507	36167.4
672.856	36219.37
673.205	36289.65
673.554	36508.18
673.904	36215.3
674.253	36555.18
674.602	36310.44
674.951	35868.2
675.3	35687.64
675.649	36303.44
675.998	36178.47
676.346	36180.05
676.695	36286.49
677.044	35976.22
677.393	35973.5
677.741	36223.67
678.09	36010.56
678.438	35919.49
678.787	35898.25
679.135	35980.28
679.484	35791.59
679.832	35919.95
680.181	35693.51
680.529	35932.6
680.877	35814.41
681.225	35708.88
681.573	35889.21
681.922	35648.99
682.27	35653.96
682.618	35580.52
682.966	35467.75
683.314	35554.53
683.661	35436.12
684.009	35358.38
684.357	35293.3
684.705	35145.95
685.053	35354.08
685.4	35152.51
685.748	35036.35
686.095	35070.93
686.443	34993.42
686.79	34971.72
687.138	34951.38
687.485	34927.43
687.832	34785.29
688.18	34678.85
688.527	34561.56
688.874	34569.92
689.221	34632.75
689.568	34457.84
689.915	34264.62
690.262	34409.48
690.609	34370.16
690.956	34223.72
691.303	34210.84
691.65	33972.88
691.997	34013.1
692.344	33773.56
692.69	33628.25
693.037	33843.84
693.383	33482.27
693.73	33692.89
694.077	33405.21
694.423	33364.08
694.769	33253.12
695.116	33184.2
695.462	33178.55
695.808	33068.95
696.155	33037.54
696.501	32859.91
696.847	32953.7
697.193	32664.21
697.539	32809.29
697.885	32441.17
698.231	32452.01
698.577	32467.61
698.923	32375.41
699.269	32309.64
699.614	32080.95
699.96	32155.75
700.306	32059.93
700.651	31939.26
700.997	31933.84
701.342	31836.44
701.688	31691.13
702.033	31714.63
702.379	31663.79
702.724	31553.51
703.069	31473.73
703.415	31311.93
703.76	31320.97
704.105	31351.93
704.45	31223.12
704.795	31018.38
705.14	30925.27
705.485	30965.05
705.83	30710.36
706.175	30792.85
706.52	30665.62
706.865	30501.33
707.209	30526.41
707.554	30440.77
707.899	30431.5
708.243	30384.05
708.588	30358.06
708.932	30075.81
709.277	30052.53
709.621	30204.39
709.966	30012.3
710.31	29967.79
710.654	29792.65
710.998	29756.27
711.342	29833.1
711.687	29766.21
712.031	29566.89
712.375	29513.56
712.719	29470.4
713.063	29531.41
713.407	29581.81
713.75	29357.41
714.094	29361.25
714.438	29216.17
714.782	29228.82
715.125	29157.86
715.469	29136.17
715.812	29073.12
716.156	28859.34
716.499	28828.15
716.843	28947.25
717.186	28657.31
717.53	28808.04
717.873	28723.98
718.216	28722.85
718.559	28600.14
718.902	28469.75
719.246	28507.03
719.589	28351.78
719.932	28335.51
720.275	28350.2
720.617	28340.26
720.96	28343.2
721.303	28187.27
721.646	28182.52
721.989	28057.1
722.331	28162.64
722.674	27988.85
723.016	28036.76
723.359	27927.61
723.701	27984.11
724.044	27752.25
724.386	27628.86
724.729	27712.7
725.071	27661.86
725.413	27692.37
725.755	27744.34
726.097	27481.75
726.439	27354.52
726.782	27481.98
727.124	27618.47
727.465	27312.26
727.807	27394.52
728.149	27205.37
728.491	27177.12
728.833	27251.02
729.175	27158.59
729.516	27079.05
729.858	27064.81
730.199	27077.01
730.541	26948.88
730.882	26934.87
731.224	27084.25
731.565	26808.55
731.906	26820.07
732.248	26842.9
732.589	26742.33
732.93	26584.37
733.271	26646.97
733.612	26487.2
733.953	26663.47
734.294	26546.41
734.635	26527.88
734.976	26573.98
735.317	26300.54
735.658	26356.81
735.999	26507.31
736.339	26405.85
736.68	26321.78
737.021	26163.82
737.361	26172.86
737.702	26351.16
738.042	26173.76
738.383	26142.8
738.723	26176.47
739.063	25993.2
739.404	25970.38
739.744	25969.92
740.084	25894.22
740.424	26029.81
740.764	25835.46
741.104	25880.66
741.444	25772.87
741.784	25609.93
742.124	25658.97
742.464	25740.78
742.804	25646.32
743.143	25523.16
743.483	25590.95
743.823	25574.91
744.162	25475.25
744.502	25562.25
744.841	25331.98
745.181	25547.79
745.52	25367
745.86	25298.53
746.199	25275.03
746.538	25258.76
746.877	25335.14
747.216	25213.33
747.556	24996.84
747.895	25050.4
748.234	25003.85
748.573	25000.91
748.911	25030.51
749.25	24990.06
749.589	24927.01
749.928	24906
750.267	24945.09
750.605	24796.85
750.944	24796.4
751.283	24771.31
751.621	24647.02
751.96	24557.31
752.298	24500.36
752.636	24521.6
752.975	24350.53
753.313	24217.65
753.651	24452
753.989	24140.14
754.327	24229.41
754.666	24047.49
755.004	24107.6
755.342	24116.41
755.679	24139.24
756.017	23923.88
756.355	24039.13
756.693	23902.41
