Data from hue_24_FLMS001491_00048.txt Node
Date: Tue Feb 07 17:12:20 GMT 2017
User: dcchb
Spectrometer: FLMS00149
Trigger mode: 0
Integration Time (sec): 2.000000E-2
Scans to average: 10
Electric dark correction enabled: true
Nonlinearity correction enabled: false
Boxcar width: 0
XAxis mode: Wavelengths
Number of Pixels in Spectrum: 2048
>>>>>Begin Spectral Data<<<<<
341.393	-23.54
341.776	-23.54
342.16	-23.54
342.543	-68.74
342.927	-52.47
343.31	-60.15
343.693	-83.88
344.077	-66.71
344.46	-66.26
344.843	-60.61
345.226	-45.01
345.61	-27.39
345.993	-14.73
346.376	-7.27
346.759	14.65
347.142	17.13
347.525	31.6
347.908	43.12
348.291	100.97
348.674	105.04
349.057	119.5
349.44	126.28
349.823	140.07
350.206	139.61
350.588	194.3
350.971	220.29
351.354	219.84
351.737	238.14
352.119	245.83
352.502	246.73
352.884	259.39
353.267	286.5
353.65	305.26
354.032	305.26
354.414	319.95
354.797	322.21
355.179	335.09
355.562	314.98
355.944	330.57
356.326	347.29
356.709	338.48
357.091	348.88
357.473	362.21
357.855	352.26
358.238	357.91
358.62	351.59
359.002	339.84
359.384	314.53
359.766	347.07
360.148	324.24
360.53	338.03
360.912	333.51
361.294	340.51
361.676	306.62
362.057	336.22
362.439	319.95
362.821	339.16
363.203	357.91
363.584	340.51
363.966	334.64
364.348	329.44
364.729	324.69
365.111	316.11
365.493	324.02
365.874	331.47
366.256	329.89
366.637	310.23
367.019	332.15
367.4	311.36
367.781	334.64
368.163	310.68
368.544	313.17
368.925	308.42
369.306	306.16
369.688	337.35
370.069	286.96
370.45	320.18
370.831	321.76
371.212	323.79
371.593	332.83
371.974	327.18
372.355	326.05
372.736	312.94
373.117	321.98
373.498	312.04
373.879	321.53
374.26	329.67
374.641	316.33
375.021	313.17
375.402	308.65
375.783	322.44
376.163	337.8
376.544	330.8
376.925	334.64
377.305	317.01
377.686	321.08
378.066	314.53
378.447	323.11
378.827	356.33
379.208	323.11
379.588	321.31
379.968	330.12
380.349	335.09
380.729	329.21
381.109	346.39
381.489	338.03
381.87	336.45
382.25	363.11
382.63	347.75
383.01	340.74
383.39	335.77
383.77	361.98
384.15	339.84
384.53	346.62
384.91	378.48
385.29	364.92
385.67	336.9
386.049	348.88
386.429	343.9
386.809	347.97
387.189	353.62
387.568	377.57
387.948	356.33
388.328	364.47
388.707	371.47
389.087	365.6
389.466	361.3
389.846	380.06
390.225	342.32
390.605	359.5
390.984	374.19
391.363	357.46
391.743	374.64
392.122	372.83
392.501	378.48
392.881	365.82
393.26	375.54
393.639	386.39
394.018	396.78
394.397	374.19
394.776	382.32
395.155	385.48
395.534	371.02
395.913	396.33
396.292	426.16
396.671	386.16
397.05	385.94
397.429	405.37
397.808	383
398.186	396.56
398.565	388.2
398.944	398.37
399.323	411.02
399.701	419.83
400.08	385.03
400.458	402.88
400.837	402.21
401.215	413.96
401.594	425.03
401.972	410.34
402.351	404.01
402.729	392.04
403.107	396.56
403.486	434.07
403.864	432.26
404.242	406.05
404.62	444.01
404.999	438.82
405.377	404.24
405.755	437.69
406.133	423.22
406.511	450.12
406.889	445.37
407.267	439.49
407.645	447.63
408.023	444.47
408.401	458.25
408.779	449.89
409.156	446.27
409.534	468.42
409.912	448.08
410.29	459.83
410.667	470.68
411.045	448.99
411.422	451.92
411.8	455.54
412.178	468.42
412.555	487.85
412.933	458.02
413.31	498.93
413.687	495.54
414.065	487.85
414.442	493.5
414.819	503
415.197	505.03
415.574	493.28
415.951	519.27
416.328	493.28
416.705	514.29
417.082	502.77
417.46	516.33
417.837	519.27
418.214	531.7
418.591	521.75
418.967	533.95
419.344	534.41
419.721	536.44
420.098	529.21
420.475	530.34
420.852	526.5
421.228	542.32
421.605	535.99
421.982	552.03
422.358	559.72
422.735	544.8
423.111	546.84
423.488	560.62
423.864	566.27
424.241	549.32
424.617	553.84
424.994	580.73
425.37	558.14
425.746	567.4
426.123	590
426.499	587.29
426.875	582.32
427.251	582.54
427.627	613.05
428.003	617.79
428.379	622.77
428.756	619.38
429.132	618.92
429.507	627.06
429.883	630.45
430.259	669.77
430.635	645.36
431.011	625.93
431.387	657.12
431.763	640.62
432.138	661.64
432.514	685.59
432.89	675.42
433.265	682.65
433.641	672.48
434.016	682.65
434.392	669.32
434.767	728.07
435.143	688.53
435.518	710
435.894	689.88
436.269	719.94
436.644	729.66
437.02	736.44
437.395	733.95
437.77	751.12
438.145	731.24
438.52	755.64
438.895	738.92
439.271	737.34
439.646	771.69
440.021	755.64
440.395	808.75
440.77	787.96
441.145	793.84
441.52	800.39
441.895	811.46
442.27	778.92
442.645	778.24
443.019	805.13
443.394	815.53
443.769	815.08
444.143	790.9
444.518	835.64
444.892	805.36
445.267	811.46
445.641	855.3
446.016	845.59
446.39	841.52
446.764	852.14
447.139	852.59
447.513	863.66
447.887	826.15
448.262	854.85
448.636	874.28
449.01	871.57
449.384	879.93
449.758	909.76
450.132	891.01
450.506	903.21
450.88	905.92
451.254	921.29
451.628	923.55
452.002	907.5
452.376	927.84
452.75	963.1
453.123	955.86
453.497	974.4
453.871	988.86
454.244	982.76
454.618	984.79
454.992	1001.74
455.365	978.01
455.739	1006.71
456.112	1043.09
456.486	1041.51
456.859	1058.01
457.232	1042.19
457.606	1033.6
457.979	1074.28
458.352	1065.92
458.725	1079.7
459.099	1086.93
459.472	1109.76
459.845	1147.27
460.218	1136.2
460.591	1141.17
460.964	1132.58
461.337	1164.45
461.71	1180.72
462.083	1199.25
462.456	1187.72
462.829	1199.25
463.201	1232.02
463.574	1233.82
463.947	1250.09
464.32	1279.92
464.692	1269.08
465.065	1264.11
465.438	1323.09
465.81	1316.08
466.183	1340.71
466.555	1368.51
466.928	1351.11
467.3	1362.86
467.672	1367.83
468.045	1408.28
468.417	1440.6
468.789	1434.5
469.161	1462.52
469.534	1452.57
469.906	1542.52
470.278	1566.02
470.65	1536.19
471.022	1599.69
471.394	1597.66
471.766	1624.1
472.138	1608.5
472.51	1677.43
472.882	1667.48
473.253	1723.98
473.625	1755.39
473.997	1746.58
474.369	1785.22
474.74	1791.1
475.112	1872.9
475.484	1851.43
475.855	1905.9
476.227	1908.61
476.598	1969.85
476.97	1996.74
477.341	2040.81
477.713	2054.14
478.084	2155.16
478.455	2161.48
478.827	2207.13
479.198	2230.41
479.569	2257.3
479.94	2310.86
480.311	2358.31
480.682	2408.03
481.053	2471.08
481.424	2484.86
481.795	2517.41
482.166	2547.91
482.537	2593.79
482.908	2665.42
483.279	2681.02
483.65	2725.76
484.021	2833.1
484.391	2836.72
484.762	2878.3
485.133	2918.98
485.503	2977.96
485.874	3038.52
486.244	3057.96
486.615	3161.23
486.985	3164.62
487.356	3257.73
487.726	3279.19
488.097	3347.21
488.467	3423.82
488.837	3433.99
489.207	3519.41
489.578	3559.41
489.948	3597.38
490.318	3682.35
490.688	3722.57
491.058	3740.42
491.428	3816.81
491.798	3833.76
492.168	3920.98
492.538	3967.76
492.908	4044.6
493.278	4091.83
493.648	4078.49
494.017	4166.18
494.387	4164.82
494.757	4247.08
495.126	4254.99
495.496	4315.1
495.866	4346.74
496.235	4380.18
496.605	4461.76
496.974	4414.3
497.344	4485.94
497.713	4527.52
498.082	4578.82
498.452	4650.68
498.821	4660.4
499.19	4618.14
499.559	4727.06
499.928	4715.99
500.298	4783.56
500.667	4823.11
501.036	4838.25
501.405	4871.02
501.774	4874.18
502.143	4923.9
502.512	4950.79
502.88	4995.31
503.249	5024.01
503.618	4986.95
503.987	5091.35
504.356	5140.39
504.724	5163.66
505.093	5187.62
505.462	5174.74
505.83	5177.22
506.199	5268.29
506.567	5311
506.936	5291.8
507.304	5346.94
507.672	5355.07
508.041	5421.51
508.409	5470.77
508.777	5509.87
509.145	5512.58
509.514	5550.55
509.882	5547.61
510.25	5577.21
510.618	5583.09
510.986	5620.83
511.354	5662.18
511.722	5670.54
512.09	5739.92
512.458	5710.54
512.826	5819.69
513.193	5822.86
513.561	5817.88
513.929	5856.75
514.297	5911.67
514.664	5921.61
515.032	5919.8
515.4	5967.48
515.767	5964.55
516.135	6028.95
516.502	5946.69
516.869	6065.33
517.237	6123.19
517.604	6075.28
517.972	6106.92
518.339	6216.52
518.706	6169.06
519.073	6184.88
519.44	6239.57
519.808	6244.77
520.175	6253.8
520.542	6302.39
520.909	6395.5
521.276	6330.19
521.643	6455.38
522.009	6423.97
522.376	6486.11
522.743	6503.29
523.11	6506.45
523.477	6577.41
523.843	6582.16
524.21	6674.58
524.577	6728.14
524.943	6736.73
525.31	6769.95
525.676	6767.69
526.043	6871.42
526.409	6945.76
526.776	6935.37
527.142	6954.35
527.508	7037.74
527.874	6991.41
528.241	7086.32
528.607	7096.04
528.973	7148.24
529.339	7160.67
529.705	7243.16
530.071	7321.12
530.437	7341.01
530.803	7383.94
531.169	7316.83
531.535	7419.2
531.901	7352.08
532.267	7428.69
532.632	7522.02
532.998	7470.27
533.364	7589.14
533.73	7589.81
534.095	7667.33
534.461	7677.27
534.826	7766.31
535.192	7720.43
535.557	7781.45
535.923	7780.32
536.288	7827.32
536.653	7855.34
537.019	7907.77
537.384	7928.34
537.749	7931.05
538.114	8042.68
538.479	7971.5
538.845	8013.31
539.21	8025.06
539.575	8081.78
539.94	8155.22
540.305	8204.04
540.67	8204.49
541.034	8165.17
541.399	8272.96
541.764	8232.28
542.129	8267.99
542.494	8361.09
542.858	8363.58
543.223	8390.7
543.587	8451.26
543.952	8436.57
544.316	8459.85
544.681	8532.61
545.045	8601.99
545.41	8606.29
545.774	8604.48
546.138	8660.52
546.503	8727.41
546.867	8708.66
547.231	8777.35
547.595	8778.26
547.959	8828.88
548.324	8863.68
548.688	8846.73
549.052	8876.79
549.416	8915.88
549.779	8931.7
550.143	8973.73
550.507	9084.69
550.871	9031.58
551.235	9071.36
551.599	9133.28
551.962	9147.29
552.326	9203.11
552.689	9251.92
553.053	9162.88
553.417	9207.63
553.78	9361.29
554.143	9335.31
554.507	9360.39
554.87	9310.45
555.234	9451.46
555.597	9371.01
555.96	9415.53
556.323	9498.69
556.686	9524.68
557.05	9538.46
557.413	9558.58
557.776	9646.03
558.139	9650.78
558.502	9728.52
558.865	9668.63
559.228	9829.53
559.59	9865.91
559.953	9816.87
560.316	9965.35
560.679	9876.31
561.041	10011.45
561.404	10047.83
561.767	10045.57
562.129	9975.74
562.492	10093.93
562.854	10133.93
563.217	10105.23
563.579	10165.57
563.941	10241.95
564.304	10250.99
564.666	10280.59
565.028	10298.22
565.39	10392.9
565.753	10439.46
566.115	10475.16
566.477	10469.96
566.839	10477.65
567.201	10551.09
567.563	10554.93
567.925	10709.05
568.287	10662.28
568.648	10700.47
569.01	10776.62
569.372	10838.99
569.734	10869.73
570.095	10874.93
570.457	10922.83
570.819	10962.38
571.18	11019.33
571.542	11088.48
571.903	11110.4
572.265	11144.52
572.626	11159.44
572.987	11242.6
573.349	11245.99
573.71	11338.42
574.071	11374.57
574.432	11471.29
574.794	11551.29
575.155	11636.49
575.516	11524.85
575.877	11700.67
576.238	11729.59
576.599	11856.14
576.96	11824.73
577.32	11923.94
577.681	12066.98
578.042	12078.28
578.403	12264.95
578.763	12357.82
579.124	12393.76
579.485	12581.77
579.845	12669
580.206	12709.45
580.566	12890.69
580.927	12987.64
581.287	13177.01
581.648	13173.17
582.008	13460.62
582.368	13521.86
582.728	13719.6
583.089	13885.24
583.449	14018.12
583.809	14225.57
584.169	14388.96
584.529	14463.08
584.889	14844.31
585.249	14844.54
585.609	15006.57
585.969	15337.18
586.329	15408.82
586.688	15659.66
587.048	15909.82
587.408	16022.81
587.768	16293.31
588.127	16550.03
588.487	16703.25
588.846	17103.01
589.206	17227.53
589.565	17626.84
589.925	17798.81
590.284	17997.9
590.643	18329.19
591.003	18645.34
591.362	18997.65
591.721	19180.02
592.08	19425.89
592.44	19802.83
592.799	20119.43
593.158	20405.07
593.517	20582.02
593.876	20951.27
594.235	21155.56
594.593	21570.24
594.952	21832.38
595.311	22060.39
595.67	22363.44
596.029	22823.31
596.387	23088.16
596.746	23344.88
597.104	23658.77
597.463	23843.85
597.822	24344.18
598.18	24558.86
598.538	24754.33
598.897	25297.15
599.255	25484.26
599.613	26067.07
599.972	26152.72
600.33	26484.23
600.688	26724.23
601.046	27084.9
601.404	27467.48
601.762	27579.35
602.12	28082.38
602.478	28292.1
602.836	28706.55
603.194	28727.11
603.552	29132.07
603.91	29228.57
604.268	29652.29
604.625	29949.9
604.983	30237.35
605.341	30292.27
605.698	30862.2
606.056	31010.22
606.413	31253.83
606.771	31619.47
607.128	31868.5
607.485	31962.51
607.843	32213.12
608.2	32770.62
608.557	32993.21
608.914	32975.36
609.272	33453.54
609.629	33730.82
609.986	34030.93
610.343	34045.62
610.7	34529.45
611.057	34595.21
611.414	34702.32
611.771	35004.46
612.127	35322.19
612.484	35396.54
612.841	35722.63
613.198	35668.85
613.554	36036.52
613.911	36260.47
614.267	36412.11
614.624	36571.2
614.98	36818.65
615.337	37079.89
615.693	37212.99
616.05	37358.3
616.406	37685.75
616.762	37620.21
617.118	37908.34
617.475	38024.49
617.831	38389
618.187	38388.33
618.543	38639.17
618.899	38869.9
619.255	38964.58
619.611	39051.81
619.967	39315.08
620.323	39459.94
620.678	39433.72
621.034	39442.76
621.39	39572.93
621.746	39713.49
622.101	40298.11
622.457	39922.3
622.812	40188.51
623.168	40266.47
623.523	40352.57
623.879	40653.13
624.234	40484.77
624.589	40692
624.945	40663.97
625.3	40902.38
625.655	41009.73
626.01	41041.82
626.365	41100.12
626.72	41157.52
627.075	41049.05
627.43	41220.79
627.785	41167.46
628.14	41322.49
628.495	41360
628.85	41497.17
629.205	41467.57
629.559	41732.42
629.914	41531.97
630.269	41681.35
630.623	41536.27
630.978	41458.53
631.332	41819.2
631.687	41896.48
632.041	41763.15
632.396	41954.79
632.75	41759.09
633.104	41972.87
633.459	41791.18
633.813	41825.98
634.167	41942.36
634.521	42013.99
634.875	42007.67
635.229	42012.19
635.583	41935.35
635.937	42000.89
636.291	41940.32
636.645	42080.21
636.999	41847.22
637.352	42028.91
637.706	41877.95
638.06	42020.77
638.413	42089.47
638.767	41855.58
639.121	42017.16
639.474	41725.19
639.828	41793.89
640.181	41868.46
640.534	41931.74
640.888	41725.19
641.241	41751.4
641.594	41898.29
641.947	41919.31
642.301	41872.08
642.654	41875.69
643.007	41861.91
643.36	41825.52
643.713	41753.21
644.066	41993.2
644.419	41780.55
644.771	41440.9
645.124	41047.69
645.477	41205.2
645.83	40849.28
646.182	40773.8
646.535	40779
646.888	40753.46
647.24	40560.47
647.593	40842.73
647.945	40846.12
648.298	40540.13
648.65	40593.92
649.002	40409.06
649.355	40689.74
649.707	40604.54
650.059	40782.39
650.411	41102.83
650.763	41220.79
651.115	41684.51
651.467	41552.54
651.819	41582.14
652.171	41392.32
652.523	41309.38
652.875	41234.35
653.227	41169.72
653.578	41391.64
653.93	41289.95
654.282	41302.15
654.633	41023.29
654.985	41396.61
655.337	41225.31
655.688	41284.97
656.039	41437.74
656.391	40991.87
656.742	41178.76
657.094	41266.44
657.445	41341.24
657.796	41253.79
658.147	41151.64
658.498	41259.44
658.849	41266.9
659.2	41101.48
659.551	41296.5
659.902	41220.12
660.253	41158.88
660.604	41174.02
660.955	41062.38
661.306	41161.59
661.656	41103.74
662.007	41213.56
662.358	41099.22
662.708	41131.76
663.059	41046.34
663.409	41061.25
663.76	41217.18
664.11	41243.17
664.461	41219.89
664.811	41135.83
665.161	41250.62
665.511	40979.45
665.862	41087.46
666.212	41031.87
666.562	41144.86
666.912	41091.08
667.262	41049.05
667.612	40908.71
667.962	41069.84
668.312	40964.98
668.662	41198.2
669.011	40955.04
669.361	40993.68
669.711	40868.49
670.06	40951.42
670.41	40869.62
670.76	40714.59
671.109	40805.44
671.459	40934.25
671.808	40805.66
672.157	40846.12
672.507	40747.13
672.856	40822.39
673.205	40847.47
673.554	41002.5
673.904	40663.07
674.253	40909.39
674.602	40896.28
674.951	40176.75
675.3	40052.69
675.649	40798.66
675.998	40651.77
676.346	40596.4
676.695	40757.98
677.044	40475.28
677.393	40567.93
677.741	40813.57
678.09	40477.09
678.438	40440.93
678.787	40564.54
679.135	40541.94
679.484	40244.78
679.832	40560.93
680.181	40155.96
680.529	40293.81
680.877	40130.2
681.225	40052.92
681.573	40198.67
681.922	40116.64
682.27	40030.77
682.618	40040.71
682.966	39870.55
683.314	39868.06
683.661	39856.31
684.009	39631.68
684.357	39609.09
684.705	39625.13
685.053	39657.9
685.4	39575.19
685.748	39432.37
686.095	39424.68
686.443	39354.63
686.79	39222.43
687.138	39364.57
687.485	39367.74
687.832	39146.72
688.18	39163.67
688.527	38908.54
688.874	38914.41
689.221	38799.39
689.568	38797.36
689.915	38844.81
690.262	38687.75
690.609	38521.43
690.956	38438.95
691.303	38545.16
691.65	38252.06
691.997	38350.81
692.344	38168.45
692.69	38149.69
693.037	38131.16
693.383	37715.12
693.73	37826.99
694.077	37644.39
694.423	37539.76
694.769	37704.5
695.116	37543.15
695.462	37528.01
695.808	37351.74
696.155	37447.33
696.501	37193.78
696.847	37091.64
697.193	36944.3
697.539	37063.62
697.885	36921.7
698.231	36694.13
698.577	36756.73
698.923	36698.65
699.269	36372.56
699.614	36330.53
699.96	36260.25
700.306	36311.77
700.651	36101.38
700.997	35974.83
701.342	35836.98
701.688	35890.77
702.033	35716.76
702.379	35744.33
702.724	35568.06
703.069	35700.94
703.415	35320.61
703.76	35272.48
704.105	35347.73
704.45	35293.49
704.795	35048.75
705.14	34985.03
705.485	34983.67
705.83	34834.3
706.175	34833.62
706.52	34890.34
706.865	34676.56
707.209	34699.38
707.554	34467.07
707.899	34571.7
708.243	34329.22
708.588	34217.36
708.932	34162.68
709.277	34092.39
709.621	34090.59
709.966	33967.65
710.31	34075.67
710.654	33702.8
710.998	33789.8
711.342	33734.44
711.687	33654.21
712.031	33492.18
712.375	33289.25
712.719	33515.46
713.063	33383.03
713.407	33432.75
713.75	33301.45
714.094	33265.07
714.438	33158.18
714.782	33108.01
715.125	33000.22
715.469	32999.09
715.812	32848.59
716.156	32783.73
716.499	32703.05
716.843	32736.95
717.186	32657.63
717.53	32674.35
717.873	32778.98
718.216	32556.16
718.559	32457.41
718.902	32265.1
719.246	32339.9
719.589	32294.25
719.932	32091.09
720.275	32153.01
720.617	31901.49
720.96	32045.22
721.303	31904.2
721.646	32029.62
721.989	31839.57
722.331	31919.8
722.674	31805.9
723.016	31868.27
723.359	31724.55
723.701	31819.91
724.044	31509.41
724.386	31337.66
724.729	31503.99
725.071	31520.48
725.413	31323.2
725.755	31443.2
726.097	31300.15
726.439	31052.02
726.782	31077.56
727.124	31186.26
727.465	31088.18
727.807	30937.45
728.149	30994.17
728.491	30824.01
728.833	30967.73
729.175	30818.58
729.516	30795.31
729.858	30716.89
730.199	30782.2
730.541	30615.65
730.882	30706.72
731.224	30723.9
731.565	30466.28
731.906	30508.76
732.248	30423.79
732.589	30293.4
732.93	30312.61
733.271	30198.94
733.612	30410.91
733.953	30343.79
734.294	30231.25
734.635	30117.36
734.976	30226.73
735.317	30030.58
735.658	29998.49
735.999	30030.81
736.339	29921.66
736.68	30184.47
737.021	29842.79
737.361	29762.56
737.702	29931.37
738.042	29861.32
738.383	29606.86
738.723	29811.38
739.063	29630.82
739.404	29666.75
739.744	29761.21
740.084	29506.53
740.424	29559.18
740.764	29519.63
741.104	29464.72
741.444	29357.6
741.784	29264.72
742.124	29382.24
742.464	29284.84
742.804	29274.89
743.143	29206.2
743.483	29146.76
743.823	29050.72
744.162	29031.96
744.502	29156.48
744.841	28897.5
745.181	29071.06
745.52	28864.51
745.86	28937.95
746.199	28952.42
746.538	28878.52
746.877	28853.89
747.216	28979.31
747.556	28805.3
747.895	28863.15
748.234	28740.44
748.573	28554.24
748.911	28647.57
749.25	28514.69
749.589	28499.1
749.928	28533.67
750.267	28616.15
750.605	28485.54
750.944	28418.65
751.283	28243.96
751.621	28475.14
751.96	28189.05
752.298	28229.95
752.636	28165.54
752.975	28082.16
753.313	28035.83
753.651	28079.22
753.989	27842.62
754.327	27971.43
754.666	27729.4
755.004	27917.19
755.342	27806.23
755.679	27849.62
756.017	27599.23
756.355	27732.79
756.693	27574.83
757.031	27555.62
757.368	27364.89
757.706	27333.48
758.044	27289.86
758.381	27399.01
758.719	27212.35
759.056	27303.42
759.394	27072.01
