Data from hue_180_FLMS001491_00040.txt Node
Date: Tue Feb 07 16:46:55 GMT 2017
User: dcchb
Spectrometer: FLMS00149
Trigger mode: 0
Integration Time (sec): 2.000000E-2
Scans to average: 10
Electric dark correction enabled: true
Nonlinearity correction enabled: false
Boxcar width: 0
XAxis mode: Wavelengths
Number of Pixels in Spectrum: 2048
>>>>>Begin Spectral Data<<<<<
341.393	-4.96
341.776	-4.96
342.16	-4.96
342.543	-62.81
342.927	-60.32
343.31	-69.81
343.693	-57.84
344.077	-75.92
344.46	-54
344.843	-45.41
345.226	-25.3
345.61	-18.74
345.993	-16.71
346.376	-3.15
346.759	-5.41
347.142	16.06
347.525	48.15
347.908	59.45
348.291	62.61
348.674	83.4
349.057	102.61
349.44	148.71
349.823	152.78
350.206	164.08
350.588	189.84
350.971	194.36
351.354	224.42
351.737	237.3
352.119	250.4
352.502	261.48
352.884	275.71
353.267	308.48
353.65	297.86
354.032	316.39
354.414	305.77
354.797	301.48
355.179	327.01
355.562	326.11
355.944	322.49
356.326	328.37
356.709	332.21
357.091	344.41
357.473	350.51
357.855	339.67
358.238	336.5
358.62	330.85
359.002	333.56
359.384	360.68
359.766	340.12
360.148	315.03
360.53	314.58
360.912	335.82
361.294	341.7
361.676	320.23
362.057	351.42
362.439	339.89
362.821	327.24
363.203	308.71
363.584	337.86
363.966	346.67
364.348	315.26
364.729	308.71
365.111	320.23
365.493	304.86
365.874	310.97
366.256	294.92
366.637	325.66
367.019	326.11
367.4	318.88
367.781	313.45
368.163	327.92
368.544	301.93
368.925	330.85
369.306	332.89
369.688	307.8
370.069	334.24
370.45	328.37
370.831	301.02
371.212	340.12
371.593	325.66
371.974	319.78
372.355	325.88
372.736	318.88
373.117	303.51
373.498	308.03
373.879	323.62
374.26	334.47
374.641	309.16
375.021	305.99
375.402	328.37
375.783	334.02
376.163	335.37
376.544	324.98
376.925	345.99
377.305	331.98
377.686	334.47
378.066	324.07
378.447	305.32
378.827	336.73
379.208	349.84
379.588	336.28
379.968	334.47
380.349	329.72
380.729	356.84
381.109	324.53
381.489	351.64
381.87	363.17
382.25	355.49
382.63	343.28
383.01	360.91
383.39	324.98
383.77	343.73
384.15	342.15
384.53	339.44
384.91	350.06
385.29	354.58
385.67	331.08
386.049	348.03
386.429	371.76
386.809	369.72
387.189	358.87
387.568	365.2
387.948	365.88
388.328	371.98
388.707	363.17
389.087	364.07
389.466	395.03
389.846	355.94
390.225	384.64
390.605	365.88
390.984	379.89
391.363	368.82
391.743	370.85
392.122	388.7
392.501	395.71
392.881	381.47
393.26	398.65
393.639	397.07
394.018	375.82
394.397	389.83
394.776	397.74
395.155	385.31
395.534	386.44
395.913	378.99
396.292	393.45
396.671	403.17
397.05	412.88
397.429	409.04
397.808	404.52
398.186	425.31
398.565	397.07
398.944	407.46
399.323	407.24
399.701	402.26
400.08	437.97
400.458	400.23
400.837	396.16
401.215	411.08
401.594	420.79
401.972	430.29
402.351	404.3
402.729	409.27
403.107	414.69
403.486	443.84
403.864	442.26
404.242	425.09
404.62	455.14
404.999	455.14
405.377	465.99
405.755	454.92
406.133	470.51
406.511	453.56
406.889	477.06
407.267	459.89
407.645	466.44
408.023	481.58
408.401	510.51
408.779	501.92
409.156	502.83
409.534	515.48
409.912	514.12
410.29	505.09
410.667	527.01
411.045	544.41
411.422	528.59
411.8	540.34
412.178	552.32
412.555	556.84
412.933	541.02
413.31	569.72
413.687	580.56
414.065	571.52
414.442	596.61
414.819	592.77
415.197	603.84
415.574	600
415.951	612.2
416.328	604.29
416.705	616.95
417.082	638.87
417.46	638.64
417.837	650.39
418.214	653.56
418.591	657.17
418.967	656.04
419.344	657.17
419.721	691.07
420.098	691.75
420.475	726.1
420.852	694.46
421.228	720.22
421.605	739.66
421.982	738.3
422.358	759.99
422.735	762.71
423.111	780.11
423.488	775.81
423.864	788.47
424.241	800.9
424.617	780.11
424.994	807
425.37	811.29
425.746	821.69
426.123	840.22
426.499	880.22
426.875	874.12
427.251	860.78
427.627	898.52
428.003	899.43
428.379	895.36
428.756	940.78
429.132	920.44
429.507	942.81
429.883	938.75
430.259	946.88
430.635	968.12
431.011	964.06
431.387	982.36
431.763	999.76
432.138	997.95
432.514	1016.48
432.89	1052.87
433.265	1060.78
433.641	1080.21
434.016	1101.45
434.392	1093.09
434.767	1145.52
435.143	1138.06
435.518	1176.25
435.894	1171.73
436.269	1183.71
436.644	1216.48
437.02	1274.33
437.395	1252.18
437.77	1269.59
438.145	1286.53
438.52	1305.06
438.895	1288.57
439.271	1319.3
439.646	1330.37
440.021	1369.92
440.395	1375.35
440.77	1406.3
441.145	1384.61
441.52	1437.26
441.895	1425.06
442.27	1440.2
442.645	1439.75
443.019	1476.81
443.394	1508.22
443.769	1489.69
444.143	1510.48
444.518	1530.37
444.892	1540.76
445.267	1557.04
445.641	1557.71
446.016	1574.89
446.39	1609.01
446.764	1595.9
447.139	1608.11
447.513	1635.9
447.887	1634.77
448.262	1627.54
448.636	1667.77
449.01	1668.22
449.384	1706.86
449.758	1711.61
450.132	1733.08
450.506	1730.59
450.88	1771.49
451.254	1755.67
451.628	1776.01
452.002	1772.4
452.376	1798.16
452.75	1855.33
453.123	1863.47
453.497	1903.69
453.871	1909.79
454.244	1909.79
454.618	1954.31
454.992	1997.02
455.365	1978.04
455.739	2037.7
456.112	2060.52
456.486	2077.25
456.859	2111.37
457.232	2112.05
457.606	2150.69
457.979	2132.84
458.352	2184.14
458.725	2213.97
459.099	2256.9
459.472	2283.8
459.845	2312.95
460.218	2348.43
460.591	2333.51
460.964	2381.19
461.337	2422.78
461.71	2491.02
462.083	2552.94
462.456	2515.43
462.829	2516.56
463.201	2591.58
463.574	2593.39
463.947	2641.98
464.32	2679.04
464.692	2664.58
465.065	2735.31
465.438	2786.83
465.81	2830.9
466.183	2821.86
466.555	2918.58
466.928	2949.54
467.3	2968.75
467.672	2989.54
468.045	3101.4
468.417	3108.41
468.789	3135.3
469.161	3192.25
469.534	3200.61
469.906	3297.33
470.278	3349.98
470.65	3358.57
471.022	3437.44
471.394	3521.5
471.766	3524.67
472.138	3632.24
472.51	3650.31
472.882	3719.01
473.253	3790.42
473.625	3830.65
473.997	3891.89
474.369	3994.71
474.74	4029.51
475.112	4118.55
475.484	4187.93
475.855	4298.21
476.227	4329.84
476.598	4446.45
476.97	4541.14
477.341	4593.79
477.713	4691.42
478.084	4711.53
478.455	4825.2
478.827	4924.86
479.198	5090.05
479.569	5051.86
479.94	5243.94
480.311	5235.13
480.682	5405.52
481.053	5567.78
481.424	5657.72
481.795	5707.89
482.166	5823.36
482.537	5899.07
482.908	6069.46
483.279	6062.91
483.65	6258.61
484.021	6380.64
484.391	6490.01
484.762	6557.13
485.133	6605.72
485.503	6766.84
485.874	6880.29
486.244	7044.8
486.615	7113.5
486.985	7244.8
487.356	7402.98
487.726	7403.89
488.097	7583.54
488.467	7639.14
488.837	7799.81
489.207	7950.31
489.578	8046.36
489.948	8120.93
490.318	8260.81
490.688	8278.21
491.058	8471.66
491.428	8520.92
491.798	8633.69
492.168	8824.41
492.538	8860.35
492.908	8958.65
493.278	9130.62
493.648	9117.74
494.017	9317.74
494.387	9376.26
494.757	9393.67
495.126	9541.23
495.496	9552.53
495.866	9692.64
496.235	9740.1
496.605	9810.15
496.974	9893.09
497.344	9981.45
497.713	10086.08
498.082	10104.38
498.452	10198.62
498.821	10300.31
499.19	10204.94
499.559	10324.94
499.928	10389.12
500.298	10430.25
500.667	10523.13
501.036	10543.47
501.405	10596.57
501.774	10645.84
502.143	10733.97
502.512	10771.93
502.88	10794.98
503.249	10872.72
503.618	10910.46
503.987	10861.42
504.356	11026.16
504.724	11089.44
505.093	11042.21
505.462	10985.94
505.83	11159.72
506.199	11174.18
506.567	11363.56
506.936	11321.3
507.304	11365.82
507.672	11388.42
508.041	11419.6
508.409	11571.46
508.777	11598.13
509.145	11641.52
509.514	11609.2
509.882	11630.67
510.25	11627.05
510.618	11686.94
510.986	11608.75
511.354	11780.95
511.722	11840.83
512.09	11949.98
512.458	11842.64
512.826	11942.3
513.193	11973.94
513.561	11882.19
513.929	12052.35
514.297	12070.21
514.664	12047.38
515.032	12128.73
515.4	12218
515.767	12118.57
516.135	12205.12
516.502	12143.88
516.869	12313.81
517.237	12280.37
517.604	12271.1
517.972	12375.73
518.339	12353.14
518.706	12261.84
519.073	12303.19
519.44	12330.31
519.808	12392.23
520.175	12365.79
520.542	12469.97
520.909	12469.97
521.276	12494.6
521.643	12553.58
522.009	12491.21
522.376	12546.58
522.743	12560.36
523.11	12679.91
523.477	12697.99
523.843	12731.2
524.21	12753.13
524.577	12756.29
524.943	12762.62
525.31	12845.55
525.676	12895.72
526.043	12860.69
526.409	12825.44
526.776	12924.19
527.142	12881.71
527.508	12820.69
527.874	12902.5
528.241	12882.16
528.607	12907.7
528.973	13003.51
529.339	12865.21
529.705	12917.19
530.071	12914.93
530.437	12963.74
530.803	12890.07
531.169	12929.62
531.535	12860.24
531.901	12777.98
532.267	12886
532.632	12900.92
532.998	12773.24
533.364	12827.93
533.73	12786.8
534.095	12787.47
534.461	12777.31
534.826	12799.68
535.192	12728.04
535.557	12738.89
535.923	12635.61
536.288	12670.42
536.653	12637.2
537.019	12536.41
537.384	12559.91
537.749	12520.81
538.114	12556.97
538.479	12458.44
538.845	12465.68
539.21	12325.79
539.575	12368.95
539.94	12320.14
540.305	12393.59
540.67	12236.08
541.034	12263.42
541.399	12144.1
541.764	12164.44
542.129	12116.53
542.494	12130.32
542.858	12159.47
543.223	11976.87
543.587	12051.67
543.952	11949.08
544.316	11943.43
544.681	11820.27
545.045	11848.97
545.41	11792.92
545.774	11802.42
546.138	11718.35
546.503	11759.03
546.867	11654.4
547.231	11724.68
547.595	11604.23
547.959	11571.69
548.324	11576.21
548.688	11507.51
549.052	11493.27
549.416	11506.6
549.779	11349.09
550.143	11334.41
550.507	11281.75
550.871	11338.47
551.235	11236.78
551.599	11213.73
551.962	11230.23
552.326	11220.96
552.689	11190.68
553.053	11133.96
553.417	11098.93
553.78	11140.74
554.143	11008.09
554.507	10976.45
554.87	10921.99
555.234	11053.28
555.597	10839.73
555.96	10912.72
556.323	10932.38
556.686	10826.4
557.05	10818.03
557.413	10811.93
557.776	10828.43
558.139	10858.71
558.502	10816.68
558.865	10801.31
559.228	10816
559.59	10817.58
559.953	10743.46
560.316	10812.39
560.679	10792.95
561.041	10809.67
561.404	10827.3
561.767	10778.26
562.129	10748.88
562.492	10820.97
562.854	10799.28
563.217	10719.28
563.579	10781.88
563.941	10718.6
564.304	10731.26
564.666	10825.72
565.028	10684.25
565.39	10828.88
565.753	10784.59
566.115	10809.22
566.477	10804.93
566.839	10783.01
567.201	10798.6
567.563	10846.28
567.925	10879.73
568.287	10830.92
568.648	10801.31
569.01	10851.03
569.372	10873.85
569.734	10834.76
570.095	10871.82
570.457	10862.1
570.819	10852.84
571.18	10875.43
571.542	10864.14
571.903	10897.58
572.265	10888.09
572.626	10889.22
572.987	10919.95
573.349	10897.35
573.71	10927.64
574.071	10985.71
574.432	10918.6
574.794	10982.55
575.155	10937.35
575.516	10896.68
575.877	10990.01
576.238	10916.11
576.599	10961.31
576.96	10969.44
577.32	10990.91
577.681	10926.28
578.042	10968.77
578.403	11006.73
578.763	10973.74
579.124	10996.79
579.485	10977.58
579.845	10967.86
580.206	10911.82
580.566	10926.96
580.927	10923.34
581.287	10988.43
581.648	10957.92
582.008	10948.2
582.368	10974.64
582.728	11005.6
583.089	10853.51
583.449	10880.41
583.809	10852.84
584.169	10957.01
584.529	10900.07
584.889	10926.05
585.249	10904.81
585.609	10851.48
585.969	10917.02
586.329	10859.84
586.688	10867.07
587.048	10894.19
587.408	10809
587.768	10847.64
588.127	10805.15
588.487	10737.36
588.846	10840.18
589.206	10745.27
589.565	10691.48
589.925	10785.72
590.284	10807.64
590.643	10734.87
591.003	10824.36
591.362	10768.77
591.721	10672.73
592.08	10710.69
592.44	10754.31
592.799	10746.85
593.158	10692.39
593.517	10794.98
593.876	10702.11
594.235	10666.17
594.593	10742.56
594.952	10689.68
595.311	10668.89
595.67	10707.98
596.029	10745.49
596.387	10681.09
596.746	10748.88
597.104	10663.46
597.463	10675.21
597.822	10670.24
598.18	10632.5
598.538	10632.05
598.897	10692.39
599.255	10545.27
599.613	10708.21
599.972	10664.37
600.33	10701.65
600.688	10617.59
601.046	10681.99
601.404	10698.94
601.762	10704.37
602.12	10681.77
602.478	10649.68
602.836	10659.85
603.194	10605.38
603.552	10662.11
603.91	10610.13
604.268	10632.5
604.625	10573.07
604.983	10632.73
605.341	10598.61
605.698	10646.51
606.056	10606.06
606.413	10625.05
606.771	10690.35
607.128	10635.67
607.485	10552.28
607.843	10628.44
608.2	10655.55
608.557	10609.23
608.914	10706.17
609.272	10681.77
609.629	10702.11
609.986	10766.06
610.343	10755.89
610.7	10702.33
611.057	10700.3
611.414	10717.25
611.771	10770.8
612.127	10750.01
612.484	10731.48
612.841	10761.31
613.198	10636.12
613.554	10736.23
613.911	10825.94
614.267	10761.99
614.624	10782.1
614.98	10770.13
615.337	10783.46
615.693	10817.36
616.05	10793.85
616.406	10842.21
616.762	10830.46
617.118	10792.95
617.475	10793.18
617.831	10852.38
618.187	10746.85
618.543	10819.84
618.899	10956.79
619.255	10903.91
619.611	10849.67
619.967	10896
620.323	10904.36
620.678	10760.41
621.034	10783.46
621.39	10829.79
621.746	10846.28
622.101	10983
622.457	10814.87
622.812	10874.08
623.168	10924.25
623.523	10903.68
623.879	10865.04
624.234	10801.99
624.589	10857.58
624.945	10911.82
625.3	10898.48
625.655	10904.36
626.01	10896.45
626.365	10859.39
626.72	10853.51
627.075	10887.19
627.43	10832.72
627.785	10769.67
628.14	10807.41
628.495	10792.72
628.85	10787.08
629.205	10806.51
629.559	10859.39
629.914	10786.85
630.269	10771.26
630.623	10832.05
630.978	10721.09
631.332	10769.22
631.687	10778.49
632.041	10707.3
632.396	10755.44
632.75	10688.77
633.104	10663.46
633.459	10607.87
633.813	10699.39
634.167	10713.63
634.521	10615.55
634.875	10657.14
635.229	10568.78
635.583	10661.65
635.937	10601.54
636.291	10594.31
636.645	10582.11
636.999	10501.88
637.352	10524.26
637.706	10548.66
638.06	10574.2
638.413	10551.83
638.767	10495.78
639.121	10461.89
639.474	10456.91
639.828	10451.49
640.181	10442.45
640.534	10409.01
640.888	10371.72
641.241	10383.7
641.594	10426.18
641.947	10430.47
642.301	10403.81
642.654	10445.62
643.007	10360.65
643.36	10348.22
643.713	10334.21
644.066	10369.23
644.419	10338.73
644.771	10197.94
645.124	10227.09
645.477	10194.1
645.83	10095.12
646.182	10017.38
646.535	10036.36
646.888	10028
647.24	9981.22
647.593	10003.37
647.945	10018.28
648.298	9938.28
648.65	9935.8
649.002	9917.04
649.355	9974.89
649.707	9967.66
650.059	10002.69
650.411	10141.22
650.763	10168.11
651.115	10211.27
651.467	10148.22
651.819	10236.13
652.171	10242
652.523	10162.68
652.875	10187.54
653.227	10084.27
653.578	10167.2
653.93	10171.5
654.282	10108.67
654.633	10120.65
654.985	10129.47
655.337	10187.32
655.688	10178.5
656.039	10231.16
656.391	10122.46
656.742	10152.52
657.094	10156.58
657.445	10160.88
657.796	10186.64
658.147	10169.69
658.498	10173.98
658.849	10198.39
659.2	10135.57
659.551	10189.8
659.902	10202.23
660.253	10190.48
660.604	10189.35
660.955	10207.66
661.306	10159.3
661.656	10174.89
662.007	10220.31
662.358	10213.08
662.708	10208.56
663.059	10194.1
663.409	10157.94
663.76	10251.95
664.11	10224.6
664.461	10186.64
664.811	10215.79
665.161	10251.95
665.511	10209.24
665.862	10260.99
666.212	10223.02
666.562	10219.86
666.912	10237.71
667.262	10180.09
667.612	10189.8
667.962	10266.18
668.312	10184.15
668.662	10281.78
669.011	10234.32
669.361	10195.9
669.711	10180.09
670.06	10199.07
670.41	10136.47
670.76	10145.28
671.109	10199.07
671.459	10167.43
671.808	10177.15
672.157	10125.17
672.507	10117.71
672.856	10084.04
673.205	10152.06
673.554	10135.34
673.904	10088.34
674.253	10147.32
674.602	10149.13
674.951	10020.54
675.3	9941.22
675.649	10069.81
675.998	10068.45
676.346	9997.27
676.695	10107.54
677.044	9996.59
677.393	10058.96
677.741	10092.86
678.09	9924.05
678.438	9912.97
678.787	10013.76
679.135	9952.52
679.484	9908.68
679.832	9921.34
680.181	9928.34
680.529	9893.09
680.877	9915.46
681.225	9809.02
681.573	9838.63
681.922	9814.22
682.27	9782.58
682.618	9807.67
682.966	9784.62
683.314	9730.15
683.661	9761.11
684.009	9663.04
684.357	9665.97
684.705	9623.72
685.053	9662.81
685.4	9642.92
685.748	9599.08
686.095	9602.93
686.443	9539.65
686.79	9574.45
687.138	9599.08
687.485	9561.12
687.832	9524.51
688.18	9516.37
688.527	9414.91
688.874	9432.08
689.221	9406.09
689.568	9368.36
689.915	9361.8
690.262	9307.11
690.609	9325.19
690.956	9261.24
691.303	9266.21
691.65	9214.69
691.997	9197.51
692.344	9139.66
692.69	9113.22
693.037	9118.87
693.383	8983.96
693.73	9062.6
694.077	8997.07
694.423	9031.42
694.769	8952.77
695.116	8938.31
695.462	8948.71
695.808	8887.46
696.155	8837.07
696.501	8793.23
696.847	8770.86
697.193	8765.89
697.539	8720.46
697.885	8667.36
698.231	8679.33
698.577	8672.55
698.923	8608.83
699.269	8585.33
699.614	8522.28
699.96	8484.76
700.306	8517.53
700.651	8449.51
700.997	8322.28
701.342	8355.5
701.688	8321.83
702.033	8318.89
702.379	8330.19
702.724	8241.61
703.069	8314.82
703.415	8205.67
703.76	8248.84
704.105	8228.05
704.45	8183.75
704.795	8142.4
705.14	8083.42
705.485	8035.06
705.83	8045.68
706.175	8063.98
706.52	8028.5
706.865	7965.45
707.209	7991.89
707.554	7932.23
707.899	7866.93
708.243	7806.81
708.588	7833.71
708.932	7789.87
709.277	7705.35
709.621	7762.3
709.966	7668.51
710.31	7766.36
710.654	7682.52
710.998	7672.81
711.342	7702.86
711.687	7662.19
712.031	7648.4
712.375	7579.25
712.719	7631.9
713.063	7603.43
713.407	7646.82
713.75	7536.09
714.094	7594.62
714.438	7520.49
714.782	7534.96
715.125	7482.3
715.469	7470.1
715.812	7434.62
716.156	7449.31
716.499	7417.9
716.843	7462.19
717.186	7406.83
717.53	7417.9
717.873	7417.22
718.216	7386.71
718.559	7337
718.902	7301.29
719.246	7351.23
719.589	7383.32
719.932	7311.23
720.275	7325.47
720.617	7247.06
720.96	7276.43
721.303	7307.39
721.646	7325.25
721.989	7265.13
722.331	7273.72
722.674	7306.71
723.016	7218.13
723.359	7269.88
723.701	7287.05
724.044	7206.38
724.386	7143.33
724.729	7218.81
725.071	7113.05
725.413	7175.19
725.755	7166.61
726.097	7131.13
726.439	7130.9
726.782	7126.83
727.124	7144.91
727.465	7193.5
727.807	7113.5
728.149	7095.65
728.491	7093.61
728.833	7152.37
729.175	7104.46
729.516	7069.21
729.858	7104.69
730.199	7080.51
730.541	7110.34
730.882	7090.22
731.224	7072.6
731.565	7041.64
731.906	7061.07
732.248	7149.2
732.589	7019.72
732.93	7006.16
733.271	7064.46
733.612	7052.03
733.953	7089.55
734.294	7094.52
734.635	7121.41
734.976	7087.06
735.317	7057.23
735.658	7097.68
735.999	7067.85
736.339	7103.1
736.68	7075.31
737.021	7109.88
737.361	7092.03
737.702	7155.98
738.042	7102.2
738.383	7106.72
738.723	7106.95
739.063	7104.91
739.404	7138.13
739.744	7095.65
740.084	7109.66
740.424	7181.07
740.764	7176.55
741.104	7195.08
741.444	7192.82
741.784	7127.74
742.124	7207.28
742.464	7193.27
742.804	7253.83
743.143	7256.09
743.483	7258.35
743.823	7238.47
744.162	7304.45
744.502	7331.35
744.841	7272.82
745.181	7405.24
745.52	7373.38
745.86	7447.28
746.199	7443.66
746.538	7480.95
746.877	7571.57
747.216	7590.77
747.556	7660.6
747.895	7657.21
748.234	7648.17
748.573	7775.63
748.911	7815.85
749.25	7885.46
749.589	7933.82
749.928	7945.12
750.267	8093.81
750.605	8139.01
750.944	8089.29
751.283	8226.69
751.621	8293.13
751.96	8324.99
752.298	8397.08
752.636	8548.49
752.975	8574.25
753.313	8611.31
753.651	8817.86
753.989	8869.39
754.327	8951.19
754.666	9095.59
755.004	9227.12
755.342	9327
755.679	9446.09
756.017	9490.61
756.355	9696.48
756.693	9735.35
757.031	9938.28
757.368	9988
757.706	10154.32
758.044	10320.19
758.381	10500.53
758.719	10520.42
759.056	10806.06
759.394	10913.85
759.731	10932.61
