Data from hue_150_FLMS001491_00038.txt Node
Date: Tue Feb 07 16:53:58 GMT 2017
User: dcchb
Spectrometer: FLMS00149
Trigger mode: 0
Integration Time (sec): 2.000000E-2
Scans to average: 10
Electric dark correction enabled: true
Nonlinearity correction enabled: false
Boxcar width: 0
XAxis mode: Wavelengths
Number of Pixels in Spectrum: 2048
>>>>>Begin Spectral Data<<<<<
341.393	2.23
341.776	2.23
342.16	2.23
342.543	-65.79
342.927	-60.37
343.31	-71.44
343.693	-62.4
344.077	-72.79
344.46	-51.33
344.843	-54.04
345.226	-41.16
345.61	-33.47
345.993	-31.44
346.376	0.65
346.759	28.9
347.142	42.23
347.525	38.16
347.908	44.49
348.291	63.02
348.674	90.36
349.057	110.25
349.44	127.43
349.823	137.37
350.206	162
350.588	186.86
350.971	194.09
351.354	210.81
351.737	236.8
352.119	250.59
352.502	257.37
352.884	275.9
353.267	280.42
353.65	291.94
354.032	306.63
354.414	319.51
354.797	315.22
355.179	310.47
355.562	319.06
355.944	339.4
356.326	317.03
356.709	309.12
357.091	331.04
357.473	353.63
357.855	323.81
358.238	349.34
358.62	334.2
359.002	336.46
359.384	338.72
359.766	337.14
360.148	328.78
360.53	328.55
360.912	319.06
361.294	333.3
361.676	298.27
362.057	321.09
362.439	347.99
362.821	313.86
363.203	321.55
363.584	330.13
363.966	326.29
364.348	322.9
364.729	314.31
365.111	319.51
365.493	309.79
365.874	310.02
366.256	297.59
366.637	310.7
367.019	330.36
367.4	318.61
367.781	318.83
368.163	296.24
368.544	307.31
368.925	287.65
369.306	315.9
369.688	320.42
370.069	307.76
370.45	297.59
370.831	310.25
371.212	310.7
371.593	317.25
371.974	305.27
372.355	304.37
372.736	319.96
373.117	285.16
373.498	311.38
373.879	312.28
374.26	309.79
374.641	302.56
375.021	319.51
375.402	319.96
375.783	320.19
376.163	330.36
376.544	335.1
376.925	326.74
377.305	324.48
377.686	331.94
378.066	307.31
378.447	332.39
378.827	320.64
379.208	335.56
379.588	346.86
379.968	341.88
380.349	336.23
380.729	329
381.109	330.36
381.489	322.9
381.87	322.45
382.25	333.97
382.63	329.68
383.01	340.98
383.39	345.73
383.77	355.44
384.15	335.33
384.53	361.54
384.91	345.95
385.29	351.37
385.67	355.22
386.049	364.71
386.429	343.01
386.809	345.5
387.189	349.79
387.568	333.75
387.948	343.01
388.328	369.23
388.707	340.53
389.087	353.18
389.466	361.77
389.846	366.74
390.225	349.57
390.605	383.69
390.984	367.87
391.363	388.66
391.743	372.39
392.122	361.54
392.501	372.17
392.881	360.19
393.26	353.41
393.639	375.78
394.018	375.1
394.397	416.01
394.776	378.04
395.155	379.4
395.534	380.53
395.913	389.79
396.292	398.38
396.671	389.57
397.05	382.33
397.429	394.76
397.808	398.83
398.186	384.14
398.565	377.81
398.944	384.37
399.323	397.02
399.701	393.86
400.08	413.97
400.458	429.79
400.837	405.16
401.215	413.07
401.594	420.3
401.972	412.62
402.351	399.51
402.729	412.84
403.107	418.94
403.486	425.05
403.864	397.48
404.242	413.52
404.62	423.01
404.999	428.89
405.377	429.11
405.755	437.93
406.133	426.85
406.511	426.63
406.889	418.72
407.267	435.67
407.645	431.37
408.023	446.29
408.401	439.06
408.779	439.96
409.156	446.97
409.534	458.72
409.912	460.07
410.29	474.76
410.667	462.33
411.045	488.32
411.422	473.18
411.8	487.87
412.178	486.74
412.555	463.24
412.933	487.87
413.31	500.07
413.687	501.88
414.065	493.97
414.442	494.65
414.819	501.43
415.197	497.81
415.574	505.5
415.951	510.92
416.328	525.16
416.705	533.97
417.082	513.86
417.46	520.86
417.837	541.2
418.214	533.07
418.591	522.67
418.967	537.36
419.344	530.35
419.721	537.13
420.098	553.86
420.475	536.68
420.852	556.79
421.228	550.01
421.605	570.13
421.982	543.91
422.358	550.24
422.735	549.11
423.111	564.93
423.488	565.15
423.864	581.2
424.241	595.66
424.617	579.17
424.994	596.57
425.37	589.56
425.746	616.23
426.123	606.96
426.499	599.96
426.875	614.64
427.251	621.65
427.627	629.11
428.003	614.64
428.379	637.92
428.756	639.5
429.132	665.49
429.507	655.1
429.883	650.35
430.259	634.76
430.635	688.09
431.011	681.76
431.387	688.54
431.763	696.45
432.138	686.06
432.514	690.12
432.89	677.92
433.265	727.64
433.641	720.18
434.016	731.25
434.392	728.54
434.767	770.57
435.143	744.13
435.518	759.05
435.894	779.39
436.269	740.74
436.644	760.18
437.02	772.38
437.395	787.97
437.77	780.52
438.145	795.43
438.52	795.43
438.895	830.68
439.271	797.92
439.646	817.13
440.021	829.55
440.395	813.74
440.77	841.31
441.145	822.1
441.52	886.73
441.895	852.6
442.27	857.8
442.645	880.85
443.019	881.98
443.394	866.16
443.769	886.5
444.143	867.07
444.518	901.42
444.892	898.25
445.267	923.11
445.641	924.47
446.016	899.84
446.39	935.09
446.764	939.83
447.139	908.87
447.513	947.97
447.887	950.46
448.262	952.49
448.636	980.74
449.01	953.39
449.384	999.95
449.758	966.5
450.132	1012.37
450.506	978.93
450.88	982.09
451.254	1001.08
451.628	996.33
452.002	1027.52
452.376	1044.92
452.75	1052.15
453.123	1060.73
453.497	1052.15
453.871	1083.33
454.244	1070.45
454.618	1087.63
454.992	1115.87
455.365	1110.45
455.739	1130.56
456.112	1168.08
456.486	1168.08
456.859	1150.9
457.232	1172.14
457.606	1196.32
457.979	1211.92
458.352	1213.27
458.725	1222.31
459.099	1248.53
459.472	1290.33
459.845	1290.56
460.218	1284.68
460.591	1297.11
460.964	1297.34
461.337	1346.15
461.71	1364
462.083	1373.95
462.456	1410.78
462.829	1408.07
463.201	1410.56
463.574	1408.97
463.947	1439.03
464.32	1502.08
464.692	1521.97
465.065	1536.2
465.438	1545.69
465.81	1558.12
466.183	1583.66
466.555	1630.21
466.928	1651.68
467.3	1650.1
467.672	1677.89
468.045	1730.1
468.417	1712.92
468.789	1750.43
469.161	1767.61
469.534	1787.95
469.906	1852.58
470.278	1855.97
470.65	1935.29
471.022	1949.53
471.394	1970.54
471.766	2010.31
472.138	2040.82
472.51	2094.15
472.882	2160.37
473.253	2183.87
473.625	2227.48
473.997	2288.73
474.369	2269.74
474.74	2331.21
475.112	2418.44
475.484	2449.62
475.855	2524.43
476.227	2561.49
476.598	2646.23
476.97	2711.99
477.341	2802.61
477.713	2842.83
478.084	2911.53
478.455	3011.64
478.827	3040.8
479.198	3167.57
479.569	3173
479.94	3273.56
480.311	3365.31
480.682	3460.45
481.053	3573.21
481.424	3708.57
481.795	3772.08
482.166	3864.28
482.537	3937.5
482.908	4040.77
483.279	4135.91
483.65	4244.83
484.021	4381.55
484.391	4441.66
484.762	4561.66
485.133	4679.17
485.503	4821.31
485.874	4925.94
486.244	4980.41
486.615	5190.57
486.985	5336.78
487.356	5421.07
487.726	5516.66
488.097	5679.82
488.467	5835.98
488.837	6016.08
489.207	6103.31
489.578	6251.33
489.948	6383.31
490.318	6473.93
490.688	6558.67
491.058	6748.04
491.428	6873.92
491.798	6988.26
492.168	7233.23
492.538	7290.85
492.908	7446.1
493.278	7647.45
493.648	7632.31
494.017	7879.99
494.387	8027.56
494.757	8114.56
495.126	8207.21
495.496	8370.83
495.866	8417.6
496.235	8590.03
496.605	8717.48
496.974	8820.08
497.344	8900.08
497.713	9114.31
498.082	9208.54
498.452	9249.9
498.821	9404.02
499.19	9492.6
499.559	9665.25
499.928	9785.25
500.298	9895.53
500.667	10007.17
501.036	10038.13
501.405	10040.61
501.774	10181.17
502.143	10358.57
502.512	10318.8
502.88	10512.24
503.249	10462.52
503.618	10586.13
503.987	10695.51
504.356	10769.86
504.724	10854.38
505.093	10891.66
505.462	11012.56
505.83	11093.01
506.199	11226.57
506.567	11378.66
506.936	11382.72
507.304	11490.52
507.672	11548.59
508.041	11531.19
508.409	11639.21
508.777	11758.53
509.145	11824.52
509.514	11811.64
509.882	11987.45
510.25	11895.7
510.618	12039.2
510.986	12015.7
511.354	12155.13
511.722	12290.04
512.09	12387.67
512.458	12414.56
512.826	12454.11
513.193	12538.4
513.561	12458.85
513.929	12626.08
514.297	12677.15
514.664	12711.5
515.032	12781.1
515.4	12774.33
515.767	12826.3
516.135	12838.28
516.502	12808.67
516.869	13049.35
517.237	12961.44
517.604	13062.91
517.972	13127.99
518.339	13118.04
518.706	13108.55
519.073	13136.12
519.44	13194.2
519.808	13300.86
520.175	13256.57
520.542	13412.5
520.909	13443.23
521.276	13353.07
521.643	13475.78
522.009	13503.12
522.376	13524.59
522.743	13590.57
523.11	13696.33
523.477	13773.62
523.843	13738.37
524.21	13803.22
524.577	13792.15
524.943	13856.56
525.31	13928.87
525.676	13947.85
526.043	13947.18
526.409	13996.67
526.776	14044.35
527.142	14023.56
527.508	14070.34
527.874	14201.86
528.241	14205.93
528.607	14088.64
528.973	14288.41
529.339	14150.33
529.705	14296.54
530.071	14201.86
530.437	14303.55
530.803	14356.66
531.169	14364.57
531.535	14225.13
531.901	14236.89
532.267	14226.72
532.632	14238.24
532.998	14247.96
533.364	14288.86
533.73	14228.07
534.095	14273.27
534.461	14254.06
534.826	14155.76
535.192	14243.21
535.557	14261.74
535.923	14126.38
536.288	14229.43
536.653	14163.89
537.019	14160.28
537.384	14129.32
537.749	14137.45
538.114	14122.76
538.479	14088.19
538.845	14066.04
539.21	13982.43
539.575	14036.89
539.94	13903.79
540.305	14061.52
540.67	13897.46
541.034	13941.53
541.399	13839.38
541.764	13806.39
542.129	13793.96
542.494	13757.35
542.858	13726.62
543.223	13778.37
543.587	13679.16
543.952	13699.05
544.316	13647.75
544.681	13577.69
545.045	13656.56
545.41	13606.62
545.774	13551.93
546.138	13488.88
546.503	13437.36
546.867	13427.42
547.231	13513.06
547.595	13436.23
547.959	13327.98
548.324	13323.01
548.688	13315.1
549.052	13333.63
549.416	13260.87
549.779	13249.57
550.143	13259.06
550.507	13224.71
550.871	13146.97
551.235	13065.62
551.599	13177.93
551.962	13136.35
552.326	13128.21
552.689	13114.88
553.053	13052.74
553.417	13031.49
553.78	13052.74
554.143	12991.27
554.507	12951.72
554.87	12996.47
555.234	13083.7
555.597	12949.01
555.96	12898.62
556.323	12963.92
556.686	12905.85
557.05	12929.58
557.413	12949.46
557.776	12827.21
558.139	12927.54
558.502	12893.19
558.865	12835.79
559.228	13000.31
559.59	12954.43
559.953	12968.44
560.316	12917.82
560.679	12935.9
561.041	12920.31
561.404	12927.09
561.767	12943.59
562.129	12899.52
562.492	12978.84
562.854	12949.91
563.217	12920.08
563.579	12968.22
563.941	13025.39
564.304	13022.45
564.666	13002.79
565.028	12999.63
565.39	12992.17
565.753	13077.14
566.115	13099.97
566.477	13050.25
566.839	12993.08
567.201	13151.26
567.563	13064.26
567.925	13163.69
568.287	13174.09
568.648	13135.9
569.01	13188.1
569.372	13251.83
569.734	13134.54
570.095	13170.25
570.457	13289.34
570.819	13238.49
571.18	13213.86
571.542	13342.67
571.903	13334.76
572.265	13277.59
572.626	13323.69
572.987	13287.31
573.349	13379.96
573.71	13311.94
574.071	13405.72
574.432	13361.2
574.794	13429.22
575.155	13418.15
575.516	13294.99
575.877	13416.79
576.238	13397.81
576.599	13491.82
576.96	13371.82
577.32	13380.86
577.681	13408.88
578.042	13399.17
578.403	13449.11
578.763	13435.55
579.124	13432.16
579.485	13482.1
579.845	13511.93
580.206	13492.5
580.566	13457.7
580.927	13500.63
581.287	13570.91
581.648	13475.32
582.008	13507.41
582.368	13493.63
582.728	13477.36
583.089	13429
583.449	13405.04
583.809	13372.05
584.169	13441.88
584.529	13396.91
584.889	13483.69
585.249	13384.25
585.609	13332.73
585.969	13447.98
586.329	13344.25
586.688	13393.52
587.048	13384.03
587.408	13306.29
587.768	13383.12
588.127	13354.87
588.487	13270.13
588.846	13393.52
589.206	13349.9
589.565	13274.65
589.925	13358.26
590.284	13361.88
590.643	13361.2
591.003	13280.75
591.362	13311.71
591.721	13282.33
592.08	13257.7
592.44	13306.29
592.799	13295.44
593.158	13254.99
593.517	13245.27
593.876	13287.31
594.235	13250.02
594.593	13237.36
594.952	13296.12
595.311	13190.13
595.67	13235.33
596.029	13324.14
596.387	13300.86
596.746	13305.84
597.104	13249.34
597.463	13246.63
597.822	13315.78
598.18	13243.24
598.538	13162.79
598.897	13177.25
599.255	13092.06
599.613	13287.53
599.972	13163.02
600.33	13232.62
600.688	13134.54
601.046	13195.11
601.404	13294.54
601.762	13191.49
602.12	13332.95
602.478	13248.66
602.836	13286.18
603.194	13148.33
603.552	13170.92
603.91	13202.79
604.268	13125.95
604.625	13201.43
604.983	13271.26
605.341	13205.95
605.698	13293.63
606.056	13221.09
606.413	13245.95
606.771	13285.27
607.128	13222.9
607.485	13199.62
607.843	13160.53
608.2	13281.43
608.557	13269.91
608.914	13204.6
609.272	13386.74
609.629	13284.59
609.986	13298.61
610.343	13341.77
610.7	13479.62
611.057	13380.18
611.414	13411.14
611.771	13345.38
612.127	13405.95
612.484	13416.79
612.841	13402.33
613.198	13334.76
613.554	13328.89
613.911	13447.3
614.267	13496.34
614.624	13429
614.98	13511.03
615.337	13576.34
615.693	13484.81
616.05	13513.97
616.406	13662.66
616.762	13503.12
617.118	13545.38
617.475	13502.67
617.831	13530.46
618.187	13507.64
618.543	13612.95
618.899	13641.87
619.255	13593.51
619.611	13583.34
619.967	13592.83
620.323	13640.97
620.678	13563.91
621.034	13573.63
621.39	13494.08
621.746	13558.71
622.101	13744.47
622.457	13549.22
622.812	13636.22
623.168	13658.82
623.523	13637.81
623.879	13638.26
624.234	13548.09
624.589	13664.47
624.945	13607.98
625.3	13639.84
625.655	13646.39
626.01	13665.38
626.365	13667.41
626.72	13593.51
627.075	13589.67
627.43	13608.43
627.785	13584.93
628.14	13538.6
628.495	13619.5
628.85	13667.18
629.205	13510.58
629.559	13534.31
629.914	13560.75
630.269	13585.15
630.623	13541.54
630.978	13523.01
631.332	13467.19
631.687	13556.45
632.041	13466.28
632.396	13514.19
632.75	13421.09
633.104	13457.25
633.459	13411.14
633.813	13384.03
634.167	13370.47
634.521	13474.42
634.875	13433.52
635.229	13347.19
635.583	13263.8
635.937	13335.21
636.291	13325.5
636.645	13257.48
636.999	13261.54
637.352	13263.58
637.706	13156.01
638.06	13229.91
638.413	13236.69
638.767	13175.9
639.121	13206.4
639.474	13244.37
639.828	13122.11
640.181	13168.44
640.534	13193.07
640.888	13122.79
641.241	13013.87
641.594	13056.8
641.947	13112.85
642.301	13027.43
642.654	13080.08
643.007	13099.97
643.36	13043.7
643.713	13066.97
644.066	13140.42
644.419	12961.89
644.771	12977.26
645.124	12908.11
645.477	12878.5
645.83	12769.35
646.182	12662.92
646.535	12580.88
646.888	12677.15
647.24	12567.32
647.593	12611.17
647.945	12662.69
648.298	12565.74
648.65	12528.23
649.002	12498.17
649.355	12594.67
649.707	12562.81
650.059	12623.82
650.411	12800.31
650.763	12827.43
651.115	12890.48
651.467	12853.87
651.819	12817.94
652.171	12880.09
652.523	12819.75
652.875	12838.96
653.227	12817.49
653.578	12825.85
653.93	12870.82
654.282	12781.33
654.633	12806.41
654.985	12801.22
655.337	12784.27
655.688	12804.15
656.039	12885.28
656.391	12826.53
656.742	12731.84
657.094	12812.29
657.445	12844.61
657.796	12781.56
658.147	12775.23
658.498	12770.48
658.849	12847.54
659.2	12853.19
659.551	12798.28
659.902	12825.85
660.253	12822.01
660.604	12836.92
660.955	12796.25
661.306	12920.99
661.656	12805.28
662.007	12860.2
662.358	12880.09
662.708	12821.78
663.059	12908.78
663.409	12760.31
663.76	12843.02
664.11	12857.71
664.461	12920.31
664.811	12863.14
665.161	12910.82
665.511	12838.05
665.862	12937.48
666.212	12864.72
666.562	12925.73
666.912	12855
667.262	12836.02
667.612	12847.54
667.962	12889.12
668.312	12906.53
668.662	12975.22
669.011	12830.82
669.361	12819.52
669.711	12826.98
670.06	12877.6
670.41	12863.59
670.76	12772.29
671.109	12899.97
671.459	12903.14
671.808	12847.54
672.157	12784.27
672.507	12812.06
672.856	12718.06
673.205	12768.9
673.554	12868.56
673.904	12728.68
674.253	12773.42
674.602	12729.35
674.951	12573.43
675.3	12470.15
675.649	12630.37
675.998	12702.91
676.346	12607.78
676.695	12725.96
677.044	12594.67
677.393	12666.76
677.741	12632.63
678.09	12618.17
678.438	12625.63
678.787	12598.28
679.135	12559.87
679.484	12524.61
679.832	12598.51
680.181	12513.32
680.529	12511.51
680.877	12487.33
681.225	12438.06
681.573	12534.11
681.922	12432.19
682.27	12420.89
682.618	12318.07
682.966	12408.23
683.314	12403.26
683.661	12334.34
684.009	12251.63
684.357	12204.62
684.705	12213.66
685.053	12289.14
685.4	12201.01
685.748	12104.96
686.095	12108.58
686.443	12082.37
686.79	12105.42
687.138	12103.38
687.485	12124.17
687.832	12049.37
688.18	12051.63
688.527	11956.27
688.874	12030.62
689.221	11888.47
689.568	11838.3
689.915	11900.68
690.262	11787.68
690.609	11825.65
690.956	11709.49
691.303	11702.71
691.65	11682.6
691.997	11655.03
692.344	11544.98
692.69	11562.61
693.037	11551.76
693.383	11448.48
693.73	11446.22
694.077	11391.54
694.423	11347.92
694.769	11320.13
695.116	11307.02
695.462	11360.58
695.808	11227.02
696.155	11260.01
696.501	11132.56
696.847	11130.53
697.193	11024.31
697.539	11018.21
697.885	10965.11
698.231	10906.8
698.577	10981.38
698.923	10899.57
699.269	10936.41
699.614	10757.88
699.96	10741.38
700.306	10792.23
700.651	10720.37
700.997	10634.49
701.342	10663.87
701.688	10651.67
702.033	10618.68
702.379	10532.58
702.724	10518.57
703.069	10550.65
703.415	10420.49
703.76	10480.15
704.105	10407.16
704.45	10375.97
704.795	10262.53
705.14	10286.71
705.485	10182.75
705.83	10212.13
706.175	10158.57
706.52	10130.33
706.865	10061.85
707.209	10077.67
707.554	10035.87
707.899	10087.39
708.243	9963.1
708.588	9932.59
708.932	9934.63
709.277	9868.64
709.621	9854.18
709.966	9826.83
710.31	9826.38
710.654	9707.51
710.998	9739.83
711.342	9796.32
711.687	9690.34
712.031	9730.56
712.375	9701.19
712.719	9660.51
713.063	9604.01
713.407	9670.45
713.75	9553.39
714.094	9555.88
714.438	9587.29
714.782	9620.96
715.125	9560.85
715.469	9576.9
715.812	9510
716.156	9463.45
716.499	9488.08
716.843	9461.42
717.186	9477.01
717.53	9416.9
717.873	9442.66
718.216	9423.23
718.559	9381.65
718.902	9298.94
719.246	9291.93
719.589	9327.86
719.932	9301.2
720.275	9284.7
720.617	9314.08
720.96	9268.43
721.303	9271.14
721.646	9219.84
721.989	9131.94
722.331	9199.96
722.674	9176.23
723.016	9216
723.359	9167.87
723.701	9171.03
724.044	9156.12
724.386	9074.76
724.729	9189.33
725.071	9121.31
725.413	9111.82
725.755	9085.38
726.097	9085.83
726.439	9075.44
726.782	9061.65
727.124	9083.57
727.465	9101.2
727.807	9093.97
728.149	9023.69
728.491	9027.76
728.833	9060.07
729.175	8962.22
729.516	9029.79
729.858	9031.37
730.199	9062.11
730.541	9030.69
730.882	9012.16
731.224	9079.73
731.565	8935.1
731.906	9024.82
732.248	8974.43
732.589	8900.53
732.93	8943.92
733.271	8940.75
733.612	8966.29
733.953	9005.16
734.294	8992.05
734.635	8926.29
734.976	8909.12
735.317	8893.07
735.658	8912.96
735.999	8990.24
736.339	8944.82
736.68	8960.19
737.021	8947.76
737.361	8973.07
737.702	8966.06
738.042	9006.29
738.383	8954.99
738.723	9013.07
739.063	8954.54
739.404	9041.54
739.744	9009.9
740.084	8955.44
740.424	9017.59
740.764	9014.2
741.104	9049
741.444	9064.82
741.784	9056.68
742.124	9102.33
742.464	9105.04
742.804	9106.62
743.143	9092.39
743.483	9186.4
743.823	9131.71
744.162	9116.79
744.502	9196.57
744.841	9146.62
745.181	9315.43
745.52	9332.38
745.86	9336.68
746.199	9376
746.538	9372.15
746.877	9477.01
747.216	9587.52
747.556	9572.6
747.895	9545.03
748.234	9604.46
748.573	9598.82
748.911	9750.45
749.25	9790.9
749.589	9807.62
749.928	9873.16
750.267	9942.54
750.605	9984.79
750.944	10034.51
751.283	10075.41
751.621	10172.81
751.96	10283.32
752.298	10356.76
752.636	10541.39
752.975	10523.76
753.313	10599.24
753.651	10758.56
753.989	10808.73
754.327	10889.4
754.666	10976.86
755.004	11078.32
755.342	11231.99
755.679	11321.93
756.017	11441.93
756.355	11641.93
756.693	11644.64
757.031	11834.24
757.368	11933.44
757.706	12093.89
758.044	12235.58
758.381	12400.55
