Data from hue_28_FLMS001491_00085.txt Node
Date: Tue Feb 07 17:17:55 GMT 2017
User: dcchb
Spectrometer: FLMS00149
Trigger mode: 0
Integration Time (sec): 2.000000E-2
Scans to average: 10
Electric dark correction enabled: true
Nonlinearity correction enabled: false
Boxcar width: 0
XAxis mode: Wavelengths
Number of Pixels in Spectrum: 2048
>>>>>Begin Spectral Data<<<<<
341.393	5.3
341.776	5.3
342.16	5.3
342.543	-49.39
342.927	-74.02
343.31	-69.05
343.693	-90.97
344.077	-72.67
344.46	-41.26
344.843	-56.4
345.226	-42.16
345.61	-31.31
345.993	-12.56
346.376	-14.82
346.759	28.57
347.142	28.35
347.525	48.23
347.908	44.39
348.291	75.13
348.674	98.63
349.057	107.89
349.44	123.49
349.823	132.52
350.206	171.39
350.588	188.79
350.971	191.51
351.354	206.65
351.737	252.75
352.119	262.92
352.502	257.49
352.884	266.76
353.267	266.31
353.65	288.9
354.032	313.99
354.414	324.38
354.797	330.03
355.179	307.89
355.562	329.58
355.944	324.16
356.326	348.79
356.709	328.68
357.091	316.47
357.473	327.77
357.855	351.95
358.238	352.86
358.62	332.75
359.002	339.98
359.384	325.51
359.766	350.15
360.148	341.33
360.53	321.67
360.912	334.55
361.294	324.38
361.676	348.11
362.057	349.02
362.439	336.36
362.821	339.52
363.203	337.04
363.584	327.77
363.966	313.76
364.348	328.45
364.729	327.77
365.111	334.78
365.493	311.28
365.874	316.02
366.256	320.09
366.637	316.47
367.019	321.67
367.4	307.89
367.781	317.83
368.163	318.73
368.544	319.86
368.925	319.64
369.306	314.21
369.688	336.81
370.069	316.47
370.45	309.47
370.831	318.28
371.212	324.38
371.593	307.89
371.974	313.08
372.355	313.99
372.736	321.22
373.117	324.38
373.498	325.51
373.879	343.37
374.26	328.9
374.641	320.54
375.021	319.64
375.402	324.61
375.783	314.44
376.163	318.51
376.544	332.29
376.925	311.96
377.305	333.88
377.686	328.9
378.066	320.99
378.447	330.71
378.827	329.58
379.208	328.45
379.588	329.13
379.968	331.84
380.349	351.73
380.729	338.85
381.109	331.39
381.489	324.38
381.87	370.26
382.25	360.99
382.63	362.8
383.01	345.17
383.39	336.81
383.77	340.43
384.15	344.95
384.53	344.5
384.91	347.43
385.29	364.84
385.67	351.95
386.049	334.1
386.429	341.56
386.809	366.42
387.189	352.18
387.568	353.99
387.948	349.02
388.328	378.17
388.707	344.04
389.087	369.35
389.466	343.82
389.846	363.93
390.225	347.66
390.605	361.67
390.984	371.39
391.363	375.23
391.743	369.35
392.122	376.59
392.501	362.12
392.881	381.78
393.26	382.46
393.639	386.76
394.018	385.63
394.397	368.9
394.776	369.81
395.155	372.74
395.534	403.48
395.913	372.07
396.292	374.78
396.671	402.35
397.05	401.22
397.429	408.9
397.808	386.76
398.186	369.58
398.565	391.28
398.944	391.05
399.323	400.99
399.701	403.93
400.08	376.36
400.458	392.86
400.837	412.97
401.215	407.32
401.594	391.73
401.972	417.26
402.351	409.58
402.729	404.83
403.107	402.35
403.486	399.64
403.864	405.06
404.242	421.1
404.62	424.04
404.999	404.16
405.377	408.22
405.755	428.56
406.133	436.7
406.511	440.54
406.889	431.05
407.267	436.7
407.645	428.11
408.023	452.29
408.401	418.62
408.779	443.25
409.156	444.61
409.534	455.68
409.912	444.38
410.29	457.94
410.667	449.58
411.045	461.33
411.422	469.47
411.8	445.51
412.178	454.32
412.555	471.5
412.933	463.59
413.31	466.75
413.687	474.21
414.065	464.04
414.442	470.82
414.819	472.85
415.197	463.36
415.574	482.12
415.951	497.71
416.328	480.76
416.705	502.46
417.082	488.22
417.46	512.85
417.837	498.39
418.214	483.7
418.591	501.78
418.967	521.67
419.344	518.96
419.721	531.16
420.098	513.76
420.475	541.1
420.852	514.44
421.228	535.45
421.605	521.22
421.982	521.89
422.358	534.1
422.735	558.05
423.111	566.19
423.488	543.81
423.864	537.26
424.241	538.62
424.617	565.96
424.994	567.54
425.37	576.58
425.746	562.12
426.123	587.43
426.499	583.81
426.875	563.25
427.251	584.49
427.627	588.33
428.003	599.18
428.379	592.63
428.756	605.05
429.132	613.64
429.507	629.01
429.883	621.33
430.259	616.58
430.635	604.15
431.011	634.66
431.387	626.75
431.763	629.23
432.138	637.14
432.514	624.04
432.89	651.16
433.265	665.17
433.641	645.28
434.016	679.4
434.392	680.53
434.767	686.86
435.143	681.66
435.518	701.1
435.894	695.9
436.269	703.81
436.644	697.26
437.02	727.99
437.395	715.79
437.77	732.28
438.145	725.28
438.52	715.11
438.895	711.27
439.271	747.65
439.646	754.88
440.021	766.18
440.395	758.5
440.77	756.46
441.145	760.76
441.52	775.9
441.895	766.86
442.27	777.93
442.645	779.06
443.019	798.5
443.394	783.58
443.769	785.61
444.143	779.06
444.518	802.11
444.892	799.63
445.267	800.76
445.641	811.83
446.016	825.39
446.39	807.08
446.764	826.74
447.139	822.68
447.513	851.15
447.887	848.21
448.262	833.07
448.636	873.97
449.01	859.74
449.384	839.17
449.758	855.67
450.132	875.33
450.506	875.78
450.88	874.43
451.254	859.96
451.628	907.65
452.002	893.18
452.376	917.36
452.75	914.65
453.123	897.93
453.497	920.07
453.871	933.41
454.244	929.57
454.618	963.46
454.992	953.52
455.365	957.59
455.739	992.16
456.112	1003.91
456.486	993.75
456.859	991.71
457.232	980.86
457.606	1005.72
457.979	1011.6
458.352	1041.88
458.725	1037.59
459.099	1069.45
459.472	1067.87
459.845	1083.01
460.218	1103.35
460.591	1107.64
460.964	1093.4
461.337	1118.71
461.71	1138.83
462.083	1153.97
462.456	1171.37
462.829	1175.44
463.201	1196.9
463.574	1212.04
463.947	1189.67
464.32	1207.3
464.692	1232.38
465.065	1238.26
465.438	1261.76
465.81	1271.48
466.183	1259.05
466.555	1271.7
466.928	1315.32
467.3	1297.92
467.672	1332.95
468.045	1373.17
468.417	1377.01
468.789	1386.96
469.161	1407.29
469.534	1400.51
469.906	1454.3
470.278	1483.22
470.65	1471.25
471.022	1497.69
471.394	1536.56
471.766	1541.08
472.138	1553.05
472.51	1580.85
472.882	1594.41
473.253	1657.46
473.625	1671.92
473.997	1692.26
474.369	1716.44
474.74	1742.2
475.112	1783.33
475.484	1790.11
475.855	1833.27
476.227	1858.81
476.598	1938.35
476.97	1930.9
477.341	1985.58
477.713	2004.79
478.084	2006.6
478.455	2063.1
478.827	2076.88
479.198	2157.1
479.569	2146.71
479.94	2235.07
480.311	2227.38
480.682	2329.3
481.053	2339.25
481.424	2382.18
481.795	2400.04
482.166	2484.55
482.537	2513.48
482.908	2572.69
483.279	2606.58
483.65	2665.57
484.021	2754.38
484.391	2756.41
484.762	2785.79
485.133	2828.73
485.503	2864.2
485.874	2922.73
486.244	2977.65
486.615	3051.77
486.985	3090.64
487.356	3163.63
487.726	3169.51
488.097	3276.62
488.467	3281.37
488.837	3353.01
489.207	3415.15
489.578	3509.61
489.948	3522.72
490.318	3587.35
490.688	3659.66
491.058	3686.1
491.428	3763.39
491.798	3830.05
492.168	3908.02
492.538	3903.27
492.908	3945.53
493.278	4018.98
493.648	4033.44
494.017	4102.36
494.387	4111.63
494.757	4197.73
495.126	4240.44
495.496	4282.02
495.866	4346.65
496.235	4355.69
496.605	4409.93
496.974	4443.6
497.344	4506.65
497.713	4552.07
498.082	4589.81
498.452	4585.06
498.821	4692.63
499.19	4653.99
499.559	4754.78
499.928	4757.71
500.298	4855.34
500.667	4846.98
501.036	4851.5
501.405	4899.41
501.774	4911.83
502.143	5013.07
502.512	5027.54
502.88	5036.35
503.249	5086.97
503.618	5097.14
503.987	5086.07
504.356	5140.53
504.724	5262.56
505.093	5199.96
505.462	5228.21
505.83	5254.2
506.199	5274.54
506.567	5350.01
506.936	5401.31
507.304	5460.07
507.672	5468.88
508.041	5474.53
508.409	5546.62
508.777	5563.57
509.145	5603.57
509.514	5548.43
509.882	5583.23
510.25	5619.39
510.618	5678.59
510.986	5709.33
511.354	5748.65
511.722	5781.42
512.09	5821.19
512.458	5820.96
512.826	5900.28
513.193	5884.92
513.561	5905.71
513.929	5983.67
514.297	6007.4
514.664	6006.27
515.032	6058.7
515.4	6085.81
515.767	6129.88
516.135	6118.58
516.502	6118.81
516.869	6234.06
517.237	6256.21
517.604	6160.16
517.972	6281.97
518.339	6241.06
518.706	6288.07
519.073	6333.72
519.44	6316.54
519.808	6361.51
520.175	6365.13
520.542	6470.66
520.909	6454.84
521.276	6466.6
521.643	6546.82
522.009	6553.15
522.376	6624.33
522.743	6631.79
523.11	6711.56
523.477	6727.61
523.843	6798.11
524.21	6787.27
524.577	6852.12
524.943	6899.8
525.31	6882.63
525.676	6979.8
526.043	7021.61
526.409	7017.77
526.776	7053.25
527.142	7097.31
527.508	7119.23
527.874	7240.59
528.241	7218.89
528.607	7220.47
528.973	7323.3
529.339	7313.35
529.705	7346.8
530.071	7414.14
530.437	7433.35
530.803	7507.92
531.169	7532.1
531.535	7544.76
531.901	7547.7
532.267	7564.19
532.632	7618.43
532.998	7644.87
533.364	7697.75
533.73	7705.21
534.095	7798.76
534.461	7857.29
534.826	7893.68
535.192	7880.57
535.557	7928.48
535.923	7931.64
536.288	7993.34
536.653	8053.45
537.019	7994.69
537.384	8080.11
537.749	8120.56
538.114	8152.88
538.479	8224.97
538.845	8165.76
539.21	8214.35
539.575	8257.96
539.94	8290.73
540.305	8350.84
540.67	8346.77
541.034	8407.79
541.399	8476.71
541.764	8448.46
542.129	8448.69
542.494	8425.87
542.858	8522.13
543.223	8556.03
543.587	8637.61
543.952	8650.04
544.316	8682.36
544.681	8742.02
545.045	8707.21
545.41	8800.55
545.774	8815.69
546.138	8806.42
546.503	8821.11
546.867	8884.16
547.231	8995.34
547.595	8996.25
547.959	8923.71
548.324	8916.25
548.688	9078.73
549.052	9062.23
549.416	9062.01
549.779	9044.15
550.143	9121.21
550.507	9206.64
550.871	9236.69
551.235	9174.09
551.599	9271.72
551.962	9325.73
552.326	9390.13
552.689	9412.96
553.053	9386.97
553.417	9428.55
553.78	9564.37
554.143	9434.43
554.507	9521.2
554.87	9603.01
555.234	9646.62
555.597	9607.53
555.96	9708.32
556.323	9666.06
556.686	9659.51
557.05	9720.97
557.413	9740.86
557.776	9793.74
558.139	9834.42
558.502	9868.09
558.865	9873.51
559.228	9950.8
559.59	9925.04
559.953	10013.62
560.316	10081.42
560.679	10046.84
561.041	10151.7
561.404	10161.87
561.767	10277.57
562.129	10258.59
562.492	10366.61
562.854	10333.84
563.217	10317.57
563.579	10347.17
563.941	10412.25
564.304	10464.68
564.666	10471.46
565.028	10501.29
565.39	10546.26
565.753	10580.84
566.115	10640.95
566.477	10707.61
566.839	10704
567.201	10791.68
567.563	10794.62
567.925	10859.7
568.287	10936.53
568.648	10898.34
569.01	10986.48
569.372	11038.23
569.734	10987.83
570.095	11024.44
570.457	11146.25
570.819	11157.77
571.18	11184.89
571.542	11274.15
571.903	11326.81
572.265	11361.16
572.626	11514.6
572.987	11396.18
573.349	11479.12
573.71	11593.69
574.071	11604.99
574.432	11652.45
574.794	11806.79
575.155	11865.1
575.516	11863.74
575.877	11900.8
576.238	11967.69
576.599	12084.3
576.96	12165.2
577.32	12242.26
577.681	12348.93
578.042	12478.19
578.403	12457.85
578.763	12727.22
579.124	12725.87
579.485	12908.46
579.845	13058.06
580.206	13073.43
580.566	13112.3
580.927	13354.78
581.287	13419.18
581.648	13540.76
582.008	13729.68
582.368	13870.92
582.728	14039.05
583.089	14105.94
583.449	14332.83
583.809	14532.37
584.169	14665.7
584.529	14781.86
584.889	15049.87
585.249	15185.69
585.609	15349.75
585.969	15732.11
586.329	15822.73
586.688	16060.02
587.048	16193.35
587.408	16520.12
587.768	16728.47
588.127	16935.92
588.487	17103.6
588.846	17551.73
589.206	17615.68
589.565	17898.61
589.925	18362.1
590.284	18426.28
590.643	18668.99
591.003	18978.13
591.362	19281.17
591.721	19498.8
592.08	19895.62
592.44	20197.08
592.799	20459.9
593.158	20604.3
593.517	21075.25
593.876	21347.79
594.235	21482.47
594.593	21853.99
594.952	22277.03
595.311	22432.28
595.67	22711.14
596.029	23267.96
596.387	23411.23
596.746	23742.3
597.104	23986.13
597.463	24289.86
597.822	24685.33
598.18	24807.58
598.538	25137.52
598.897	25613.21
599.255	25664.96
599.613	26268.11
599.972	26349.91
600.33	26764.59
600.688	26840.98
601.046	27330.68
601.404	27591.46
601.762	27894.05
602.12	28206.14
602.478	28459.24
602.836	28798.66
603.194	28936.74
603.552	29206.56
603.91	29367.91
604.268	29832.76
604.625	29927
604.983	30369.24
605.341	30570.37
605.698	30889.68
606.056	31070.47
606.413	31303.23
606.771	31602.21
607.128	31778.92
607.485	31915.19
607.843	32213.72
608.2	32597.43
608.557	32869.29
608.914	32950.87
609.272	33324.42
609.629	33517.18
609.986	33853.9
610.343	33860.23
610.7	34277.62
611.057	34440.78
611.414	34533.43
611.771	34859.75
612.127	35077.14
612.484	35316.91
612.841	35512.39
613.198	35626.96
613.554	35697.92
613.911	35981.53
614.267	36181.29
614.624	36314.62
614.98	36576.76
615.337	36936.3
615.693	36898.34
616.05	37019.01
616.406	37477.31
616.762	37394.14
617.118	37520.92
617.475	37734.25
617.831	37878.2
618.187	38115.71
618.543	38090.85
618.899	38313.22
619.255	38518.86
619.611	38624.39
619.967	38782.13
620.323	38969.02
620.678	38934.89
621.034	39038.17
621.39	39220.54
621.746	39182.57
622.101	39722.9
622.457	39484.71
622.812	39750.69
623.168	39673.18
623.523	39934.87
623.879	40056.9
624.234	39782.33
624.589	40202.21
624.945	40318.13
625.3	40202.88
625.655	40348.64
626.01	40401.07
626.365	40491.46
626.72	40642.65
627.075	40487.85
627.43	40658.01
627.785	40612.82
628.14	40763.55
628.495	41003.99
628.85	40973.48
629.205	40778.69
629.559	40993.6
629.914	40989.98
630.269	40953.15
630.623	40942.53
630.978	40987.72
631.332	41340.71
631.687	41370.31
632.041	41191.78
632.396	41393.81
632.75	41253.48
633.104	41228.85
633.459	41192.91
633.813	41278.56
634.167	41164.67
634.521	41161.5
634.875	41275.62
635.229	41257.32
635.583	41051.45
635.937	41252.57
636.291	41198.56
636.645	41268.84
636.999	41269.07
637.352	41205.57
637.706	41176.42
638.06	41356.07
638.413	41271.56
638.767	41148.62
639.121	41329.18
639.474	41062.97
639.828	41190.88
640.181	41229.75
640.534	41118.11
640.888	41189.75
641.241	40919.25
641.594	41177.32
641.947	41098.45
642.301	41058
642.654	41115.4
643.007	41077.66
643.36	41139.81
643.713	41071.34
644.066	41222.74
644.419	40901.85
644.771	40598.35
645.124	40368.75
645.477	40312.71
645.83	40105.26
646.182	39946.85
646.535	39810.13
646.888	40074.98
647.24	39780.75
647.593	40026.17
647.945	40064.81
648.298	39902.55
648.65	39765.38
649.002	39771.03
649.355	39915.66
649.707	39830.24
650.059	39942.78
650.411	40492.82
650.763	40430.9
651.115	40949.76
651.467	40854.17
651.819	40755.86
652.171	40691.91
652.523	40562.2
652.875	40642.65
653.227	40606.94
653.578	40816.43
653.93	40437.45
654.282	40354.07
654.633	40350.9
654.985	40431.58
655.337	40402.43
655.688	40544.12
656.039	40500.73
656.391	40406.04
656.742	40387.51
657.094	40433.61
657.445	40447.4
657.796	40440.39
658.147	40368.98
658.498	40343.22
658.849	40386.16
659.2	40370.11
659.551	40300.73
659.902	40461.86
660.253	40374.86
660.604	40486.27
660.955	40314.29
661.306	40338.93
661.656	40441.3
662.007	40354.74
662.358	40312.94
662.708	40274.97
663.059	40352.71
663.409	40134.64
663.76	40425.02
664.11	40361.75
664.461	40448.3
664.811	40395.42
665.161	40347.51
665.511	40179.16
665.862	40255.09
666.212	40470
666.562	40458.02
666.912	40319.94
667.262	40308.87
667.612	40238.14
667.962	40285.59
668.312	40220.96
668.662	40392.26
669.011	40195.2
669.361	40268.42
669.711	40223.22
670.06	40030.23
670.41	40010.57
670.76	39951.59
671.109	40041.98
671.459	39986.17
671.808	39965.83
672.157	40085.15
672.507	39910.91
672.856	39870.69
673.205	39976
673.554	39999.5
673.904	39911.14
674.253	40029.55
674.602	40056.9
674.951	39512.73
675.3	39325.62
675.649	40003.34
675.998	39968.31
676.346	39846.96
676.695	40011.93
677.044	39598.83
677.393	39780.97
677.741	39833.85
678.09	39692.16
678.438	39623.24
678.787	39740.3
679.135	39885.83
679.484	39540.75
679.832	39751.37
680.181	39377.14
680.529	39383.47
680.877	39350.02
681.225	39258.5
681.573	39513.18
681.922	39292.63
682.27	39215.56
682.618	39208.56
682.966	39074.33
683.314	39240.2
683.661	39016.7
684.009	38893.09
684.357	38964.27
684.705	38717.72
685.053	38776.25
685.4	38839.98
685.748	38736.26
686.095	38621.23
686.443	38401.12
686.79	38408.13
687.138	38494.91
687.485	38466.43
687.832	38316.38
688.18	38423.72
688.527	38117.74
688.874	38208.81
689.221	38077.97
689.568	37947.8
689.915	37842.49
690.262	37894.47
690.609	37754.81
690.956	37647.02
691.303	37674.14
691.65	37413.58
691.997	37425.56
692.344	37317.08
692.69	37306.69
693.037	37248.16
693.383	36981.95
693.73	37180.82
694.077	36769.53
694.423	36932.24
694.769	36818.11
695.116	36645.01
695.462	36639.81
695.808	36455.19
696.155	36457.45
696.501	36190.56
696.847	36396.2
697.193	36021.07
697.539	36155.53
697.885	36074.4
698.231	35856.11
698.577	35821.08
698.923	35798.48
699.269	35629.67
699.614	35552.84
699.96	35503.57
700.306	35454.08
700.651	35291.83
700.997	35127.76
701.342	35073.98
701.688	35028.56
702.033	34935.45
702.379	34843.93
702.724	34809.58
703.069	34952.63
703.415	34321.68
703.76	34587.89
704.105	34614.1
704.45	34488.23
704.795	34301.57
705.14	34129.37
705.485	34180.22
705.83	33952.43
706.175	33878.3
706.52	33949.94
706.865	33826.78
707.209	33827.46
707.554	33576.17
707.899	33797.63
708.243	33474.47
708.588	33506.56
708.932	33407.81
709.277	33287.36
709.621	33290.07
709.966	33066.57
710.31	33183.41
710.654	32954.94
710.998	33037.87
711.342	33091.66
711.687	32900.7
712.031	32713.81
712.375	32627.49
712.719	32806.02
713.063	32531.22
713.407	32550.2
713.75	32326.03
714.094	32302.07
714.438	32163.09
714.782	32340.94
715.125	32136.88
715.469	32159.71
715.812	31990.44
716.156	31903.21
716.499	31877.68
716.843	31941.63
717.186	31715.2
717.53	31983.21
717.873	31763.56
718.216	31661.19
718.559	31603.34
718.902	31417.8
719.246	31408.31
719.589	31420.97
719.932	31204.02
720.275	31345.72
720.617	31213.06
720.96	31098.26
721.303	31243.35
721.646	31178.71
721.989	31005.84
722.331	31074.31
722.674	30932.17
723.016	30976.01
723.359	30886.52
723.701	30896.69
724.044	30755.22
724.386	30758.39
724.729	30859.17
725.071	30668.67
725.413	30719.97
725.755	30551.16
726.097	30539.41
726.439	30374.67
726.782	30477.49
727.124	30491.5
727.465	30362.46
727.807	30359.53
728.149	30172.19
728.491	30146.42
728.833	30094.22
729.175	30211.96
729.516	30089.7
729.858	30090.38
730.199	30113.21
730.541	29947.56
730.882	29861.01
731.224	30000.67
731.565	29894
731.906	29785.98
732.248	29791.18
732.589	29722.71
732.93	29579.21
733.271	29492.66
733.612	29612.65
733.953	29625.31
734.294	29490.17
734.635	29447.23
734.976	29456.27
735.317	29317.97
735.658	29244.08
735.999	29280.01
736.339	29266.9
736.68	29384.86
737.021	29173.57
737.361	29164.98
737.702	29381.02
738.042	28997.75
738.383	29113.01
738.723	29233.45
739.063	28919.11
739.404	28977.64
739.744	28823.75
740.084	28836.18
740.424	28870.3
740.764	28669.63
741.104	28838.66
741.444	28773.81
741.784	28593.25
742.124	28614.71
742.464	28595.73
742.804	28520.25
743.143	28421.5
743.483	28422.63
743.823	28395.96
744.162	28366.81
744.502	28434.15
744.841	28364.1
745.181	28379.47
745.52	28231.9
745.86	28342.63
746.199	28299.02
746.538	28109.42
746.877	28193.71
747.216	28198.68
747.556	28086.59
747.895	28078.91
748.234	27968.4
748.573	27911.68
748.911	28063.09
749.25	28000.49
749.589	27805.92
749.928	27843.66
750.267	27749.43
750.605	27805.92
750.944	27746.49
751.283	27589.2
751.621	27606.83
751.96	27566.38
752.298	27494.52
752.636	27556.66
752.975	27372.94
753.313	27296.56
753.651	27465.37
753.989	27284.58
754.327	27272.15
754.666	27106.96
755.004	27188.54
755.342	27248.87
755.679	27188.54
756.017	27104.7
756.355	27131.36
756.693	27035.09
757.031	26997.13
757.368	26858.6
757.706	26838.26
758.044	26771.6
758.381	26741.32
758.719	26686.85
759.056	26690.02
759.394	26597.82
