Data from hue_180_FLMS001491_00079.txt Node
Date: Tue Feb 07 16:47:28 GMT 2017
User: dcchb
Spectrometer: FLMS00149
Trigger mode: 0
Integration Time (sec): 2.000000E-2
Scans to average: 10
Electric dark correction enabled: true
Nonlinearity correction enabled: false
Boxcar width: 0
XAxis mode: Wavelengths
Number of Pixels in Spectrum: 2048
>>>>>Begin Spectral Data<<<<<
341.393	-5.65
341.776	-5.65
342.16	-5.65
342.543	-66.89
342.927	-65.99
343.31	-70.05
343.693	-69.15
344.077	-58.3
344.46	-66.21
344.843	-56.27
345.226	-36.38
345.61	-34.12
345.993	-14.69
346.376	3.16
346.759	-1.36
347.142	27.8
347.525	62.6
347.908	48.81
348.291	61.24
348.674	77.29
349.057	125.65
349.44	132.2
349.823	142.6
350.206	164.29
350.588	186.21
350.971	205.87
351.354	214.23
351.737	252.65
352.119	239.54
352.502	274.8
352.884	275.47
353.267	290.84
353.65	292.65
354.032	310.95
354.414	309.6
354.797	334.68
355.179	320.67
355.562	311.4
355.944	310.73
356.326	312.31
356.709	339.88
357.091	367.22
357.473	338.97
357.855	332.65
358.238	332.87
358.62	341.01
359.002	350.05
359.384	338.52
359.766	332.87
360.148	339.43
360.53	359.99
360.912	336.71
361.294	342.82
361.676	345.08
362.057	321.57
362.439	332.42
362.821	347.79
363.203	327.22
363.584	318.41
363.966	311.86
364.348	315.47
364.729	317.96
365.111	327.67
365.493	295.59
365.874	313.66
366.256	328.58
366.637	296.49
367.019	320.67
367.4	327.45
367.781	314.34
368.163	314.57
368.544	308.92
368.925	306.21
369.306	323.38
369.688	311.18
370.069	290.16
370.45	334.23
370.831	285.64
371.212	318.64
371.593	310.27
371.974	319.99
372.355	311.63
372.736	318.64
373.117	316.83
373.498	333.55
373.879	326.77
374.26	310.27
374.641	312.31
375.021	313.21
375.402	310.27
375.783	336.94
376.163	331.06
376.544	327.9
376.925	325.42
377.305	325.42
377.686	323.38
378.066	328.13
378.447	323.38
378.827	341.69
379.208	309.37
379.588	311.4
379.968	350.27
380.349	338.52
380.729	319.77
381.109	305.75
381.489	355.24
381.87	336.49
382.25	336.26
382.63	321.57
383.01	351.18
383.39	341.23
383.77	305.53
384.15	334.68
384.53	339.2
384.91	343.49
385.29	356.37
385.67	336.94
386.049	326.77
386.429	357.5
386.809	343.72
387.189	351.86
387.568	360.89
387.948	367.67
388.328	350.73
388.707	352.76
389.087	355.47
389.466	365.41
389.846	352.08
390.225	355.24
390.605	370.39
390.984	369.48
391.363	374
391.743	354.34
392.122	364.51
392.501	367.22
392.881	392.53
393.26	357.5
393.639	387.79
394.018	355.24
394.397	369.26
394.776	378.97
395.155	363.38
395.534	362.25
395.913	369.48
396.292	398.18
396.671	393.44
397.05	390.05
397.429	376.04
397.808	393.89
398.186	381.68
398.565	398.86
398.944	379.2
399.323	402.02
399.701	377.17
400.08	395.24
400.458	395.47
400.837	409.48
401.215	432.76
401.594	407.9
401.972	411.51
402.351	421.01
402.729	426.2
403.107	408.35
403.486	441.12
403.864	435.47
404.242	424.4
404.62	432.98
404.999	423.49
405.377	435.02
405.755	446.09
406.133	433.43
406.511	464.85
406.889	476.15
407.267	460.33
407.645	482.25
408.023	467.33
408.401	458.52
408.779	456.71
409.156	486.09
409.534	491.29
409.912	482.47
410.29	507.33
410.667	496.26
411.045	502.36
411.422	517.05
411.8	508.69
412.178	501.91
412.555	515.92
412.933	542.36
413.31	557.95
413.687	546.65
414.065	556.37
414.442	570.38
414.819	567.67
415.197	575.58
415.574	605.41
415.951	581
416.328	614
416.705	604.28
417.082	623.03
417.46	652.41
417.837	626.65
418.214	639.08
418.591	643.6
418.967	650.83
419.344	653.09
419.721	670.94
420.098	672.75
420.475	672.52
420.852	684.05
421.228	710.26
421.605	717.27
421.982	712.3
422.358	709.13
422.735	726.53
423.111	762.24
423.488	749.58
423.864	737.83
424.241	795.23
424.617	778.74
424.994	794.78
425.37	817.61
425.746	808.11
426.123	828.23
426.499	819.64
426.875	850.37
427.251	872.97
427.627	897.6
428.003	864.38
428.379	878.85
428.756	884.04
429.132	908.9
429.507	900.32
429.883	917.49
430.259	946.64
430.635	948.9
431.011	973.31
431.387	953.42
431.763	1010.37
432.138	979.41
432.514	1004.72
432.89	992.74
433.265	1022.35
433.641	1055.11
434.016	1049.92
434.392	1077.03
434.767	1094.89
435.143	1098.5
435.518	1160.2
435.894	1157.71
436.269	1163.36
436.644	1189.12
437.02	1168.78
437.395	1188.44
437.77	1229.12
438.145	1246.07
438.52	1244.04
438.895	1289.23
439.271	1298.72
439.646	1303.02
440.021	1340.53
440.395	1341.66
440.77	1333.52
441.145	1372.62
441.52	1402
441.895	1374.65
442.27	1400.42
442.645	1442.22
443.019	1451.26
443.394	1440.19
443.769	1458.04
444.143	1449
444.518	1497.59
444.892	1477.48
445.267	1515.67
445.641	1533.29
446.016	1537.36
446.39	1540.75
446.764	1576.46
447.139	1562.9
447.513	1593.86
447.887	1564.03
448.262	1583.46
448.636	1600.86
449.01	1630.01
449.384	1615.32
449.758	1628.21
450.132	1656
450.506	1678.37
450.88	1704.36
451.254	1698.71
451.628	1748.2
452.002	1743.68
452.376	1773.51
452.75	1775.77
453.123	1780.29
453.497	1819.84
453.871	1821.87
454.244	1880.4
454.618	1874.53
454.992	1923.79
455.365	1931.02
455.739	1967.18
456.112	1975.77
456.486	2059.38
456.859	1987.97
457.232	2041.98
457.606	2047.18
457.979	2100.06
458.352	2129.89
458.725	2116.33
459.099	2158.81
459.472	2216.21
459.845	2227.06
460.218	2234.52
460.591	2269.09
460.964	2288.75
461.337	2357
461.71	2400.61
462.083	2397.68
462.456	2414.17
462.829	2454.62
463.201	2484.68
463.574	2519.71
463.947	2553.15
464.32	2562.64
464.692	2611
465.065	2644.45
465.438	2696.65
465.81	2762.87
466.183	2733.94
466.555	2812.36
466.928	2824.33
467.3	2836.54
467.672	2900.26
468.045	2965.8
468.417	2994.5
468.789	3001.05
469.161	3039.69
469.534	3075.17
469.906	3138
470.278	3193.59
470.65	3258.45
471.022	3298.22
471.394	3370.08
471.766	3420.25
472.138	3456.18
472.51	3558.1
472.882	3594.48
473.253	3699.34
473.625	3664.31
473.997	3785.21
474.369	3806.91
474.74	3850.29
475.112	3988.6
475.484	4032.44
475.855	4080.12
476.227	4175.26
476.598	4298.87
476.97	4299.55
477.341	4400.11
477.713	4447.57
478.084	4569.37
478.455	4707.9
478.827	4731.85
479.198	4845.75
479.569	4878.29
479.94	5038.96
480.311	5075.8
480.682	5211.61
481.053	5360.54
481.424	5474.66
481.795	5500.87
482.166	5624.26
482.537	5698.83
482.908	5819.28
483.279	5896.34
483.65	6042.78
484.021	6181.31
484.391	6294.98
484.762	6336.33
485.133	6362.09
485.503	6488.64
485.874	6646.15
486.244	6774.51
486.615	6900.61
486.985	6915.07
487.356	7086.59
487.726	7128.85
488.097	7347.83
488.467	7303.76
488.837	7562.96
489.207	7633.92
489.578	7797.54
489.948	7822.62
490.318	7971.54
490.688	7998.89
491.058	8150.52
491.428	8299.89
491.798	8368.14
492.168	8521.81
492.538	8582.37
492.908	8681.58
493.278	8788.47
493.648	8803.16
494.017	8881.8
494.387	9050.84
494.757	9130.38
495.126	9188.01
495.496	9221.68
495.866	9279.76
496.235	9378.51
496.605	9540.77
496.974	9538.05
497.344	9631.84
497.713	9705.28
498.082	9772.17
498.452	9851.94
498.821	9880.64
499.19	9896.01
499.559	10064.14
499.928	10092.84
500.298	10093.97
500.667	10232.05
501.036	10204.25
501.405	10279.05
501.774	10288.32
502.143	10378.48
502.512	10470.91
502.88	10450.35
503.249	10508.88
503.618	10580.96
503.987	10548.65
504.356	10599.72
504.724	10684.46
505.093	10699.15
505.462	10762.43
505.83	10751.81
506.199	10832.26
506.567	10952.03
506.936	10902.76
507.304	11070.44
507.672	11083.78
508.041	11125.36
508.409	11119.71
508.777	11158.8
509.145	11255.52
509.514	11239.7
509.882	11285.35
510.25	11251.91
510.618	11373.94
510.986	11266.37
511.354	11430.89
511.722	11401.06
512.09	11511.79
512.458	11586.14
512.826	11605.12
513.193	11624.55
513.561	11613.25
513.929	11680.6
514.297	11727.38
514.664	11747.26
515.032	11734.83
515.4	11782.74
515.767	11758.11
516.135	11817.77
516.502	11703.65
516.869	11876.3
517.237	11863.64
517.604	11849.86
517.972	11849.18
518.339	11920.59
518.706	11938.67
519.073	11945.9
519.44	12026.8
519.808	12081.04
520.175	11967.14
520.542	12060.93
520.909	12059.57
521.276	12040.59
521.643	12160.58
522.009	12130.3
522.376	12161.26
522.743	12182.05
523.11	12275.38
523.477	12227.7
523.843	12261.82
524.21	12356.51
524.577	12456.17
524.943	12314.93
525.31	12375.04
525.676	12411.2
526.043	12390.18
526.409	12367.58
526.776	12507.92
527.142	12443.97
527.508	12447.58
527.874	12472.89
528.241	12414.14
528.607	12448.71
528.973	12495.72
529.339	12459.56
529.705	12469.95
530.071	12474.93
530.437	12532.55
530.803	12457.75
531.169	12541.14
531.535	12462.5
531.901	12513.8
532.267	12384.08
532.632	12342.05
532.998	12393.57
533.364	12416.85
533.73	12335.72
534.095	12314.93
534.461	12347.92
534.826	12272.22
535.192	12275.84
535.557	12209.85
535.923	12217.31
536.288	12254.14
536.653	12129.62
537.019	12066.35
537.384	12018.44
537.749	12069.29
538.114	11968.5
538.479	11966.92
538.845	11983.41
539.21	11842.17
539.575	11853.25
539.94	11865.45
540.305	11813.7
540.67	11721.95
541.034	11694.16
541.399	11725.12
541.764	11717.66
542.129	11642.18
542.494	11612.58
542.858	11610.32
543.223	11540.71
543.587	11530.77
543.952	11519.92
544.316	11446.48
544.681	11327.84
545.045	11356.09
545.41	11272.7
545.774	11231.12
546.138	11209.87
546.503	11198.8
546.867	11126.04
547.231	11165.58
547.595	11031.35
547.959	11040.16
548.324	11005.36
548.688	10964.46
549.052	10911.8
549.416	10893.72
549.779	10860.05
550.143	10791.58
550.507	10836.33
550.871	10766.5
551.235	10673.84
551.599	10698.02
551.962	10616.67
552.326	10611.02
552.689	10643.79
553.053	10546.84
553.417	10513.85
553.78	10600.4
554.143	10388.2
554.507	10435.66
554.87	10446.05
555.234	10400.18
555.597	10325.83
555.96	10359.05
556.323	10287.87
556.686	10272.72
557.05	10293.06
557.413	10278.6
557.776	10265.49
558.139	10245.61
558.502	10194.99
558.865	10123.58
559.228	10108.43
559.59	10237.02
559.953	10170.35
560.316	10193.18
560.679	10074.31
561.041	10155.89
561.404	10086.51
561.767	10118.6
562.129	10066.18
562.492	10152.5
562.854	10093.52
563.217	9999.51
563.579	10067.08
563.941	10084.03
564.304	10060.53
564.666	10109.79
565.028	10010.58
565.39	10139.62
565.753	10114.08
566.115	10118.6
566.477	10144.37
566.839	10145.72
567.201	10094.88
567.563	10060.3
567.925	10159.51
568.287	10082.67
568.648	10151.6
569.01	10112.73
569.372	10113.63
569.734	10107.3
570.095	10119.28
570.457	10144.37
570.819	10112.95
571.18	10131.03
571.542	10200.86
571.903	10110.47
572.265	10124.03
572.626	10119.28
572.987	10138.72
573.349	10207.64
573.71	10154.08
574.071	10079.28
574.432	10186.62
574.794	10189.56
575.155	10201.09
575.516	10074.31
575.877	10223.69
576.238	10142.56
576.599	10232.05
576.96	10154.08
577.32	10164.93
577.681	10220.3
578.042	10210.13
578.403	10099.62
578.763	10158.6
579.124	10213.97
579.485	10129.9
579.845	10217.81
580.206	10123.35
580.566	10080.86
580.927	10165.83
581.287	10165.61
581.648	10071.15
582.008	10166.29
582.368	10116.57
582.728	10083.58
583.089	10141.43
583.449	10018.04
583.809	10060.98
584.169	10078.15
584.529	10049
584.889	10135.78
585.249	10059.17
585.609	10009.23
585.969	10074.76
586.329	9984.14
586.688	10077.25
587.048	9981.88
587.408	10019.17
587.768	9943.69
588.127	9966.97
588.487	9879.74
588.846	10071.6
589.206	9966.07
589.565	9952.05
589.925	9939.17
590.284	9831.83
590.643	9929
591.003	9948.66
591.362	9915.22
591.721	9877.25
592.08	9880.87
592.44	9911.38
592.799	9883.81
593.158	9930.13
593.517	9843.36
593.876	9917.93
594.235	9845.62
594.593	9765.39
594.952	9817.82
595.311	9826.41
595.67	9806.52
596.029	9837.93
596.387	9812.85
596.746	9802.68
597.104	9726.3
597.463	9751.16
597.822	9805.39
598.18	9785.05
598.538	9696.02
598.897	9778.27
599.255	9649.24
599.613	9787.09
599.972	9793.64
600.33	9733.76
600.688	9735.11
601.046	9737.15
601.404	9775.34
601.762	9712.51
602.12	9782.34
602.478	9800.19
602.836	9752.29
603.194	9727.88
603.552	9756.13
603.91	9649.69
604.268	9743.02
604.625	9681.33
604.983	9685.62
605.341	9682.23
605.698	9757.48
606.056	9678.84
606.413	9686.07
606.771	9689.24
607.128	9736.92
607.485	9713.42
607.843	9707.77
608.2	9705.96
608.557	9719.97
608.914	9657.6
609.272	9732.63
609.629	9776.47
609.986	9746.64
610.343	9729.01
610.7	9808.1
611.057	9768.56
611.414	9735.11
611.771	9811.72
612.127	9777.14
612.484	9795.22
612.841	9830.48
613.198	9770.36
613.554	9851.72
613.911	9823.02
614.267	9839.06
614.624	9824.83
614.98	9878.84
615.337	9895.11
615.693	9885.39
616.05	9812.4
616.406	9982.79
616.762	9750.25
617.118	9914.77
617.475	9907.99
617.831	9902.56
618.187	9896.69
618.543	9875.9
618.899	9934.88
619.255	9903.24
619.611	9930.13
619.967	9923.35
620.323	10000.64
620.678	9871.15
621.034	9853.75
621.39	9846.52
621.746	9870.7
622.101	10046.29
622.457	9891.49
622.812	9928.1
623.168	9878.16
623.523	9920.64
623.879	9972.62
624.234	9901.66
624.589	9923.81
624.945	9908.21
625.3	9973.75
625.655	9843.81
626.01	9970.36
626.365	9893.98
626.72	9870.7
627.075	9816.47
627.43	9860.53
627.785	9839.52
628.14	9821.89
628.495	9835.9
628.85	9835.22
629.205	9881.32
629.559	9830.7
629.914	9848.78
630.269	9905.5
630.623	9817.59
630.978	9823.02
631.332	9806.52
631.687	9887.42
632.041	9838.84
632.396	9808.1
632.75	9735.56
633.104	9799.74
633.459	9762.91
633.813	9811.95
634.167	9776.24
634.521	9729.69
634.875	9703.47
635.229	9742.12
635.583	9655.79
635.937	9744.38
636.291	9691.27
636.645	9632.97
636.999	9546.19
637.352	9553.87
637.706	9549.58
638.06	9618.5
638.413	9565.4
638.767	9541.44
639.121	9628.22
639.474	9472.97
639.828	9497.6
640.181	9510.94
640.534	9570.37
640.888	9477.94
641.241	9489.92
641.594	9462.35
641.947	9538.28
642.301	9487.43
642.654	9493.99
643.007	9468
643.36	9448.11
643.713	9436.36
644.066	9512.74
644.419	9425.51
644.771	9387.1
645.124	9295.57
645.477	9279.08
645.83	9241.79
646.182	9221.23
646.535	9206.99
646.888	9134.45
647.24	9162.92
647.593	9139.19
647.945	9090.61
648.298	9092.42
648.65	9113.21
649.002	9051.29
649.355	9107.11
649.707	9107.78
650.059	9118.63
650.411	9324.95
650.763	9320.66
651.115	9392.75
651.467	9337.38
651.819	9310.94
652.171	9339.42
652.523	9302.81
652.875	9380.77
653.227	9262.13
653.578	9333.77
653.93	9316.59
654.282	9291.73
654.633	9316.59
654.985	9286.54
655.337	9301
655.688	9334.44
656.039	9386.87
656.391	9344.16
656.742	9238.63
657.094	9341
657.445	9377.83
657.796	9403.59
658.147	9368.34
658.498	9329.02
658.849	9322.01
659.2	9369.47
659.551	9289.47
659.902	9386.42
660.253	9331.51
660.604	9366.76
660.955	9296.48
661.306	9379.87
661.656	9356.59
662.007	9353.65
662.358	9428
662.708	9356.82
663.059	9329.7
663.409	9333.31
663.76	9450.6
664.11	9402.01
664.461	9432.97
664.811	9408.79
665.161	9412.41
665.511	9392.75
665.862	9488.34
666.212	9453.31
666.562	9438.62
666.912	9441.33
667.262	9448.11
667.612	9387.55
667.962	9405.4
668.312	9479.07
668.662	9403.59
669.011	9438.4
669.361	9425.97
669.711	9372.18
670.06	9352.75
670.41	9440.43
670.76	9359.3
671.109	9356.36
671.459	9353.65
671.808	9302.35
672.157	9413.76
672.507	9304.84
672.856	9312.3
673.205	9348.91
673.554	9293.31
673.904	9320.66
674.253	9326.99
674.602	9349.81
674.951	9137.16
675.3	9170.83
675.649	9322.47
675.998	9266.87
676.346	9260.55
676.695	9334.9
677.044	9226.65
677.393	9183.26
677.741	9258.29
678.09	9191.17
678.438	9110.49
678.787	9263.49
679.135	9254.45
679.484	9124.73
679.832	9113.43
680.181	9110.72
680.529	9174
680.877	9098.29
681.225	9055.36
681.573	9163.83
681.922	9042.7
682.27	8919.09
682.618	8994.57
682.966	8977.62
683.314	8976.26
683.661	8946.66
684.009	8873.66
684.357	8861.01
684.705	8868.92
685.053	8923.61
685.4	8844.74
685.748	8803.61
686.095	8796.15
686.443	8787.79
686.79	8806.1
687.138	8739.88
687.485	8735.14
687.832	8678.19
688.18	8698.08
688.527	8668.47
688.874	8605.2
689.221	8677.51
689.568	8600.9
689.915	8631.41
690.262	8609.72
690.609	8532.66
690.956	8467.8
691.303	8461.7
691.65	8486.1
691.997	8453.11
692.344	8371.76
692.69	8376.05
693.037	8341.93
693.383	8299.22
693.73	8314.81
694.077	8214.47
694.423	8189.84
694.769	8213.34
695.116	8149.16
695.462	8166.11
695.808	8105.78
696.155	8113.46
696.501	8031.65
696.847	8128.37
697.193	7975.61
697.539	7973.58
697.885	7909.85
698.231	7910.3
698.577	7926.12
698.923	7901.49
699.269	7830.75
699.614	7749.63
699.96	7749.85
700.306	7714.37
700.651	7727.25
700.997	7682.28
701.342	7579.69
701.688	7688.84
702.033	7563.19
702.379	7602.74
702.724	7549.41
703.069	7613.13
703.415	7482.74
703.76	7516.64
704.105	7427.38
704.45	7473.25
704.795	7373.82
705.14	7382.63
705.485	7383.99
705.83	7257.44
706.175	7345.8
706.52	7309.41
706.865	7273.03
707.209	7256.53
707.554	7241.62
707.899	7290.43
708.243	7174.73
708.588	7181.51
708.932	7091.79
709.277	7110.77
709.621	7155.74
709.966	7113.03
710.31	7072.58
710.654	6984.9
710.998	7027.84
711.342	7000.27
711.687	6953.04
712.031	6964.34
712.375	6911.91
712.719	6919.59
713.063	6852.02
713.407	6930.67
713.75	6900.84
714.094	6915.07
714.438	6872.81
714.782	6907.16
715.125	6804.34
715.469	6833.94
715.812	6775.42
716.156	6779.48
716.499	6727.73
716.843	6715.53
717.186	6748.75
717.53	6807.96
717.873	6691.12
718.216	6683.21
718.559	6687.06
718.902	6669.66
719.246	6692.93
719.589	6681.63
719.932	6673.95
720.275	6650.67
720.617	6655.42
720.96	6624.68
721.303	6661.29
721.646	6654.51
721.989	6538.13
722.331	6617.23
722.674	6597.34
723.016	6608.64
723.359	6596.66
723.701	6580.17
724.044	6568.41
724.386	6574.97
724.729	6568.87
725.071	6560.96
725.413	6520.96
725.755	6528.19
726.097	6526.16
726.439	6475.08
726.782	6484.58
727.124	6519.6
727.465	6520.73
727.807	6524.35
728.149	6530
728.491	6464.46
728.833	6500.39
729.175	6461.3
729.516	6474.63
729.858	6463.33
730.199	6467.4
730.541	6466.72
730.882	6522.99
731.224	6442.77
731.565	6462.2
731.906	6475.31
732.248	6467.63
732.589	6436.21
732.93	6458.36
733.271	6452.71
733.612	6476.67
733.953	6499.04
734.294	6466.5
734.635	6436.67
734.976	6482.54
735.317	6484.35
735.658	6466.27
735.999	6463.78
736.339	6490.68
736.68	6561.18
737.021	6508.98
737.361	6527.74
737.702	6542.43
738.042	6493.16
738.383	6529.09
738.723	6529.77
739.063	6469.89
739.404	6550.56
739.744	6564.8
740.084	6555.08
740.424	6602.09
740.764	6569.32
741.104	6588.08
741.444	6532.26
741.784	6601.63
742.124	6612.93
742.464	6579.49
742.804	6661.29
743.143	6675.76
743.483	6711.01
743.823	6705.36
744.162	6698.58
744.502	6759.6
744.841	6807.96
745.181	6824.45
745.52	6877.56
745.86	6859.93
746.199	6897.45
746.538	6977.67
746.877	7043.66
747.216	7059.93
747.556	7063.54
747.895	7128.85
748.234	7142.86
748.573	7204.78
748.911	7288.62
749.25	7336.53
749.589	7353.03
749.928	7442.29
750.267	7541.5
750.605	7592.57
750.944	7640.93
751.283	7736.97
751.621	7874.37
751.96	7886.12
752.298	7922.5
752.636	8036.62
752.975	8171.99
753.313	8221.7
753.651	8391.87
753.989	8381.93
754.327	8536.05
754.666	8584.41
755.004	8811.97
755.342	8869.15
755.679	9023.27
756.017	9104.17
756.355	9255.58
756.693	9357.72
757.031	9534.21
757.368	9588.45
757.706	9761.78
758.044	9919.74
758.381	10020.75
758.719	10198.38
759.056	10408.99
759.394	10507.07
759.731	10563.11
760.068	10751.81
760.405	10958.58
760.743	11043.78
761.08	11274.73
761.417	11467.5
761.754	11593.59
762.091	11763.76
762.428	11949.29
762.765	12027.25
763.102	12267.7
763.438	12313.12
763.775	12584.53
764.112	12717.86
764.449	12942.71
764.785	13008.25
