Data from hue_70_FLMS001491_27.txt Node
Date: Mon Feb 06 15:20:21 GMT 2017
User: dcchb
Spectrometer: FLMS00149
Trigger mode: 0
Integration Time (sec): 2.000000E-2
Scans to average: 10
Electric dark correction enabled: true
Nonlinearity correction enabled: false
Boxcar width: 0
XAxis mode: Wavelengths
Number of Pixels in Spectrum: 2048
>>>>>Begin Spectral Data<<<<<
341.393	-10.79
341.776	-10.79
342.16	-10.79
342.543	-57.12
342.927	-67.29
343.31	-67.96
343.693	-76.1
344.077	-73.39
344.46	-61.64
344.843	-70.9
345.226	-35.87
345.61	-30.68
345.993	-29.77
346.376	-0.4
346.759	14.29
347.142	32.82
347.525	59.04
347.908	57.91
348.291	63.56
348.674	95.87
349.057	123.22
349.44	106.95
349.823	160.73
350.206	174.97
350.588	191.92
350.971	207.73
351.354	207.96
351.737	228.3
352.119	236.89
352.502	258.35
352.884	268.07
353.267	275.98
353.65	288.41
354.032	285.02
354.414	333.16
354.797	306.26
355.179	311.69
355.562	319.82
355.944	325.25
356.326	344.68
356.709	334.51
357.091	336.54
357.473	351.01
357.855	333.16
358.238	335.19
358.62	350.56
359.002	340.39
359.384	322.76
359.766	340.84
360.148	329.31
360.53	329.77
360.912	340.16
361.294	337.22
361.676	332.48
362.057	332.03
362.439	331.12
362.821	324.79
363.203	307.17
363.584	341.74
363.966	324.34
364.348	325.92
364.729	317.34
365.111	321.18
365.493	333.61
365.874	324.57
366.256	319.14
366.637	337.67
367.019	308.75
367.4	314.17
367.781	341.06
368.163	329.77
368.544	318.01
368.925	323.44
369.306	327.96
369.688	327.05
370.069	311.46
370.45	306.94
370.831	306.72
371.212	310.1
371.593	320.5
371.974	331.57
372.355	302.42
372.736	310.78
373.117	307.85
373.498	315.98
373.879	324.57
374.26	322.76
374.641	311.23
375.021	338.58
375.402	331.35
375.783	320.95
376.163	319.37
376.544	307.62
376.925	303.1
377.305	307.39
377.686	343.1
378.066	321.86
378.447	353.72
378.827	336.09
379.208	320.5
379.588	304.23
379.968	329.99
380.349	344.45
380.729	315.53
381.109	350.1
381.489	332.48
381.87	336.77
382.25	328.41
382.63	326.83
383.01	325.7
383.39	342.65
383.77	328.64
384.15	350.56
384.53	355.53
384.91	320.27
385.29	372.25
385.67	362.76
386.049	363.66
386.429	332.93
386.809	341.06
387.189	351.01
387.568	353.95
387.948	352.82
388.328	337.9
388.707	331.35
389.087	371.12
389.466	360.95
389.846	339.71
390.225	354.85
390.605	383.78
390.984	334.28
391.363	344.23
391.743	366.83
392.122	355.3
392.501	361.63
392.881	352.36
393.26	394.85
393.639	369.31
394.018	360.72
394.397	362.08
394.776	354.85
395.155	372.93
395.534	362.98
395.913	384.91
396.292	367.05
396.671	372.48
397.05	370.22
397.429	384.91
397.808	374.28
398.186	375.41
398.565	377.9
398.944	373.15
399.323	390.1
399.701	377.22
400.08	407.05
400.458	398.92
400.837	372.7
401.215	373.83
401.594	383.1
401.972	370.22
402.351	391.23
402.729	407.5
403.107	406.83
403.486	408.18
403.864	397.79
404.242	407.96
404.62	396.88
404.999	444.79
405.377	392.59
405.755	406.15
406.133	435.3
406.511	395.75
406.889	421.06
407.267	424.68
407.645	428.29
408.023	426.03
408.401	411.8
408.779	452.7
409.156	428.52
409.534	430.55
409.912	440.27
410.29	411.57
410.667	447.73
411.045	433.49
411.422	457.45
411.8	427.84
412.178	451.34
412.555	440.5
412.933	433.49
413.31	456.54
413.687	438.92
414.065	458.12
414.442	471.46
414.819	457.45
415.197	464.68
415.574	464.9
415.951	483.21
416.328	489.54
416.705	471.23
417.082	480.5
417.46	470.78
417.837	486.6
418.214	492.47
418.591	499.7
418.967	493.15
419.344	491.34
419.721	477.11
420.098	485.47
420.475	488.41
420.852	478.01
421.228	490.67
421.605	507.84
421.982	508.29
422.358	528.18
422.735	536.99
423.111	507.61
423.488	513.72
423.864	529.53
424.241	525.69
424.617	540.16
424.994	529.31
425.37	520.72
425.746	539.93
426.123	520.72
426.499	533.6
426.875	570.44
427.251	554.39
427.627	571.57
428.003	569.99
428.379	549.19
428.756	544.9
429.132	580.83
429.507	587.39
429.883	570.89
430.259	585.8
430.635	565.01
431.011	576.54
431.387	589.65
431.763	621.51
432.138	607.72
432.514	593.04
432.89	599.59
433.265	627.61
433.641	606.59
434.016	639.81
434.392	622.86
434.767	639.36
435.143	638.01
435.518	652.47
435.894	656.76
436.269	658.12
436.644	682.75
437.02	651.34
437.395	659.93
437.77	671.9
438.145	661.06
438.52	684.78
438.895	682.75
439.271	673.71
439.646	731.11
440.021	704.22
440.395	685.24
440.77	700.83
441.145	711.22
441.52	719.59
441.895	711.45
442.27	713.71
442.645	751
443.019	719.36
443.394	715.97
443.769	759.58
444.143	723.88
444.518	717.55
444.892	731.34
445.267	742.64
445.641	764.78
446.016	749.87
446.39	729.75
446.764	758.91
447.139	769.75
447.513	758.91
447.887	794.39
448.262	773.6
448.636	789.41
449.01	784.67
449.384	800.26
449.758	802.75
450.132	802.97
450.506	796.65
450.88	831
451.254	821.96
451.628	841.16
452.002	823.99
452.376	852.46
452.75	857.21
453.123	841.84
453.497	883.42
453.871	850.88
454.244	886.36
454.618	876.19
454.992	908.51
455.365	876.42
455.739	923.65
456.112	916.87
456.486	905.12
456.859	942.63
457.232	937.66
457.606	935.17
457.979	977.43
458.352	964.32
458.725	980.37
459.099	1004.55
459.472	1012.46
459.845	1038.9
460.218	1028.05
460.591	1029.41
460.964	1060.14
461.337	1052.46
461.71	1085.9
462.083	1091.55
462.456	1082.74
462.829	1087.49
463.201	1115.28
463.574	1126.35
463.947	1143.53
464.32	1156.41
464.692	1158.67
465.065	1185.56
465.438	1206.35
465.81	1226.92
466.183	1245.22
466.555	1267.37
466.928	1256.97
467.3	1269.63
467.672	1296.07
468.045	1338.55
468.417	1360.92
468.789	1349.85
469.161	1355.5
469.534	1383.97
469.906	1416.97
470.278	1427.14
470.65	1487.02
471.022	1491.77
471.394	1521.6
471.766	1562.28
472.138	1581.94
472.51	1620.8
472.882	1689.28
473.253	1684.98
473.625	1703.74
473.997	1757.75
474.369	1769.95
474.74	1806.11
475.112	1893.57
475.484	1900.12
475.855	1969.5
476.227	1989.83
476.598	2058.31
476.97	2080
477.341	2157.97
477.713	2221.47
478.084	2243.84
478.455	2305.76
478.827	2379.2
479.198	2439.99
479.569	2477.28
479.94	2615.35
480.311	2668.23
480.682	2736.03
481.053	2804.05
481.424	2894.9
481.795	2976.93
482.166	3065.51
482.537	3134.44
482.908	3197.94
483.279	3326.3
483.65	3442.68
484.021	3512.96
484.391	3606.29
484.762	3706.17
485.133	3796.34
485.503	3866.17
485.874	4018.93
486.244	4078.82
486.615	4210.12
486.985	4294.63
487.356	4456.44
487.726	4552.48
488.097	4704.79
488.467	4769.2
488.837	4868.4
489.207	5053.26
489.578	5206.47
489.948	5310.2
490.318	5446.01
490.688	5549.29
491.058	5724.2
491.428	5799.68
491.798	5997.64
492.168	6215.03
492.538	6236.5
492.908	6408.48
493.278	6567.12
493.648	6646.66
494.017	6840.55
494.387	6959.42
494.757	7090.94
495.126	7288.9
495.496	7286.42
495.866	7438.28
496.235	7622.68
496.605	7754.88
496.974	7896.35
497.344	8055.44
497.713	8172.72
498.082	8327.3
498.452	8523.67
498.821	8567.74
499.19	8712.6
499.559	8905.81
499.928	8924.12
500.298	9156.88
500.667	9243.43
501.036	9333.14
501.405	9414.05
501.774	9535.85
502.143	9668.05
502.512	9853.36
502.88	9963.64
503.249	10024.2
503.618	10186.68
503.987	10337.19
504.356	10404.98
504.724	10491.31
505.093	10645.43
505.462	10756.61
505.83	10863.27
506.199	11007.9
506.567	11129.71
506.936	11172.64
507.304	11330.61
507.672	11381.23
508.041	11519.08
508.409	11654.44
508.777	11780.54
509.145	11904.83
509.514	11917.48
509.882	12016.46
510.25	12123.58
510.618	12227.98
510.986	12362.9
511.354	12426.4
511.722	12670.23
512.09	12820.28
512.458	12731.25
512.826	12883.33
513.193	13008.98
513.561	13123.78
513.929	13161.74
514.297	13324
514.664	13382.53
515.032	13495.07
515.4	13588.85
515.767	13683.09
516.135	13791.11
516.502	13726.02
516.869	13927.15
517.237	14035.62
517.604	14117.2
517.972	14223.86
518.339	14303.41
518.706	14332.79
519.073	14356.52
519.44	14491.43
519.808	14728.48
520.175	14629.73
520.542	14848.71
520.909	14932.77
521.276	14916.95
521.643	15029.04
522.009	15213.67
522.376	15255.25
522.743	15372.08
523.11	15523.94
523.477	15663.37
523.843	15702.24
524.21	15881.22
524.577	15942.01
524.943	16000.09
525.31	16015.45
525.676	16159.86
526.043	16297.26
526.409	16297.71
526.776	16524.82
527.142	16532.28
527.508	16622.44
527.874	16724.36
528.241	16720.29
528.607	16762.78
528.973	16953.74
529.339	17038.48
529.705	17158.48
530.071	17189.89
530.437	17210.68
530.803	17312.14
531.169	17375.64
531.535	17375.87
531.901	17447.96
532.267	17455.19
532.632	17649.99
532.998	17529.99
533.364	17656.09
533.73	17759.59
534.095	17811.79
534.461	17833.03
534.826	17863.77
535.192	17938.57
535.557	18085.68
535.923	17982.18
536.288	17982.41
536.653	18115.96
537.019	18054.5
537.384	18123.87
537.749	18137.66
538.114	18129.98
538.479	18231.89
538.845	18268.5
539.21	18149.18
539.575	18308.95
539.94	18324.32
540.305	18328.16
540.67	18296.75
541.034	18359.57
541.399	18420.14
541.764	18432.79
542.129	18445.45
542.494	18473.92
542.858	18492
543.223	18392.57
543.587	18600.25
543.952	18536.07
544.316	18619.23
544.681	18508.95
545.045	18629.17
545.41	18635.95
545.774	18672.56
546.138	18632.33
546.503	18671.2
546.867	18608.61
547.231	18813.35
547.595	18826.45
547.959	18816.96
548.324	18850.63
548.688	18810.86
549.052	18783.74
549.416	18804.76
549.779	18866.45
550.143	18933.34
550.507	18986.68
550.871	18964.98
551.235	18978.09
551.599	19026.22
551.962	19109.84
552.326	19004.08
552.689	19181.93
553.053	18956.39
553.417	19025.54
553.78	19218.08
554.143	19115.94
554.507	19139.89
554.87	19255.37
555.234	19342.6
555.597	19204.3
555.96	19343.28
556.323	19347.12
556.686	19307.35
557.05	19428.92
557.413	19505.76
557.776	19591.86
558.139	19565.64
558.502	19600.22
558.865	19582.37
559.228	19709.82
559.59	19768.35
559.953	19779.65
560.316	19912.98
560.679	19963.6
561.041	20009.25
561.404	20066.2
561.767	20167.66
562.129	20134.22
562.492	20231.39
562.854	20211.28
563.217	20226.64
563.579	20264.16
563.941	20402.46
564.304	20446.07
564.666	20512.06
565.028	20539.4
565.39	20654.88
565.753	20760.87
566.115	20723.81
566.477	20775.56
566.839	20780.08
567.201	20981.65
567.563	20957.25
567.925	20971.93
568.287	20957.02
568.648	21105.94
569.01	21176
569.372	21286.73
569.734	21131.48
570.095	21324.92
570.457	21323.11
570.819	21354.75
571.18	21442.88
571.542	21564.01
571.903	21512.26
572.265	21590.68
572.626	21663.89
572.987	21679.94
573.349	21712.03
573.71	21752.93
574.071	21886.49
574.432	21853.95
574.794	22006.48
575.155	21981.17
575.516	21910.89
575.877	22099.14
576.238	22093.71
576.599	22087.61
576.96	22194.5
577.32	22159.25
577.681	22078.8
578.042	22152.02
578.403	22235.63
578.763	22224.56
579.124	22284.67
579.485	22456.42
579.845	22425.91
580.206	22277.89
580.566	22305.91
580.927	22314.95
581.287	22449.86
581.648	22336.64
582.008	22437.43
582.368	22465.91
582.728	22434.27
583.089	22359.02
583.449	22461.84
583.809	22434.72
584.169	22540.93
584.529	22454.16
584.889	22620.03
585.249	22335.29
585.609	22358.11
585.969	22475.4
586.329	22354.72
586.688	22469.75
587.048	22372.12
587.408	22418.22
587.768	22372.12
588.127	22463.19
588.487	22417.55
588.846	22554.27
589.206	22307.04
589.565	22296.87
589.925	22488.96
590.284	22435.85
590.643	22394.04
591.003	22487.83
591.362	22615.06
591.721	22403.54
592.08	22413.7
592.44	22485.34
592.799	22540.93
593.158	22497.54
593.517	22388.39
593.876	22436.08
594.235	22491.22
594.593	22440.14
594.952	22458.45
595.311	22418.22
595.67	22559.46
596.029	22542.51
596.387	22567.37
596.746	22608.73
597.104	22427.26
597.463	22528.28
597.822	22525.34
598.18	22511.1
598.538	22540.03
598.897	22535.74
599.255	22423.2
599.613	22693.25
599.972	22603.3
600.33	22704.54
600.688	22625
601.046	22659.12
601.404	22682.17
601.762	22771.89
602.12	22702.74
602.478	22843.98
602.836	22728.72
603.194	22606.24
603.552	22662.51
603.91	22704.54
604.268	22838.78
604.625	22766.46
604.983	22779.57
605.341	22635.62
605.698	22790.64
606.056	22764.43
606.413	22737.09
606.771	22792.68
607.128	22964.65
607.485	22822.51
607.843	22760.36
608.2	22992.67
608.557	23059.79
608.914	22950.64
609.272	23059.11
609.629	23195.83
609.986	23148.15
610.343	23031.77
610.7	23244.87
611.057	23200.58
611.414	23180.69
611.771	23211.88
612.127	23345.66
612.484	23374.81
612.841	23379.33
613.198	23337.07
613.554	23217.75
613.911	23543.62
614.267	23513.79
614.624	23461.81
614.98	23513.56
615.337	23612.54
615.693	23613.67
616.05	23589.04
616.406	23646.44
616.762	23563.28
617.118	23642.37
617.475	23608.93
617.831	23654.12
618.187	23688.25
618.543	23761.01
618.899	23869.26
619.255	23794.46
619.611	23695.25
619.967	23806.44
620.323	23901.12
620.678	23760.11
621.034	23872.88
621.39	23853.21
621.746	23742.03
622.101	23937.51
622.457	23904.96
622.812	23971.63
623.168	24005.98
623.523	24060.89
623.879	24026.09
624.234	23905.87
624.589	24051.63
624.945	24057.73
625.3	24016.6
625.655	24082.14
626.01	24068.8
626.365	23991.06
626.72	24008.46
627.075	23923.04
627.43	24095.47
627.785	23919.43
628.14	23976.83
628.495	24064.73
628.85	24024.74
629.205	23977.28
629.559	24013.89
629.914	23966.88
630.269	23993.78
630.623	23969.6
630.978	23833.78
631.332	23982.25
631.687	24076.03
632.041	23904.74
632.396	24004.62
632.75	23914
633.104	23894.57
633.459	23719.43
633.813	23816.61
634.167	23803.05
634.521	23754.91
634.875	23844.63
635.229	23819.09
635.583	23693.44
635.937	23704.29
636.291	23742.71
636.645	23756.72
636.999	23621.13
637.352	23727.12
637.706	23592.66
638.06	23678.3
638.413	23648.7
638.767	23589.27
639.121	23563.96
639.474	23400.8
639.828	23408.25
640.181	23535.93
640.534	23402.6
640.888	23349.73
641.241	23298.43
641.594	23433.79
641.947	23401.25
642.301	23317.18
642.654	23389.27
643.007	23333
643.36	23410.06
643.713	23244.87
644.066	23333.68
644.419	23250.97
644.771	23045.33
645.124	22838.55
645.477	22821.6
645.83	22774.37
646.182	22663.19
646.535	22534.83
646.888	22643.53
647.24	22428.62
647.593	22738.22
647.945	22592.46
648.298	22485.79
648.65	22497.32
649.002	22373.48
649.355	22438.79
649.707	22461.39
650.059	22537.09
650.411	22811.43
650.763	22835.61
651.115	23017.98
651.467	22965.55
651.819	22981.83
652.171	23013.69
652.523	22882.39
652.875	22915.84
653.227	22747.93
653.578	22968.27
653.93	22910.64
654.282	22852.11
654.633	22814.15
654.985	22861.83
655.337	22749.74
655.688	22934.14
656.039	23001.71
656.391	22729.4
656.742	22797.88
657.094	22855.95
657.445	22949.74
657.796	22871.32
658.147	22938.89
658.498	22883.97
658.849	22938.21
659.2	22875.84
659.551	22718.78
659.902	22845.33
660.253	22832
660.604	22941.37
660.955	22902.05
661.306	22958.1
661.656	22745
662.007	22801.04
662.358	22875.39
662.708	22846.91
663.059	22973.24
663.409	22731.44
663.76	22816.41
664.11	22904.31
664.461	22941.6
664.811	22877.42
665.161	22884.65
665.511	22773.92
665.862	22848.04
666.212	22918.1
666.562	22870.87
666.912	22914.93
667.262	22761.27
667.612	22817.76
667.962	22843.75
668.312	22787.03
668.662	22890.08
669.011	22734.83
669.361	22783.86
669.711	22683.08
670.06	22643.08
670.41	22668.16
670.76	22808.5
671.109	22693.02
671.459	22712.91
671.808	22697.09
672.157	22713.58
672.507	22532.35
672.856	22587.71
673.205	22667.48
673.554	22707.71
673.904	22672
674.253	22633.36
674.602	22630.42
674.951	22396.3
675.3	22199.47
675.649	22434.04
675.998	22577.54
676.346	22538.67
676.695	22639.01
677.044	22377.32
677.393	22432.01
677.741	22524.21
678.09	22408.96
678.438	22380.26
678.787	22404.67
679.135	22468.17
679.484	22213.48
679.832	22360.82
680.181	22181.39
680.529	22240.38
680.877	22172.13
681.225	22149.98
681.573	22265.01
681.922	22116.31
682.27	22032.92
682.618	22008.52
682.966	21981.85
683.314	22024.11
683.661	21994.05
684.009	21803.1
684.357	21778.69
684.705	21798.35
685.053	21741.41
685.4	21650.56
685.748	21575.08
686.095	21498.02
686.443	21536.44
686.79	21538.93
687.138	21526.72
687.485	21499.15
687.832	21433.84
688.18	21587.51
688.527	21385.48
688.874	21401.3
689.221	21300.97
689.568	21147.3
689.915	21100.07
690.262	21187.97
690.609	21118.37
690.956	21015.32
691.303	20822.56
691.65	20835.44
691.997	20805.84
692.344	20838.83
692.69	20637.93
693.037	20720.19
693.383	20581.66
693.73	20612.62
694.077	20366.75
694.423	20443.36
694.769	20410.14
695.116	20331.05
695.462	20279.52
695.808	20217.6
696.155	20284.49
696.501	20042.92
696.847	20051.05
697.193	19889.7
697.539	19958.18
697.885	19778.97
698.231	19833.21
698.577	19607.45
698.923	19628.24
699.269	19534.46
699.614	19496.27
699.96	19451.75
700.306	19442.71
700.651	19389.6
700.997	19183.28
701.342	19242.49
701.688	19156.61
702.033	19081.59
702.379	19025.54
702.724	19031.42
703.069	19053.79
703.415	18885.44
703.76	18822.16
704.105	18911.42
704.45	18752.78
704.795	18601.38
705.14	18623.52
705.485	18552.79
705.83	18542.39
706.175	18505.33
706.52	18426.92
706.865	18477.31
707.209	18388.73
707.554	18308.05
707.899	18349.4
708.243	18280.25
708.588	18165
708.932	18027.61
709.277	18060.82
709.621	18023.09
709.966	17893.37
710.31	18019.02
710.654	17834.39
710.998	17800.72
711.342	17823.77
711.687	17782.19
712.031	17675.3
712.375	17622.42
712.719	17620.38
713.063	17544.23
713.407	17582.65
713.75	17417.68
714.094	17545.58
714.438	17430.56
714.782	17460.84
715.125	17354.63
715.469	17410.67
715.812	17299.04
716.156	17174.52
716.499	17232.15
716.843	17179.49
717.186	17091.58
717.53	17134.07
717.873	17098.14
718.216	17131.13
718.559	17119.61
718.902	16955.99
719.246	17007.29
719.589	16966.62
719.932	16825.15
720.275	16895.43
720.617	16866.96
720.96	16920.74
721.303	16813.85
721.646	16863.34
721.989	16730.24
722.331	16804.36
722.674	16836.45
723.016	16768.88
723.359	16602.56
723.701	16710.8
724.044	16679.39
724.386	16582.45
724.729	16590.58
725.071	16584.03
725.413	16598.94
725.755	16572.95
726.097	16622.9
726.439	16445.05
726.782	16364.37
727.124	16530.47
727.465	16398.95
727.807	16374.99
728.149	16380.42
728.491	16335.22
728.833	16325.28
729.175	16341.77
729.516	16293.19
729.858	16318.27
730.199	16278.72
730.541	16230.36
730.882	16277.82
731.224	16271.72
731.565	16094.1
731.906	16239.86
732.248	16123.93
732.589	16159.63
732.93	16160.76
733.271	16108.56
733.612	16136.58
733.953	16178.84
734.294	16100.2
734.635	15960.09
734.976	16062.01
735.317	16005.29
735.658	16052.52
735.999	15990.6
736.339	15975.23
736.68	16058.62
737.021	16010.48
737.361	15976.36
737.702	16060.43
738.042	16000.09
738.383	16021.56
738.723	16097.49
739.063	15948.79
739.404	16024.49
739.744	15998.73
740.084	15902.46
740.424	15986.08
740.764	16000.99
741.104	15909.24
741.444	15914.21
741.784	15951.05
742.124	15930.71
742.464	15970.03
742.804	15939.07
743.143	15942.01
743.483	16060.2
743.823	15959.18
744.162	15969.58
744.502	15975.23
744.841	15956.47
745.181	16067.43
745.52	16066.98
745.86	16057.94
746.199	16107.2
746.538	16072.63
746.877	16162.57
747.216	16117.37
747.556	16182
747.895	16230.59
748.234	16198.05
748.573	16263.13
748.911	16237.37
749.25	16263.81
749.589	16275.11
749.928	16338.84
750.267	16487.98
750.605	16423.13
750.944	16547.19
751.283	16489.34
751.621	16593.97
751.96	16636.46
752.298	16650.92
752.636	16760.07
752.975	16774.76
753.313	16799.39
753.651	16943.79
753.989	16917.8
754.327	17039.38
754.666	16932.72
755.004	17121.87
755.342	17166.84
755.679	17221.98
756.017	17302.43
756.355	17401.18
756.693	17455.19
757.031	17528.41
