Data from hue_140_FLMS001491_00013.txt Node
Date: Tue Feb 07 16:55:29 GMT 2017
User: dcchb
Spectrometer: FLMS00149
Trigger mode: 0
Integration Time (sec): 2.000000E-2
Scans to average: 10
Electric dark correction enabled: true
Nonlinearity correction enabled: false
Boxcar width: 0
XAxis mode: Wavelengths
Number of Pixels in Spectrum: 2048
>>>>>Begin Spectral Data<<<<<
341.393	-16.3
341.776	-16.3
342.16	-16.3
342.543	-46.35
342.927	-62.63
343.31	-69.86
343.693	-75.73
344.077	-70.31
344.46	-48.61
344.843	-42.51
345.226	-21.72
345.61	-49.29
345.993	-1.38
346.376	-4.1
346.759	13.53
347.142	20.99
347.525	52.85
347.908	57.82
348.291	50.14
348.674	85.62
349.057	102.57
349.44	130.59
349.823	147.54
350.206	160.19
350.588	185.05
350.971	211.27
351.354	205.84
351.737	221.43
352.119	250.81
352.502	260.3
352.884	259.85
353.267	286.29
353.65	287.2
354.032	308.89
354.414	287.42
354.797	294.2
355.179	313.18
355.562	335.56
355.944	323.58
356.326	336.69
356.709	326.97
357.091	314.77
357.473	344.37
357.855	329.91
358.238	348.89
358.62	342.34
359.002	330.13
359.384	326.74
359.766	340.3
360.148	330.58
360.53	336.91
360.912	345.5
361.294	334.43
361.676	327.87
362.057	341.88
362.439	335.56
362.821	340.53
363.203	317.93
363.584	320.19
363.966	313.86
364.348	329
364.729	300.98
365.111	309.57
365.493	323.35
365.874	329
366.256	316.12
366.637	317.93
367.019	297.14
367.4	334.2
367.781	293.75
368.163	315.22
368.544	314.99
368.925	316.12
369.306	303.92
369.688	331.94
370.069	316.35
370.45	314.99
370.831	307.99
371.212	325.39
371.593	300.98
371.974	324.03
372.355	309.57
372.736	319.29
373.117	305.73
373.498	301.21
373.879	318.83
374.26	322.68
374.641	308.44
375.021	304.6
375.402	314.77
375.783	328.1
376.163	336.46
376.544	325.39
376.925	317.03
377.305	328.78
377.686	330.81
378.066	328.78
378.447	317.93
378.827	338.27
379.208	355.22
379.588	340.3
379.968	340.75
380.349	326.97
380.729	358.38
381.109	338.72
381.489	351.83
381.87	349.57
382.25	329.45
382.63	336.46
383.01	343.47
383.39	336.91
383.77	361.77
384.15	323.35
384.53	350.47
384.91	340.53
385.29	345.95
385.67	362.45
386.049	363.8
386.429	352.05
386.809	359.74
387.189	338.72
387.568	371.71
387.948	358.15
388.328	358.15
388.707	354.09
389.087	361.09
389.466	373.52
389.846	351.6
390.225	378.94
390.605	376.69
390.984	366.06
391.363	388.44
391.743	371.26
392.122	365.61
392.501	373.52
392.881	366.97
393.26	381.88
393.639	391.83
394.018	359.51
394.397	364.93
394.776	384.37
395.155	371.94
395.534	370.81
395.913	391.6
396.292	392.96
396.671	395.89
397.05	380.98
397.429	380.75
397.808	394.54
398.186	369.45
398.565	404.71
398.944	386.4
399.323	402.22
399.701	413.52
400.08	412.16
400.458	401.77
400.837	392.28
401.215	373.07
401.594	394.54
401.972	395.22
402.351	409.68
402.729	389.34
403.107	411.94
403.486	406.51
403.864	407.64
404.242	409
404.62	436.8
404.999	418.72
405.377	422.79
405.755	416.68
406.133	432.5
406.511	434.99
406.889	429.79
407.267	436.12
407.645	429.56
408.023	435.89
408.401	437.47
408.779	447.42
409.156	459.62
409.534	444.48
409.912	472.28
410.29	460.3
410.667	454.65
411.045	451.71
411.422	462.78
411.8	469.56
412.178	465.72
412.555	475.21
412.933	466.4
413.31	484.25
413.687	487.42
414.065	466.63
414.442	510.47
414.819	504.82
415.197	473.63
415.574	485.83
415.951	490.81
416.328	502.78
416.705	489
417.082	499.62
417.46	518.6
417.837	509.56
418.214	504.82
418.591	519.51
418.967	519.96
419.344	515.44
419.721	505.95
420.098	540.97
420.475	527.87
420.852	523.57
421.228	542.78
421.605	538.26
421.982	537.36
422.358	543.46
422.735	559.05
423.111	541.65
423.488	565.61
423.864	570.58
424.241	565.38
424.617	580.97
424.994	586.17
425.37	576
425.746	581.2
426.123	568.32
426.499	590.01
426.875	601.09
427.251	584.82
427.627	591.37
428.003	606.51
428.379	607.19
428.756	607.64
429.132	636.79
429.507	614.64
429.883	623.23
430.259	629.79
430.635	642.89
431.011	640.41
431.387	650.58
431.763	651.25
432.138	665.94
432.514	654.19
432.89	660.75
433.265	660.07
433.641	674.98
434.016	711.59
434.392	691.25
434.767	706.85
435.143	707.75
435.518	707.52
435.894	709.56
436.269	751.59
436.644	726.05
437.02	722.21
437.395	730.8
437.77	728.31
438.145	737.35
438.52	764.02
438.895	774.87
439.271	757.47
439.646	776.9
440.021	773.06
440.395	783.91
440.77	770.12
441.145	788.65
441.52	799.95
441.895	799.5
442.27	831.36
442.645	831.59
443.019	824.13
443.394	814.19
443.769	818.93
444.143	835.66
444.518	858.71
444.892	840.18
445.267	863.23
445.641	856.9
446.016	855.54
446.39	881.98
446.764	863
447.139	867.75
447.513	852.15
447.887	881.08
448.262	905.26
448.636	893.73
449.01	883.56
449.384	906.84
449.758	912.26
450.132	924.24
450.506	938.03
450.88	925.15
451.254	934.41
451.628	939.16
452.002	942.32
452.376	947.07
452.75	991.36
453.123	985.71
453.497	969.89
453.871	971.25
454.244	1008.76
454.618	1024.8
454.992	1048.76
455.365	1032.71
455.739	1039.94
456.112	1058.93
456.486	1095.99
456.859	1083.79
457.232	1116.55
457.606	1107.06
457.979	1105.48
458.352	1159.26
458.725	1158.36
459.099	1154.07
459.472	1193.84
459.845	1211.92
460.218	1164.23
460.591	1222.09
460.964	1212.37
461.337	1252.82
461.71	1253.95
462.083	1257.11
462.456	1256.44
462.829	1287.4
463.201	1323.1
463.574	1292.59
463.947	1359.26
464.32	1382.31
464.692	1395.19
465.065	1426.37
465.438	1433.38
465.81	1446.49
466.183	1459.37
466.555	1543.21
466.928	1512.93
467.3	1509.76
467.672	1533.72
468.045	1599.25
468.417	1608.74
468.789	1619.14
469.161	1657.78
469.534	1685.8
469.906	1686.48
470.278	1736.88
470.65	1768.06
471.022	1815.07
471.394	1833.14
471.766	1868.4
472.138	1876.98
472.51	1938.45
472.882	1956.08
473.253	1961.73
473.625	2064.55
473.997	2088.28
474.369	2140.03
474.74	2179.35
475.112	2218.22
475.484	2298.44
475.855	2333.02
476.227	2376.41
476.598	2456.4
476.97	2495.27
477.341	2599.9
477.713	2594.93
478.084	2691.88
478.455	2775.49
478.827	2870.4
479.198	2924.87
479.569	2961.25
479.94	3052.55
480.311	3102.72
480.682	3250.51
481.053	3344.06
481.424	3445.08
481.795	3511.74
482.166	3573.89
482.537	3667.45
482.908	3765.75
483.279	3843.26
483.65	3949.92
484.021	4119.64
484.391	4158.96
484.762	4266.3
485.133	4342
485.503	4474.2
485.874	4645.05
486.244	4707.64
486.615	4801.43
486.985	4952.38
487.356	5117.8
487.726	5212.49
488.097	5361.19
488.467	5424.69
488.837	5577.68
489.207	5743.55
489.578	5911.91
489.948	5972.7
490.318	6154.16
490.688	6246.59
491.058	6365.45
491.428	6539.01
491.798	6620.36
492.168	6855.84
492.538	6927.02
492.908	7075.04
493.278	7196.62
493.648	7298.99
494.017	7357.52
494.387	7569.94
494.757	7676.15
495.126	7861.91
495.496	7899.65
495.866	8062.36
496.235	8221
496.605	8257.38
496.974	8387.55
497.344	8539.41
497.713	8687.65
498.082	8745.96
498.452	8858.72
498.821	8991.6
499.19	9065.5
499.559	9191.37
499.928	9266.62
500.298	9396.79
500.667	9465.71
501.036	9525.6
501.405	9662.99
501.774	9713.16
502.143	9869.99
502.512	9881.29
502.88	10025.24
503.249	10107.28
503.618	10187.05
503.987	10249.87
504.356	10392.69
504.724	10429.3
505.093	10465.91
505.462	10590.65
505.83	10644.21
506.199	10767.15
506.567	10910.19
506.936	10918.33
507.304	11079
507.672	11067.25
508.041	11156.97
508.409	11250.75
508.777	11294.59
509.145	11294.14
509.514	11413.91
509.882	11475.15
510.25	11530.06
510.618	11542.27
510.986	11603.06
511.354	11640.34
511.722	11823.16
512.09	11935.93
512.458	11791.98
512.826	11929.15
513.193	11973.44
513.561	11980.22
513.929	12095.7
514.297	12196.04
514.664	12232.42
515.032	12229.93
515.4	12304.28
515.767	12262.93
516.135	12397.39
516.502	12286.2
516.869	12505.41
517.237	12518.29
517.604	12518.06
517.972	12552.64
518.339	12660.88
518.706	12644.61
519.073	12612.97
519.44	12756.25
519.808	12721.22
520.175	12734.33
520.542	12897.94
520.909	12820.2
521.276	12778.39
521.643	12963.47
522.009	13007.77
522.376	13023.58
522.743	13040.98
523.11	13176.57
523.477	13191.72
523.843	13222.9
524.21	13353.07
524.577	13292.28
524.943	13322.33
525.31	13326.4
525.676	13398.04
526.043	13500.41
526.409	13420.86
526.776	13605.94
527.142	13483.69
527.508	13494.76
527.874	13633.74
528.241	13617.01
528.607	13522.55
528.973	13692.72
529.339	13681.19
529.705	13737.92
530.071	13682.78
530.437	13682.55
530.803	13702.44
531.169	13739.05
531.535	13675.54
531.901	13620.63
532.267	13627.41
532.632	13711.48
532.998	13677.8
533.364	13657.92
533.73	13695.88
534.095	13732.49
534.461	13725.26
534.826	13637.13
535.192	13700.85
535.557	13786.5
535.923	13634.64
536.288	13629.9
536.653	13650.91
537.019	13567.3
537.384	13465.38
537.749	13520.75
538.114	13533.18
538.479	13427.42
538.845	13456.57
539.21	13360.3
539.575	13436.68
539.94	13357.81
540.305	13462.22
540.67	13414.99
541.034	13391.48
541.399	13369.79
541.764	13350.81
542.129	13262.9
542.494	13341.54
542.858	13154.43
543.223	13095.67
543.587	13180.42
543.952	13063.81
544.316	13080.76
544.681	13003.47
545.045	13094.77
545.41	13068.55
545.774	12966.86
546.138	12932.29
546.503	12935.22
546.867	12875.11
547.231	12904.72
547.595	12882.57
547.959	12858.62
548.324	12803.93
548.688	12796.47
549.052	12766.42
549.416	12782.23
549.779	12719.19
550.143	12652.52
550.507	12657.49
550.871	12699.52
551.235	12582.24
551.599	12603.71
551.962	12539.53
552.326	12549.7
552.689	12539.98
553.053	12449.14
553.417	12476.93
553.78	12542.47
554.143	12482.13
554.507	12406.43
554.87	12387.89
555.234	12483.71
555.597	12297.28
555.96	12354.68
556.323	12417.27
556.686	12318.52
557.05	12288.91
557.413	12325.98
557.776	12326.88
558.139	12339.08
558.502	12236.94
558.865	12324.85
559.228	12279.65
559.59	12325.52
559.953	12271.29
560.316	12497.72
560.679	12361.68
561.041	12438.97
561.404	12338.18
561.767	12395.35
562.129	12342.7
562.492	12382.02
562.854	12341.34
563.217	12328.01
563.579	12399.42
563.941	12362.81
564.304	12505.86
564.666	12469.25
565.028	12407.56
565.39	12441.23
565.753	12391.28
566.115	12431.28
566.477	12445.29
566.839	12424.73
567.201	12476.71
567.563	12431.74
567.925	12525.52
568.287	12545.4
568.648	12508.12
569.01	12567.32
569.372	12600.77
569.734	12595.12
570.095	12581.79
570.457	12649.58
570.819	12669.24
571.18	12608.23
571.542	12631.73
571.903	12637.15
572.265	12606.42
572.626	12657.49
572.987	12664.95
573.349	12658.17
573.71	12689.58
574.071	12713.99
574.432	12721.9
574.794	12822.23
575.155	12845.06
575.516	12647.32
575.877	12724.16
576.238	12816.36
576.599	12786.53
576.96	12784.04
577.32	12855
577.681	12843.7
578.042	12781.1
578.403	12793.76
578.763	12946.07
579.124	12865.4
579.485	12847.32
579.845	12848
580.206	12803.25
580.566	12774.78
580.927	12838.73
581.287	12858.16
581.648	12782.91
582.008	12864.49
582.368	12854.77
582.728	12748.79
583.089	12799.64
583.449	12772.97
583.809	12835.34
584.169	12819.75
584.529	12735.46
584.889	12856.36
585.249	12771.84
585.609	12628.57
585.969	12680.09
586.329	12713.54
586.688	12775
587.048	12757.38
587.408	12672.41
587.768	12709.24
588.127	12690.94
588.487	12699.07
588.846	12764.16
589.206	12633.09
589.565	12659.98
589.925	12683.03
590.284	12685.97
590.643	12685.97
591.003	12651.62
591.362	12697.04
591.721	12662.01
592.08	12602.8
592.44	12696.59
592.799	12624.95
593.158	12647.32
593.517	12572.52
593.876	12683.93
594.235	12543.37
594.593	12610.26
594.952	12634.22
595.311	12606.19
595.67	12628.57
596.029	12578.62
596.387	12583.6
596.746	12669.24
597.104	12570.04
597.463	12455.92
597.822	12569.36
598.18	12492.3
598.538	12450.04
598.897	12544.5
599.255	12466.31
599.613	12658.17
599.972	12557.83
600.33	12574.1
600.688	12523.48
601.046	12606.87
601.404	12550.83
601.762	12555.35
602.12	12557.83
602.478	12607.78
602.836	12651.39
603.194	12629.24
603.552	12548.12
603.91	12487.78
604.268	12525.29
604.625	12476.03
604.983	12581.34
605.341	12453.2
605.698	12656.36
606.056	12638.28
606.413	12598.96
606.771	12597.15
607.128	12644.84
607.485	12568.91
607.843	12649.36
608.2	12571.62
608.557	12732.29
608.914	12584.27
609.272	12690.03
609.629	12677.38
609.986	12693.65
610.343	12712.86
610.7	12725.29
611.057	12659.07
611.414	12749.92
611.771	12735.46
612.127	12764.38
612.484	12763.25
612.841	12774.33
613.198	12784.49
613.554	12775.23
613.911	12791.95
614.267	12731.61
614.624	12760.31
614.98	12754.21
615.337	12860.42
615.693	12742.91
616.05	12832.63
616.406	12916.92
616.762	12841.22
617.118	12832.63
617.475	12825.62
617.831	12907.65
618.187	12935.9
618.543	12895.9
618.899	12986.97
619.255	13010.7
619.611	13002.79
619.967	13047.31
620.323	12971.61
620.678	12899.97
621.034	12845.06
621.39	13025.39
621.746	12845.74
622.101	13072.17
622.457	12927.09
622.812	12857.26
623.168	13028.78
623.523	13008.22
623.879	12978.84
624.234	12912.17
624.589	13024.04
624.945	13071.72
625.3	13064.49
625.655	12918.95
626.01	12927.32
626.365	12947.65
626.72	12985.62
627.075	12967.54
627.43	12931.84
627.785	12919.63
628.14	12961.21
628.495	12973.87
628.85	13020.42
629.205	12824.49
629.559	12982.68
629.914	12949.46
630.269	12938.16
630.623	12879.86
630.978	12974.55
631.332	12865.4
631.687	12899.97
632.041	12840.31
632.396	12846.64
632.75	12819.75
633.104	12836.7
633.459	12731.61
633.813	12689.13
634.167	12725.74
634.521	12771.84
634.875	12795.57
635.229	12710.15
635.583	12636.02
635.937	12732.74
636.291	12579.98
636.645	12600.32
636.999	12638.51
637.352	12627.66
637.706	12532.52
638.06	12652.97
638.413	12549.92
638.767	12553.09
639.121	12598.51
639.474	12495.24
639.828	12507.67
640.181	12554.9
640.534	12531.85
640.888	12458.4
641.241	12390.83
641.594	12464.28
641.947	12472.64
642.301	12400.1
642.654	12389.48
643.007	12440.55
643.36	12363.26
643.713	12440.32
644.066	12478.74
644.419	12449.36
644.771	12279.2
645.124	12274.23
645.477	12231.97
645.83	12091.86
646.182	12069.71
646.535	12008.02
646.888	12085.76
647.24	11976.61
647.593	12078.98
647.945	12038.3
648.298	12004.18
648.65	11941.8
649.002	11921.47
649.355	11935.25
649.707	11971.86
650.059	11989.04
650.411	12138.64
650.763	12154.23
651.115	12227.22
651.467	12249.82
651.819	12235.36
652.171	12264.73
652.523	12199.65
652.875	12189.26
653.227	12123.95
653.578	12328.01
653.93	12235.81
654.282	12179.76
654.633	12123.72
654.985	12284.39
655.337	12220.22
655.688	12284.39
656.039	12269.03
656.391	12212.31
656.742	12186.54
657.094	12226.77
657.445	12273.77
657.796	12239.42
658.147	12234.23
658.498	12188.35
658.849	12259.08
659.2	12210.27
659.551	12220.89
659.902	12278.07
660.253	12305.18
660.604	12294.34
660.955	12182.48
661.306	12292.08
661.656	12197.17
662.007	12309.03
662.358	12290.72
662.708	12243.04
663.059	12233.1
663.409	12134.57
663.76	12306.54
664.11	12295.92
664.461	12293.21
664.811	12292.76
665.161	12277.16
665.511	12271.29
665.862	12340.66
666.212	12259.08
666.562	12325.75
666.912	12281.23
667.262	12296.15
667.612	12362.58
667.962	12357.16
668.312	12295.02
668.662	12361.91
669.011	12226.54
669.361	12203.94
669.711	12256.37
670.06	12330.95
670.41	12279.2
670.76	12209.37
671.109	12299.54
671.459	12259.76
671.808	12262.7
672.157	12146.55
672.507	12123.72
672.856	12212.76
673.205	12228.12
673.554	12249.59
673.904	12160.56
674.253	12252.53
674.602	12236.71
674.951	12072.87
675.3	11958.75
675.649	12167.79
675.998	12146.77
676.346	12052.76
676.695	12215.7
677.044	12138.64
677.393	12001.69
677.741	12160.1
678.09	11990.84
678.438	12026.32
678.787	12079.88
679.135	12052.99
679.484	12015.93
679.832	12039.2
680.181	11918.3
680.529	11926.66
680.877	11876.04
681.225	11826.78
681.573	11912.65
681.922	11846.44
682.27	11841.24
682.618	11816.61
682.966	11790.85
683.314	11794.24
683.661	11798.76
684.009	11741.58
684.357	11747.46
684.705	11680.12
685.053	11696.84
685.4	11671.98
685.748	11532.78
686.095	11556.5
686.443	11468.82
686.79	11455.72
687.138	11570.74
687.485	11528.71
687.832	11343.85
688.18	11523.51
688.527	11333.01
688.874	11438.99
689.221	11411.2
689.568	11367.13
689.915	11315.83
690.262	11240.13
690.609	11317.64
690.956	11201.03
691.303	11176.4
691.65	11171.66
691.997	11124.88
692.344	10994.26
692.69	11049.62
693.037	11029.74
693.383	10872.45
693.73	10963.53
694.077	10869.97
694.423	10859.57
694.769	10931.44
695.116	10816.64
695.462	10785.9
695.808	10703.65
696.155	10668.62
696.501	10662.06
696.847	10636.75
697.193	10603.76
697.539	10619.58
697.885	10488.96
698.231	10465.01
698.577	10486.93
698.923	10399.25
699.269	10404.22
699.614	10289.64
699.96	10265.46
700.306	10235.18
700.651	10209.65
700.997	10150.89
701.342	10172.59
701.688	10149.54
702.033	10066.83
702.379	10089.2
702.724	10024.57
703.069	10110.44
703.415	9889.88
703.76	9939.37
704.105	9862.31
704.45	9871.8
704.795	9796.55
705.14	9820.73
705.485	9757.46
705.83	9781.41
706.175	9793.39
706.52	9701.19
706.865	9681.3
707.209	9639.72
707.554	9555.43
707.899	9586.61
708.243	9602.88
708.588	9533.05
708.932	9513.62
709.277	9447.41
709.621	9494.86
709.966	9458.03
710.31	9416
710.654	9322.89
710.998	9400.4
711.342	9370.35
711.687	9349.78
712.031	9273.85
712.375	9281.08
712.719	9256.23
713.063	9281.99
713.407	9240.18
713.75	9240.63
714.094	9174.65
714.438	9171.03
714.782	9198.83
715.125	9116.79
715.469	9111.82
715.812	9080.64
716.156	9011.03
716.499	9010.13
716.843	9050.58
717.186	8989.79
717.53	9012.62
717.873	9038.6
718.216	9004.71
718.559	8972.17
718.902	8921.32
719.246	8915.67
719.589	8945.27
719.932	8885.84
720.275	8862.56
720.617	8865.28
720.96	8784.15
721.303	8754.32
721.646	8829.8
721.989	8843.58
722.331	8881.32
722.674	8821.43
723.016	8834.99
723.359	8774.66
723.701	8812.4
724.044	8736.01
724.386	8701.44
724.729	8798.84
725.071	8712.29
725.413	8700.99
725.755	8755.45
726.097	8701.89
726.439	8601.55
726.782	8723.36
727.124	8730.36
727.465	8667.54
727.807	8657.15
728.149	8665.51
728.491	8622.12
728.833	8665.73
729.175	8624.6
729.516	8617.82
729.858	8619.41
730.199	8663.92
730.541	8592.74
730.882	8598.62
731.224	8673.64
731.565	8625.28
731.906	8556.13
732.248	8615.34
732.589	8561.33
732.93	8591.84
733.271	8546.19
733.612	8537.6
733.953	8507.77
734.294	8590.93
734.635	8542.12
734.976	8538.5
735.317	8478.17
735.658	8533.31
735.999	8542.8
736.339	8553.87
736.68	8575.34
737.021	8562.68
737.361	8493.99
737.702	8592.29
738.042	8523.36
738.383	8597.71
738.723	8587.09
739.063	8576.92
739.404	8582.8
739.744	8637.03
740.084	8594.77
740.424	8625.28
740.764	8696.24
741.104	8661.66
741.444	8715.67
741.784	8638.39
742.124	8700.76
742.464	8647.88
742.804	8741.21
743.143	8730.82
743.483	8845.61
743.823	8784.15
744.162	8753.19
744.502	8908.66
744.841	8861.43
745.181	8931.49
745.52	8912.73
745.86	8922.9
746.199	8962.67
746.538	9006.97
746.877	9040.19
747.216	9115.89
747.556	9092.39
747.895	9201.09
748.234	9206.96
748.573	9269.78
748.911	9255.77
749.25	9358.82
749.589	9354.08
749.928	9499.83
750.267	9531.25
750.605	9587.29
750.944	9688.53
751.283	9726.72
751.621	9839.49
751.96	9811.92
752.298	9947.28
752.636	10068.63
752.975	10113.6
753.313	10140.72
753.651	10381.62
753.989	10433.82
754.327	10422.97
754.666	10572.8
755.004	10764.43
755.342	10916.75
755.679	10984.32
756.017	11099.57
756.355	11200.13
756.693	11304.08
757.031	11510.86
757.368	11646.22
757.706	11715.6
758.044	11860.45
758.381	12022.93
758.719	12107.45
759.056	12396.48
759.394	12520.32
