Data from hue_170_FLMS001491_00043.txt Node
Date: Tue Feb 07 16:48:44 GMT 2017
User: dcchb
Spectrometer: FLMS00149
Trigger mode: 0
Integration Time (sec): 2.000000E-2
Scans to average: 10
Electric dark correction enabled: true
Nonlinearity correction enabled: false
Boxcar width: 0
XAxis mode: Wavelengths
Number of Pixels in Spectrum: 2048
>>>>>Begin Spectral Data<<<<<
341.393	8.19
341.776	8.19
342.16	8.19
342.543	-60.51
342.927	-81.98
343.31	-67.96
343.693	-64.12
344.077	-65.48
344.46	-50.56
344.843	-53.28
345.226	-29.77
345.61	-45.37
345.993	-33.16
346.376	1.64
346.759	12.94
347.142	15.42
347.525	22.88
347.908	63.11
348.291	103.56
348.674	80.51
349.057	109.66
349.44	106.72
349.823	155.08
350.206	152.82
350.588	198.92
350.971	176.78
351.354	236.43
351.737	245.47
352.119	233.27
352.502	269.65
352.884	266.94
353.267	291.12
353.65	290.67
354.032	298.58
354.414	305.81
354.797	310.78
355.179	306.94
355.562	322.99
355.944	326.38
356.326	334.06
356.709	346.26
357.091	321.63
357.473	352.14
357.855	322.76
358.238	329.09
358.62	319.82
359.002	325.47
359.384	353.49
359.766	344.45
360.148	329.54
360.53	332.7
360.912	327.51
361.294	335.19
361.676	347.17
362.057	337.9
362.439	345.81
362.821	323.44
363.203	326.6
363.584	341.97
363.966	326.83
364.348	327.96
364.729	320.05
365.111	335.19
365.493	318.01
365.874	309.65
366.256	309.65
366.637	301.74
367.019	299.94
367.4	316.43
367.781	319.14
368.163	301.74
368.544	309.2
368.925	307.85
369.306	324.79
369.688	316.66
370.069	308.3
370.45	313.72
370.831	305.81
371.212	317.11
371.593	300.61
371.974	310.78
372.355	308.07
372.736	317.79
373.117	302.2
373.498	305.81
373.879	313.27
374.26	292.03
374.641	321.63
375.021	280.28
375.402	316.21
375.783	332.7
376.163	339.26
376.544	332.25
376.925	325.47
377.305	323.21
377.686	339.93
378.066	309.88
378.447	337.67
378.827	332.93
379.208	346.71
379.588	344.23
379.968	340.39
380.349	350.33
380.729	343.1
381.109	344.91
381.489	342.65
381.87	326.38
382.25	334.51
382.63	326.6
383.01	349.88
383.39	349.88
383.77	337.45
384.15	345.13
384.53	330.67
384.91	336.54
385.29	356.21
385.67	351.46
386.049	354.85
386.429	366.83
386.809	364.79
387.189	370.89
387.568	365.47
387.948	342.87
388.328	356.88
388.707	373.83
389.087	342.42
389.466	380.16
389.846	353.49
390.225	375.19
390.605	379.71
390.984	361.85
391.363	375.19
391.743	390.55
392.122	383.32
392.501	376.77
392.881	384
393.26	396.43
393.639	398.92
394.018	384.68
394.397	384
394.776	388.97
395.155	381.74
395.534	380.39
395.913	396.88
396.292	395.3
396.671	390.1
397.05	383.1
397.429	396.88
397.808	403.89
398.186	400.05
398.565	374.96
398.944	413.6
399.323	409.31
399.701	383.78
400.08	413.6
400.458	388.52
400.837	417.9
401.215	431.46
401.594	396.88
401.972	414.06
402.351	423.77
402.729	428.75
403.107	433.04
403.486	427.39
403.864	418.12
404.242	436.43
404.62	405.02
404.999	448.63
405.377	431.01
405.755	450.89
406.133	443.21
406.511	431.91
406.889	454.06
407.267	442.76
407.645	465.81
408.023	463.55
408.401	467.84
408.779	460.16
409.156	482.08
409.534	474.85
409.912	480.72
410.29	487.5
410.667	508.07
411.045	499.25
411.422	513.49
411.8	496.31
412.178	518.69
412.555	510.1
412.933	524.11
413.31	504.68
413.687	540.16
414.065	554.39
414.442	532.47
414.819	541.51
415.197	575.86
415.574	546.93
415.951	553.26
416.328	572.7
416.705	584.22
417.082	590.1
417.46	595.75
417.837	591
418.214	598.68
418.591	583.54
418.967	570.66
419.344	606.14
419.721	616.31
420.098	631
420.475	629.64
420.852	640.27
421.228	614.96
421.605	654.95
421.982	634.84
422.358	667.16
422.735	660.15
423.111	669.42
423.488	700.83
423.864	687.5
424.241	698.8
424.617	701.96
424.994	715.74
425.37	712.13
425.746	711.9
426.123	706.93
426.499	726.37
426.875	721.85
427.251	740.38
427.627	750.09
428.003	763.65
428.379	769.08
428.756	780.15
429.132	770.21
429.507	780.37
429.883	779.7
430.259	808.62
430.635	787.15
431.011	816.08
431.387	844.55
431.763	861.28
432.138	843.2
432.514	867.38
432.89	871.67
433.265	863.99
433.641	903.31
434.016	905.8
434.392	899.24
434.767	934.95
435.143	928.39
435.518	950.09
435.894	982.86
436.269	971.1
436.644	985.12
437.02	998.22
437.395	965.23
437.77	1014.27
438.145	1007.49
438.52	1040.93
438.895	1075.73
439.271	1066.02
439.646	1095.85
440.021	1080.25
440.395	1099.69
440.77	1098.56
441.145	1129.52
441.52	1131.33
441.895	1151.44
442.27	1149.18
442.645	1168.84
443.019	1155.28
443.394	1180.59
443.769	1188.95
444.143	1188.27
444.518	1202.96
444.892	1181.27
445.267	1206.35
445.641	1235.28
446.016	1211.55
446.39	1244.54
446.764	1260.81
447.139	1237.54
447.513	1273.47
447.887	1277.54
448.262	1280.93
448.636	1291.1
449.01	1322.06
449.384	1333.35
449.758	1300.81
450.132	1317.54
450.506	1367.48
450.88	1367.25
451.254	1392.34
451.628	1398.66
452.002	1423.97
452.376	1417.87
452.75	1405.9
453.123	1469.85
453.497	1455.39
453.871	1470.07
454.244	1509.62
454.618	1517.08
454.992	1525.21
455.365	1529.28
455.739	1577.87
456.112	1605.89
456.486	1585.55
456.859	1635.27
457.232	1639.11
457.606	1653.35
457.979	1666.23
458.352	1694.93
458.725	1715.49
459.099	1748.26
459.472	1761.14
459.845	1764.98
460.218	1804.53
460.591	1804.98
460.964	1836.84
461.337	1882.72
461.71	1882.94
462.083	1938.54
462.456	1985.99
462.829	1954.13
463.201	1995.03
463.574	2008.82
463.947	2024.64
464.32	2110.06
464.692	2134.92
465.065	2157.29
465.438	2164.75
465.81	2194.8
466.183	2231.64
466.555	2242.94
466.928	2281.35
467.3	2292.65
467.672	2336.04
468.045	2413.78
468.417	2435.92
468.789	2459.65
469.161	2519.31
469.534	2540.55
469.906	2591.85
470.278	2631.4
470.65	2652.87
471.022	2720.66
471.394	2789.14
471.766	2819.19
472.138	2862.81
472.51	2878.85
472.882	2986.64
473.253	3016.25
473.625	3072.97
473.997	3125.62
474.369	3183.48
474.74	3280.42
475.112	3334.43
475.484	3427.76
475.855	3471.15
476.227	3475.67
476.598	3648.77
476.97	3691.94
477.341	3808.09
477.713	3885.83
478.084	3931.93
478.455	4066.84
478.827	4104.13
479.198	4285.14
479.569	4259.38
479.94	4392.26
480.311	4525.36
480.682	4607.17
481.053	4763.55
481.424	4840.38
481.795	4919.02
482.166	5088.51
482.537	5118.57
482.908	5322.4
483.279	5368.05
483.65	5509.29
484.021	5649.17
484.391	5764.65
484.762	5872.44
485.133	5927.36
485.503	6067.47
485.874	6205.32
486.244	6328.93
486.615	6423.16
486.985	6550.84
487.356	6719.2
487.726	6836.03
488.097	7026.09
488.467	7036.93
488.837	7282.35
489.207	7395.79
489.578	7471.95
489.948	7593.53
490.318	7801.43
490.688	7863.58
491.058	7975.67
491.428	8190.8
491.798	8235.09
492.168	8470.79
492.538	8564.13
492.908	8711.47
493.278	8855.19
493.648	8932.25
494.017	9046.37
494.387	9147.16
494.757	9285.24
495.126	9353.71
495.496	9402.97
495.866	9562.52
496.235	9621.72
496.605	9728.16
496.974	9924.09
497.344	9890.42
497.713	10006.35
498.082	10140.58
498.452	10230.52
498.821	10327.24
499.19	10379.22
499.559	10488.14
499.928	10570.63
500.298	10625.54
500.667	10786.67
501.036	10750.06
501.405	10889.94
501.774	10951.86
502.143	11029.37
502.512	11080.9
502.88	11235.47
503.249	11203.38
503.618	11294.67
503.987	11325.18
504.356	11386.88
504.724	11448.57
505.093	11478.62
505.462	11610.37
505.83	11588.68
506.199	11724.49
506.567	11875.68
506.936	11725.85
507.304	12086.07
507.672	11993.41
508.041	12013.07
508.409	12132.17
508.777	12218.27
509.145	12280.41
509.514	12168.78
509.882	12297.36
510.25	12286.29
510.618	12405.38
510.986	12349.34
511.354	12474.3
511.722	12576.9
512.09	12638.59
512.458	12650.12
512.826	12695.54
513.193	12747.07
513.561	12756.56
513.929	12751.36
514.297	12930.79
514.664	12891.02
515.032	12951.35
515.4	12995.42
515.767	13003.78
516.135	13050.79
516.502	12900.06
516.869	13256.43
517.237	13124.46
517.604	13054.63
517.972	13262.53
518.339	13219.6
518.706	13223.89
519.073	13244
519.44	13281.06
519.808	13473.83
520.175	13309.09
520.542	13472.24
520.909	13466.6
521.276	13520.6
521.643	13491.91
522.009	13447.61
522.376	13631.56
522.743	13548.85
523.11	13656.87
523.477	13714.05
523.843	13720.15
524.21	13864.55
524.577	13852.35
524.943	13808.96
525.31	13846.02
525.676	13863.19
526.043	13942.06
526.409	13933.02
526.776	14034.26
527.142	14019.57
527.508	14037.65
527.874	14022.29
528.241	14057.09
528.607	14034.94
528.973	14127.59
529.339	14043.08
529.705	14214.15
530.071	14133.47
530.437	14210.08
530.803	14161.04
531.169	14155.16
531.535	14100.25
531.901	14093.7
532.267	14102.06
532.632	14112.68
532.998	14047.37
533.364	14164.2
533.73	14039.46
534.095	14122.4
534.461	14013.47
534.826	14095.73
535.192	14087.6
535.557	14093.02
535.923	14046.01
536.288	14013.25
536.653	14047.6
537.019	13878.11
537.384	13887.6
537.749	13980.93
538.114	13888.5
538.479	13768.51
538.845	13864.78
539.21	13705.46
539.575	13783.2
539.94	13699.13
540.305	13759.02
540.67	13729.64
541.034	13630.66
541.399	13647.83
541.764	13549.53
542.129	13584.33
542.494	13580.49
542.858	13484.22
543.223	13457.33
543.587	13422.53
543.952	13352.02
544.316	13397.9
544.681	13378.46
545.045	13387.95
545.41	13212.36
545.774	13287.16
546.138	13248.52
546.503	13208.07
546.867	13171.24
547.231	13152.25
547.595	13113.61
547.959	13083.33
548.324	12967.17
548.688	13021.41
549.052	13030.45
549.416	12919.04
549.779	12944.12
550.143	12794.52
550.507	12912.26
550.871	12755.65
551.235	12728.76
551.599	12802.66
551.962	12775.99
552.326	12684.24
552.689	12707.74
553.053	12688.76
553.417	12572.16
553.78	12670.46
554.143	12537.81
554.507	12567.64
554.87	12532.83
555.234	12665.94
555.597	12469.79
555.96	12519.28
556.323	12470.46
556.686	12506.39
557.05	12532.61
557.413	12409.9
557.776	12461.2
558.139	12470.24
558.502	12354.53
558.865	12383.01
559.228	12341.65
559.59	12415.32
559.953	12371.26
560.316	12470.01
560.679	12445.38
561.041	12379.39
561.404	12411.93
561.767	12451.93
562.129	12386.17
562.492	12424.14
562.854	12464.59
563.217	12394.53
563.579	12353.86
563.941	12457.13
564.304	12475.89
564.666	12419.16
565.028	12537.81
565.39	12502.78
565.753	12478.37
566.115	12500.52
566.477	12503.46
566.839	12484.25
567.201	12595.21
567.563	12489.9
567.925	12535.32
568.287	12614.41
568.648	12582.1
569.01	12596.79
569.372	12644.47
569.734	12498.94
570.095	12702.1
570.457	12640.18
570.819	12632.04
571.18	12721.76
571.542	12710
571.903	12611.48
572.265	12672.27
572.626	12654.41
572.987	12697.8
573.349	12691.02
573.71	12717.46
574.071	12712.72
574.432	12746.16
574.794	12818.25
575.155	12760.62
575.516	12778.93
575.877	12764.47
576.238	12807.63
576.599	12780.74
576.96	12801.98
577.32	12809.89
577.681	12812.37
578.042	12861.19
578.403	12844.69
578.763	12883.56
579.124	12822.54
579.485	12804.92
579.845	12870.45
580.206	12735.77
580.566	12782.09
580.927	12768.08
581.287	12818.93
581.648	12866.84
582.008	12819.61
582.368	12805.14
582.728	12830
583.089	12781.64
583.449	12753.39
583.809	12750
584.169	12783.45
584.529	12740.06
584.889	12880.62
585.249	12763.11
585.609	12693.51
585.969	12757.24
586.329	12716.56
586.688	12731.7
587.048	12660.74
587.408	12720.63
587.768	12651.48
588.127	12565.15
588.487	12620.52
588.846	12707.74
589.206	12654.19
589.565	12585.26
589.925	12680.4
590.284	12561.31
590.643	12601.53
591.003	12580.06
591.362	12634.53
591.721	12634.75
592.08	12580.97
592.44	12644.47
592.799	12666.84
593.158	12541.2
593.517	12558.37
593.876	12590.91
594.235	12539.39
594.593	12515.21
594.952	12535.55
595.311	12512.27
595.67	12511.14
596.029	12610.57
596.387	12529.67
596.746	12547.3
597.104	12449.9
597.463	12442.22
597.822	12546.39
598.18	12467.3
598.538	12441.31
598.897	12580.52
599.255	12345.95
599.613	12555.43
599.972	12532.61
600.33	12467.07
600.688	12442.22
601.046	12444.02
601.404	12612.38
601.762	12550.23
602.12	12585.94
602.478	12538.26
602.836	12525.6
603.194	12485.6
603.552	12512.27
603.91	12467.98
604.268	12511.14
604.625	12474.3
604.983	12443.8
605.341	12387.75
605.698	12498.71
606.056	12452.84
606.413	12551.59
606.771	12526.96
607.128	12583.91
607.485	12506.62
607.843	12473.85
608.2	12446.73
608.557	12550.01
608.914	12504.13
609.272	12556.79
609.629	12593.17
609.986	12605.83
610.343	12516.79
610.7	12677.46
611.057	12650.12
611.414	12628.65
611.771	12623.23
612.127	12694.19
612.484	12657.8
612.841	12642.21
613.198	12680.4
613.554	12637.46
613.911	12674.07
614.267	12619.16
614.624	12648.99
614.98	12609.89
615.337	12733.51
615.693	12768.76
616.05	12719.95
616.406	12751.81
616.762	12843.56
617.118	12730.34
617.475	12683.34
617.831	12717.91
618.187	12858.25
618.543	12803.56
618.899	12898.25
619.255	12730.8
619.611	12746.39
619.967	12821.64
620.323	12769.66
620.678	12803.79
621.034	12815.31
621.39	12799.27
621.746	12770.12
622.101	12968.98
622.457	12780.96
622.812	12888.31
623.168	12784.35
623.523	12809.66
623.879	12854.18
624.234	12780.96
624.589	12802.66
624.945	12858.02
625.3	12848.31
625.655	12801.08
626.01	12870.68
626.365	12875.2
626.72	12848.98
627.075	12810.12
627.43	12745.71
627.785	12788.19
628.14	12896.44
628.495	12802.88
628.85	12773.96
629.205	12739.83
629.559	12841.07
629.914	12728.76
630.269	12661.64
630.623	12795.43
630.978	12670.23
631.332	12793.17
631.687	12726.73
632.041	12658.93
632.396	12700.97
632.75	12658.48
633.104	12592.27
633.459	12524.7
633.813	12584.58
634.167	12590.69
634.521	12563.79
634.875	12546.17
635.229	12545.04
635.583	12504.81
635.937	12542.1
636.291	12480.86
636.645	12485.83
636.999	12435.66
637.352	12502.1
637.706	12429.11
638.06	12398.83
638.413	12305.72
638.767	12349.79
639.121	12334.65
639.474	12355.89
639.828	12316.57
640.181	12247.87
640.534	12303.46
640.888	12275.67
641.241	12265.95
641.594	12283.35
641.947	12316.79
642.301	12272.95
642.654	12274.08
643.007	12312.95
643.36	12216.01
643.713	12238.38
644.066	12289
644.419	12141.66
644.771	12131.04
645.124	12034.09
645.477	12014.88
645.83	11967.43
646.182	11929.46
646.535	11834.55
646.888	11840.2
647.24	11760.2
647.593	11891.95
647.945	11853.76
648.298	11842.01
648.65	11769.46
649.002	11744.83
649.355	11820.08
649.707	11786.41
650.059	11918.16
650.411	11991.38
650.763	12047.42
651.115	12284.03
651.467	12105.05
651.819	12147.99
652.171	12118.38
652.523	12014.88
652.875	12024.15
653.227	11997.71
653.578	12093.75
653.93	12030.7
654.282	11979.85
654.633	12056.01
654.985	12053.3
655.337	11964.94
655.688	12149.34
656.039	12018.27
656.391	11946.86
656.742	12067.99
657.094	12077.71
657.445	12030.7
657.796	12022.57
658.147	12061.21
658.498	12026.18
658.849	12092.17
659.2	12034.32
659.551	12053.3
659.902	12112.96
660.253	12014.43
660.604	12069.8
660.955	11996.13
661.306	12145.95
661.656	12118.38
662.007	12063.24
662.358	12152.28
662.708	12034.99
663.059	12055.33
663.409	12021.66
663.76	12140.53
664.11	12061.21
664.461	12154.31
664.811	12158.15
665.161	12094.43
665.511	12007.65
665.862	12068.67
666.212	12087.87
666.562	12121.77
666.912	12110.25
667.262	12084.26
667.612	12094.2
667.962	12152.51
668.312	12034.77
668.662	12204.26
669.011	12070.25
669.361	12090.81
669.711	12054.2
670.06	12054.43
670.41	12080.42
670.76	12042
671.109	12164.26
671.459	12049.68
671.808	12050.81
672.157	12128.33
672.507	12018.27
672.856	11976.01
673.205	12023.92
673.554	12119.51
673.904	12048.33
674.253	12061.89
674.602	11990.25
674.951	11855.11
675.3	11846.98
675.649	11933.98
675.998	11918.16
676.346	11926.3
676.695	11951.38
677.044	11805.85
677.393	11892.63
677.741	12004.26
678.09	11889.01
678.438	11912.51
678.787	11841.55
679.135	11875
679.484	11807.88
679.832	11865.28
680.181	11758.17
680.529	11773.53
680.877	11676.59
681.225	11754.78
681.573	11726.75
681.922	11659.86
682.27	11654.44
682.618	11665.96
682.966	11572.86
683.314	11658.73
683.661	11549.36
684.009	11518.62
684.357	11536.25
684.705	11491.51
685.053	11486.08
685.4	11441.56
685.748	11425.29
686.095	11387.78
686.443	11394.56
686.79	11353.88
687.138	11313.43
687.485	11275.92
687.832	11268.69
688.18	11238.18
688.527	11251.51
688.874	11152.98
689.221	11214.9
689.568	11061.46
689.915	11084.06
690.262	11102.36
690.609	11091.97
690.956	11074.79
691.303	11012.65
691.65	10891.07
691.997	10908.24
692.344	10850.39
692.69	10905.53
693.037	10802.26
693.383	10719.1
693.73	10789.6
694.077	10669.61
694.423	10748.7
694.769	10607.91
695.116	10613.34
695.462	10622.83
695.808	10540.12
696.155	10513.68
696.501	10503.28
696.847	10481.81
697.193	10352.1
697.539	10387.35
697.885	10337.41
698.231	10291.99
698.577	10269.84
698.923	10312.33
699.269	10244.98
699.614	10126.12
699.96	10040.47
700.306	10122.28
700.651	9976.07
700.997	9993.24
701.342	9977.42
701.688	9956.18
702.033	9933.58
702.379	9930.19
702.724	9833.7
703.069	9916.41
703.415	9761.61
703.76	9743.3
704.105	9733.81
704.45	9737.2
704.795	9597.32
705.14	9601.84
705.485	9611.78
705.83	9500.37
706.175	9506.25
706.52	9558.9
706.865	9480.94
707.209	9428.06
707.554	9398.45
707.899	9385.8
708.243	9335.86
708.588	9341.05
708.932	9277.33
709.277	9261.28
709.621	9266.25
709.966	9188.29
710.31	9141.06
710.654	9191.23
710.998	9142.41
711.342	9153.26
711.687	9082.76
712.031	9096.77
712.375	9066.48
712.719	9074.62
713.063	9083.43
713.407	9083.89
713.75	9014.28
714.094	9035.75
714.438	8957.56
714.782	8936.77
715.125	8911.91
715.469	8877.79
715.812	8838.24
716.156	8756.44
716.499	8835.08
716.843	8882.53
717.186	8819.49
717.53	8854.51
717.873	8801.63
718.216	8828.75
718.559	8818.58
718.902	8706.72
719.246	8749.66
719.589	8647.51
719.932	8650.68
720.275	8698.58
720.617	8632.37
720.96	8706.95
721.303	8656.78
721.646	8625.14
721.989	8598.02
722.331	8656.33
722.674	8569.77
723.016	8590.79
723.359	8604.12
723.701	8607.29
724.044	8547.4
724.386	8468.08
724.729	8556.89
725.071	8503.79
725.413	8562.54
725.755	8533.84
726.097	8558.25
726.439	8503.79
726.782	8467.63
727.124	8597.57
727.465	8466.27
727.807	8518.25
728.149	8457.91
728.491	8482.77
728.833	8462.43
729.175	8482.55
729.516	8487.52
729.858	8475.77
730.199	8465.14
730.541	8453.62
730.882	8502.66
731.224	8463.11
731.565	8434.64
731.906	8430.57
732.248	8482.77
732.589	8456.11
732.93	8337.46
733.271	8394.41
733.612	8460.62
733.953	8449.55
734.294	8470.12
734.635	8412.04
734.976	8412.94
735.317	8377.69
735.658	8480.74
735.999	8364.36
736.339	8381.98
736.68	8528.87
737.021	8405.49
737.361	8397.8
737.702	8452.04
738.042	8415.2
738.383	8518.93
738.723	8474.64
739.063	8435.09
739.404	8465.14
739.744	8452.49
740.084	8444.81
740.424	8529.55
740.764	8573.62
741.104	8541.3
741.444	8490.68
741.784	8525.26
742.124	8579.49
742.464	8662.88
742.804	8601.19
743.143	8609.1
743.483	8691.58
743.823	8657.23
744.162	8647.74
744.502	8758.24
744.841	8730.67
745.181	8727.51
745.52	8797.34
745.86	8841.86
746.199	8807.06
746.538	8877.56
746.877	8942.19
747.216	8986.94
747.556	9025.58
747.895	9048.18
748.234	9130.66
748.573	9159.36
748.911	9183.09
749.25	9217.44
749.589	9346.03
749.928	9443.88
750.267	9573.14
750.605	9548.51
750.944	9621.72
751.283	9636.41
751.621	9746.01
751.96	9828.72
752.298	9951.21
752.636	10018.1
752.975	10052.9
753.313	10180.13
753.651	10223.97
753.989	10312.33
754.327	10458.54
754.666	10538.99
755.004	10644.97
755.342	10868.7
755.679	10991.86
756.017	11074.12
756.355	11220.78
756.693	11308.69
757.031	11451.96
757.368	11555.01
757.706	11734.44
758.044	11944.6
758.381	12042.9
